Data from NickelSpatula.Lamp.E5.5.P2_HRD10591_11-51-13-562.txt Node
Date: Tue Jul 23 11:51:13 EDT 2019
User: cochatt
Spectrometer: HR+D1059
Trigger mode: 1
Integration Time (sec): 1.000000E-1
Scans to average: 1
Electric dark correction enabled: true
Nonlinearity correction enabled: false
Boxcar width: 0
XAxis mode: Wavelengths
Number of Pixels in Spectrum: 2048
>>>>>Begin Spectral Data<<<<<
223.165	-11.94
223.4	-11.94
223.635	-11.94
223.869	-20.94
224.104	-25.94
224.338	-6.94
224.573	-18.94
224.808	-1.94
225.042	-1.94
225.277	-15.94
225.511	-11.94
225.746	8.06
225.98	2.06
226.215	21.06
226.449	17.06
226.683	23.06
226.918	16.06
227.152	29.06
227.387	30.06
227.621	25.06
227.856	38.06
228.09	62.06
228.324	35.06
228.559	63.06
228.793	63.06
229.027	68.06
229.262	69.06
229.496	85.06
229.73	81.06
229.964	92.06
230.199	94.06
230.433	90.06
230.667	88.06
230.901	93.06
231.136	73.06
231.37	97.06
231.604	79.06
231.838	97.06
232.072	102.06
232.306	97.06
232.541	104.06
232.775	108.06
233.009	99.06
233.243	109.06
233.477	105.06
233.711	102.06
233.945	99.06
234.179	104.06
234.413	113.06
234.647	110.06
234.881	129.06
235.115	129.06
235.349	108.06
235.583	114.06
235.817	111.06
236.051	113.06
236.285	120.06
236.519	119.06
236.753	110.06
236.987	130.06
237.221	120.06
237.455	113.06
237.689	127.06
237.922	114.06
238.156	121.06
238.39	145.06
238.624	153.06
238.858	135.06
239.091	149.06
239.325	133.06
239.559	115.06
239.793	126.06
240.027	167.06
240.26	139.06
240.494	138.06
240.728	146.06
240.961	159.06
241.195	161.06
241.429	149.06
241.662	144.06
241.896	140.06
242.13	137.06
242.363	123.06
242.597	125.06
242.83	146.06
243.064	121.06
243.298	143.06
243.531	165.06
243.765	163.06
243.998	160.06
244.232	151.06
244.465	150.06
244.699	143.06
244.932	167.06
245.166	150.06
245.399	146.06
245.633	139.06
245.866	152.06
246.099	137.06
246.333	160.06
246.566	177.06
246.8	164.06
247.033	170.06
247.266	165.06
247.5	155.06
247.733	149.06
247.966	141.06
248.2	153.06
248.433	161.06
248.666	176.06
248.899	166.06
249.133	182.06
249.366	197.06
249.599	198.06
249.832	196.06
250.066	191.06
250.299	179.06
250.532	194.06
250.765	183.06
250.998	164.06
251.231	167.06
251.465	177.06
251.698	169.06
251.931	175.06
252.164	172.06
252.397	193.06
252.63	211.06
252.863	223.06
253.096	241.06
253.329	210.06
253.562	194.06
253.795	234.06
254.028	251.06
254.261	245.06
254.494	221.06
254.727	203.06
254.96	209.06
255.193	242.06
255.426	219.06
255.659	183.06
255.892	189.06
256.124	187.06
256.357	217.06
256.59	252.06
256.823	228.06
257.056	213.06
257.289	192.06
257.521	194.06
257.754	238.06
257.987	269.06
258.22	224.06
258.452	201.06
258.685	227.06
258.918	253.06
259.151	249.06
259.383	254.06
259.616	290.06
259.849	299.06
260.081	311.06
260.314	326.06
260.547	274.06
260.779	296.06
261.012	343.06
261.244	307.06
261.477	304.06
261.71	281.06
261.942	256.06
262.175	245.06
262.407	239.06
262.64	239.06
262.872	289.06
263.105	287.06
263.337	313.06
263.57	296.06
263.802	217.06
264.035	200.06
264.267	195.06
264.499	187.06
264.732	184.06
264.964	149.06
265.197	189.06
265.429	168.06
265.661	183.06
265.894	200.06
266.126	198.06
266.358	207.06
266.591	253.06
266.823	282.06
267.055	257.06
267.287	237.06
267.52	251.06
267.752	269.06
267.984	289.06
268.216	287.06
268.448	221.06
268.681	218.06
268.913	219.06
269.145	269.06
269.377	276.06
269.609	269.06
269.841	257.06
270.073	255.06
270.306	263.06
270.538	272.06
270.77	264.06
271.002	276.06
271.234	288.06
271.466	290.06
271.698	280.06
271.93	243.06
272.162	275.06
272.394	263.06
272.626	265.06
272.858	287.06
273.09	294.06
273.322	246.06
273.553	227.06
273.785	271.06
274.017	301.06
274.249	411.06
274.481	396.06
274.713	440.06
274.945	488.06
275.176	497.06
275.408	446.06
275.64	439.06
275.872	420.06
276.104	380.06
276.335	326.06
276.567	337.06
276.799	331.06
277.031	363.06
277.262	289.06
277.494	249.06
277.726	236.06
277.957	262.06
278.189	294.06
278.421	276.06
278.652	277.06
278.884	251.06
279.115	248.06
279.347	238.06
279.579	263.06
279.81	238.06
280.042	240.06
280.273	256.06
280.505	244.06
280.736	230.06
280.968	226.06
281.199	223.06
281.431	256.06
281.662	243.06
281.894	256.06
282.125	252.06
282.356	281.06
282.588	264.06
282.819	253.06
283.051	268.06
283.282	309.06
283.513	324.06
283.745	385.06
283.976	373.06
284.207	346.06
284.439	375.06
284.67	359.06
284.901	324.06
285.132	365.06
285.364	355.06
285.595	341.06
285.826	368.06
286.057	356.06
286.288	363.06
286.52	363.06
286.751	376.06
286.982	372.06
287.213	329.06
287.444	328.06
287.675	329.06
287.906	342.06
288.138	299.06
288.369	276.06
288.6	273.06
288.831	280.06
289.062	296.06
289.293	328.06
289.524	324.06
289.755	295.06
289.986	306.06
290.217	283.06
290.448	238.06
290.679	219.06
290.91	211.06
291.141	207.06
291.371	231.06
291.602	207.06
291.833	221.06
292.064	238.06
292.295	249.06
292.526	266.06
292.757	291.06
292.987	282.06
293.218	287.06
293.449	327.06
293.68	332.06
293.91	319.06
294.141	329.06
294.372	300.06
294.603	280.06
294.833	313.06
295.064	344.06
295.295	339.06
295.525	264.06
295.756	254.06
295.987	217.06
296.217	239.06
296.448	210.06
296.679	238.06
296.909	250.06
297.14	230.06
297.37	272.06
297.601	261.06
297.831	243.06
298.062	275.06
298.292	273.06
298.523	283.06
298.753	300.06
298.984	305.06
299.214	272.06
299.445	226.06
299.675	209.06
299.905	233.06
300.136	228.06
300.366	243.06
300.597	236.06
300.827	236.06
301.057	219.06
301.288	214.06
301.518	214.06
301.748	256.06
301.979	250.06
302.209	277.06
302.439	288.06
302.669	272.06
302.9	246.06
303.13	238.06
303.36	243.06
303.59	212.06
303.82	240.06
304.051	259.06
304.281	255.06
304.511	286.06
304.741	229.06
304.971	236.06
305.201	245.06
305.431	243.06
305.661	217.06
305.891	231.06
306.121	230.06
306.352	230.06
306.582	199.06
306.812	188.06
307.042	208.06
307.272	188.06
307.502	188.06
307.731	197.06
307.961	197.06
308.191	179.06
308.421	189.06
308.651	201.06
308.881	190.06
309.111	194.06
309.341	185.06
309.571	200.06
309.8	200.06
310.03	207.06
310.26	217.06
310.49	212.06
310.72	203.06
310.949	201.06
311.179	205.06
311.409	208.06
311.639	217.06
311.868	268.06
312.098	310.06
312.328	350.06
312.557	340.06
312.787	343.06
313.017	324.06
313.246	316.06
313.476	356.06
313.706	321.06
313.935	255.06
314.165	224.06
314.394	191.06
314.624	217.06
314.853	228.06
315.083	200.06
315.312	208.06
315.542	230.06
315.771	206.06
316.001	189.06
316.23	207.06
316.46	209.06
316.689	191.06
316.919	209.06
317.148	196.06
317.377	201.06
317.607	182.06
317.836	210.06
318.065	201.06
318.295	225.06
318.524	247.06
318.753	197.06
318.983	199.06
319.212	179.06
319.441	200.06
319.67	224.06
319.9	225.06
320.129	211.06
320.358	211.06
320.587	190.06
320.816	208.06
321.046	232.06
321.275	247.06
321.504	239.06
321.733	231.06
321.962	223.06
322.191	226.06
322.42	231.06
322.649	216.06
322.878	228.06
323.108	206.06
323.337	231.06
323.566	235.06
323.795	241.06
324.024	211.06
324.253	215.06
324.482	209.06
324.71	224.06
324.939	259.06
325.168	229.06
325.397	221.06
325.626	209.06
325.855	215.06
326.084	208.06
326.313	223.06
326.542	209.06
326.77	205.06
326.999	216.06
327.228	197.06
327.457	200.06
327.686	210.06
327.914	203.06
328.143	196.06
328.372	190.06
328.6	191.06
328.829	200.06
329.058	193.06
329.287	201.06
329.515	201.06
329.744	194.06
329.972	179.06
330.201	183.06
330.43	211.06
330.658	196.06
330.887	227.06
331.115	215.06
331.344	223.06
331.572	201.06
331.801	193.06
332.03	200.06
332.258	189.06
332.486	223.06
332.715	215.06
332.943	212.06
333.172	227.06
333.4	233.06
333.629	249.06
333.857	254.06
334.085	240.06
334.314	239.06
334.542	238.06
334.771	247.06
334.999	226.06
335.227	209.06
335.455	216.06
335.684	237.06
335.912	260.06
336.14	261.06
336.369	259.06
336.597	276.06
336.825	273.06
337.053	294.06
337.281	254.06
337.51	222.06
337.738	226.06
337.966	204.06
338.194	233.06
338.422	221.06
338.65	214.06
338.878	207.06
339.106	209.06
339.334	212.06
339.562	227.06
339.79	219.06
340.018	203.06
340.246	222.06
340.474	243.06
340.702	249.06
340.93	263.06
341.158	286.06
341.386	225.06
341.614	231.06
341.842	230.06
342.07	242.06
342.298	247.06
342.526	276.06
342.754	233.06
342.981	238.06
343.209	227.06
343.437	226.06
343.665	244.06
343.893	255.06
344.12	291.06
344.348	309.06
344.576	291.06
344.804	243.06
345.031	239.06
345.259	240.06
345.487	214.06
345.714	242.06
345.942	221.06
346.17	243.06
346.397	240.06
346.625	235.06
346.853	212.06
347.08	206.06
347.308	237.06
347.535	247.06
347.763	259.06
347.99	211.06
348.218	215.06
348.445	238.06
348.673	207.06
348.9	222.06
349.128	220.06
349.355	251.06
349.583	220.06
349.81	205.06
350.037	208.06
350.265	195.06
350.492	196.06
350.72	188.06
350.947	188.06
351.174	206.06
351.402	193.06
351.629	221.06
351.856	213.06
352.083	191.06
352.311	215.06
352.538	219.06
352.765	253.06
352.992	233.06
353.22	224.06
353.447	210.06
353.674	216.06
353.901	196.06
354.128	207.06
354.355	221.06
354.583	237.06
354.81	231.06
355.037	238.06
355.264	229.06
355.491	229.06
355.718	235.06
355.945	235.06
356.172	241.06
356.399	227.06
356.626	257.06
356.853	286.06
357.08	305.06
357.307	322.06
357.534	242.06
357.761	291.06
357.988	326.06
358.215	369.06
358.441	339.06
358.668	320.06
358.895	293.06
359.122	261.06
359.349	243.06
359.576	303.06
359.802	252.06
360.029	212.06
360.256	223.06
360.483	259.06
360.709	311.06
360.936	309.06
361.163	273.06
361.39	244.06
361.616	216.06
361.843	240.06
362.07	273.06
362.296	252.06
362.523	218.06
362.749	191.06
362.976	214.06
363.203	248.06
363.429	257.06
363.656	235.06
363.882	217.06
364.109	213.06
364.335	220.06
364.562	217.06
364.788	212.06
365.015	259.06
365.241	232.06
365.468	196.06
365.694	192.06
365.92	209.06
366.147	200.06
366.373	206.06
366.599	179.06
366.826	189.06
367.052	188.06
367.278	200.06
367.505	185.06
367.731	199.06
367.957	227.06
368.184	217.06
368.41	213.06
368.636	227.06
368.862	240.06
369.089	229.06
369.315	203.06
369.541	209.06
369.767	194.06
369.993	186.06
370.219	201.06
370.445	207.06
370.672	207.06
370.898	219.06
371.124	225.06
371.35	208.06
371.576	196.06
371.802	211.06
372.028	230.06
372.254	263.06
372.48	241.06
372.706	243.06
372.932	252.06
373.158	256.06
373.384	277.06
373.61	313.06
373.835	338.06
374.061	286.06
374.287	239.06
374.513	281.06
374.739	316.06
374.965	323.06
375.191	319.06
375.416	252.06
375.642	223.06
375.868	257.06
376.094	263.06
376.319	240.06
376.545	247.06
376.771	236.06
376.997	230.06
377.222	196.06
377.448	197.06
377.674	201.06
377.899	182.06
378.125	184.06
378.35	184.06
378.576	201.06
378.802	199.06
379.027	197.06
379.253	202.06
379.478	203.06
379.704	223.06
379.929	215.06
380.155	220.06
380.38	202.06
380.606	210.06
380.831	254.06
381.057	228.06
381.282	207.06
381.507	239.06
381.733	280.06
381.958	299.06
382.184	301.06
382.409	321.06
382.634	321.06
382.86	342.06
383.085	269.06
383.31	259.06
383.535	262.06
383.761	263.06
383.986	254.06
384.211	285.06
384.436	278.06
384.662	229.06
384.887	223.06
385.112	222.06
385.337	239.06
385.562	235.06
385.787	249.06
386.013	284.06
386.238	269.06
386.463	238.06
386.688	234.06
386.913	213.06
387.138	225.06
387.363	211.06
387.588	215.06
387.813	229.06
388.038	235.06
388.263	219.06
388.488	230.06
388.713	263.06
388.938	263.06
389.163	226.06
389.387	231.06
389.612	210.06
389.837	223.06
390.062	225.06
390.287	223.06
390.512	223.06
390.736	230.06
390.961	216.06
391.186	221.06
391.411	207.06
391.636	216.06
391.86	216.06
392.085	233.06
392.31	255.06
392.534	221.06
392.759	213.06
392.984	214.06
393.208	234.06
393.433	213.06
393.658	200.06
393.882	195.06
394.107	204.06
394.331	201.06
394.556	209.06
394.78	205.06
395.005	196.06
395.229	222.06
395.454	222.06
395.678	215.06
395.903	216.06
396.127	212.06
396.352	224.06
396.576	223.06
396.801	233.06
397.025	238.06
397.249	255.06
397.474	220.06
397.698	219.06
397.922	234.06
398.147	225.06
398.371	212.06
398.595	231.06
398.82	228.06
399.044	241.06
399.268	247.06
399.492	265.06
399.717	280.06
399.941	281.06
400.165	271.06
400.389	253.06
400.613	265.06
400.837	244.06
401.062	221.06
401.286	199.06
401.51	230.06
401.734	210.06
401.958	229.06
402.182	244.06
402.406	218.06
402.63	226.06
402.854	247.06
403.078	271.06
403.302	348.06
403.526	352.06
403.75	319.06
403.974	295.06
404.198	271.06
404.422	316.06
404.645	317.06
404.869	323.06
405.093	293.06
405.317	280.06
405.541	243.06
405.765	267.06
405.988	238.06
406.212	257.06
406.436	268.06
406.66	304.06
406.883	272.06
407.107	276.06
407.331	320.06
407.555	299.06
407.778	289.06
408.002	275.06
408.226	285.06
408.449	265.06
408.673	272.06
408.896	254.06
409.12	243.06
409.344	255.06
409.567	239.06
409.791	239.06
410.014	263.06
410.238	241.06
410.461	242.06
410.685	237.06
410.908	237.06
411.132	231.06
411.355	231.06
411.578	240.06
411.802	226.06
412.025	251.06
412.249	247.06
412.472	251.06
412.695	247.06
412.919	231.06
413.142	238.06
413.365	243.06
413.589	248.06
413.812	235.06
414.035	214.06
414.258	221.06
414.482	253.06
414.705	249.06
414.928	229.06
415.151	221.06
415.374	201.06
415.597	224.06
415.821	232.06
416.044	215.06
416.267	223.06
416.49	197.06
416.713	216.06
416.936	222.06
417.159	231.06
417.382	234.06
417.605	241.06
417.828	238.06
418.051	231.06
418.274	234.06
418.497	240.06
418.72	233.06
418.943	236.06
419.166	238.06
419.389	253.06
419.611	230.06
419.834	253.06
420.057	260.06
420.28	262.06
420.503	252.06
420.726	236.06
420.948	226.06
421.171	224.06
421.394	221.06
421.617	220.06
421.839	233.06
422.062	214.06
422.285	223.06
422.507	253.06
422.73	227.06
422.953	253.06
423.175	253.06
423.398	247.06
423.621	262.06
423.843	267.06
424.066	259.06
424.288	242.06
424.511	238.06
424.733	251.06
424.956	251.06
425.178	268.06
425.401	301.06
425.623	352.06
425.846	309.06
426.068	254.06
426.291	237.06
426.513	239.06
426.735	243.06
426.958	231.06
427.18	279.06
427.402	295.06
427.625	339.06
427.847	325.06
428.069	239.06
428.292	223.06
428.514	253.06
428.736	235.06
428.958	239.06
429.181	275.06
429.403	255.06
429.625	210.06
429.847	219.06
430.069	223.06
430.292	220.06
430.514	225.06
430.736	232.06
430.958	270.06
431.18	251.06
431.402	192.06
431.624	224.06
431.846	219.06
432.068	212.06
432.29	235.06
432.512	232.06
432.734	243.06
432.956	248.06
433.178	221.06
433.4	207.06
433.622	223.06
433.844	216.06
434.066	241.06
434.287	255.06
434.509	252.06
434.731	245.06
434.953	232.06
435.175	225.06
435.397	265.06
435.618	251.06
435.84	213.06
436.062	227.06
436.284	239.06
436.505	213.06
436.727	205.06
436.949	223.06
437.17	221.06
437.392	206.06
437.614	218.06
437.835	223.06
438.057	222.06
438.278	246.06
438.5	287.06
438.721	283.06
438.943	238.06
439.165	221.06
439.386	207.06
439.608	234.06
439.829	207.06
440.05	212.06
440.272	231.06
440.493	243.06
440.715	273.06
440.936	240.06
441.158	217.06
441.379	232.06
441.6	242.06
441.822	247.06
442.043	242.06
442.264	236.06
442.486	221.06
442.707	231.06
442.928	220.06
443.149	248.06
443.371	219.06
443.592	243.06
443.813	219.06
444.034	226.06
444.255	232.06
444.476	251.06
444.698	267.06
444.919	273.06
445.14	367.06
445.361	292.06
445.582	251.06
445.803	235.06
446.024	221.06
446.245	239.06
446.466	233.06
446.687	228.06
446.908	232.06
447.129	223.06
447.35	224.06
447.571	214.06
447.792	209.06
448.013	212.06
448.234	197.06
448.455	189.06
448.675	202.06
448.896	206.06
449.117	211.06
449.338	208.06
449.559	213.06
449.779	227.06
450	216.06
450.221	220.06
450.442	223.06
450.662	203.06
450.883	213.06
451.104	215.06
451.324	211.06
451.545	228.06
451.766	220.06
451.986	207.06
452.207	196.06
452.428	215.06
452.648	211.06
452.869	229.06
453.089	227.06
453.31	221.06
453.53	193.06
453.751	211.06
453.971	205.06
454.192	212.06
454.412	224.06
454.633	210.06
454.853	218.06
455.073	199.06
455.294	204.06
455.514	205.06
455.734	194.06
455.955	215.06
456.175	216.06
456.395	196.06
456.616	190.06
456.836	158.06
457.056	200.06
457.276	191.06
457.497	190.06
457.717	207.06
457.937	212.06
458.157	209.06
458.377	205.06
458.598	188.06
458.818	208.06
459.038	212.06
459.258	215.06
459.478	213.06
459.698	224.06
459.918	217.06
460.138	222.06
460.358	251.06
460.578	261.06
460.798	252.06
461.018	264.06
461.238	240.06
461.458	235.06
461.678	238.06
461.898	238.06
462.118	240.06
462.338	249.06
462.558	253.06
462.777	244.06
462.997	273.06
463.217	295.06
463.437	289.06
463.657	280.06
463.876	260.06
464.096	275.06
464.316	271.06
464.536	263.06
464.755	266.06
464.975	273.06
465.195	260.06
465.414	245.06
465.634	247.06
465.854	227.06
466.073	222.06
466.293	219.06
466.512	220.06
466.732	229.06
466.951	230.06
467.171	222.06
467.391	211.06
467.61	208.06
467.829	214.06
468.049	231.06
468.268	228.06
468.488	237.06
468.707	203.06
468.927	239.06
469.146	264.06
469.365	253.06
469.585	227.06
469.804	254.06
470.023	255.06
470.243	227.06
470.462	251.06
470.681	212.06
470.901	225.06
471.12	240.06
471.339	216.06
471.558	229.06
471.777	235.06
471.997	234.06
472.216	265.06
472.435	248.06
472.654	224.06
472.873	223.06
473.092	237.06
473.311	252.06
473.53	240.06
473.749	237.06
473.968	233.06
474.187	228.06
474.406	218.06
474.625	215.06
474.844	221.06
475.063	249.06
475.282	219.06
475.501	241.06
475.72	283.06
475.939	256.06
476.158	257.06
476.377	283.06
476.596	299.06
476.814	318.06
477.033	274.06
477.252	248.06
477.471	226.06
477.69	243.06
477.908	257.06
478.127	251.06
478.346	255.06
478.564	288.06
478.783	277.06
479.002	259.06
479.22	287.06
479.439	319.06
479.658	271.06
479.876	259.06
480.095	288.06
480.313	318.06
480.532	274.06
480.751	272.06
480.969	256.06
481.188	280.06
481.406	303.06
481.624	275.06
481.843	244.06
482.061	260.06
482.28	277.06
482.498	324.06
482.717	319.06
482.935	265.06
483.153	259.06
483.372	252.06
483.59	256.06
483.808	269.06
484.027	243.06
484.245	229.06
484.463	237.06
484.681	236.06
484.9	247.06
485.118	265.06
485.336	252.06
485.554	232.06
485.772	255.06
485.99	278.06
486.209	297.06
486.427	275.06
486.645	264.06
486.863	295.06
487.081	304.06
487.299	308.06
487.517	302.06
487.735	275.06
487.953	274.06
488.171	286.06
488.389	243.06
488.607	255.06
488.825	268.06
489.043	288.06
489.261	303.06
489.479	316.06
489.696	282.06
489.914	260.06
490.132	264.06
490.35	254.06
490.568	269.06
490.786	253.06
491.003	260.06
491.221	258.06
491.439	273.06
491.657	258.06
491.874	257.06
492.092	288.06
492.31	346.06
492.527	338.06
492.745	320.06
492.963	281.06
493.18	297.06
493.398	283.06
493.615	261.06
493.833	265.06
494.05	271.06
494.268	271.06
494.485	255.06
494.703	262.06
494.92	284.06
495.138	244.06
495.355	282.06
495.573	280.06
495.79	304.06
496.008	329.06
496.225	322.06
496.442	289.06
496.66	309.06
496.877	308.06
497.094	309.06
497.312	286.06
497.529	289.06
497.746	284.06
497.963	311.06
498.181	312.06
498.398	315.06
498.615	348.06
498.832	359.06
499.049	387.06
499.267	353.06
499.484	377.06
499.701	407.06
499.918	442.06
500.135	496.06
500.352	545.06
500.569	530.06
500.786	539.06
501.003	508.06
501.22	461.06
501.437	436.06
501.654	413.06
501.871	383.06
502.088	357.06
502.305	343.06
502.522	346.06
