Data from NickelSpatula.Lamp.E10.P2_HRD10591_11-59-07-526.txt Node
Date: Tue Jul 23 11:59:07 EDT 2019
User: cochatt
Spectrometer: HR+D1059
Trigger mode: 1
Integration Time (sec): 1.000000E-1
Scans to average: 1
Electric dark correction enabled: true
Nonlinearity correction enabled: false
Boxcar width: 0
XAxis mode: Wavelengths
Number of Pixels in Spectrum: 2048
>>>>>Begin Spectral Data<<<<<
223.165	-15.62
223.4	-15.62
223.635	-15.62
223.869	-30.62
224.104	-26.62
224.338	-7.62
224.573	-3.62
224.808	-6.62
225.042	6.38
225.277	-7.62
225.511	-4.62
225.746	0.38
225.98	-6.62
226.215	1.38
226.449	20.38
226.683	24.38
226.918	33.38
227.152	23.38
227.387	37.38
227.621	52.38
227.856	37.38
228.09	49.38
228.324	53.38
228.559	61.38
228.793	87.38
229.027	148.38
229.262	151.38
229.496	181.38
229.73	165.38
229.964	198.38
230.199	206.38
230.433	230.38
230.667	206.38
230.901	217.38
231.136	183.38
231.37	204.38
231.604	231.38
231.838	225.38
232.072	258.38
232.306	253.38
232.541	252.38
232.775	242.38
233.009	270.38
233.243	294.38
233.477	313.38
233.711	353.38
233.945	339.38
234.179	321.38
234.413	360.38
234.647	388.38
234.881	446.38
235.115	421.38
235.349	406.38
235.583	364.38
235.817	358.38
236.051	376.38
236.285	400.38
236.519	480.38
236.753	438.38
236.987	444.38
237.221	394.38
237.455	411.38
237.689	446.38
237.922	462.38
238.156	480.38
238.39	550.38
238.624	666.38
238.858	574.38
239.091	479.38
239.325	499.38
239.559	484.38
239.793	516.38
240.027	660.38
240.26	600.38
240.494	583.38
240.728	569.38
240.961	664.38
241.195	637.38
241.429	632.38
241.662	617.38
241.896	522.38
242.13	483.38
242.363	441.38
242.597	488.38
242.83	535.38
243.064	541.38
243.298	597.38
243.531	642.38
243.765	646.38
243.998	623.38
244.232	585.38
244.465	610.38
244.699	591.38
244.932	654.38
245.166	614.38
245.399	542.38
245.633	532.38
245.866	566.38
246.099	636.38
246.333	729.38
246.566	761.38
246.8	755.38
247.033	774.38
247.266	722.38
247.5	699.38
247.733	672.38
247.966	661.38
248.2	714.38
248.433	793.38
248.666	837.38
248.899	885.38
249.133	888.38
249.366	1000.38
249.599	1079.38
249.832	929.38
250.066	840.38
250.299	845.38
250.532	798.38
250.765	788.38
250.998	711.38
251.231	712.38
251.465	792.38
251.698	828.38
251.931	812.38
252.164	830.38
252.397	950.38
252.63	1066.38
252.863	1176.38
253.096	1183.38
253.329	1142.38
253.562	1098.38
253.795	1247.38
254.028	1357.38
254.261	1381.38
254.494	1226.38
254.727	1144.38
254.96	1132.38
255.193	1159.38
255.426	1123.38
255.659	881.38
255.892	797.38
256.124	884.38
256.357	1044.38
256.59	1210.38
256.823	1149.38
257.056	980.38
257.289	914.38
257.521	961.38
257.754	1151.38
257.987	1246.38
258.22	1088.38
258.452	1026.38
258.685	1124.38
258.918	1285.38
259.151	1250.38
259.383	1287.38
259.616	1511.38
259.849	1540.38
260.081	1694.38
260.314	1876.38
260.547	1461.38
260.779	1458.38
261.012	1692.38
261.244	1614.38
261.477	1636.38
261.71	1527.38
261.942	1293.38
262.175	1278.38
262.407	1238.38
262.64	1281.38
262.872	1489.38
263.105	1624.38
263.337	1714.38
263.57	1544.38
263.802	1042.38
264.035	925.38
264.267	885.38
264.499	782.38
264.732	726.38
264.964	690.38
265.197	720.38
265.429	793.38
265.661	830.38
265.894	888.38
266.126	931.38
266.358	1031.38
266.591	1261.38
266.823	1518.38
267.055	1402.38
267.287	1257.38
267.52	1275.38
267.752	1286.38
267.984	1445.38
268.216	1349.38
268.448	1134.38
268.681	1111.38
268.913	1232.38
269.145	1281.38
269.377	1321.38
269.609	1333.38
269.841	1199.38
270.073	1313.38
270.306	1362.38
270.538	1386.38
270.77	1392.38
271.002	1393.38
271.234	1492.38
271.466	1503.38
271.698	1432.38
271.93	1428.38
272.162	1413.38
272.394	1456.38
272.626	1423.38
272.858	1481.38
273.09	1461.38
273.322	1360.38
273.553	1318.38
273.785	1552.38
274.017	1984.38
274.249	2423.38
274.481	2541.38
274.713	2791.38
274.945	3124.38
275.176	3236.38
275.408	2846.38
275.64	2628.38
275.872	2606.38
276.104	2223.38
276.335	1902.38
276.567	1930.38
276.799	1951.38
277.031	2073.38
277.262	1640.38
277.494	1264.38
277.726	1216.38
277.957	1341.38
278.189	1486.38
278.421	1476.38
278.652	1465.38
278.884	1347.38
279.115	1286.38
279.347	1185.38
279.579	1216.38
279.81	1193.38
280.042	1161.38
280.273	1288.38
280.505	1156.38
280.736	1041.38
280.968	1030.38
281.199	1086.38
281.431	1247.38
281.662	1247.38
281.894	1177.38
282.125	1261.38
282.356	1365.38
282.588	1414.38
282.819	1259.38
283.051	1387.38
283.282	1706.38
283.513	1964.38
283.745	2209.38
283.976	2171.38
284.207	2004.38
284.439	2106.38
284.67	2030.38
284.901	1774.38
285.132	1924.38
285.364	2042.38
285.595	1891.38
285.826	1991.38
286.057	2034.38
286.288	1960.38
286.52	1938.38
286.751	2128.38
286.982	2100.38
287.213	1836.38
287.444	1755.38
287.675	1799.38
287.906	1840.38
288.138	1575.38
288.369	1380.38
288.6	1304.38
288.831	1343.38
289.062	1536.38
289.293	1710.38
289.524	1627.38
289.755	1599.38
289.986	1627.38
290.217	1474.38
290.448	1107.38
290.679	958.38
290.91	930.38
291.141	967.38
291.371	997.38
291.602	993.38
291.833	999.38
292.064	1085.38
292.295	1246.38
292.526	1444.38
292.757	1478.38
292.987	1583.38
293.218	1552.38
293.449	1597.38
293.68	1702.38
293.91	1604.38
294.141	1626.38
294.372	1526.38
294.603	1402.38
294.833	1580.38
295.064	1881.38
295.295	1738.38
295.525	1341.38
295.756	1152.38
295.987	1024.38
296.217	1042.38
296.448	1046.38
296.679	1108.38
296.909	1246.38
297.14	1318.38
297.37	1463.38
297.601	1404.38
297.831	1164.38
298.062	1249.38
298.292	1456.38
298.523	1568.38
298.753	1831.38
298.984	1636.38
299.214	1302.38
299.445	1124.38
299.675	1082.38
299.905	1051.38
300.136	1119.38
300.366	1203.38
300.597	1188.38
300.827	1032.38
301.057	1018.38
301.288	1029.38
301.518	1126.38
301.748	1251.38
301.979	1390.38
302.209	1496.38
302.439	1496.38
302.669	1328.38
302.9	1260.38
303.13	1169.38
303.36	1126.38
303.59	1092.38
303.82	1146.38
304.051	1272.38
304.281	1378.38
304.511	1308.38
304.741	1156.38
304.971	1241.38
305.201	1310.38
305.431	1218.38
305.661	1079.38
305.891	1113.38
306.121	1149.38
306.352	975.38
306.582	892.38
306.812	873.38
307.042	884.38
307.272	824.38
307.502	781.38
307.731	892.38
307.961	942.38
308.191	906.38
308.421	832.38
308.651	792.38
308.881	788.38
309.111	776.38
309.341	852.38
309.571	898.38
309.8	980.38
310.03	950.38
310.26	1029.38
310.49	1018.38
310.72	887.38
310.949	878.38
311.179	894.38
311.409	959.38
311.639	1125.38
311.868	1428.38
312.098	1828.38
312.328	1956.38
312.557	1857.38
312.787	1877.38
313.017	1684.38
313.246	1830.38
313.476	2005.38
313.706	1640.38
313.935	1255.38
314.165	1072.38
314.394	964.38
314.624	965.38
314.853	1059.38
315.083	1084.38
315.312	1033.38
315.542	1045.38
315.771	976.38
316.001	882.38
316.23	867.38
316.46	850.38
316.689	864.38
316.919	883.38
317.148	917.38
317.377	887.38
317.607	896.38
317.836	947.38
318.065	1145.38
318.295	1290.38
318.524	1141.38
318.753	1006.38
318.983	933.38
319.212	949.38
319.441	1054.38
319.67	1176.38
319.9	1231.38
320.129	1145.38
320.358	977.38
320.587	961.38
320.816	1015.38
321.046	1210.38
321.275	1375.38
321.504	1394.38
321.733	1304.38
321.962	1286.38
322.191	1194.38
322.42	1164.38
322.649	1157.38
322.878	1265.38
323.108	1241.38
323.337	1161.38
323.566	1139.38
323.795	1073.38
324.024	1044.38
324.253	998.38
324.482	974.38
324.71	1090.38
324.939	1242.38
325.168	1135.38
325.397	956.38
325.626	948.38
325.855	951.38
326.084	985.38
326.313	906.38
326.542	842.38
326.77	916.38
326.999	914.38
327.228	982.38
327.457	1036.38
327.686	1027.38
327.914	880.38
328.143	873.38
328.372	848.38
328.6	846.38
328.829	921.38
329.058	917.38
329.287	917.38
329.515	928.38
329.744	898.38
329.972	843.38
330.201	792.38
330.43	849.38
330.658	942.38
330.887	1120.38
331.115	1052.38
331.344	1022.38
331.572	973.38
331.801	900.38
332.03	878.38
332.258	889.38
332.486	977.38
332.715	988.38
332.943	914.38
333.172	910.38
333.4	936.38
333.629	1054.38
333.857	1116.38
334.085	1120.38
334.314	1115.38
334.542	1051.38
334.771	969.38
334.999	941.38
335.227	928.38
335.455	963.38
335.684	1049.38
335.912	1210.38
336.14	1333.38
336.369	1257.38
336.597	1250.38
336.825	1398.38
337.053	1558.38
337.281	1257.38
337.51	998.38
337.738	1010.38
337.966	1083.38
338.194	1230.38
338.422	1140.38
338.65	967.38
338.878	904.38
339.106	930.38
339.334	1050.38
339.562	1121.38
339.79	1040.38
340.018	985.38
340.246	1070.38
340.474	1223.38
340.702	1273.38
340.93	1358.38
341.158	1354.38
341.386	1136.38
341.614	1138.38
341.842	1124.38
342.07	1166.38
342.298	1352.38
342.526	1442.38
342.754	1252.38
342.981	1143.38
343.209	1102.38
343.437	1140.38
343.665	1255.38
343.893	1212.38
344.12	1430.38
344.348	1669.38
344.576	1469.38
344.804	1224.38
345.031	1048.38
345.259	992.38
345.487	1010.38
345.714	1075.38
345.942	1149.38
346.17	1222.38
346.397	1173.38
346.625	1032.38
346.853	991.38
347.08	961.38
347.308	999.38
347.535	1162.38
347.763	1170.38
347.99	1028.38
348.218	962.38
348.445	985.38
348.673	992.38
348.9	1010.38
349.128	1069.38
349.355	1133.38
349.583	1099.38
349.81	1022.38
350.037	965.38
350.265	857.38
350.492	815.38
350.72	815.38
350.947	839.38
351.174	926.38
351.402	980.38
351.629	1006.38
351.856	966.38
352.083	915.38
352.311	1009.38
352.538	1135.38
352.765	1198.38
352.992	1102.38
353.22	1008.38
353.447	1069.38
353.674	1020.38
353.901	1006.38
354.128	1048.38
354.355	1047.38
354.583	1060.38
354.81	1006.38
355.037	1049.38
355.264	1060.38
355.491	1134.38
355.718	1219.38
355.945	1191.38
356.172	1125.38
356.399	1156.38
356.626	1375.38
356.853	1726.38
357.08	1806.38
357.307	1848.38
357.534	1410.38
357.761	1486.38
357.988	1846.38
358.215	2109.38
358.441	2020.38
358.668	1712.38
358.895	1567.38
359.122	1286.38
359.349	1225.38
359.576	1369.38
359.802	1136.38
360.029	989.38
360.256	1074.38
360.483	1342.38
360.709	1682.38
360.936	1710.38
361.163	1485.38
361.39	1160.38
361.616	1070.38
361.843	1294.38
362.07	1609.38
362.296	1443.38
362.523	1130.38
362.749	940.38
362.976	1016.38
363.203	1226.38
363.429	1394.38
363.656	1134.38
363.882	1020.38
364.109	1055.38
364.335	1036.38
364.562	1036.38
364.788	1181.38
365.015	1366.38
365.241	1210.38
365.468	999.38
365.694	857.38
365.92	848.38
366.147	808.38
366.373	817.38
366.599	830.38
366.826	840.38
367.052	850.38
367.278	851.38
367.505	847.38
367.731	904.38
367.957	1063.38
368.184	1095.38
368.41	1046.38
368.636	1059.38
368.862	1092.38
369.089	1058.38
369.315	937.38
369.541	904.38
369.767	909.38
369.993	890.38
370.219	893.38
370.445	962.38
370.672	1037.38
370.898	1136.38
371.124	1167.38
371.35	956.38
371.576	947.38
371.802	1001.38
372.028	1209.38
372.254	1398.38
372.48	1164.38
372.706	1047.38
372.932	1130.38
373.158	1177.38
373.384	1435.38
373.61	1890.38
373.835	1944.38
374.061	1443.38
374.287	1220.38
374.513	1478.38
374.739	1761.38
374.965	1811.38
375.191	1739.38
375.416	1214.38
375.642	1034.38
375.868	1249.38
376.094	1383.38
376.319	1201.38
376.545	1330.38
376.771	1412.38
376.997	1219.38
377.222	867.38
377.448	758.38
377.674	751.38
377.899	776.38
378.125	785.38
378.35	776.38
378.576	825.38
378.802	876.38
379.027	972.38
379.253	965.38
379.478	950.38
379.704	1101.38
379.929	1134.38
380.155	1143.38
380.38	1010.38
380.606	1060.38
380.831	1123.38
381.057	1061.38
381.282	1042.38
381.507	1225.38
381.733	1516.38
381.958	1592.38
382.184	1704.38
382.409	1788.38
382.634	1744.38
382.86	1860.38
383.085	1487.38
383.31	1189.38
383.535	1252.38
383.761	1263.38
383.986	1200.38
384.211	1469.38
384.436	1388.38
384.662	1075.38
384.887	1043.38
385.112	1067.38
385.337	1083.38
385.562	1057.38
385.787	1149.38
386.013	1296.38
386.238	1314.38
386.463	1080.38
386.688	996.38
386.913	995.38
387.138	931.38
387.363	978.38
387.588	1028.38
387.813	1028.38
388.038	1175.38
388.263	1028.38
388.488	966.38
388.713	1178.38
388.938	1287.38
389.163	1065.38
389.387	977.38
389.612	946.38
389.837	982.38
390.062	988.38
390.287	1046.38
390.512	1055.38
390.736	969.38
390.961	918.38
391.186	865.38
391.411	847.38
391.636	852.38
391.86	953.38
392.085	1053.38
392.31	1042.38
392.534	989.38
392.759	960.38
392.984	1031.38
393.208	993.38
393.433	876.38
393.658	836.38
393.882	786.38
394.107	795.38
394.331	819.38
394.556	845.38
394.78	841.38
395.005	863.38
395.229	896.38
395.454	900.38
395.678	910.38
395.903	928.38
396.127	904.38
396.352	933.38
396.576	1013.38
396.801	1002.38
397.025	1154.38
397.249	1178.38
397.474	927.38
397.698	949.38
397.922	1009.38
398.147	940.38
398.371	909.38
398.595	1007.38
398.82	964.38
399.044	970.38
399.268	1016.38
399.492	1072.38
399.717	1094.38
399.941	1111.38
400.165	1079.38
400.389	1080.38
400.613	1060.38
400.837	1077.38
401.062	926.38
401.286	920.38
401.51	902.38
401.734	936.38
401.958	942.38
402.182	912.38
402.406	928.38
402.63	929.38
402.854	969.38
403.078	1104.38
403.302	1372.38
403.526	1426.38
403.75	1261.38
403.974	1053.38
404.198	1115.38
404.422	1236.38
404.645	1496.38
404.869	1641.38
405.093	1189.38
405.317	1024.38
405.541	1029.38
405.765	1008.38
405.988	1040.38
406.212	1128.38
406.436	1308.38
406.66	1463.38
406.883	1152.38
407.107	1225.38
407.331	1424.38
407.555	1362.38
407.778	1143.38
408.002	1080.38
408.226	1085.38
408.449	1066.38
408.673	1048.38
408.896	953.38
409.12	939.38
409.344	940.38
409.567	900.38
409.791	926.38
410.014	902.38
410.238	914.38
410.461	900.38
410.685	897.38
410.908	898.38
411.132	954.38
411.355	967.38
411.578	979.38
411.802	951.38
412.025	994.38
412.249	991.38
412.472	988.38
412.695	967.38
412.919	962.38
413.142	1015.38
413.365	1115.38
413.589	1093.38
413.812	983.38
414.035	928.38
414.258	960.38
414.482	1092.38
414.705	1078.38
414.928	920.38
415.151	888.38
415.374	896.38
415.597	940.38
415.821	929.38
416.044	913.38
416.267	890.38
416.49	906.38
416.713	856.38
416.936	852.38
417.159	878.38
417.382	900.38
417.605	904.38
417.828	935.38
418.051	943.38
418.274	938.38
418.497	928.38
418.72	953.38
418.943	981.38
419.166	999.38
419.389	1055.38
419.611	1010.38
419.834	1044.38
420.057	1144.38
420.28	1170.38
420.503	1059.38
420.726	910.38
420.948	896.38
421.171	912.38
421.394	893.38
421.617	866.38
421.839	918.38
422.062	956.38
422.285	976.38
422.507	969.38
422.73	958.38
422.953	996.38
423.175	963.38
423.398	961.38
423.621	1041.38
423.843	1100.38
424.066	1008.38
424.288	949.38
424.511	935.38
424.733	936.38
424.956	1019.38
425.178	1104.38
425.401	1291.38
425.623	1472.38
425.846	1196.38
426.068	1052.38
426.291	1125.38
426.513	1061.38
426.735	946.38
426.958	1042.38
427.18	1199.38
427.402	1582.38
427.625	1546.38
427.847	1264.38
428.069	927.38
428.292	933.38
428.514	944.38
428.736	851.38
428.958	986.38
429.181	1163.38
429.403	1013.38
429.625	930.38
429.847	903.38
430.069	946.38
430.292	938.38
430.514	908.38
430.736	1009.38
430.958	1239.38
431.18	1099.38
431.402	858.38
431.624	831.38
431.846	805.38
432.068	817.38
432.29	832.38
432.512	954.38
432.734	1243.38
432.956	1175.38
433.178	903.38
433.4	863.38
433.622	849.38
433.844	916.38
434.066	959.38
434.287	916.38
434.509	906.38
434.731	950.38
434.953	876.38
435.175	953.38
435.397	1058.38
435.618	926.38
435.84	838.38
436.062	835.38
436.284	866.38
436.505	798.38
436.727	816.38
436.949	815.38
437.17	873.38
437.392	890.38
437.614	848.38
437.835	841.38
438.057	856.38
438.278	980.38
438.5	1460.38
438.721	1438.38
438.943	961.38
439.165	845.38
439.386	814.38
439.608	793.38
439.829	777.38
440.05	837.38
440.272	881.38
440.493	1001.38
440.715	1264.38
440.936	1039.38
441.158	870.38
441.379	886.38
441.6	1000.38
441.822	1079.38
442.043	886.38
442.264	885.38
442.486	866.38
442.707	894.38
442.928	886.38
443.149	909.38
443.371	937.38
443.592	937.38
443.813	944.38
444.034	929.38
444.255	895.38
444.476	966.38
444.698	920.38
444.919	968.38
445.14	1081.38
445.361	1043.38
445.582	1008.38
445.803	953.38
446.024	958.38
446.245	974.38
446.466	931.38
446.687	890.38
446.908	896.38
447.129	840.38
447.35	819.38
447.571	813.38
447.792	830.38
448.013	796.38
448.234	772.38
448.455	809.38
448.675	784.38
448.896	806.38
449.117	793.38
449.338	790.38
449.559	824.38
449.779	895.38
450	865.38
450.221	858.38
450.442	825.38
450.662	791.38
450.883	789.38
451.104	828.38
451.324	813.38
451.545	803.38
451.766	794.38
451.986	788.38
452.207	797.38
452.428	792.38
452.648	782.38
452.869	846.38
453.089	888.38
453.31	851.38
453.53	739.38
453.751	773.38
453.971	768.38
454.192	787.38
454.412	804.38
454.633	774.38
454.853	777.38
455.073	748.38
455.294	752.38
455.514	756.38
455.734	763.38
455.955	790.38
456.175	826.38
456.395	788.38
456.616	723.38
456.836	692.38
457.056	712.38
457.276	700.38
457.497	710.38
457.717	714.38
457.937	726.38
458.157	734.38
458.377	729.38
458.598	771.38
458.818	778.38
459.038	816.38
459.258	852.38
459.478	886.38
459.698	902.38
459.918	917.38
460.138	871.38
460.358	928.38
460.578	882.38
460.798	902.38
461.018	894.38
461.238	854.38
461.458	877.38
461.678	899.38
461.898	962.38
462.118	961.38
462.338	951.38
462.558	978.38
462.777	1012.38
462.997	1047.38
463.217	1012.38
463.437	1043.38
463.657	1020.38
463.876	961.38
464.096	968.38
464.316	1006.38
464.536	997.38
464.755	1024.38
464.975	1032.38
465.195	972.38
465.414	1044.38
465.634	967.38
465.854	958.38
466.073	883.38
466.293	878.38
466.512	919.38
466.732	1038.38
466.951	1076.38
467.171	948.38
467.391	892.38
467.61	877.38
467.829	950.38
468.049	953.38
468.268	862.38
468.488	892.38
468.707	944.38
468.927	1060.38
469.146	1184.38
469.365	1056.38
469.585	982.38
469.804	1033.38
470.023	1086.38
470.243	991.38
470.462	946.38
470.681	920.38
470.901	945.38
471.12	998.38
471.339	987.38
471.558	913.38
471.777	942.38
471.997	1024.38
472.216	1128.38
472.435	1100.38
472.654	996.38
472.873	983.38
473.092	1008.38
473.311	1065.38
473.53	965.38
473.749	941.38
473.968	1022.38
474.187	979.38
474.406	946.38
474.625	921.38
474.844	988.38
475.063	1057.38
475.282	1040.38
475.501	1095.38
475.72	1173.38
475.939	1105.38
476.158	1148.38
476.377	1282.38
476.596	1466.38
476.814	1550.38
477.033	1269.38
477.252	1068.38
477.471	1009.38
477.69	1017.38
477.908	1104.38
478.127	1152.38
478.346	1066.38
478.564	1170.38
478.783	1140.38
479.002	1144.38
479.22	1306.38
479.439	1425.38
479.658	1248.38
479.876	1143.38
480.095	1232.38
480.313	1241.38
480.532	1161.38
480.751	1098.38
480.969	1121.38
481.188	1298.38
481.406	1320.38
481.624	1228.38
481.843	1127.38
482.061	1088.38
482.28	1217.38
482.498	1492.38
482.717	1406.38
482.935	1221.38
483.153	1150.38
483.372	1059.38
483.59	1078.38
483.808	1066.38
484.027	1059.38
484.245	1001.38
484.463	1001.38
484.681	1048.38
484.9	1143.38
485.118	1200.38
485.336	1085.38
485.554	1038.38
485.772	1087.38
485.99	1188.38
486.209	1282.38
486.427	1248.38
486.645	1204.38
486.863	1239.38
487.081	1253.38
487.299	1390.38
487.517	1376.38
487.735	1213.38
487.953	1248.38
488.171	1270.38
488.389	1226.38
488.607	1138.38
488.825	1171.38
489.043	1325.38
489.261	1490.38
489.479	1619.38
489.696	1302.38
489.914	1188.38
490.132	1142.38
490.35	1154.38
490.568	1146.38
490.786	1116.38
491.003	1129.38
491.221	1169.38
491.439	1201.38
491.657	1156.38
491.874	1255.38
492.092	1571.38
492.31	1873.38
492.527	1800.38
492.745	1545.38
492.963	1365.38
493.18	1340.38
493.398	1338.38
493.615	1320.38
