Data from NickelSpatula_HRD10591_16-35-02-126.txt Node
Date: Mon Jul 22 16:35:02 EDT 2019
User: cochatt
Spectrometer: HR+D1059
Trigger mode: 1
Integration Time (sec): 1.000000E-1
Scans to average: 1
Electric dark correction enabled: true
Nonlinearity correction enabled: false
Boxcar width: 0
XAxis mode: Wavelengths
Number of Pixels in Spectrum: 2048
>>>>>Begin Spectral Data<<<<<
223.165	-18.88
223.4	-18.88
223.635	-18.88
223.869	-26.88
224.104	-19.88
224.338	-16.88
224.573	-7.88
224.808	-4.88
225.042	1.12
225.277	-6.88
225.511	-11.88
225.746	-2.88
225.98	-3.88
226.215	20.12
226.449	10.12
226.683	19.12
226.918	33.12
227.152	37.12
227.387	30.12
227.621	49.12
227.856	43.12
228.09	34.12
228.324	65.12
228.559	55.12
228.793	74.12
229.027	86.12
229.262	85.12
229.496	98.12
229.73	92.12
229.964	99.12
230.199	86.12
230.433	102.12
230.667	101.12
230.901	88.12
231.136	96.12
231.37	104.12
231.604	102.12
231.838	104.12
232.072	101.12
232.306	100.12
232.541	103.12
232.775	96.12
233.009	118.12
233.243	122.12
233.477	123.12
233.711	125.12
233.945	134.12
234.179	131.12
234.413	137.12
234.647	151.12
234.881	148.12
235.115	157.12
235.349	148.12
235.583	116.12
235.817	115.12
236.051	137.12
236.285	137.12
236.519	133.12
236.753	140.12
236.987	141.12
237.221	125.12
237.455	137.12
237.689	125.12
237.922	135.12
238.156	147.12
238.39	152.12
238.624	155.12
238.858	149.12
239.091	151.12
239.325	150.12
239.559	137.12
239.793	161.12
240.027	169.12
240.26	160.12
240.494	164.12
240.728	143.12
240.961	166.12
241.195	161.12
241.429	148.12
241.662	181.12
241.896	155.12
242.13	135.12
242.363	129.12
242.597	142.12
242.83	138.12
243.064	156.12
243.298	158.12
243.531	172.12
243.765	169.12
243.998	164.12
244.232	154.12
244.465	168.12
244.699	164.12
244.932	157.12
245.166	159.12
245.399	161.12
245.633	162.12
245.866	160.12
246.099	169.12
246.333	183.12
246.566	202.12
246.8	192.12
247.033	180.12
247.266	182.12
247.5	186.12
247.733	179.12
247.966	159.12
248.2	172.12
248.433	191.12
248.666	198.12
248.899	200.12
249.133	196.12
249.366	214.12
249.599	239.12
249.832	224.12
250.066	203.12
250.299	212.12
250.532	195.12
250.765	203.12
250.998	192.12
251.231	187.12
251.465	185.12
251.698	195.12
251.931	201.12
252.164	203.12
252.397	230.12
252.63	245.12
252.863	276.12
253.096	265.12
253.329	251.12
253.562	242.12
253.795	270.12
254.028	284.12
254.261	295.12
254.494	259.12
254.727	277.12
254.96	245.12
255.193	264.12
255.426	273.12
255.659	197.12
255.892	181.12
256.124	213.12
256.357	226.12
256.59	258.12
256.823	246.12
257.056	228.12
257.289	213.12
257.521	224.12
257.754	260.12
257.987	293.12
258.22	246.12
258.452	219.12
258.685	250.12
258.918	277.12
259.151	278.12
259.383	306.12
259.616	333.12
259.849	322.12
260.081	337.12
260.314	346.12
260.547	295.12
260.779	296.12
261.012	341.12
261.244	314.12
261.477	325.12
261.71	329.12
261.942	281.12
262.175	302.12
262.407	271.12
262.64	272.12
262.872	305.12
263.105	348.12
263.337	337.12
263.57	310.12
263.802	221.12
264.035	228.12
264.267	217.12
264.499	195.12
264.732	160.12
264.964	160.12
265.197	189.12
265.429	188.12
265.661	182.12
265.894	206.12
266.126	230.12
266.358	221.12
266.591	274.12
266.823	327.12
267.055	296.12
267.287	283.12
267.52	275.12
267.752	286.12
267.984	301.12
268.216	311.12
268.448	277.12
268.681	250.12
268.913	271.12
269.145	281.12
269.377	294.12
269.609	295.12
269.841	281.12
270.073	301.12
270.306	288.12
270.538	301.12
270.77	328.12
271.002	303.12
271.234	317.12
271.466	334.12
271.698	309.12
271.93	298.12
272.162	297.12
272.394	284.12
272.626	284.12
272.858	312.12
273.09	317.12
273.322	272.12
273.553	258.12
273.785	291.12
274.017	361.12
274.249	447.12
274.481	458.12
274.713	518.12
274.945	554.12
275.176	556.12
275.408	524.12
275.64	498.12
275.872	498.12
276.104	426.12
276.335	372.12
276.567	374.12
276.799	397.12
277.031	397.12
277.262	342.12
277.494	263.12
277.726	254.12
277.957	289.12
278.189	303.12
278.421	311.12
278.652	302.12
278.884	291.12
279.115	260.12
279.347	253.12
279.579	257.12
279.81	279.12
280.042	259.12
280.273	289.12
280.505	238.12
280.736	222.12
280.968	238.12
281.199	249.12
281.431	266.12
281.662	259.12
281.894	269.12
282.125	267.12
282.356	305.12
282.588	287.12
282.819	269.12
283.051	291.12
283.282	330.12
283.513	356.12
283.745	403.12
283.976	413.12
284.207	399.12
284.439	404.12
284.67	380.12
284.901	343.12
285.132	379.12
285.364	391.12
285.595	355.12
285.826	383.12
286.057	385.12
286.288	397.12
286.52	392.12
286.751	410.12
286.982	409.12
287.213	342.12
287.444	356.12
287.675	359.12
287.906	354.12
288.138	323.12
288.369	284.12
288.6	266.12
288.831	287.12
289.062	312.12
289.293	333.12
289.524	326.12
289.755	325.12
289.986	332.12
290.217	299.12
290.448	255.12
290.679	227.12
290.91	191.12
291.141	214.12
291.371	233.12
291.602	217.12
291.833	205.12
292.064	232.12
292.295	245.12
292.526	270.12
292.757	291.12
292.987	310.12
293.218	330.12
293.449	330.12
293.68	351.12
293.91	334.12
294.141	310.12
294.372	300.12
294.603	288.12
294.833	327.12
295.064	348.12
295.295	361.12
295.525	289.12
295.756	250.12
295.987	222.12
296.217	210.12
296.448	219.12
296.679	219.12
296.909	233.12
297.14	260.12
297.37	295.12
297.601	264.12
297.831	238.12
298.062	258.12
298.292	283.12
298.523	301.12
298.753	335.12
298.984	298.12
299.214	260.12
299.445	226.12
299.675	229.12
299.905	224.12
300.136	228.12
300.366	227.12
300.597	228.12
300.827	224.12
301.057	211.12
301.288	199.12
301.518	227.12
301.748	250.12
301.979	255.12
302.209	257.12
302.439	269.12
302.669	237.12
302.9	251.12
303.13	249.12
303.36	213.12
303.59	229.12
303.82	234.12
304.051	245.12
304.281	257.12
304.511	268.12
304.741	249.12
304.971	245.12
305.201	261.12
305.431	261.12
305.661	212.12
305.891	206.12
306.121	203.12
306.352	206.12
306.582	199.12
306.812	181.12
307.042	175.12
307.272	179.12
307.502	198.12
307.731	189.12
307.961	203.12
308.191	178.12
308.421	171.12
308.651	167.12
308.881	163.12
309.111	177.12
309.341	170.12
309.571	198.12
309.8	211.12
310.03	190.12
310.26	190.12
310.49	206.12
310.72	185.12
310.949	193.12
311.179	180.12
311.409	204.12
311.639	223.12
311.868	272.12
312.098	325.12
312.328	352.12
312.557	340.12
312.787	347.12
313.017	327.12
313.246	350.12
313.476	345.12
313.706	305.12
313.935	270.12
314.165	213.12
314.394	192.12
314.624	204.12
314.853	214.12
315.083	210.12
315.312	203.12
315.542	205.12
315.771	187.12
316.001	185.12
316.23	180.12
316.46	185.12
316.689	179.12
316.919	199.12
317.148	181.12
317.377	185.12
317.607	187.12
317.836	206.12
318.065	227.12
318.295	248.12
318.524	230.12
318.753	206.12
318.983	189.12
319.212	174.12
319.441	199.12
319.67	215.12
319.9	236.12
320.129	222.12
320.358	214.12
320.587	187.12
320.816	200.12
321.046	226.12
321.275	246.12
321.504	257.12
321.733	243.12
321.962	220.12
322.191	228.12
322.42	203.12
322.649	205.12
322.878	225.12
323.108	244.12
323.337	226.12
323.566	227.12
323.795	209.12
324.024	210.12
324.253	198.12
324.482	189.12
324.71	198.12
324.939	226.12
325.168	234.12
325.397	200.12
325.626	186.12
325.855	200.12
326.084	199.12
326.313	186.12
326.542	186.12
326.77	190.12
326.999	195.12
327.228	195.12
327.457	215.12
327.686	198.12
327.914	188.12
328.143	167.12
328.372	172.12
328.6	177.12
328.829	181.12
329.058	187.12
329.287	196.12
329.515	194.12
329.744	168.12
329.972	179.12
330.201	182.12
330.43	169.12
330.658	188.12
330.887	219.12
331.115	215.12
331.344	202.12
331.572	195.12
331.801	185.12
332.03	191.12
332.258	190.12
332.486	196.12
332.715	207.12
332.943	185.12
333.172	196.12
333.4	187.12
333.629	206.12
333.857	208.12
334.085	226.12
334.314	209.12
334.542	212.12
334.771	190.12
334.999	189.12
335.227	189.12
335.455	199.12
335.684	211.12
335.912	238.12
336.14	230.12
336.369	259.12
336.597	241.12
336.825	258.12
337.053	281.12
337.281	262.12
337.51	200.12
337.738	174.12
337.966	213.12
338.194	213.12
338.422	218.12
338.65	174.12
338.878	174.12
339.106	193.12
339.334	213.12
339.562	221.12
339.79	200.12
340.018	185.12
340.246	202.12
340.474	215.12
340.702	215.12
340.93	267.12
341.158	231.12
341.386	217.12
341.614	198.12
341.842	205.12
342.07	223.12
342.298	253.12
342.526	252.12
342.754	245.12
342.981	210.12
343.209	200.12
343.437	217.12
343.665	215.12
343.893	207.12
344.12	263.12
344.348	287.12
344.576	284.12
344.804	213.12
345.031	200.12
345.259	198.12
345.487	189.12
345.714	201.12
345.942	214.12
346.17	220.12
346.397	219.12
346.625	189.12
346.853	195.12
347.08	191.12
347.308	200.12
347.535	221.12
347.763	215.12
347.99	213.12
348.218	192.12
348.445	197.12
348.673	194.12
348.9	185.12
349.128	223.12
349.355	214.12
349.583	200.12
349.81	227.12
350.037	206.12
350.265	193.12
350.492	166.12
350.72	173.12
350.947	149.12
351.174	167.12
351.402	176.12
351.629	203.12
351.856	192.12
352.083	179.12
352.311	187.12
352.538	214.12
352.765	207.12
352.992	195.12
353.22	204.12
353.447	207.12
353.674	200.12
353.901	190.12
354.128	179.12
354.355	189.12
354.583	183.12
354.81	214.12
355.037	198.12
355.264	203.12
355.491	203.12
355.718	204.12
355.945	213.12
356.172	219.12
356.399	191.12
356.626	219.12
356.853	287.12
357.08	321.12
357.307	314.12
357.534	247.12
357.761	241.12
357.988	300.12
358.215	335.12
358.441	329.12
358.668	276.12
358.895	276.12
359.122	227.12
359.349	223.12
359.576	250.12
359.802	221.12
360.029	183.12
360.256	209.12
360.483	248.12
360.709	295.12
360.936	278.12
361.163	269.12
361.39	214.12
361.616	211.12
361.843	227.12
362.07	261.12
362.296	261.12
362.523	193.12
362.749	181.12
362.976	170.12
363.203	209.12
363.429	244.12
363.656	206.12
363.882	205.12
364.109	202.12
364.335	211.12
364.562	197.12
364.788	199.12
365.015	244.12
365.241	233.12
365.468	201.12
365.694	173.12
365.92	158.12
366.147	172.12
366.373	164.12
366.599	153.12
366.826	164.12
367.052	180.12
367.278	195.12
367.505	155.12
367.731	175.12
367.957	203.12
368.184	193.12
368.41	186.12
368.636	215.12
368.862	218.12
369.089	193.12
369.315	192.12
369.541	188.12
369.767	188.12
369.993	167.12
370.219	169.12
370.445	187.12
370.672	195.12
370.898	214.12
371.124	208.12
371.35	182.12
371.576	187.12
371.802	203.12
372.028	219.12
372.254	238.12
372.48	210.12
372.706	185.12
372.932	198.12
373.158	208.12
373.384	255.12
373.61	276.12
373.835	284.12
374.061	233.12
374.287	228.12
374.513	252.12
374.739	296.12
374.965	300.12
375.191	291.12
375.416	207.12
375.642	197.12
375.868	204.12
376.094	237.12
376.319	225.12
376.545	217.12
376.771	233.12
376.997	227.12
377.222	194.12
377.448	161.12
377.674	166.12
377.899	170.12
378.125	170.12
378.35	174.12
378.576	162.12
378.802	174.12
379.027	196.12
379.253	219.12
379.478	187.12
379.704	211.12
379.929	218.12
380.155	219.12
380.38	185.12
380.606	198.12
380.831	218.12
381.057	204.12
381.282	189.12
381.507	202.12
381.733	249.12
381.958	266.12
382.184	286.12
382.409	314.12
382.634	294.12
382.86	295.12
383.085	261.12
383.31	231.12
383.535	226.12
383.761	225.12
383.986	215.12
384.211	264.12
384.436	237.12
384.662	214.12
384.887	210.12
385.112	195.12
385.337	223.12
385.562	195.12
385.787	219.12
386.013	252.12
386.238	225.12
386.463	210.12
386.688	190.12
386.913	204.12
387.138	179.12
387.363	191.12
387.588	211.12
387.813	190.12
388.038	215.12
388.263	193.12
388.488	189.12
388.713	222.12
388.938	213.12
389.163	205.12
389.387	186.12
389.612	188.12
389.837	190.12
390.062	199.12
390.287	205.12
390.512	187.12
390.736	193.12
390.961	199.12
391.186	169.12
391.411	191.12
391.636	185.12
391.86	184.12
392.085	201.12
392.31	200.12
392.534	196.12
392.759	188.12
392.984	182.12
393.208	187.12
393.433	164.12
393.658	174.12
393.882	161.12
394.107	170.12
394.331	177.12
394.556	172.12
394.78	169.12
395.005	170.12
395.229	165.12
395.454	171.12
395.678	189.12
395.903	190.12
396.127	169.12
396.352	181.12
396.576	219.12
396.801	197.12
397.025	223.12
397.249	218.12
397.474	201.12
397.698	196.12
397.922	201.12
398.147	186.12
398.371	182.12
398.595	183.12
398.82	186.12
399.044	203.12
399.268	215.12
399.492	214.12
399.717	217.12
399.941	218.12
400.165	215.12
400.389	210.12
400.613	219.12
400.837	219.12
401.062	196.12
401.286	183.12
401.51	199.12
401.734	184.12
401.958	192.12
402.182	203.12
402.406	187.12
402.63	184.12
402.854	181.12
403.078	206.12
403.302	267.12
403.526	293.12
403.75	259.12
403.974	224.12
404.198	216.12
404.422	244.12
404.645	259.12
404.869	264.12
405.093	244.12
405.317	201.12
405.541	211.12
405.765	200.12
405.988	217.12
406.212	203.12
406.436	247.12
406.66	257.12
406.883	219.12
407.107	216.12
407.331	246.12
407.555	249.12
407.778	223.12
408.002	206.12
408.226	208.12
408.449	217.12
408.673	212.12
408.896	198.12
409.12	192.12
409.344	212.12
409.567	183.12
409.791	199.12
410.014	195.12
410.238	184.12
410.461	201.12
410.685	193.12
410.908	188.12
411.132	195.12
411.355	196.12
411.578	199.12
411.802	193.12
412.025	185.12
412.249	206.12
412.472	221.12
412.695	213.12
412.919	205.12
413.142	194.12
413.365	200.12
413.589	194.12
413.812	203.12
414.035	206.12
414.258	184.12
414.482	194.12
414.705	215.12
414.928	180.12
415.151	184.12
415.374	190.12
415.597	188.12
415.821	195.12
416.044	202.12
416.267	206.12
416.49	174.12
416.713	193.12
416.936	179.12
417.159	191.12
417.382	209.12
417.605	197.12
417.828	199.12
418.051	197.12
418.274	176.12
418.497	192.12
418.72	206.12
418.943	201.12
419.166	204.12
419.389	211.12
419.611	204.12
419.834	215.12
420.057	221.12
420.28	217.12
420.503	221.12
420.726	198.12
420.948	190.12
421.171	197.12
421.394	181.12
421.617	179.12
421.839	183.12
422.062	207.12
422.285	209.12
422.507	182.12
422.73	188.12
422.953	199.12
423.175	197.12
423.398	188.12
423.621	215.12
423.843	223.12
424.066	221.12
424.288	193.12
424.511	193.12
424.733	205.12
424.956	194.12
425.178	212.12
425.401	234.12
425.623	264.12
425.846	223.12
426.068	209.12
426.291	253.12
426.513	207.12
426.735	199.12
426.958	203.12
427.18	230.12
427.402	265.12
427.625	283.12
427.847	242.12
428.069	183.12
428.292	195.12
428.514	190.12
428.736	193.12
428.958	190.12
429.181	228.12
429.403	210.12
429.625	202.12
429.847	193.12
430.069	205.12
430.292	194.12
430.514	185.12
430.736	187.12
430.958	216.12
431.18	200.12
431.402	185.12
431.624	179.12
431.846	169.12
432.068	188.12
432.29	170.12
432.512	194.12
432.734	229.12
432.956	218.12
433.178	185.12
433.4	172.12
433.622	173.12
433.844	195.12
434.066	219.12
434.287	214.12
434.509	203.12
434.731	179.12
434.953	201.12
435.175	205.12
435.397	219.12
435.618	185.12
435.84	185.12
436.062	195.12
436.284	187.12
436.505	163.12
436.727	158.12
436.949	179.12
437.17	173.12
437.392	193.12
437.614	197.12
437.835	166.12
438.057	197.12
438.278	192.12
438.5	267.12
438.721	251.12
438.943	198.12
439.165	174.12
439.386	156.12
439.608	171.12
439.829	163.12
440.05	177.12
440.272	174.12
440.493	187.12
440.715	253.12
440.936	209.12
441.158	173.12
441.379	184.12
441.6	197.12
441.822	213.12
442.043	197.12
442.264	183.12
442.486	194.12
442.707	205.12
442.928	187.12
443.149	191.12
443.371	187.12
443.592	196.12
443.813	194.12
444.034	194.12
444.255	179.12
444.476	181.12
444.698	195.12
444.919	201.12
445.14	305.12
445.361	251.12
445.582	206.12
445.803	209.12
446.024	204.12
446.245	211.12
446.466	188.12
446.687	198.12
446.908	196.12
447.129	204.12
447.35	182.12
447.571	164.12
447.792	188.12
448.013	162.12
448.234	181.12
448.455	164.12
448.675	168.12
448.896	173.12
449.117	153.12
449.338	165.12
449.559	186.12
449.779	173.12
450	197.12
450.221	195.12
450.442	186.12
450.662	172.12
450.883	155.12
451.104	167.12
451.324	172.12
451.545	196.12
451.766	168.12
451.986	193.12
452.207	186.12
452.428	156.12
452.648	168.12
452.869	173.12
453.089	173.12
453.31	173.12
453.53	169.12
453.751	161.12
453.971	182.12
454.192	179.12
454.412	167.12
454.633	173.12
454.853	157.12
455.073	155.12
455.294	167.12
455.514	184.12
455.734	166.12
455.955	181.12
456.175	171.12
456.395	168.12
456.616	158.12
456.836	175.12
457.056	162.12
457.276	153.12
457.497	153.12
457.717	170.12
457.937	163.12
458.157	152.12
458.377	148.12
458.598	163.12
458.818	175.12
459.038	167.12
459.258	170.12
459.478	193.12
459.698	182.12
459.918	193.12
460.138	180.12
460.358	202.12
460.578	203.12
460.798	201.12
461.018	195.12
461.238	179.12
461.458	192.12
461.678	196.12
461.898	184.12
462.118	194.12
462.338	189.12
462.558	210.12
462.777	204.12
462.997	220.12
463.217	220.12
463.437	214.12
463.657	226.12
463.876	213.12
464.096	210.12
464.316	223.12
464.536	234.12
464.755	236.12
464.975	218.12
465.195	211.12
465.414	242.12
465.634	185.12
465.854	175.12
466.073	194.12
466.293	193.12
466.512	208.12
466.732	187.12
466.951	213.12
467.171	189.12
467.391	185.12
467.61	192.12
467.829	187.12
468.049	207.12
468.268	181.12
468.488	195.12
468.707	195.12
468.927	223.12
469.146	242.12
469.365	225.12
469.585	205.12
469.804	210.12
470.023	225.12
470.243	215.12
470.462	207.12
470.681	207.12
470.901	179.12
471.12	193.12
471.339	218.12
471.558	204.12
471.777	198.12
471.997	218.12
472.216	217.12
472.435	243.12
472.654	207.12
472.873	215.12
473.092	206.12
473.311	223.12
473.53	198.12
473.749	186.12
473.968	206.12
474.187	208.12
474.406	207.12
474.625	195.12
474.844	197.12
475.063	192.12
475.282	209.12
475.501	222.12
475.72	260.12
475.939	236.12
476.158	221.12
476.377	289.12
476.596	285.12
476.814	308.12
477.033	267.12
477.252	234.12
477.471	207.12
477.69	212.12
477.908	212.12
478.127	222.12
478.346	218.12
478.564	242.12
478.783	224.12
479.002	215.12
479.22	238.12
479.439	273.12
479.658	236.12
479.876	238.12
480.095	233.12
480.313	241.12
480.532	236.12
480.751	236.12
480.969	234.12
481.188	251.12
481.406	246.12
481.624	233.12
481.843	237.12
482.061	218.12
482.28	242.12
482.498	317.12
482.717	307.12
482.935	252.12
483.153	242.12
483.372	219.12
483.59	210.12
483.808	207.12
484.027	209.12
484.245	198.12
484.463	186.12
484.681	214.12
484.9	224.12
485.118	230.12
485.336	219.12
485.554	207.12
485.772	213.12
485.99	232.12
486.209	258.12
486.427	243.12
486.645	226.12
486.863	240.12
487.081	228.12
487.299	266.12
487.517	264.12
487.735	232.12
487.953	250.12
488.171	257.12
488.389	228.12
488.607	215.12
488.825	213.12
489.043	254.12
489.261	282.12
489.479	318.12
489.696	239.12
489.914	236.12
490.132	224.12
490.35	228.12
490.568	220.12
490.786	213.12
491.003	209.12
491.221	211.12
491.439	217.12
491.657	228.12
491.874	245.12
492.092	280.12
492.31	332.12
492.527	335.12
492.745	287.12
492.963	262.12
493.18	241.12
493.398	257.12
493.615	239.12
493.833	250.12
494.05	242.12
494.268	235.12
494.485	257.12
494.703	222.12
494.92	236.12
495.138	227.12
495.355	213.12
495.573	243.12
495.79	265.12
496.008	328.12
496.225	297.12
496.442	256.12
496.66	254.12
496.877	260.12
497.094	278.12
497.312	253.12
497.529	231.12
497.746	250.12
497.963	258.12
498.181	274.12
498.398	294.12
498.615	286.12
498.832	324.12
499.049	318.12
499.267	314.12
499.484	307.12
499.701	318.12
499.918	328.12
500.135	377.12
500.352	371.12
500.569	381.12
500.786	382.12
501.003	399.12
501.22	336.12
501.437	319.12
501.654	308.12
501.871	302.12
502.088	312.12
502.305	282.12
502.522	287.12
