Data from NickelSpatula.Lamp.E5.5.P2_HRD10591_11-52-36-554.txt Node
Date: Tue Jul 23 11:52:36 EDT 2019
User: cochatt
Spectrometer: HR+D1059
Trigger mode: 1
Integration Time (sec): 1.000000E-1
Scans to average: 1
Electric dark correction enabled: true
Nonlinearity correction enabled: false
Boxcar width: 0
XAxis mode: Wavelengths
Number of Pixels in Spectrum: 2048
>>>>>Begin Spectral Data<<<<<
223.165	-19.69
223.4	-19.69
223.635	-19.69
223.869	-9.69
224.104	-22.69
224.338	-4.69
224.573	-0.69
224.808	-5.69
225.042	-8.69
225.277	-8.69
225.511	-7.69
225.746	0.31
225.98	5.31
226.215	9.31
226.449	7.31
226.683	15.31
226.918	27.31
227.152	23.31
227.387	19.31
227.621	48.31
227.856	44.31
228.09	43.31
228.324	64.31
228.559	62.31
228.793	49.31
229.027	77.31
229.262	68.31
229.496	83.31
229.73	93.31
229.964	97.31
230.199	102.31
230.433	103.31
230.667	102.31
230.901	102.31
231.136	89.31
231.37	90.31
231.604	102.31
231.838	110.31
232.072	109.31
232.306	98.31
232.541	122.31
232.775	103.31
233.009	110.31
233.243	124.31
233.477	136.31
233.711	128.31
233.945	129.31
234.179	120.31
234.413	141.31
234.647	136.31
234.881	129.31
235.115	150.31
235.349	137.31
235.583	135.31
235.817	133.31
236.051	129.31
236.285	150.31
236.519	154.31
236.753	138.31
236.987	146.31
237.221	137.31
237.455	123.31
237.689	139.31
237.922	153.31
238.156	137.31
238.39	161.31
238.624	187.31
238.858	164.31
239.091	171.31
239.325	167.31
239.559	171.31
239.793	158.31
240.027	188.31
240.26	164.31
240.494	151.31
240.728	169.31
240.961	183.31
241.195	188.31
241.429	191.31
241.662	171.31
241.896	155.31
242.13	163.31
242.363	151.31
242.597	140.31
242.83	174.31
243.064	162.31
243.298	175.31
243.531	183.31
243.765	188.31
243.998	175.31
244.232	176.31
244.465	175.31
244.699	159.31
244.932	180.31
245.166	179.31
245.399	163.31
245.633	168.31
245.866	169.31
246.099	168.31
246.333	191.31
246.566	216.31
246.8	190.31
247.033	209.31
247.266	212.31
247.5	195.31
247.733	198.31
247.966	178.31
248.2	205.31
248.433	199.31
248.666	205.31
248.899	210.31
249.133	188.31
249.366	237.31
249.599	244.31
249.832	239.31
250.066	227.31
250.299	213.31
250.532	204.31
250.765	204.31
250.998	200.31
251.231	202.31
251.465	200.31
251.698	223.31
251.931	212.31
252.164	220.31
252.397	247.31
252.63	250.31
252.863	279.31
253.096	276.31
253.329	264.31
253.562	274.31
253.795	294.31
254.028	306.31
254.261	335.31
254.494	298.31
254.727	304.31
254.96	268.31
255.193	278.31
255.426	270.31
255.659	195.31
255.892	218.31
256.124	224.31
256.357	263.31
256.59	307.31
256.823	280.31
257.056	229.31
257.289	222.31
257.521	239.31
257.754	274.31
257.987	329.31
258.22	280.31
258.452	240.31
258.685	276.31
258.918	289.31
259.151	297.31
259.383	317.31
259.616	376.31
259.849	358.31
260.081	401.31
260.314	426.31
260.547	334.31
260.779	344.31
261.012	392.31
261.244	374.31
261.477	386.31
261.71	370.31
261.942	314.31
262.175	316.31
262.407	301.31
262.64	286.31
262.872	342.31
263.105	380.31
263.337	406.31
263.57	375.31
263.802	245.31
264.035	232.31
264.267	253.31
264.499	206.31
264.732	192.31
264.964	194.31
265.197	189.31
265.429	204.31
265.661	213.31
265.894	206.31
266.126	226.31
266.358	268.31
266.591	305.31
266.823	363.31
267.055	358.31
267.287	287.31
267.52	309.31
267.752	332.31
267.984	336.31
268.216	334.31
268.448	283.31
268.681	280.31
268.913	296.31
269.145	306.31
269.377	314.31
269.609	306.31
269.841	291.31
270.073	313.31
270.306	335.31
270.538	346.31
270.77	349.31
271.002	335.31
271.234	355.31
271.466	340.31
271.698	345.31
271.93	308.31
272.162	326.31
272.394	320.31
272.626	324.31
272.858	333.31
273.09	327.31
273.322	284.31
273.553	269.31
273.785	327.31
274.017	401.31
274.249	472.31
274.481	522.31
274.713	562.31
274.945	652.31
275.176	660.31
275.408	608.31
275.64	540.31
275.872	551.31
276.104	472.31
276.335	400.31
276.567	426.31
276.799	425.31
277.031	470.31
277.262	352.31
277.494	281.31
277.726	279.31
277.957	292.31
278.189	315.31
278.421	335.31
278.652	330.31
278.884	320.31
279.115	293.31
279.347	281.31
279.579	281.31
279.81	281.31
280.042	305.31
280.273	329.31
280.505	277.31
280.736	245.31
280.968	256.31
281.199	259.31
281.431	288.31
281.662	284.31
281.894	290.31
282.125	288.31
282.356	311.31
282.588	322.31
282.819	287.31
283.051	320.31
283.282	362.31
283.513	425.31
283.745	484.31
283.976	474.31
284.207	426.31
284.439	442.31
284.67	442.31
284.901	388.31
285.132	438.31
285.364	433.31
285.595	402.31
285.826	438.31
286.057	442.31
286.288	422.31
286.52	442.31
286.751	451.31
286.982	461.31
287.213	408.31
287.444	401.31
287.675	402.31
287.906	420.31
288.138	336.31
288.369	314.31
288.6	298.31
288.831	315.31
289.062	362.31
289.293	381.31
289.524	353.31
289.755	358.31
289.986	387.31
290.217	338.31
290.448	285.31
290.679	223.31
290.91	234.31
291.141	228.31
291.371	243.31
291.602	242.31
291.833	225.31
292.064	258.31
292.295	294.31
292.526	316.31
292.757	310.31
292.987	347.31
293.218	362.31
293.449	375.31
293.68	406.31
293.91	359.31
294.141	394.31
294.372	356.31
294.603	322.31
294.833	355.31
295.064	424.31
295.295	396.31
295.525	303.31
295.756	263.31
295.987	240.31
296.217	247.31
296.448	238.31
296.679	250.31
296.909	265.31
297.14	285.31
297.37	298.31
297.601	295.31
297.831	257.31
298.062	281.31
298.292	324.31
298.523	358.31
298.753	378.31
298.984	359.31
299.214	294.31
299.445	265.31
299.675	258.31
299.905	264.31
300.136	266.31
300.366	267.31
300.597	271.31
300.827	244.31
301.057	248.31
301.288	262.31
301.518	259.31
301.748	274.31
301.979	291.31
302.209	320.31
302.439	329.31
302.669	304.31
302.9	275.31
303.13	280.31
303.36	276.31
303.59	263.31
303.82	276.31
304.051	287.31
304.281	319.31
304.511	300.31
304.741	280.31
304.971	294.31
305.201	299.31
305.431	280.31
305.661	248.31
305.891	256.31
306.121	268.31
306.352	239.31
306.582	222.31
306.812	215.31
307.042	213.31
307.272	212.31
307.502	211.31
307.731	197.31
307.961	220.31
308.191	201.31
308.421	197.31
308.651	210.31
308.881	208.31
309.111	199.31
309.341	196.31
309.571	216.31
309.8	227.31
310.03	225.31
310.26	231.31
310.49	225.31
310.72	211.31
310.949	219.31
311.179	233.31
311.409	229.31
311.639	258.31
311.868	305.31
312.098	398.31
312.328	407.31
312.557	387.31
312.787	408.31
313.017	357.31
313.246	381.31
313.476	427.31
313.706	392.31
313.935	308.31
314.165	240.31
314.394	224.31
314.624	218.31
314.853	236.31
315.083	246.31
315.312	235.31
315.542	246.31
315.771	214.31
316.001	189.31
316.23	211.31
316.46	206.31
316.689	198.31
316.919	225.31
317.148	238.31
317.377	225.31
317.607	201.31
317.836	226.31
318.065	244.31
318.295	264.31
318.524	267.31
318.753	216.31
318.983	225.31
319.212	222.31
319.441	233.31
319.67	258.31
319.9	248.31
320.129	235.31
320.358	219.31
320.587	226.31
320.816	222.31
321.046	262.31
321.275	291.31
321.504	284.31
321.733	258.31
321.962	266.31
322.191	267.31
322.42	224.31
322.649	219.31
322.878	262.31
323.108	258.31
323.337	244.31
323.566	265.31
323.795	244.31
324.024	236.31
324.253	231.31
324.482	224.31
324.71	257.31
324.939	267.31
325.168	266.31
325.397	224.31
325.626	222.31
325.855	220.31
326.084	234.31
326.313	232.31
326.542	207.31
326.77	223.31
326.999	231.31
327.228	226.31
327.457	250.31
327.686	229.31
327.914	212.31
328.143	205.31
328.372	195.31
328.6	206.31
328.829	225.31
329.058	216.31
329.287	208.31
329.515	215.31
329.744	204.31
329.972	213.31
330.201	209.31
330.43	213.31
330.658	228.31
330.887	258.31
331.115	251.31
331.344	240.31
331.572	238.31
331.801	226.31
332.03	195.31
332.258	229.31
332.486	220.31
332.715	228.31
332.943	229.31
333.172	227.31
333.4	236.31
333.629	259.31
333.857	280.31
334.085	278.31
334.314	261.31
334.542	248.31
334.771	242.31
334.999	242.31
335.227	230.31
335.455	235.31
335.684	258.31
335.912	288.31
336.14	291.31
336.369	287.31
336.597	260.31
336.825	300.31
337.053	328.31
337.281	287.31
337.51	236.31
337.738	222.31
337.966	261.31
338.194	280.31
338.422	265.31
338.65	255.31
338.878	227.31
339.106	235.31
339.334	257.31
339.562	244.31
339.79	222.31
340.018	250.31
340.246	254.31
340.474	274.31
340.702	266.31
340.93	275.31
341.158	292.31
341.386	251.31
341.614	245.31
341.842	236.31
342.07	263.31
342.298	290.31
342.526	310.31
342.754	272.31
342.981	245.31
343.209	252.31
343.437	253.31
343.665	272.31
343.893	283.31
344.12	321.31
344.348	357.31
344.576	328.31
344.804	282.31
345.031	249.31
345.259	226.31
345.487	244.31
345.714	253.31
345.942	280.31
346.17	286.31
346.397	261.31
346.625	242.31
346.853	238.31
347.08	214.31
347.308	262.31
347.535	286.31
347.763	281.31
347.99	241.31
348.218	231.31
348.445	238.31
348.673	254.31
348.9	258.31
349.128	262.31
349.355	248.31
349.583	264.31
349.81	241.31
350.037	219.31
350.265	213.31
350.492	212.31
350.72	203.31
350.947	202.31
351.174	228.31
351.402	220.31
351.629	232.31
351.856	219.31
352.083	228.31
352.311	230.31
352.538	233.31
352.765	274.31
352.992	245.31
353.22	240.31
353.447	250.31
353.674	224.31
353.901	232.31
354.128	221.31
354.355	217.31
354.583	228.31
354.81	227.31
355.037	240.31
355.264	244.31
355.491	229.31
355.718	254.31
355.945	257.31
356.172	260.31
356.399	235.31
356.626	299.31
356.853	331.31
357.08	339.31
357.307	368.31
357.534	280.31
357.761	312.31
357.988	363.31
358.215	428.31
358.441	385.31
358.668	345.31
358.895	302.31
359.122	280.31
359.349	276.31
359.576	322.31
359.802	268.31
360.029	227.31
360.256	245.31
360.483	269.31
360.709	342.31
360.936	325.31
361.163	306.31
361.39	253.31
361.616	249.31
361.843	278.31
362.07	323.31
362.296	284.31
362.523	260.31
362.749	226.31
362.976	222.31
363.203	265.31
363.429	297.31
363.656	258.31
363.882	241.31
364.109	250.31
364.335	239.31
364.562	222.31
364.788	262.31
365.015	312.31
365.241	254.31
365.468	230.31
365.694	198.31
365.92	203.31
366.147	197.31
366.373	202.31
366.599	199.31
366.826	201.31
367.052	188.31
367.278	211.31
367.505	192.31
367.731	204.31
367.957	240.31
368.184	219.31
368.41	243.31
368.636	233.31
368.862	246.31
369.089	231.31
369.315	226.31
369.541	209.31
369.767	219.31
369.993	206.31
370.219	209.31
370.445	220.31
370.672	231.31
370.898	247.31
371.124	248.31
371.35	234.31
371.576	207.31
371.802	220.31
372.028	274.31
372.254	298.31
372.48	259.31
372.706	255.31
372.932	263.31
373.158	272.31
373.384	301.31
373.61	369.31
373.835	365.31
374.061	291.31
374.287	273.31
374.513	300.31
374.739	354.31
374.965	362.31
375.191	363.31
375.416	277.31
375.642	246.31
375.868	283.31
376.094	296.31
376.319	261.31
376.545	269.31
376.771	308.31
376.997	275.31
377.222	212.31
377.448	192.31
377.674	184.31
377.899	190.31
378.125	195.31
378.35	192.31
378.576	194.31
378.802	217.31
379.027	222.31
379.253	215.31
379.478	231.31
379.704	250.31
379.929	254.31
380.155	255.31
380.38	241.31
380.606	263.31
380.831	266.31
381.057	246.31
381.282	232.31
381.507	266.31
381.733	308.31
381.958	318.31
382.184	331.31
382.409	348.31
382.634	351.31
382.86	349.31
383.085	305.31
383.31	266.31
383.535	296.31
383.761	299.31
383.986	262.31
384.211	310.31
384.436	306.31
384.662	240.31
384.887	243.31
385.112	241.31
385.337	264.31
385.562	256.31
385.787	285.31
386.013	296.31
386.238	300.31
386.463	259.31
386.688	240.31
386.913	226.31
387.138	223.31
387.363	222.31
387.588	238.31
387.813	239.31
388.038	263.31
388.263	226.31
388.488	241.31
388.713	264.31
388.938	270.31
389.163	244.31
389.387	214.31
389.612	222.31
389.837	226.31
390.062	256.31
390.287	238.31
390.512	248.31
390.736	225.31
390.961	212.31
391.186	221.31
391.411	221.31
391.636	217.31
391.86	234.31
392.085	246.31
392.31	255.31
392.534	235.31
392.759	233.31
392.984	241.31
393.208	232.31
393.433	233.31
393.658	209.31
393.882	211.31
394.107	218.31
394.331	198.31
394.556	197.31
394.78	202.31
395.005	200.31
395.229	206.31
395.454	216.31
395.678	242.31
395.903	234.31
396.127	196.31
396.352	216.31
396.576	247.31
396.801	252.31
397.025	239.31
397.249	264.31
397.474	244.31
397.698	239.31
397.922	259.31
398.147	220.31
398.371	233.31
398.595	225.31
398.82	255.31
399.044	235.31
399.268	256.31
399.492	283.31
399.717	291.31
399.941	295.31
400.165	281.31
400.389	249.31
400.613	243.31
400.837	252.31
401.062	234.31
401.286	213.31
401.51	227.31
401.734	234.31
401.958	235.31
402.182	255.31
402.406	235.31
402.63	230.31
402.854	256.31
403.078	291.31
403.302	354.31
403.526	388.31
403.75	331.31
403.974	286.31
404.198	291.31
404.422	296.31
404.645	329.31
404.869	359.31
405.093	297.31
405.317	260.31
405.541	248.31
405.765	264.31
405.988	273.31
406.212	276.31
406.436	304.31
406.66	307.31
406.883	291.31
407.107	286.31
407.331	320.31
407.555	328.31
407.778	268.31
408.002	277.31
408.226	281.31
408.449	273.31
408.673	273.31
408.896	240.31
409.12	240.31
409.344	252.31
409.567	242.31
409.791	255.31
410.014	231.31
410.238	234.31
410.461	258.31
410.685	238.31
410.908	235.31
411.132	228.31
411.355	231.31
411.578	246.31
411.802	234.31
412.025	247.31
412.249	248.31
412.472	244.31
412.695	230.31
412.919	235.31
413.142	238.31
413.365	268.31
413.589	273.31
413.812	243.31
414.035	244.31
414.258	248.31
414.482	251.31
414.705	265.31
414.928	248.31
415.151	240.31
415.374	218.31
415.597	239.31
415.821	227.31
416.044	246.31
416.267	234.31
416.49	238.31
416.713	229.31
416.936	231.31
417.159	221.31
417.382	242.31
417.605	240.31
417.828	250.31
418.051	230.31
418.274	254.31
418.497	231.31
418.72	238.31
418.943	226.31
419.166	260.31
419.389	268.31
419.611	257.31
419.834	267.31
420.057	277.31
420.28	272.31
420.503	264.31
420.726	235.31
420.948	225.31
421.171	245.31
421.394	236.31
421.617	212.31
421.839	226.31
422.062	246.31
422.285	238.31
422.507	240.31
422.73	240.31
422.953	233.31
423.175	238.31
423.398	258.31
423.621	275.31
423.843	260.31
424.066	258.31
424.288	256.31
424.511	226.31
424.733	228.31
424.956	259.31
425.178	272.31
425.401	314.31
425.623	354.31
425.846	312.31
426.068	260.31
426.291	275.31
426.513	235.31
426.735	233.31
426.958	240.31
427.18	269.31
427.402	337.31
427.625	375.31
427.847	310.31
428.069	248.31
428.292	213.31
428.514	225.31
428.736	231.31
428.958	264.31
429.181	303.31
429.403	264.31
429.625	227.31
429.847	227.31
430.069	233.31
430.292	227.31
430.514	220.31
430.736	234.31
430.958	279.31
431.18	264.31
431.402	223.31
431.624	219.31
431.846	227.31
432.068	224.31
432.29	239.31
432.512	224.31
432.734	283.31
432.956	274.31
433.178	247.31
433.4	220.31
433.622	210.31
433.844	228.31
434.066	262.31
434.287	233.31
434.509	244.31
434.731	259.31
434.953	254.31
435.175	275.31
435.397	272.31
435.618	251.31
435.84	217.31
436.062	214.31
436.284	222.31
436.505	205.31
436.727	219.31
436.949	218.31
437.17	223.31
437.392	218.31
437.614	219.31
437.835	240.31
438.057	240.31
438.278	250.31
438.5	310.31
438.721	327.31
438.943	236.31
439.165	236.31
439.386	215.31
439.608	214.31
439.829	218.31
440.05	215.31
440.272	230.31
440.493	252.31
440.715	293.31
440.936	254.31
441.158	236.31
441.379	214.31
441.6	240.31
441.822	278.31
442.043	255.31
442.264	235.31
442.486	225.31
442.707	234.31
442.928	247.31
443.149	240.31
443.371	235.31
443.592	252.31
443.813	251.31
444.034	235.31
444.255	258.31
444.476	243.31
444.698	257.31
444.919	271.31
445.14	339.31
445.361	308.31
445.582	264.31
445.803	246.31
446.024	242.31
446.245	243.31
446.466	244.31
446.687	224.31
446.908	222.31
447.129	226.31
447.35	224.31
447.571	213.31
447.792	216.31
448.013	192.31
448.234	187.31
448.455	215.31
448.675	196.31
448.896	222.31
449.117	217.31
449.338	228.31
449.559	228.31
449.779	255.31
450	235.31
450.221	219.31
450.442	209.31
450.662	218.31
450.883	225.31
451.104	203.31
451.324	228.31
451.545	225.31
451.766	235.31
451.986	209.31
452.207	196.31
452.428	215.31
452.648	213.31
452.869	217.31
453.089	215.31
453.31	241.31
453.53	214.31
453.751	226.31
453.971	200.31
454.192	202.31
454.412	217.31
454.633	212.31
454.853	212.31
455.073	202.31
455.294	192.31
455.514	210.31
455.734	215.31
455.955	224.31
456.175	217.31
456.395	218.31
456.616	199.31
456.836	204.31
457.056	209.31
457.276	200.31
457.497	188.31
457.717	216.31
457.937	203.31
458.157	200.31
458.377	190.31
458.598	200.31
458.818	198.31
459.038	227.31
459.258	222.31
459.478	219.31
459.698	235.31
459.918	234.31
460.138	243.31
460.358	250.31
460.578	245.31
460.798	250.31
461.018	251.31
461.238	232.31
461.458	246.31
461.678	254.31
461.898	254.31
462.118	236.31
462.338	246.31
462.558	254.31
462.777	271.31
462.997	286.31
463.217	298.31
463.437	289.31
463.657	282.31
463.876	273.31
464.096	286.31
464.316	279.31
464.536	260.31
464.755	291.31
464.975	279.31
465.195	249.31
465.414	276.31
465.634	255.31
465.854	245.31
466.073	237.31
466.293	214.31
466.512	246.31
466.732	262.31
466.951	273.31
467.171	240.31
467.391	226.31
467.61	214.31
467.829	228.31
468.049	239.31
468.268	225.31
468.488	226.31
468.707	234.31
468.927	258.31
469.146	295.31
469.365	269.31
469.585	238.31
469.804	260.31
470.023	274.31
470.243	245.31
470.462	257.31
470.681	238.31
470.901	243.31
471.12	239.31
471.339	238.31
471.558	231.31
471.777	230.31
471.997	234.31
472.216	287.31
472.435	260.31
472.654	268.31
472.873	242.31
473.092	248.31
473.311	244.31
473.53	238.31
473.749	238.31
473.968	237.31
474.187	228.31
474.406	256.31
474.625	246.31
474.844	238.31
475.063	250.31
475.282	258.31
475.501	277.31
475.72	269.31
475.939	274.31
476.158	295.31
476.377	323.31
476.596	354.31
476.814	359.31
477.033	302.31
477.252	265.31
477.471	243.31
477.69	255.31
477.908	258.31
478.127	277.31
478.346	268.31
478.564	291.31
478.783	263.31
479.002	278.31
479.22	306.31
479.439	340.31
479.658	292.31
479.876	299.31
480.095	299.31
480.313	285.31
480.532	275.31
480.751	287.31
480.969	266.31
481.188	311.31
481.406	303.31
481.624	305.31
481.843	271.31
482.061	261.31
482.28	302.31
482.498	339.31
482.717	331.31
482.935	295.31
483.153	280.31
483.372	259.31
483.59	250.31
483.808	257.31
484.027	259.31
484.245	230.31
484.463	242.31
484.681	264.31
484.9	264.31
485.118	282.31
485.336	275.31
485.554	281.31
485.772	286.31
485.99	302.31
486.209	308.31
486.427	297.31
486.645	306.31
486.863	306.31
487.081	295.31
487.299	322.31
487.517	339.31
487.735	293.31
487.953	287.31
488.171	302.31
488.389	286.31
488.607	282.31
488.825	291.31
489.043	302.31
489.261	339.31
489.479	344.31
489.696	298.31
489.914	288.31
490.132	267.31
490.35	273.31
490.568	297.31
490.786	267.31
491.003	269.31
491.221	284.31
491.439	275.31
491.657	275.31
491.874	290.31
492.092	329.31
492.31	370.31
492.527	346.31
492.745	349.31
492.963	308.31
493.18	298.31
493.398	303.31
493.615	291.31
493.833	293.31
494.05	271.31
494.268	304.31
494.485	294.31
494.703	285.31
494.92	287.31
495.138	294.31
495.355	282.31
495.573	289.31
495.79	305.31
496.008	371.31
496.225	329.31
496.442	310.31
496.66	308.31
496.877	318.31
497.094	313.31
497.312	304.31
497.529	295.31
497.746	302.31
497.963	314.31
498.181	341.31
498.398	373.31
498.615	380.31
498.832	383.31
499.049	388.31
499.267	374.31
499.484	376.31
499.701	401.31
499.918	426.31
500.135	490.31
500.352	546.31
500.569	553.31
500.786	542.31
501.003	560.31
501.22	492.31
501.437	440.31
501.654	407.31
501.871	386.31
502.088	378.31
502.305	354.31
502.522	346.31
