Data from NickelSpatula.Lamp.E5.5.P2_HRD10591_11-54-07-546.txt Node
Date: Tue Jul 23 11:54:07 EDT 2019
User: cochatt
Spectrometer: HR+D1059
Trigger mode: 1
Integration Time (sec): 1.000000E-1
Scans to average: 1
Electric dark correction enabled: true
Nonlinearity correction enabled: false
Boxcar width: 0
XAxis mode: Wavelengths
Number of Pixels in Spectrum: 2048
>>>>>Begin Spectral Data<<<<<
223.165	-19.69
223.4	-19.69
223.635	-19.69
223.869	-19.69
224.104	-13.69
224.338	-19.69
224.573	-24.69
224.808	-11.69
225.042	3.31
225.277	-0.69
225.511	-5.69
225.746	13.31
225.98	11.31
226.215	14.31
226.449	4.31
226.683	11.31
226.918	23.31
227.152	34.31
227.387	37.31
227.621	40.31
227.856	39.31
228.09	52.31
228.324	45.31
228.559	47.31
228.793	69.31
229.027	69.31
229.262	91.31
229.496	86.31
229.73	83.31
229.964	97.31
230.199	103.31
230.433	102.31
230.667	115.31
230.901	99.31
231.136	100.31
231.37	105.31
231.604	103.31
231.838	125.31
232.072	98.31
232.306	101.31
232.541	108.31
232.775	118.31
233.009	117.31
233.243	121.31
233.477	107.31
233.711	135.31
233.945	124.31
234.179	115.31
234.413	127.31
234.647	128.31
234.881	163.31
235.115	121.31
235.349	133.31
235.583	124.31
235.817	112.31
236.051	136.31
236.285	125.31
236.519	127.31
236.753	148.31
236.987	135.31
237.221	131.31
237.455	115.31
237.689	121.31
237.922	145.31
238.156	138.31
238.39	159.31
238.624	176.31
238.858	162.31
239.091	148.31
239.325	140.31
239.559	138.31
239.793	143.31
240.027	173.31
240.26	168.31
240.494	161.31
240.728	173.31
240.961	186.31
241.195	168.31
241.429	161.31
241.662	172.31
241.896	133.31
242.13	141.31
242.363	130.31
242.597	147.31
242.83	150.31
243.064	140.31
243.298	162.31
243.531	153.31
243.765	168.31
243.998	181.31
244.232	156.31
244.465	151.31
244.699	159.31
244.932	164.31
245.166	173.31
245.399	149.31
245.633	151.31
245.866	147.31
246.099	165.31
246.333	164.31
246.566	188.31
246.8	170.31
247.033	185.31
247.266	177.31
247.5	175.31
247.733	172.31
247.966	163.31
248.2	162.31
248.433	199.31
248.666	200.31
248.899	190.31
249.133	201.31
249.366	230.31
249.599	236.31
249.832	218.31
250.066	193.31
250.299	211.31
250.532	175.31
250.765	186.31
250.998	177.31
251.231	183.31
251.465	196.31
251.698	192.31
251.931	191.31
252.164	197.31
252.397	207.31
252.63	226.31
252.863	249.31
253.096	260.31
253.329	262.31
253.562	247.31
253.795	265.31
254.028	291.31
254.261	290.31
254.494	272.31
254.727	259.31
254.96	235.31
255.193	268.31
255.426	271.31
255.659	202.31
255.892	177.31
256.124	203.31
256.357	239.31
256.59	267.31
256.823	256.31
257.056	218.31
257.289	201.31
257.521	212.31
257.754	268.31
257.987	295.31
258.22	268.31
258.452	236.31
258.685	239.31
258.918	263.31
259.151	283.31
259.383	303.31
259.616	316.31
259.849	325.31
260.081	352.31
260.314	355.31
260.547	307.31
260.779	324.31
261.012	377.31
261.244	344.31
261.477	347.31
261.71	330.31
261.942	280.31
262.175	285.31
262.407	281.31
262.64	275.31
262.872	305.31
263.105	333.31
263.337	360.31
263.57	312.31
263.802	242.31
264.035	212.31
264.267	211.31
264.499	204.31
264.732	194.31
264.964	171.31
265.197	179.31
265.429	188.31
265.661	187.31
265.894	201.31
266.126	224.31
266.358	235.31
266.591	273.31
266.823	323.31
267.055	311.31
267.287	258.31
267.52	277.31
267.752	301.31
267.984	313.31
268.216	295.31
268.448	282.31
268.681	257.31
268.913	271.31
269.145	284.31
269.377	305.31
269.609	289.31
269.841	277.31
270.073	289.31
270.306	303.31
270.538	311.31
270.77	320.31
271.002	297.31
271.234	330.31
271.466	322.31
271.698	297.31
271.93	280.31
272.162	303.31
272.394	287.31
272.626	283.31
272.858	299.31
273.09	312.31
273.322	257.31
273.553	249.31
273.785	284.31
274.017	367.31
274.249	452.31
274.481	460.31
274.713	530.31
274.945	565.31
275.176	582.31
275.408	540.31
275.64	482.31
275.872	493.31
276.104	435.31
276.335	353.31
276.567	373.31
276.799	395.31
277.031	414.31
277.262	319.31
277.494	267.31
277.726	274.31
277.957	269.31
278.189	305.31
278.421	314.31
278.652	301.31
278.884	282.31
279.115	262.31
279.347	255.31
279.579	268.31
279.81	277.31
280.042	266.31
280.273	282.31
280.505	254.31
280.736	256.31
280.968	226.31
281.199	248.31
281.431	283.31
281.662	284.31
281.894	261.31
282.125	274.31
282.356	292.31
282.588	288.31
282.819	263.31
283.051	281.31
283.282	338.31
283.513	371.31
283.745	410.31
283.976	420.31
284.207	404.31
284.439	415.31
284.67	402.31
284.901	375.31
285.132	386.31
285.364	408.31
285.595	357.31
285.826	405.31
286.057	411.31
286.288	402.31
286.52	396.31
286.751	412.31
286.982	437.31
287.213	379.31
287.444	357.31
287.675	362.31
287.906	394.31
288.138	316.31
288.369	296.31
288.6	290.31
288.831	305.31
289.062	358.31
289.293	350.31
289.524	355.31
289.755	336.31
289.986	348.31
290.217	314.31
290.448	263.31
290.679	217.31
290.91	217.31
291.141	237.31
291.371	232.31
291.602	220.31
291.833	238.31
292.064	240.31
292.295	264.31
292.526	304.31
292.757	319.31
292.987	331.31
293.218	343.31
293.449	351.31
293.68	370.31
293.91	346.31
294.141	352.31
294.372	340.31
294.603	307.31
294.833	341.31
295.064	391.31
295.295	363.31
295.525	301.31
295.756	259.31
295.987	221.31
296.217	220.31
296.448	232.31
296.679	228.31
296.909	268.31
297.14	284.31
297.37	291.31
297.601	281.31
297.831	247.31
298.062	270.31
298.292	301.31
298.523	342.31
298.753	363.31
298.984	337.31
299.214	280.31
299.445	243.31
299.675	243.31
299.905	228.31
300.136	243.31
300.366	244.31
300.597	260.31
300.827	241.31
301.057	226.31
301.288	229.31
301.518	245.31
301.748	282.31
301.979	299.31
302.209	320.31
302.439	320.31
302.669	283.31
302.9	275.31
303.13	260.31
303.36	261.31
303.59	260.31
303.82	257.31
304.051	283.31
304.281	284.31
304.511	266.31
304.741	257.31
304.971	271.31
305.201	290.31
305.431	272.31
305.661	236.31
305.891	225.31
306.121	253.31
306.352	227.31
306.582	203.31
306.812	211.31
307.042	204.31
307.272	199.31
307.502	197.31
307.731	213.31
307.961	213.31
308.191	202.31
308.421	193.31
308.651	191.31
308.881	187.31
309.111	195.31
309.341	209.31
309.571	204.31
309.8	217.31
310.03	221.31
310.26	230.31
310.49	212.31
310.72	205.31
310.949	204.31
311.179	222.31
311.409	223.31
311.639	254.31
311.868	296.31
312.098	351.31
312.328	389.31
312.557	373.31
312.787	390.31
313.017	326.31
313.246	356.31
313.476	381.31
313.706	337.31
313.935	287.31
314.165	256.31
314.394	218.31
314.624	218.31
314.853	235.31
315.083	244.31
315.312	232.31
315.542	250.31
315.771	219.31
316.001	191.31
316.23	198.31
316.46	191.31
316.689	211.31
316.919	207.31
317.148	221.31
317.377	204.31
317.607	201.31
317.836	200.31
318.065	267.31
318.295	262.31
318.524	256.31
318.753	220.31
318.983	207.31
319.212	220.31
319.441	231.31
319.67	260.31
319.9	259.31
320.129	243.31
320.358	218.31
320.587	204.31
320.816	226.31
321.046	243.31
321.275	287.31
321.504	260.31
321.733	251.31
321.962	250.31
322.191	235.31
322.42	240.31
322.649	242.31
322.878	250.31
323.108	248.31
323.337	239.31
323.566	230.31
323.795	251.31
324.024	222.31
324.253	230.31
324.482	221.31
324.71	227.31
324.939	268.31
325.168	247.31
325.397	232.31
325.626	231.31
325.855	216.31
326.084	213.31
326.313	219.31
326.542	205.31
326.77	218.31
326.999	202.31
327.228	235.31
327.457	234.31
327.686	230.31
327.914	196.31
328.143	194.31
328.372	196.31
328.6	208.31
328.829	204.31
329.058	199.31
329.287	199.31
329.515	209.31
329.744	199.31
329.972	205.31
330.201	187.31
330.43	184.31
330.658	220.31
330.887	242.31
331.115	244.31
331.344	236.31
331.572	234.31
331.801	209.31
332.03	226.31
332.258	220.31
332.486	216.31
332.715	228.31
332.943	229.31
333.172	219.31
333.4	223.31
333.629	256.31
333.857	275.31
334.085	244.31
334.314	233.31
334.542	244.31
334.771	230.31
334.999	215.31
335.227	220.31
335.455	233.31
335.684	227.31
335.912	270.31
336.14	284.31
336.369	277.31
336.597	260.31
336.825	289.31
337.053	315.31
337.281	279.31
337.51	211.31
337.738	231.31
337.966	235.31
338.194	259.31
338.422	233.31
338.65	232.31
338.878	187.31
339.106	219.31
339.334	218.31
339.562	248.31
339.79	207.31
340.018	221.31
340.246	220.31
340.474	239.31
340.702	263.31
340.93	282.31
341.158	291.31
341.386	241.31
341.614	229.31
341.842	239.31
342.07	250.31
342.298	271.31
342.526	264.31
342.754	257.31
342.981	225.31
343.209	232.31
343.437	250.31
343.665	270.31
343.893	264.31
344.12	319.31
344.348	333.31
344.576	326.31
344.804	264.31
345.031	245.31
345.259	232.31
345.487	220.31
345.714	239.31
345.942	250.31
346.17	269.31
346.397	246.31
346.625	225.31
346.853	235.31
347.08	216.31
347.308	238.31
347.535	262.31
347.763	243.31
347.99	225.31
348.218	224.31
348.445	244.31
348.673	241.31
348.9	232.31
349.128	229.31
349.355	239.31
349.583	229.31
349.81	229.31
350.037	222.31
350.265	201.31
350.492	192.31
350.72	193.31
350.947	200.31
351.174	189.31
351.402	221.31
351.629	226.31
351.856	215.31
352.083	192.31
352.311	227.31
352.538	239.31
352.765	243.31
352.992	221.31
353.22	239.31
353.447	224.31
353.674	219.31
353.901	219.31
354.128	222.31
354.355	218.31
354.583	231.31
354.81	227.31
355.037	253.31
355.264	233.31
355.491	239.31
355.718	243.31
355.945	258.31
356.172	240.31
356.399	252.31
356.626	277.31
356.853	340.31
357.08	373.31
357.307	361.31
357.534	300.31
357.761	297.31
357.988	363.31
358.215	413.31
358.441	381.31
358.668	328.31
358.895	291.31
359.122	278.31
359.349	277.31
359.576	313.31
359.802	272.31
360.029	222.31
360.256	228.31
360.483	268.31
360.709	346.31
360.936	334.31
361.163	310.31
361.39	254.31
361.616	228.31
361.843	259.31
362.07	308.31
362.296	288.31
362.523	233.31
362.749	236.31
362.976	217.31
363.203	259.31
363.429	289.31
363.656	231.31
363.882	219.31
364.109	234.31
364.335	229.31
364.562	224.31
364.788	245.31
365.015	279.31
365.241	260.31
365.468	224.31
365.694	191.31
365.92	201.31
366.147	205.31
366.373	181.31
366.599	203.31
366.826	209.31
367.052	191.31
367.278	202.31
367.505	189.31
367.731	208.31
367.957	221.31
368.184	210.31
368.41	218.31
368.636	217.31
368.862	227.31
369.089	216.31
369.315	211.31
369.541	229.31
369.767	212.31
369.993	198.31
370.219	212.31
370.445	221.31
370.672	224.31
370.898	259.31
371.124	260.31
371.35	220.31
371.576	215.31
371.802	213.31
372.028	257.31
372.254	286.31
372.48	255.31
372.706	234.31
372.932	251.31
373.158	246.31
373.384	287.31
373.61	367.31
373.835	379.31
374.061	301.31
374.287	245.31
374.513	316.31
374.739	360.31
374.965	353.31
375.191	373.31
375.416	277.31
375.642	241.31
375.868	266.31
376.094	304.31
376.319	264.31
376.545	273.31
376.771	281.31
376.997	268.31
377.222	210.31
377.448	207.31
377.674	215.31
377.899	203.31
378.125	175.31
378.35	191.31
378.576	188.31
378.802	199.31
379.027	215.31
379.253	229.31
379.478	225.31
379.704	240.31
379.929	234.31
380.155	247.31
380.38	218.31
380.606	226.31
380.831	242.31
381.057	240.31
381.282	232.31
381.507	258.31
381.733	287.31
381.958	307.31
382.184	310.31
382.409	345.31
382.634	348.31
382.86	373.31
383.085	317.31
383.31	269.31
383.535	273.31
383.761	284.31
383.986	258.31
384.211	284.31
384.436	287.31
384.662	258.31
384.887	235.31
385.112	272.31
385.337	247.31
385.562	245.31
385.787	260.31
386.013	296.31
386.238	299.31
386.463	247.31
386.688	234.31
386.913	217.31
387.138	208.31
387.363	243.31
387.588	244.31
387.813	253.31
388.038	269.31
388.263	227.31
388.488	224.31
388.713	233.31
388.938	290.31
389.163	222.31
389.387	224.31
389.612	232.31
389.837	215.31
390.062	227.31
390.287	240.31
390.512	247.31
390.736	225.31
390.961	212.31
391.186	209.31
391.411	226.31
391.636	219.31
391.86	237.31
392.085	235.31
392.31	252.31
392.534	240.31
392.759	217.31
392.984	245.31
393.208	250.31
393.433	222.31
393.658	221.31
393.882	209.31
394.107	211.31
394.331	204.31
394.556	212.31
394.78	212.31
395.005	224.31
395.229	223.31
395.454	202.31
395.678	219.31
395.903	212.31
396.127	230.31
396.352	219.31
396.576	230.31
396.801	240.31
397.025	245.31
397.249	276.31
397.474	230.31
397.698	220.31
397.922	247.31
398.147	218.31
398.371	225.31
398.595	232.31
398.82	243.31
399.044	240.31
399.268	255.31
399.492	286.31
399.717	284.31
399.941	281.31
400.165	268.31
400.389	248.31
400.613	257.31
400.837	264.31
401.062	223.31
401.286	224.31
401.51	221.31
401.734	219.31
401.958	228.31
402.182	233.31
402.406	229.31
402.63	229.31
402.854	237.31
403.078	271.31
403.302	343.31
403.526	379.31
403.75	341.31
403.974	278.31
404.198	289.31
404.422	313.31
404.645	327.31
404.869	356.31
405.093	307.31
405.317	258.31
405.541	267.31
405.765	258.31
405.988	259.31
406.212	265.31
406.436	323.31
406.66	303.31
406.883	266.31
407.107	262.31
407.331	322.31
407.555	315.31
407.778	273.31
408.002	270.31
408.226	281.31
408.449	287.31
408.673	252.31
408.896	231.31
409.12	222.31
409.344	233.31
409.567	247.31
409.791	243.31
410.014	240.31
410.238	233.31
410.461	227.31
410.685	216.31
410.908	232.31
411.132	237.31
411.355	239.31
411.578	251.31
411.802	259.31
412.025	239.31
412.249	242.31
412.472	233.31
412.695	242.31
412.919	233.31
413.142	239.31
413.365	264.31
413.589	261.31
413.812	239.31
414.035	239.31
414.258	213.31
414.482	243.31
414.705	255.31
414.928	229.31
415.151	230.31
415.374	229.31
415.597	245.31
415.821	223.31
416.044	230.31
416.267	221.31
416.49	217.31
416.713	205.31
416.936	217.31
417.159	220.31
417.382	232.31
417.605	228.31
417.828	233.31
418.051	239.31
418.274	249.31
418.497	233.31
418.72	246.31
418.943	230.31
419.166	244.31
419.389	264.31
419.611	250.31
419.834	258.31
420.057	259.31
420.28	243.31
420.503	248.31
420.726	232.31
420.948	211.31
421.171	218.31
421.394	234.31
421.617	217.31
421.839	239.31
422.062	235.31
422.285	233.31
422.507	219.31
422.73	239.31
422.953	246.31
423.175	223.31
423.398	239.31
423.621	284.31
423.843	270.31
424.066	247.31
424.288	231.31
424.511	241.31
424.733	230.31
424.956	261.31
425.178	261.31
425.401	293.31
425.623	376.31
425.846	292.31
426.068	255.31
426.291	259.31
426.513	257.31
426.735	236.31
426.958	243.31
427.18	271.31
427.402	341.31
427.625	357.31
427.847	300.31
428.069	242.31
428.292	219.31
428.514	241.31
428.736	231.31
428.958	257.31
429.181	303.31
429.403	253.31
429.625	221.31
429.847	221.31
430.069	233.31
430.292	231.31
430.514	216.31
430.736	225.31
430.958	262.31
431.18	269.31
431.402	234.31
431.624	219.31
431.846	217.31
432.068	220.31
432.29	217.31
432.512	243.31
432.734	255.31
432.956	272.31
433.178	219.31
433.4	216.31
433.622	220.31
433.844	231.31
434.066	271.31
434.287	250.31
434.509	234.31
434.731	248.31
434.953	245.31
435.175	253.31
435.397	288.31
435.618	249.31
435.84	226.31
436.062	215.31
436.284	202.31
436.505	207.31
436.727	193.31
436.949	205.31
437.17	212.31
437.392	208.31
437.614	210.31
437.835	208.31
438.057	205.31
438.278	248.31
438.5	303.31
438.721	294.31
438.943	239.31
439.165	213.31
439.386	201.31
439.608	216.31
439.829	212.31
440.05	213.31
440.272	200.31
440.493	253.31
440.715	297.31
440.936	259.31
441.158	244.31
441.379	226.31
441.6	259.31
441.822	275.31
442.043	227.31
442.264	229.31
442.486	221.31
442.707	232.31
442.928	220.31
443.149	242.31
443.371	238.31
443.592	233.31
443.813	229.31
444.034	231.31
444.255	241.31
444.476	241.31
444.698	266.31
444.919	247.31
445.14	338.31
445.361	291.31
445.582	253.31
445.803	233.31
446.024	246.31
446.245	263.31
446.466	256.31
446.687	228.31
446.908	229.31
447.129	213.31
447.35	212.31
447.571	216.31
447.792	199.31
448.013	216.31
448.234	201.31
448.455	204.31
448.675	204.31
448.896	196.31
449.117	207.31
449.338	211.31
449.559	208.31
449.779	233.31
450	242.31
450.221	227.31
450.442	232.31
450.662	211.31
450.883	207.31
451.104	217.31
451.324	210.31
451.545	221.31
451.766	211.31
451.986	214.31
452.207	199.31
452.428	191.31
452.648	207.31
452.869	203.31
453.089	210.31
453.31	238.31
453.53	208.31
453.751	211.31
453.971	202.31
454.192	205.31
454.412	213.31
454.633	198.31
454.853	203.31
455.073	192.31
455.294	195.31
455.514	211.31
455.734	190.31
455.955	203.31
456.175	182.31
456.395	205.31
456.616	196.31
456.836	214.31
457.056	203.31
457.276	192.31
457.497	194.31
457.717	192.31
457.937	189.31
458.157	199.31
458.377	198.31
458.598	191.31
458.818	189.31
459.038	208.31
459.258	228.31
459.478	218.31
459.698	233.31
459.918	226.31
460.138	241.31
460.358	241.31
460.578	246.31
460.798	233.31
461.018	246.31
461.238	249.31
461.458	223.31
461.678	235.31
461.898	235.31
462.118	215.31
462.338	243.31
462.558	242.31
462.777	276.31
462.997	286.31
463.217	284.31
463.437	297.31
463.657	270.31
463.876	257.31
464.096	254.31
464.316	268.31
464.536	268.31
464.755	269.31
464.975	263.31
465.195	235.31
465.414	278.31
465.634	243.31
465.854	240.31
466.073	226.31
466.293	237.31
466.512	226.31
466.732	252.31
466.951	247.31
467.171	222.31
467.391	216.31
467.61	218.31
467.829	229.31
468.049	215.31
468.268	216.31
468.488	213.31
468.707	223.31
468.927	231.31
469.146	253.31
469.365	242.31
469.585	233.31
469.804	249.31
470.023	257.31
470.243	244.31
470.462	231.31
470.681	220.31
470.901	223.31
471.12	232.31
471.339	232.31
471.558	232.31
471.777	234.31
471.997	246.31
472.216	266.31
472.435	243.31
472.654	232.31
472.873	249.31
473.092	247.31
473.311	269.31
473.53	219.31
473.749	215.31
473.968	241.31
474.187	211.31
474.406	225.31
474.625	230.31
474.844	238.31
475.063	245.31
475.282	252.31
475.501	260.31
475.72	293.31
475.939	257.31
476.158	260.31
476.377	295.31
476.596	334.31
476.814	338.31
477.033	304.31
477.252	263.31
477.471	242.31
477.69	244.31
477.908	248.31
478.127	265.31
478.346	247.31
478.564	281.31
478.783	273.31
479.002	260.31
479.22	297.31
479.439	305.31
479.658	288.31
479.876	263.31
480.095	285.31
480.313	273.31
480.532	281.31
480.751	275.31
480.969	278.31
481.188	305.31
481.406	299.31
481.624	307.31
481.843	268.31
482.061	263.31
482.28	299.31
482.498	330.31
482.717	338.31
482.935	284.31
483.153	261.31
483.372	266.31
483.59	260.31
483.808	250.31
484.027	241.31
484.245	248.31
484.463	245.31
484.681	261.31
484.9	258.31
485.118	272.31
485.336	263.31
485.554	260.31
485.772	283.31
485.99	288.31
486.209	292.31
486.427	288.31
486.645	286.31
486.863	285.31
487.081	279.31
487.299	309.31
487.517	311.31
487.735	264.31
487.953	281.31
488.171	314.31
488.389	273.31
488.607	267.31
488.825	249.31
489.043	293.31
489.261	312.31
489.479	340.31
489.696	295.31
489.914	258.31
490.132	259.31
490.35	275.31
490.568	275.31
490.786	256.31
491.003	267.31
491.221	276.31
491.439	273.31
491.657	265.31
491.874	280.31
492.092	303.31
492.31	363.31
492.527	361.31
492.745	309.31
492.963	312.31
493.18	293.31
493.398	285.31
493.615	287.31
493.833	282.31
494.05	283.31
494.268	274.31
494.485	278.31
494.703	273.31
494.92	301.31
495.138	273.31
495.355	257.31
495.573	285.31
495.79	271.31
496.008	371.31
496.225	315.31
496.442	298.31
496.66	296.31
496.877	324.31
497.094	310.31
497.312	279.31
497.529	289.31
497.746	309.31
497.963	301.31
498.181	341.31
498.398	343.31
498.615	361.31
498.832	376.31
499.049	383.31
499.267	363.31
499.484	353.31
499.701	417.31
499.918	443.31
500.135	485.31
500.352	527.31
500.569	554.31
500.786	556.31
501.003	515.31
501.22	463.31
501.437	415.31
501.654	407.31
501.871	347.31
502.088	371.31
502.305	341.31
