Data from NickelSpatula_HRD10591_16-36-26-126.txt Node
Date: Mon Jul 22 16:36:26 EDT 2019
User: cochatt
Spectrometer: HR+D1059
Trigger mode: 1
Integration Time (sec): 1.000000E-1
Scans to average: 1
Electric dark correction enabled: true
Nonlinearity correction enabled: false
Boxcar width: 0
XAxis mode: Wavelengths
Number of Pixels in Spectrum: 2048
>>>>>Begin Spectral Data<<<<<
223.165	-12.12
223.4	-12.12
223.635	-12.12
223.869	-0.12
224.104	-0.12
224.338	-0.12
224.573	-5.12
224.808	-27.12
225.042	-15.12
225.277	-25.12
225.511	6.88
225.746	1.88
225.98	6.88
226.215	0.88
226.449	10.88
226.683	13.88
226.918	19.88
227.152	23.88
227.387	21.88
227.621	29.88
227.856	44.88
228.09	41.88
228.324	51.88
228.559	48.88
228.793	55.88
229.027	76.88
229.262	56.88
229.496	68.88
229.73	80.88
229.964	81.88
230.199	68.88
230.433	74.88
230.667	79.88
230.901	87.88
231.136	71.88
231.37	74.88
231.604	68.88
231.838	87.88
232.072	110.88
232.306	96.88
232.541	83.88
232.775	78.88
233.009	90.88
233.243	93.88
233.477	86.88
233.711	99.88
233.945	91.88
234.179	81.88
234.413	109.88
234.647	94.88
234.881	86.88
235.115	101.88
235.349	95.88
235.583	95.88
235.817	94.88
236.051	102.88
236.285	90.88
236.519	97.88
236.753	118.88
236.987	102.88
237.221	98.88
237.455	102.88
237.689	96.88
237.922	91.88
238.156	96.88
238.39	85.88
238.624	108.88
238.858	113.88
239.091	92.88
239.325	98.88
239.559	85.88
239.793	102.88
240.027	122.88
240.26	100.88
240.494	112.88
240.728	104.88
240.961	107.88
241.195	108.88
241.429	112.88
241.662	104.88
241.896	104.88
242.13	110.88
242.363	97.88
242.597	102.88
242.83	117.88
243.064	110.88
243.298	116.88
243.531	110.88
243.765	97.88
243.998	117.88
244.232	111.88
244.465	105.88
244.699	114.88
244.932	98.88
245.166	118.88
245.399	109.88
245.633	98.88
245.866	82.88
246.099	114.88
246.333	126.88
246.566	125.88
246.8	114.88
247.033	116.88
247.266	95.88
247.5	106.88
247.733	87.88
247.966	112.88
248.2	116.88
248.433	126.88
248.666	131.88
248.899	135.88
249.133	121.88
249.366	137.88
249.599	137.88
249.832	123.88
250.066	121.88
250.299	123.88
250.532	122.88
250.765	112.88
250.998	114.88
251.231	108.88
251.465	125.88
251.698	121.88
251.931	120.88
252.164	118.88
252.397	119.88
252.63	138.88
252.863	130.88
253.096	128.88
253.329	138.88
253.562	157.88
253.795	151.88
254.028	160.88
254.261	160.88
254.494	157.88
254.727	142.88
254.96	127.88
255.193	144.88
255.426	143.88
255.659	122.88
255.892	134.88
256.124	123.88
256.357	124.88
256.59	138.88
256.823	143.88
257.056	124.88
257.289	126.88
257.521	130.88
257.754	145.88
257.987	151.88
258.22	146.88
258.452	129.88
258.685	141.88
258.918	156.88
259.151	156.88
259.383	150.88
259.616	161.88
259.849	157.88
260.081	174.88
260.314	186.88
260.547	174.88
260.779	162.88
261.012	172.88
261.244	161.88
261.477	177.88
261.71	164.88
261.942	164.88
262.175	135.88
262.407	138.88
262.64	164.88
262.872	154.88
263.105	159.88
263.337	172.88
263.57	159.88
263.802	128.88
264.035	135.88
264.267	132.88
264.499	124.88
264.732	124.88
264.964	111.88
265.197	118.88
265.429	126.88
265.661	124.88
265.894	120.88
266.126	127.88
266.358	132.88
266.591	145.88
266.823	150.88
267.055	158.88
267.287	153.88
267.52	137.88
267.752	158.88
267.984	159.88
268.216	159.88
268.448	143.88
268.681	136.88
268.913	149.88
269.145	151.88
269.377	144.88
269.609	152.88
269.841	132.88
270.073	126.88
270.306	161.88
270.538	164.88
270.77	181.88
271.002	158.88
271.234	162.88
271.466	159.88
271.698	159.88
271.93	148.88
272.162	165.88
272.394	178.88
272.626	153.88
272.858	159.88
273.09	168.88
273.322	161.88
273.553	138.88
273.785	163.88
274.017	178.88
274.249	214.88
274.481	217.88
274.713	231.88
274.945	256.88
275.176	259.88
275.408	240.88
275.64	241.88
275.872	224.88
276.104	190.88
276.335	184.88
276.567	184.88
276.799	196.88
277.031	190.88
277.262	179.88
277.494	169.88
277.726	148.88
277.957	168.88
278.189	144.88
278.421	165.88
278.652	152.88
278.884	148.88
279.115	136.88
279.347	158.88
279.579	138.88
279.81	138.88
280.042	149.88
280.273	137.88
280.505	144.88
280.736	141.88
280.968	128.88
281.199	145.88
281.431	150.88
281.662	144.88
281.894	146.88
282.125	144.88
282.356	157.88
282.588	148.88
282.819	142.88
283.051	170.88
283.282	201.88
283.513	192.88
283.745	207.88
283.976	187.88
284.207	197.88
284.439	201.88
284.67	188.88
284.901	179.88
285.132	183.88
285.364	200.88
285.595	181.88
285.826	199.88
286.057	196.88
286.288	207.88
286.52	180.88
286.751	205.88
286.982	206.88
287.213	186.88
287.444	186.88
287.675	199.88
287.906	175.88
288.138	162.88
288.369	172.88
288.6	154.88
288.831	169.88
289.062	164.88
289.293	188.88
289.524	179.88
289.755	166.88
289.986	162.88
290.217	160.88
290.448	140.88
290.679	124.88
290.91	134.88
291.141	126.88
291.371	121.88
291.602	125.88
291.833	132.88
292.064	138.88
292.295	155.88
292.526	167.88
292.757	169.88
292.987	157.88
293.218	175.88
293.449	179.88
293.68	188.88
293.91	163.88
294.141	193.88
294.372	167.88
294.603	161.88
294.833	161.88
295.064	170.88
295.295	178.88
295.525	152.88
295.756	147.88
295.987	124.88
296.217	135.88
296.448	125.88
296.679	131.88
296.909	140.88
297.14	140.88
297.37	141.88
297.601	147.88
297.831	133.88
298.062	148.88
298.292	151.88
298.523	161.88
298.753	158.88
298.984	168.88
299.214	138.88
299.445	129.88
299.675	118.88
299.905	124.88
300.136	132.88
300.366	128.88
300.597	133.88
300.827	129.88
301.057	116.88
301.288	118.88
301.518	129.88
301.748	142.88
301.979	135.88
302.209	130.88
302.439	136.88
302.669	147.88
302.9	146.88
303.13	132.88
303.36	120.88
303.59	113.88
303.82	128.88
304.051	146.88
304.281	146.88
304.511	137.88
304.741	134.88
304.971	140.88
305.201	140.88
305.431	130.88
305.661	124.88
305.891	130.88
306.121	126.88
306.352	134.88
306.582	110.88
306.812	111.88
307.042	119.88
307.272	101.88
307.502	113.88
307.731	118.88
307.961	138.88
308.191	125.88
308.421	109.88
308.651	119.88
308.881	122.88
309.111	112.88
309.341	115.88
309.571	111.88
309.8	124.88
310.03	143.88
310.26	127.88
310.49	118.88
310.72	135.88
310.949	112.88
311.179	116.88
311.409	124.88
311.639	129.88
311.868	165.88
312.098	171.88
312.328	181.88
312.557	183.88
312.787	183.88
313.017	162.88
313.246	180.88
313.476	172.88
313.706	169.88
313.935	143.88
314.165	137.88
314.394	132.88
314.624	112.88
314.853	120.88
315.083	124.88
315.312	126.88
315.542	124.88
315.771	122.88
316.001	109.88
316.23	105.88
316.46	123.88
316.689	118.88
316.919	116.88
317.148	112.88
317.377	116.88
317.607	114.88
317.836	117.88
318.065	128.88
318.295	156.88
318.524	150.88
318.753	129.88
318.983	108.88
319.212	108.88
319.441	120.88
319.67	124.88
319.9	126.88
320.129	125.88
320.358	118.88
320.587	115.88
320.816	121.88
321.046	134.88
321.275	153.88
321.504	124.88
321.733	137.88
321.962	148.88
322.191	126.88
322.42	145.88
322.649	121.88
322.878	144.88
323.108	128.88
323.337	135.88
323.566	125.88
323.795	131.88
324.024	119.88
324.253	125.88
324.482	114.88
324.71	114.88
324.939	112.88
325.168	127.88
325.397	108.88
325.626	106.88
325.855	125.88
326.084	115.88
326.313	112.88
326.542	121.88
326.77	111.88
326.999	110.88
327.228	110.88
327.457	110.88
327.686	132.88
327.914	121.88
328.143	116.88
328.372	110.88
328.6	115.88
328.829	116.88
329.058	124.88
329.287	110.88
329.515	126.88
329.744	114.88
329.972	106.88
330.201	101.88
330.43	118.88
330.658	114.88
330.887	114.88
331.115	118.88
331.344	128.88
331.572	117.88
331.801	99.88
332.03	109.88
332.258	114.88
332.486	119.88
332.715	118.88
332.943	124.88
333.172	118.88
333.4	125.88
333.629	112.88
333.857	122.88
334.085	125.88
334.314	129.88
334.542	121.88
334.771	120.88
334.999	124.88
335.227	118.88
335.455	103.88
335.684	115.88
335.912	129.88
336.14	140.88
336.369	124.88
336.597	126.88
336.825	154.88
337.053	161.88
337.281	136.88
337.51	120.88
337.738	129.88
337.966	135.88
338.194	133.88
338.422	125.88
338.65	130.88
338.878	129.88
339.106	115.88
339.334	123.88
339.562	130.88
339.79	126.88
340.018	115.88
340.246	120.88
340.474	131.88
340.702	133.88
340.93	144.88
341.158	131.88
341.386	133.88
341.614	143.88
341.842	126.88
342.07	114.88
342.298	160.88
342.526	138.88
342.754	144.88
342.981	129.88
343.209	128.88
343.437	141.88
343.665	126.88
343.893	135.88
344.12	133.88
344.348	162.88
344.576	149.88
344.804	119.88
345.031	118.88
345.259	117.88
345.487	115.88
345.714	118.88
345.942	139.88
346.17	136.88
346.397	132.88
346.625	120.88
346.853	117.88
347.08	119.88
347.308	122.88
347.535	124.88
347.763	144.88
347.99	121.88
348.218	115.88
348.445	129.88
348.673	122.88
348.9	119.88
349.128	129.88
349.355	111.88
349.583	116.88
349.81	123.88
350.037	124.88
350.265	106.88
350.492	114.88
350.72	113.88
350.947	97.88
351.174	118.88
351.402	102.88
351.629	112.88
351.856	128.88
352.083	112.88
352.311	120.88
352.538	121.88
352.765	118.88
352.992	120.88
353.22	124.88
353.447	126.88
353.674	110.88
353.901	116.88
354.128	117.88
354.355	103.88
354.583	111.88
354.81	118.88
355.037	132.88
355.264	117.88
355.491	131.88
355.718	120.88
355.945	125.88
356.172	117.88
356.399	136.88
356.626	132.88
356.853	153.88
357.08	172.88
357.307	154.88
357.534	139.88
357.761	138.88
357.988	172.88
358.215	194.88
358.441	169.88
358.668	145.88
358.895	165.88
359.122	118.88
359.349	110.88
359.576	133.88
359.802	126.88
360.029	114.88
360.256	115.88
360.483	121.88
360.709	144.88
360.936	154.88
361.163	142.88
361.39	120.88
361.616	121.88
361.843	123.88
362.07	148.88
362.296	142.88
362.523	143.88
362.749	113.88
362.976	120.88
363.203	129.88
363.429	130.88
363.656	135.88
363.882	127.88
364.109	126.88
364.335	100.88
364.562	120.88
364.788	143.88
365.015	135.88
365.241	141.88
365.468	113.88
365.694	113.88
365.92	95.88
366.147	90.88
366.373	97.88
366.599	99.88
366.826	118.88
367.052	112.88
367.278	127.88
367.505	105.88
367.731	111.88
367.957	117.88
368.184	126.88
368.41	106.88
368.636	119.88
368.862	120.88
369.089	119.88
369.315	121.88
369.541	109.88
369.767	101.88
369.993	120.88
370.219	116.88
370.445	116.88
370.672	120.88
370.898	117.88
371.124	120.88
371.35	123.88
371.576	111.88
371.802	113.88
372.028	117.88
372.254	129.88
372.48	127.88
372.706	129.88
372.932	143.88
373.158	127.88
373.384	136.88
373.61	149.88
373.835	174.88
374.061	133.88
374.287	130.88
374.513	145.88
374.739	159.88
374.965	145.88
375.191	139.88
375.416	114.88
375.642	117.88
375.868	118.88
376.094	148.88
376.319	117.88
376.545	128.88
376.771	142.88
376.997	121.88
377.222	111.88
377.448	115.88
377.674	110.88
377.899	102.88
378.125	106.88
378.35	104.88
378.576	117.88
378.802	126.88
379.027	124.88
379.253	119.88
379.478	127.88
379.704	120.88
379.929	126.88
380.155	125.88
380.38	126.88
380.606	108.88
380.831	114.88
381.057	128.88
381.282	126.88
381.507	128.88
381.733	136.88
381.958	164.88
382.184	174.88
382.409	177.88
382.634	181.88
382.86	170.88
383.085	146.88
383.31	124.88
383.535	137.88
383.761	132.88
383.986	126.88
384.211	150.88
384.436	134.88
384.662	125.88
384.887	120.88
385.112	124.88
385.337	135.88
385.562	119.88
385.787	118.88
386.013	136.88
386.238	128.88
386.463	121.88
386.688	121.88
386.913	127.88
387.138	112.88
387.363	114.88
387.588	119.88
387.813	118.88
388.038	136.88
388.263	118.88
388.488	125.88
388.713	121.88
388.938	119.88
389.163	112.88
389.387	115.88
389.612	126.88
389.837	109.88
390.062	126.88
390.287	113.88
390.512	131.88
390.736	132.88
390.961	110.88
391.186	117.88
391.411	122.88
391.636	95.88
391.86	103.88
392.085	136.88
392.31	120.88
392.534	117.88
392.759	104.88
392.984	120.88
393.208	126.88
393.433	129.88
393.658	121.88
393.882	98.88
394.107	101.88
394.331	110.88
394.556	115.88
394.78	118.88
395.005	123.88
395.229	115.88
395.454	108.88
395.678	113.88
395.903	119.88
396.127	118.88
396.352	120.88
396.576	126.88
396.801	114.88
397.025	120.88
397.249	129.88
397.474	122.88
397.698	119.88
397.922	117.88
398.147	116.88
398.371	110.88
398.595	129.88
398.82	120.88
399.044	121.88
399.268	123.88
399.492	121.88
399.717	138.88
399.941	110.88
400.165	126.88
400.389	123.88
400.613	120.88
400.837	122.88
401.062	125.88
401.286	111.88
401.51	119.88
401.734	109.88
401.958	103.88
402.182	114.88
402.406	126.88
402.63	128.88
402.854	138.88
403.078	138.88
403.302	150.88
403.526	161.88
403.75	138.88
403.974	125.88
404.198	146.88
404.422	150.88
404.645	162.88
404.869	147.88
405.093	134.88
405.317	113.88
405.541	124.88
405.765	124.88
405.988	121.88
406.212	136.88
406.436	150.88
406.66	151.88
406.883	128.88
407.107	137.88
407.331	147.88
407.555	128.88
407.778	128.88
408.002	131.88
408.226	139.88
408.449	122.88
408.673	120.88
408.896	115.88
409.12	115.88
409.344	136.88
409.567	120.88
409.791	132.88
410.014	113.88
410.238	115.88
410.461	110.88
410.685	120.88
410.908	113.88
411.132	114.88
411.355	125.88
411.578	108.88
411.802	116.88
412.025	124.88
412.249	126.88
412.472	109.88
412.695	114.88
412.919	114.88
413.142	111.88
413.365	123.88
413.589	127.88
413.812	122.88
414.035	118.88
414.258	121.88
414.482	127.88
414.705	131.88
414.928	120.88
415.151	122.88
415.374	121.88
415.597	129.88
415.821	108.88
416.044	108.88
416.267	112.88
416.49	97.88
416.713	105.88
416.936	118.88
417.159	97.88
417.382	102.88
417.605	111.88
417.828	136.88
418.051	109.88
418.274	114.88
418.497	118.88
418.72	124.88
418.943	116.88
419.166	144.88
419.389	129.88
419.611	124.88
419.834	133.88
420.057	126.88
420.28	130.88
420.503	114.88
420.726	120.88
420.948	120.88
421.171	127.88
421.394	114.88
421.617	114.88
421.839	104.88
422.062	124.88
422.285	106.88
422.507	121.88
422.73	120.88
422.953	136.88
423.175	137.88
423.398	114.88
423.621	141.88
423.843	134.88
424.066	125.88
424.288	136.88
424.511	112.88
424.733	114.88
424.956	127.88
425.178	136.88
425.401	129.88
425.623	159.88
425.846	133.88
426.068	128.88
426.291	132.88
426.513	134.88
426.735	114.88
426.958	132.88
427.18	135.88
427.402	167.88
427.625	163.88
427.847	137.88
428.069	123.88
428.292	125.88
428.514	119.88
428.736	114.88
428.958	120.88
429.181	139.88
429.403	129.88
429.625	124.88
429.847	119.88
430.069	118.88
430.292	129.88
430.514	105.88
430.736	136.88
430.958	145.88
431.18	116.88
431.402	108.88
431.624	116.88
431.846	121.88
432.068	125.88
432.29	128.88
432.512	129.88
432.734	144.88
432.956	134.88
433.178	116.88
433.4	121.88
433.622	127.88
433.844	108.88
434.066	138.88
434.287	124.88
434.509	114.88
434.731	115.88
434.953	128.88
435.175	123.88
435.397	135.88
435.618	129.88
435.84	120.88
436.062	129.88
436.284	120.88
436.505	108.88
436.727	122.88
436.949	117.88
437.17	114.88
437.392	105.88
437.614	118.88
437.835	124.88
438.057	117.88
438.278	129.88
438.5	164.88
438.721	144.88
438.943	130.88
439.165	138.88
439.386	118.88
439.608	120.88
439.829	123.88
440.05	124.88
440.272	116.88
440.493	125.88
440.715	124.88
440.936	126.88
441.158	108.88
441.379	112.88
441.6	118.88
441.822	125.88
442.043	120.88
442.264	114.88
442.486	121.88
442.707	108.88
442.928	103.88
443.149	120.88
443.371	124.88
443.592	121.88
443.813	126.88
444.034	124.88
444.255	128.88
444.476	122.88
444.698	140.88
444.919	135.88
445.14	254.88
445.361	190.88
445.582	125.88
445.803	126.88
446.024	134.88
446.245	127.88
446.466	132.88
446.687	122.88
446.908	116.88
447.129	113.88
447.35	110.88
447.571	112.88
447.792	103.88
448.013	121.88
448.234	108.88
448.455	126.88
448.675	115.88
448.896	104.88
449.117	106.88
449.338	121.88
449.559	118.88
449.779	130.88
450	111.88
450.221	117.88
450.442	145.88
450.662	120.88
450.883	112.88
451.104	110.88
451.324	113.88
451.545	114.88
451.766	111.88
451.986	117.88
452.207	121.88
452.428	113.88
452.648	129.88
452.869	115.88
453.089	106.88
453.31	121.88
453.53	120.88
453.751	116.88
453.971	109.88
454.192	118.88
454.412	110.88
454.633	98.88
454.853	114.88
455.073	122.88
455.294	104.88
455.514	104.88
455.734	130.88
455.955	121.88
456.175	138.88
456.395	119.88
456.616	117.88
456.836	98.88
457.056	108.88
457.276	116.88
457.497	93.88
457.717	103.88
457.937	118.88
458.157	111.88
458.377	104.88
458.598	120.88
458.818	121.88
459.038	121.88
459.258	99.88
459.478	106.88
459.698	135.88
459.918	119.88
460.138	117.88
460.358	108.88
460.578	118.88
460.798	121.88
461.018	121.88
461.238	109.88
461.458	120.88
461.678	126.88
461.898	124.88
462.118	132.88
462.338	114.88
462.558	142.88
462.777	125.88
462.997	146.88
463.217	126.88
463.437	130.88
463.657	123.88
463.876	134.88
464.096	120.88
464.316	124.88
464.536	147.88
464.755	144.88
464.975	130.88
465.195	122.88
465.414	129.88
465.634	120.88
465.854	116.88
466.073	114.88
466.293	130.88
466.512	110.88
466.732	125.88
466.951	132.88
467.171	115.88
467.391	114.88
467.61	126.88
467.829	127.88
468.049	115.88
468.268	116.88
468.488	117.88
468.707	130.88
468.927	124.88
469.146	148.88
469.365	129.88
469.585	119.88
469.804	125.88
470.023	140.88
470.243	116.88
470.462	113.88
470.681	118.88
470.901	132.88
471.12	130.88
471.339	134.88
471.558	131.88
471.777	118.88
471.997	137.88
472.216	144.88
472.435	122.88
472.654	124.88
472.873	124.88
473.092	133.88
473.311	130.88
473.53	132.88
473.749	127.88
473.968	129.88
474.187	128.88
474.406	121.88
474.625	128.88
474.844	130.88
475.063	134.88
475.282	134.88
475.501	126.88
475.72	150.88
475.939	138.88
476.158	126.88
476.377	143.88
476.596	174.88
476.814	162.88
477.033	138.88
477.252	134.88
477.471	129.88
477.69	127.88
477.908	131.88
478.127	132.88
478.346	135.88
478.564	147.88
478.783	142.88
479.002	131.88
479.22	140.88
479.439	147.88
479.658	138.88
479.876	116.88
480.095	141.88
480.313	138.88
480.532	123.88
480.751	130.88
480.969	143.88
481.188	134.88
481.406	152.88
481.624	149.88
481.843	141.88
482.061	126.88
482.28	136.88
482.498	154.88
482.717	174.88
482.935	142.88
483.153	132.88
483.372	126.88
483.59	128.88
483.808	123.88
484.027	126.88
484.245	117.88
484.463	135.88
484.681	129.88
484.9	140.88
485.118	148.88
485.336	137.88
485.554	121.88
485.772	126.88
485.99	152.88
486.209	140.88
486.427	156.88
486.645	126.88
486.863	138.88
487.081	132.88
487.299	162.88
487.517	144.88
487.735	143.88
487.953	146.88
488.171	141.88
488.389	136.88
488.607	150.88
488.825	145.88
489.043	149.88
489.261	160.88
489.479	169.88
489.696	148.88
489.914	139.88
490.132	141.88
490.35	143.88
490.568	137.88
490.786	144.88
491.003	135.88
491.221	127.88
491.439	128.88
491.657	125.88
491.874	147.88
492.092	152.88
492.31	191.88
492.527	161.88
492.745	150.88
492.963	144.88
493.18	150.88
493.398	137.88
493.615	140.88
493.833	157.88
494.05	143.88
494.268	142.88
494.485	138.88
494.703	127.88
494.92	152.88
495.138	149.88
495.355	135.88
495.573	126.88
495.79	151.88
496.008	179.88
496.225	150.88
496.442	154.88
496.66	148.88
496.877	153.88
497.094	144.88
497.312	136.88
497.529	146.88
497.746	146.88
497.963	124.88
498.181	133.88
498.398	166.88
498.615	164.88
498.832	172.88
499.049	175.88
499.267	165.88
499.484	160.88
499.701	181.88
499.918	162.88
500.135	182.88
500.352	194.88
500.569	196.88
500.786	184.88
501.003	196.88
501.22	182.88
501.437	169.88
501.654	167.88
501.871	165.88
502.088	160.88
502.305	150.88
502.522	158.88
502.739	152.88
502.956	144.88
503.172	145.88
503.389	149.88
