Data from NickelSpatula.Lamp.E10.P2_HRD10591_11-58-14-529.txt Node
Date: Tue Jul 23 11:58:14 EDT 2019
User: cochatt
Spectrometer: HR+D1059
Trigger mode: 1
Integration Time (sec): 1.000000E-1
Scans to average: 1
Electric dark correction enabled: true
Nonlinearity correction enabled: false
Boxcar width: 0
XAxis mode: Wavelengths
Number of Pixels in Spectrum: 2048
>>>>>Begin Spectral Data<<<<<
223.165	-18.56
223.4	-18.56
223.635	-18.56
223.869	-12.56
224.104	-15.56
224.338	-22.56
224.573	4.44
224.808	-16.56
225.042	-4.56
225.277	-5.56
225.511	-15.56
225.746	16.44
225.98	-4.56
226.215	6.44
226.449	11.44
226.683	26.44
226.918	18.44
227.152	32.44
227.387	29.44
227.621	31.44
227.856	34.44
228.09	38.44
228.324	45.44
228.559	67.44
228.793	79.44
229.027	150.44
229.262	161.44
229.496	172.44
229.73	170.44
229.964	198.44
230.199	199.44
230.433	208.44
230.667	204.44
230.901	206.44
231.136	192.44
231.37	208.44
231.604	219.44
231.838	224.44
232.072	261.44
232.306	234.44
232.541	230.44
232.775	234.44
233.009	265.44
233.243	287.44
233.477	326.44
233.711	343.44
233.945	322.44
234.179	341.44
234.413	339.44
234.647	394.44
234.881	470.44
235.115	422.44
235.349	396.44
235.583	341.44
235.817	330.44
236.051	388.44
236.285	419.44
236.519	457.44
236.753	428.44
236.987	431.44
237.221	406.44
237.455	412.44
237.689	442.44
237.922	466.44
238.156	470.44
238.39	556.44
238.624	684.44
238.858	591.44
239.091	481.44
239.325	509.44
239.559	493.44
239.793	535.44
240.027	621.44
240.26	623.44
240.494	583.44
240.728	608.44
240.961	661.44
241.195	629.44
241.429	658.44
241.662	627.44
241.896	532.44
242.13	479.44
242.363	448.44
242.597	480.44
242.83	528.44
243.064	511.44
243.298	571.44
243.531	637.44
243.765	632.44
243.998	613.44
244.232	594.44
244.465	596.44
244.699	579.44
244.932	648.44
245.166	638.44
245.399	540.44
245.633	538.44
245.866	570.44
246.099	627.44
246.333	716.44
246.566	773.44
246.8	762.44
247.033	738.44
247.266	702.44
247.5	666.44
247.733	678.44
247.966	644.44
248.2	687.44
248.433	770.44
248.666	853.44
248.899	851.44
249.133	864.44
249.366	978.44
249.599	1046.44
249.832	930.44
250.066	801.44
250.299	830.44
250.532	837.44
250.765	788.44
250.998	742.44
251.231	699.44
251.465	766.44
251.698	831.44
251.931	795.44
252.164	861.44
252.397	927.44
252.63	1050.44
252.863	1154.44
253.096	1180.44
253.329	1173.44
253.562	1094.44
253.795	1234.44
254.028	1380.44
254.261	1391.44
254.494	1258.44
254.727	1123.44
254.96	1116.44
255.193	1208.44
255.426	1133.44
255.659	847.44
255.892	779.44
256.124	888.44
256.357	1022.44
256.59	1178.44
256.823	1155.44
257.056	962.44
257.289	905.44
257.521	977.44
257.754	1140.44
257.987	1258.44
258.22	1117.44
258.452	985.44
258.685	1148.44
258.918	1293.44
259.151	1226.44
259.383	1295.44
259.616	1501.44
259.849	1542.44
260.081	1711.44
260.314	1878.44
260.547	1461.44
260.779	1496.44
261.012	1679.44
261.244	1567.44
261.477	1620.44
261.71	1488.44
261.942	1309.44
262.175	1292.44
262.407	1244.44
262.64	1264.44
262.872	1503.44
263.105	1645.44
263.337	1719.44
263.57	1536.44
263.802	1022.44
264.035	905.44
264.267	850.44
264.499	741.44
264.732	692.44
264.964	708.44
265.197	735.44
265.429	793.44
265.661	823.44
265.894	831.44
266.126	893.44
266.358	1021.44
266.591	1245.44
266.823	1487.44
267.055	1410.44
267.287	1269.44
267.52	1243.44
267.752	1282.44
267.984	1437.44
268.216	1346.44
268.448	1078.44
268.681	1103.44
268.913	1190.44
269.145	1265.44
269.377	1320.44
269.609	1320.44
269.841	1222.44
270.073	1313.44
270.306	1372.44
270.538	1388.44
270.77	1402.44
271.002	1439.44
271.234	1468.44
271.466	1474.44
271.698	1470.44
271.93	1383.44
272.162	1450.44
272.394	1415.44
272.626	1394.44
272.858	1406.44
273.09	1485.44
273.322	1301.44
273.553	1304.44
273.785	1505.44
274.017	1942.44
274.249	2400.44
274.481	2491.44
274.713	2736.44
274.945	3129.44
275.176	3220.44
275.408	2856.44
275.64	2615.44
275.872	2605.44
276.104	2234.44
276.335	1926.44
276.567	1930.44
276.799	1962.44
277.031	2037.44
277.262	1605.44
277.494	1227.44
277.726	1199.44
277.957	1329.44
278.189	1480.44
278.421	1439.44
278.652	1440.44
278.884	1358.44
279.115	1239.44
279.347	1184.44
279.579	1177.44
279.81	1180.44
280.042	1183.44
280.273	1235.44
280.505	1131.44
280.736	1008.44
280.968	1004.44
281.199	1070.44
281.431	1227.44
281.662	1186.44
281.894	1135.44
282.125	1241.44
282.356	1318.44
282.588	1392.44
282.819	1230.44
283.051	1363.44
283.282	1656.44
283.513	1937.44
283.745	2149.44
283.976	2150.44
284.207	2001.44
284.439	2071.44
284.67	2010.44
284.901	1763.44
285.132	1890.44
285.364	1992.44
285.595	1866.44
285.826	1968.44
286.057	2023.44
286.288	1982.44
286.52	1998.44
286.751	2102.44
286.982	2131.44
287.213	1807.44
287.444	1726.44
287.675	1852.44
287.906	1818.44
288.138	1528.44
288.369	1334.44
288.6	1286.44
288.831	1353.44
289.062	1558.44
289.293	1698.44
289.524	1608.44
289.755	1565.44
289.986	1648.44
290.217	1408.44
290.448	1117.44
290.679	957.44
290.91	891.44
291.141	900.44
291.371	954.44
291.602	953.44
291.833	967.44
292.064	1036.44
292.295	1236.44
292.526	1382.44
292.757	1437.44
292.987	1532.44
293.218	1557.44
293.449	1627.44
293.68	1689.44
293.91	1592.44
294.141	1587.44
294.372	1475.44
294.603	1406.44
294.833	1571.44
295.064	1827.44
295.295	1695.44
295.525	1293.44
295.756	1168.44
295.987	997.44
296.217	1020.44
296.448	1033.44
296.679	1091.44
296.909	1238.44
297.14	1273.44
297.37	1420.44
297.601	1334.44
297.831	1141.44
298.062	1229.44
298.292	1409.44
298.523	1562.44
298.753	1749.44
298.984	1580.44
299.214	1258.44
299.445	1065.44
299.675	1036.44
299.905	1011.44
300.136	1065.44
300.366	1186.44
300.597	1159.44
300.827	1024.44
301.057	972.44
301.288	987.44
301.518	1058.44
301.748	1210.44
301.979	1312.44
302.209	1426.44
302.439	1414.44
302.669	1235.44
302.9	1212.44
303.13	1143.44
303.36	1108.44
303.59	1047.44
303.82	1106.44
304.051	1234.44
304.281	1324.44
304.511	1266.44
304.741	1143.44
304.971	1210.44
305.201	1302.44
305.431	1214.44
305.661	1046.44
305.891	1054.44
306.121	1058.44
306.352	936.44
306.582	882.44
306.812	837.44
307.042	855.44
307.272	789.44
307.502	834.44
307.731	852.44
307.961	888.44
308.191	841.44
308.421	798.44
308.651	784.44
308.881	764.44
309.111	767.44
309.341	826.44
309.571	874.44
309.8	910.44
310.03	909.44
310.26	980.44
310.49	925.44
310.72	840.44
310.949	868.44
311.179	874.44
311.409	892.44
311.639	1078.44
311.868	1392.44
312.098	1792.44
312.328	1898.44
312.557	1852.44
312.787	1868.44
313.017	1643.44
313.246	1802.44
313.476	1974.44
313.706	1648.44
313.935	1280.44
314.165	1036.44
314.394	925.44
314.624	921.44
314.853	998.44
315.083	1038.44
315.312	1004.44
315.542	993.44
315.771	927.44
316.001	856.44
316.23	816.44
316.46	815.44
316.689	839.44
316.919	872.44
317.148	921.44
317.377	878.44
317.607	867.44
317.836	951.44
318.065	1084.44
318.295	1230.44
318.524	1133.44
318.753	964.44
318.983	908.44
319.212	916.44
319.441	975.44
319.67	1106.44
319.9	1198.44
320.129	1138.44
320.358	977.44
320.587	949.44
320.816	1007.44
321.046	1142.44
321.275	1285.44
321.504	1311.44
321.733	1280.44
321.962	1192.44
322.191	1143.44
322.42	1088.44
322.649	1103.44
322.878	1198.44
323.108	1179.44
323.337	1094.44
323.566	1055.44
323.795	1031.44
324.024	989.44
324.253	974.44
324.482	972.44
324.71	1047.44
324.939	1187.44
325.168	1117.44
325.397	931.44
325.626	904.44
325.855	885.44
326.084	900.44
326.313	865.44
326.542	839.44
326.77	855.44
326.999	895.44
327.228	956.44
327.457	1007.44
327.686	1020.44
327.914	884.44
328.143	853.44
328.372	802.44
328.6	825.44
328.829	861.44
329.058	878.44
329.287	895.44
329.515	892.44
329.744	863.44
329.972	865.44
330.201	807.44
330.43	858.44
330.658	959.44
330.887	1070.44
331.115	1024.44
331.344	1002.44
331.572	957.44
331.801	902.44
332.03	849.44
332.258	863.44
332.486	955.44
332.715	972.44
332.943	893.44
333.172	896.44
333.4	926.44
333.629	1007.44
333.857	1112.44
334.085	1095.44
334.314	1086.44
334.542	1044.44
334.771	957.44
334.999	949.44
335.227	903.44
335.455	927.44
335.684	1014.44
335.912	1186.44
336.14	1293.44
336.369	1258.44
336.597	1236.44
336.825	1374.44
337.053	1495.44
337.281	1206.44
337.51	978.44
337.738	994.44
337.966	1052.44
338.194	1146.44
338.422	1086.44
338.65	964.44
338.878	849.44
339.106	903.44
339.334	1002.44
339.562	1056.44
339.79	992.44
340.018	940.44
340.246	1029.44
340.474	1175.44
340.702	1269.44
340.93	1324.44
341.158	1299.44
341.386	1114.44
341.614	1084.44
341.842	1097.44
342.07	1154.44
342.298	1290.44
342.526	1407.44
342.754	1176.44
342.981	1098.44
343.209	1053.44
343.437	1112.44
343.665	1170.44
343.893	1154.44
344.12	1359.44
344.348	1558.44
344.576	1396.44
344.804	1181.44
345.031	1028.44
345.259	951.44
345.487	989.44
345.714	998.44
345.942	1084.44
346.17	1176.44
346.397	1121.44
346.625	967.44
346.853	968.44
347.08	954.44
347.308	979.44
347.535	1088.44
347.763	1102.44
347.99	1018.44
348.218	911.44
348.445	960.44
348.673	950.44
348.9	936.44
349.128	1070.44
349.355	1086.44
349.583	1055.44
349.81	975.44
350.037	906.44
350.265	818.44
350.492	781.44
350.72	800.44
350.947	840.44
351.174	864.44
351.402	913.44
351.629	960.44
351.856	899.44
352.083	875.44
352.311	957.44
352.538	1046.44
352.765	1114.44
352.992	1021.44
353.22	966.44
353.447	972.44
353.674	949.44
353.901	931.44
354.128	981.44
354.355	986.44
354.583	965.44
354.81	960.44
355.037	981.44
355.264	999.44
355.491	1053.44
355.718	1142.44
355.945	1107.44
356.172	1055.44
356.399	1079.44
356.626	1284.44
356.853	1559.44
357.08	1694.44
357.307	1715.44
357.534	1328.44
357.761	1370.44
357.988	1713.44
358.215	2023.44
358.441	1907.44
358.668	1598.44
358.895	1463.44
359.122	1180.44
359.349	1183.44
359.576	1299.44
359.802	1087.44
360.029	924.44
360.256	995.44
360.483	1252.44
360.709	1579.44
360.936	1597.44
361.163	1424.44
361.39	1105.44
361.616	1024.44
361.843	1173.44
362.07	1466.44
362.296	1330.44
362.523	1026.44
362.749	917.44
362.976	972.44
363.203	1192.44
363.429	1329.44
363.656	1061.44
363.882	968.44
364.109	955.44
364.335	958.44
364.562	933.44
364.788	1100.44
365.015	1265.44
365.241	1126.44
365.468	923.44
365.694	836.44
365.92	792.44
366.147	793.44
366.373	767.44
366.599	790.44
366.826	788.44
367.052	818.44
367.278	815.44
367.505	804.44
367.731	896.44
367.957	1004.44
368.184	993.44
368.41	968.44
368.636	996.44
368.862	1041.44
369.089	1017.44
369.315	886.44
369.541	880.44
369.767	849.44
369.993	830.44
370.219	854.44
370.445	915.44
370.672	990.44
370.898	1078.44
371.124	1068.44
371.35	914.44
371.576	899.44
371.802	962.44
372.028	1153.44
372.254	1304.44
372.48	1140.44
372.706	1019.44
372.932	1060.44
373.158	1119.44
373.384	1347.44
373.61	1775.44
373.835	1789.44
374.061	1332.44
374.287	1146.44
374.513	1336.44
374.739	1633.44
374.965	1685.44
375.191	1636.44
375.416	1119.44
375.642	1010.44
375.868	1174.44
376.094	1315.44
376.319	1166.44
376.545	1255.44
376.771	1338.44
376.997	1114.44
377.222	854.44
377.448	765.44
377.674	752.44
377.899	739.44
378.125	746.44
378.35	754.44
378.576	765.44
378.802	834.44
379.027	915.44
379.253	890.44
379.478	910.44
379.704	1045.44
379.929	1054.44
380.155	1039.44
380.38	912.44
380.606	962.44
380.831	1086.44
381.057	1028.44
381.282	996.44
381.507	1140.44
381.733	1419.44
381.958	1509.44
382.184	1586.44
382.409	1644.44
382.634	1619.44
382.86	1682.44
383.085	1394.44
383.31	1111.44
383.535	1191.44
383.761	1191.44
383.986	1122.44
384.211	1348.44
384.436	1361.44
384.662	1005.44
384.887	1000.44
385.112	1044.44
385.337	1041.44
385.562	1004.44
385.787	1067.44
386.013	1187.44
386.238	1203.44
386.463	989.44
386.688	962.44
386.913	934.44
387.138	902.44
387.363	943.44
387.588	975.44
387.813	961.44
388.038	1063.44
388.263	933.44
388.488	944.44
388.713	1101.44
388.938	1191.44
389.163	1023.44
389.387	937.44
389.612	900.44
389.837	941.44
390.062	904.44
390.287	980.44
390.512	986.44
390.736	950.44
390.961	883.44
391.186	863.44
391.411	833.44
391.636	846.44
391.86	934.44
392.085	986.44
392.31	992.44
392.534	950.44
392.759	953.44
392.984	975.44
393.208	944.44
393.433	875.44
393.658	803.44
393.882	787.44
394.107	769.44
394.331	790.44
394.556	826.44
394.78	833.44
395.005	847.44
395.229	859.44
395.454	860.44
395.678	881.44
395.903	922.44
396.127	867.44
396.352	882.44
396.576	960.44
396.801	965.44
397.025	1072.44
397.249	1108.44
397.474	946.44
397.698	934.44
397.922	993.44
398.147	902.44
398.371	901.44
398.595	954.44
398.82	919.44
399.044	922.44
399.268	974.44
399.492	1039.44
399.717	1039.44
399.941	1103.44
400.165	1039.44
400.389	1024.44
400.613	1033.44
400.837	1028.44
401.062	927.44
401.286	898.44
401.51	912.44
401.734	911.44
401.958	928.44
402.182	914.44
402.406	917.44
402.63	898.44
402.854	976.44
403.078	1068.44
403.302	1285.44
403.526	1322.44
403.75	1205.44
403.974	1048.44
404.198	1081.44
404.422	1231.44
404.645	1431.44
404.869	1537.44
405.093	1181.44
405.317	984.44
405.541	981.44
405.765	971.44
405.988	1015.44
406.212	1093.44
406.436	1284.44
406.66	1398.44
406.883	1131.44
407.107	1185.44
407.331	1356.44
407.555	1277.44
407.778	1095.44
408.002	1071.44
408.226	1047.44
408.449	1040.44
408.673	996.44
408.896	950.44
409.12	907.44
409.344	921.44
409.567	885.44
409.791	890.44
410.014	888.44
410.238	879.44
410.461	884.44
410.685	903.44
410.908	894.44
411.132	921.44
411.355	912.44
411.578	920.44
411.802	924.44
412.025	956.44
412.249	963.44
412.472	971.44
412.695	998.44
412.919	932.44
413.142	963.44
413.365	1030.44
413.589	1044.44
413.812	948.44
414.035	914.44
414.258	942.44
414.482	1027.44
414.705	1073.44
414.928	900.44
415.151	869.44
415.374	894.44
415.597	894.44
415.821	883.44
416.044	886.44
416.267	885.44
416.49	872.44
416.713	857.44
416.936	888.44
417.159	845.44
417.382	870.44
417.605	886.44
417.828	917.44
418.051	904.44
418.274	940.44
418.497	917.44
418.72	928.44
418.943	942.44
419.166	958.44
419.389	1028.44
419.611	979.44
419.834	1036.44
420.057	1081.44
420.28	1117.44
420.503	1026.44
420.726	895.44
420.948	881.44
421.171	912.44
421.394	860.44
421.617	844.44
421.839	866.44
422.062	929.44
422.285	898.44
422.507	957.44
422.73	954.44
422.953	967.44
423.175	935.44
423.398	941.44
423.621	983.44
423.843	1059.44
424.066	984.44
424.288	918.44
424.511	920.44
424.733	932.44
424.956	938.44
425.178	1061.44
425.401	1231.44
425.623	1354.44
425.846	1153.44
426.068	1022.44
426.291	1120.44
426.513	1045.44
426.735	911.44
426.958	962.44
427.18	1180.44
427.402	1462.44
427.625	1420.44
427.847	1177.44
428.069	898.44
428.292	903.44
428.514	887.44
428.736	863.44
428.958	931.44
429.181	1132.44
429.403	956.44
429.625	912.44
429.847	899.44
430.069	877.44
430.292	883.44
430.514	884.44
430.736	957.44
430.958	1176.44
431.18	1092.44
431.402	816.44
431.624	808.44
431.846	810.44
432.068	812.44
432.29	834.44
432.512	935.44
432.734	1202.44
432.956	1116.44
433.178	859.44
433.4	826.44
433.622	863.44
433.844	863.44
434.066	929.44
434.287	893.44
434.509	872.44
434.731	903.44
434.953	846.44
435.175	914.44
435.397	1008.44
435.618	902.44
435.84	839.44
436.062	813.44
436.284	829.44
436.505	798.44
436.727	782.44
436.949	789.44
437.17	858.44
437.392	860.44
437.614	837.44
437.835	838.44
438.057	860.44
438.278	976.44
438.5	1390.44
438.721	1379.44
438.943	935.44
439.165	802.44
439.386	795.44
439.608	760.44
439.829	777.44
440.05	784.44
440.272	834.44
440.493	1010.44
440.715	1187.44
440.936	980.44
441.158	833.44
441.379	846.44
441.6	976.44
441.822	1008.44
442.043	875.44
442.264	860.44
442.486	862.44
442.707	881.44
442.928	862.44
443.149	902.44
443.371	898.44
443.592	935.44
443.813	924.44
444.034	907.44
444.255	892.44
444.476	918.44
444.698	891.44
444.919	956.44
445.14	1032.44
445.361	1013.44
445.582	956.44
445.803	934.44
446.024	924.44
446.245	897.44
446.466	904.44
446.687	872.44
446.908	870.44
447.129	845.44
447.35	836.44
447.571	802.44
447.792	798.44
448.013	803.44
448.234	763.44
448.455	795.44
448.675	783.44
448.896	799.44
449.117	777.44
449.338	815.44
449.559	836.44
449.779	853.44
450	852.44
450.221	845.44
450.442	815.44
450.662	807.44
450.883	781.44
451.104	810.44
451.324	777.44
451.545	790.44
451.766	802.44
451.986	766.44
452.207	775.44
452.428	785.44
452.648	763.44
452.869	802.44
453.089	851.44
453.31	829.44
453.53	754.44
453.751	735.44
453.971	732.44
454.192	764.44
454.412	796.44
454.633	733.44
454.853	770.44
455.073	740.44
455.294	718.44
455.514	761.44
455.734	788.44
455.955	790.44
456.175	849.44
456.395	760.44
456.616	702.44
456.836	694.44
457.056	685.44
457.276	718.44
457.497	698.44
457.717	705.44
457.937	734.44
458.157	724.44
458.377	716.44
458.598	752.44
458.818	780.44
459.038	826.44
459.258	812.44
459.478	832.44
459.698	941.44
459.918	914.44
460.138	869.44
460.358	890.44
460.578	860.44
460.798	868.44
461.018	888.44
461.238	849.44
461.458	850.44
461.678	872.44
461.898	922.44
462.118	932.44
462.338	927.44
462.558	961.44
462.777	987.44
462.997	1006.44
463.217	993.44
463.437	1030.44
463.657	1012.44
463.876	964.44
464.096	983.44
464.316	975.44
464.536	957.44
464.755	1044.44
464.975	1007.44
465.195	969.44
465.414	1007.44
465.634	935.44
465.854	924.44
466.073	866.44
466.293	868.44
466.512	918.44
466.732	1002.44
466.951	1033.44
467.171	940.44
467.391	877.44
467.61	874.44
467.829	927.44
468.049	942.44
468.268	895.44
468.488	876.44
468.707	888.44
468.927	1072.44
469.146	1153.44
469.365	1030.44
469.585	952.44
469.804	1021.44
470.023	1125.44
470.243	981.44
470.462	943.44
470.681	902.44
470.901	942.44
471.12	986.44
471.339	970.44
471.558	899.44
471.777	946.44
471.997	1001.44
472.216	1126.44
472.435	1087.44
472.654	962.44
472.873	943.44
473.092	1028.44
473.311	1039.44
473.53	947.44
473.749	949.44
473.968	979.44
474.187	942.44
474.406	954.44
474.625	929.44
474.844	986.44
475.063	1011.44
475.282	1018.44
475.501	1073.44
475.72	1108.44
475.939	1066.44
476.158	1082.44
476.377	1253.44
476.596	1427.44
476.814	1502.44
477.033	1234.44
477.252	1066.44
477.471	970.44
477.69	1022.44
477.908	1084.44
478.127	1150.44
478.346	1076.44
478.564	1135.44
478.783	1074.44
479.002	1125.44
479.22	1272.44
479.439	1434.44
479.658	1210.44
479.876	1110.44
480.095	1194.44
480.313	1218.44
480.532	1117.44
480.751	1075.44
480.969	1124.44
481.188	1277.44
481.406	1325.44
481.624	1231.44
481.843	1113.44
482.061	1037.44
482.28	1213.44
482.498	1434.44
482.717	1350.44
482.935	1182.44
483.153	1136.44
483.372	1066.44
483.59	1064.44
483.808	1062.44
484.027	1049.44
484.245	971.44
484.463	970.44
484.681	1020.44
484.9	1111.44
485.118	1166.44
485.336	1096.44
485.554	1034.44
485.772	1056.44
485.99	1168.44
486.209	1229.44
486.427	1220.44
486.645	1186.44
486.863	1265.44
487.081	1238.44
487.299	1346.44
487.517	1316.44
487.735	1186.44
487.953	1232.44
488.171	1267.44
488.389	1167.44
488.607	1114.44
488.825	1176.44
489.043	1273.44
489.261	1430.44
489.479	1518.44
489.696	1311.44
489.914	1164.44
490.132	1111.44
490.35	1148.44
490.568	1130.44
490.786	1110.44
491.003	1127.44
491.221	1148.44
491.439	1159.44
491.657	1140.44
491.874	1203.44
492.092	1435.44
492.31	1754.44
492.527	1712.44
492.745	1508.44
492.963	1308.44
493.18	1317.44
493.398	1296.44
493.615	1268.44
493.833	1231.44
494.05	1221.44
494.268	1246.44
494.485	1192.44
