Data from NickelSpatula_HRD10591_16-35-51-126.txt Node
Date: Mon Jul 22 16:35:51 EDT 2019
User: cochatt
Spectrometer: HR+D1059
Trigger mode: 1
Integration Time (sec): 1.000000E-1
Scans to average: 1
Electric dark correction enabled: true
Nonlinearity correction enabled: false
Boxcar width: 0
XAxis mode: Wavelengths
Number of Pixels in Spectrum: 2048
>>>>>Begin Spectral Data<<<<<
223.165	-10.69
223.4	-10.69
223.635	-10.69
223.869	-16.69
224.104	-24.69
224.338	-24.69
224.573	-4.69
224.808	-18.69
225.042	-22.69
225.277	-5.69
225.511	4.31
225.746	-6.69
225.98	12.31
226.215	8.31
226.449	26.31
226.683	33.31
226.918	10.31
227.152	40.31
227.387	26.31
227.621	38.31
227.856	44.31
228.09	36.31
228.324	59.31
228.559	48.31
228.793	61.31
229.027	55.31
229.262	65.31
229.496	75.31
229.73	83.31
229.964	102.31
230.199	86.31
230.433	79.31
230.667	76.31
230.901	80.31
231.136	86.31
231.37	92.31
231.604	91.31
231.838	86.31
232.072	100.31
232.306	97.31
232.541	76.31
232.775	92.31
233.009	88.31
233.243	101.31
233.477	104.31
233.711	111.31
233.945	123.31
234.179	101.31
234.413	112.31
234.647	113.31
234.881	111.31
235.115	114.31
235.349	116.31
235.583	103.31
235.817	104.31
236.051	112.31
236.285	114.31
236.519	119.31
236.753	106.31
236.987	105.31
237.221	112.31
237.455	120.31
237.689	111.31
237.922	111.31
238.156	123.31
238.39	137.31
238.624	130.31
238.858	134.31
239.091	120.31
239.325	124.31
239.559	129.31
239.793	123.31
240.027	138.31
240.26	139.31
240.494	130.31
240.728	122.31
240.961	150.31
241.195	141.31
241.429	141.31
241.662	139.31
241.896	125.31
242.13	122.31
242.363	122.31
242.597	119.31
242.83	119.31
243.064	122.31
243.298	124.31
243.531	127.31
243.765	146.31
243.998	144.31
244.232	145.31
244.465	144.31
244.699	134.31
244.932	150.31
245.166	113.31
245.399	126.31
245.633	123.31
245.866	122.31
246.099	140.31
246.333	137.31
246.566	157.31
246.8	148.31
247.033	138.31
247.266	136.31
247.5	127.31
247.733	128.31
247.966	136.31
248.2	144.31
248.433	146.31
248.666	148.31
248.899	153.31
249.133	165.31
249.366	171.31
249.599	175.31
249.832	177.31
250.066	142.31
250.299	158.31
250.532	146.31
250.765	136.31
250.998	142.31
251.231	140.31
251.465	171.31
251.698	154.31
251.931	162.31
252.164	165.31
252.397	163.31
252.63	178.31
252.863	188.31
253.096	192.31
253.329	205.31
253.562	184.31
253.795	204.31
254.028	232.31
254.261	223.31
254.494	210.31
254.727	198.31
254.96	188.31
255.193	200.31
255.426	191.31
255.659	159.31
255.892	152.31
256.124	136.31
256.357	167.31
256.59	181.31
256.823	188.31
257.056	179.31
257.289	149.31
257.521	178.31
257.754	200.31
257.987	201.31
258.22	182.31
258.452	160.31
258.685	196.31
258.918	209.31
259.151	195.31
259.383	225.31
259.616	233.31
259.849	242.31
260.081	266.31
260.314	252.31
260.547	219.31
260.779	216.31
261.012	260.31
261.244	227.31
261.477	238.31
261.71	226.31
261.942	219.31
262.175	206.31
262.407	196.31
262.64	198.31
262.872	214.31
263.105	238.31
263.337	239.31
263.57	230.31
263.802	182.31
264.035	160.31
264.267	152.31
264.499	154.31
264.732	150.31
264.964	128.31
265.197	146.31
265.429	139.31
265.661	152.31
265.894	145.31
266.126	164.31
266.358	168.31
266.591	207.31
266.823	235.31
267.055	213.31
267.287	206.31
267.52	195.31
267.752	210.31
267.984	245.31
268.216	210.31
268.448	162.31
268.681	192.31
268.913	201.31
269.145	216.31
269.377	200.31
269.609	194.31
269.841	192.31
270.073	202.31
270.306	210.31
270.538	228.31
270.77	216.31
271.002	231.31
271.234	225.31
271.466	240.31
271.698	217.31
271.93	210.31
272.162	206.31
272.394	210.31
272.626	207.31
272.858	211.31
273.09	215.31
273.322	183.31
273.553	189.31
273.785	227.31
274.017	268.31
274.249	304.31
274.481	318.31
274.713	333.31
274.945	380.31
275.176	379.31
275.408	368.31
275.64	357.31
275.872	331.31
276.104	283.31
276.335	261.31
276.567	251.31
276.799	280.31
277.031	282.31
277.262	243.31
277.494	211.31
277.726	212.31
277.957	201.31
278.189	210.31
278.421	220.31
278.652	212.31
278.884	221.31
279.115	223.31
279.347	198.31
279.579	183.31
279.81	202.31
280.042	194.31
280.273	180.31
280.505	176.31
280.736	168.31
280.968	169.31
281.199	178.31
281.431	206.31
281.662	178.31
281.894	197.31
282.125	195.31
282.356	191.31
282.588	221.31
282.819	198.31
283.051	190.31
283.282	240.31
283.513	268.31
283.745	287.31
283.976	281.31
284.207	278.31
284.439	287.31
284.67	263.31
284.901	259.31
285.132	275.31
285.364	267.31
285.595	251.31
285.826	265.31
286.057	291.31
286.288	262.31
286.52	263.31
286.751	281.31
286.982	285.31
287.213	257.31
287.444	252.31
287.675	253.31
287.906	239.31
288.138	218.31
288.369	210.31
288.6	211.31
288.831	219.31
289.062	243.31
289.293	245.31
289.524	233.31
289.755	230.31
289.986	235.31
290.217	220.31
290.448	196.31
290.679	159.31
290.91	146.31
291.141	174.31
291.371	161.31
291.602	171.31
291.833	154.31
292.064	176.31
292.295	194.31
292.526	216.31
292.757	216.31
292.987	231.31
293.218	226.31
293.449	231.31
293.68	250.31
293.91	230.31
294.141	235.31
294.372	236.31
294.603	210.31
294.833	215.31
295.064	275.31
295.295	244.31
295.525	187.31
295.756	164.31
295.987	163.31
296.217	169.31
296.448	174.31
296.679	185.31
296.909	181.31
297.14	183.31
297.37	193.31
297.601	192.31
297.831	184.31
298.062	201.31
298.292	214.31
298.523	217.31
298.753	238.31
298.984	224.31
299.214	182.31
299.445	174.31
299.675	158.31
299.905	146.31
300.136	154.31
300.366	172.31
300.597	151.31
300.827	165.31
301.057	146.31
301.288	156.31
301.518	163.31
301.748	193.31
301.979	186.31
302.209	189.31
302.439	187.31
302.669	179.31
302.9	178.31
303.13	187.31
303.36	180.31
303.59	167.31
303.82	162.31
304.051	177.31
304.281	203.31
304.511	191.31
304.741	180.31
304.971	183.31
305.201	186.31
305.431	166.31
305.661	155.31
305.891	167.31
306.121	164.31
306.352	150.31
306.582	132.31
306.812	137.31
307.042	134.31
307.272	140.31
307.502	152.31
307.731	138.31
307.961	159.31
308.191	141.31
308.421	138.31
308.651	139.31
308.881	129.31
309.111	135.31
309.341	136.31
309.571	152.31
309.8	147.31
310.03	146.31
310.26	160.31
310.49	151.31
310.72	128.31
310.949	140.31
311.179	127.31
311.409	150.31
311.639	162.31
311.868	205.31
312.098	240.31
312.328	276.31
312.557	252.31
312.787	261.31
313.017	237.31
313.246	252.31
313.476	255.31
313.706	219.31
313.935	205.31
314.165	156.31
314.394	159.31
314.624	144.31
314.853	166.31
315.083	137.31
315.312	152.31
315.542	153.31
315.771	155.31
316.001	131.31
316.23	127.31
316.46	142.31
316.689	137.31
316.919	134.31
317.148	137.31
317.377	148.31
317.607	143.31
317.836	165.31
318.065	151.31
318.295	195.31
318.524	163.31
318.753	165.31
318.983	155.31
319.212	142.31
319.441	162.31
319.67	168.31
319.9	171.31
320.129	184.31
320.358	147.31
320.587	130.31
320.816	151.31
321.046	174.31
321.275	189.31
321.504	177.31
321.733	181.31
321.962	165.31
322.191	168.31
322.42	168.31
322.649	169.31
322.878	178.31
323.108	167.31
323.337	151.31
323.566	174.31
323.795	162.31
324.024	150.31
324.253	156.31
324.482	149.31
324.71	158.31
324.939	171.31
325.168	162.31
325.397	144.31
325.626	134.31
325.855	144.31
326.084	147.31
326.313	138.31
326.542	147.31
326.77	148.31
326.999	147.31
327.228	143.31
327.457	150.31
327.686	143.31
327.914	137.31
328.143	133.31
328.372	128.31
328.6	134.31
328.829	138.31
329.058	125.31
329.287	149.31
329.515	120.31
329.744	150.31
329.972	131.31
330.201	148.31
330.43	135.31
330.658	139.31
330.887	163.31
331.115	151.31
331.344	156.31
331.572	149.31
331.801	140.31
332.03	133.31
332.258	148.31
332.486	158.31
332.715	155.31
332.943	143.31
333.172	138.31
333.4	134.31
333.629	156.31
333.857	159.31
334.085	166.31
334.314	157.31
334.542	162.31
334.771	136.31
334.999	140.31
335.227	151.31
335.455	147.31
335.684	162.31
335.912	181.31
336.14	184.31
336.369	178.31
336.597	179.31
336.825	184.31
337.053	216.31
337.281	162.31
337.51	131.31
337.738	144.31
337.966	154.31
338.194	153.31
338.422	151.31
338.65	146.31
338.878	149.31
339.106	146.31
339.334	158.31
339.562	180.31
339.79	163.31
340.018	150.31
340.246	155.31
340.474	176.31
340.702	166.31
340.93	180.31
341.158	182.31
341.386	168.31
341.614	168.31
341.842	155.31
342.07	172.31
342.298	183.31
342.526	202.31
342.754	156.31
342.981	166.31
343.209	156.31
343.437	167.31
343.665	158.31
343.893	157.31
344.12	191.31
344.348	218.31
344.576	184.31
344.804	170.31
345.031	167.31
345.259	153.31
345.487	164.31
345.714	146.31
345.942	172.31
346.17	170.31
346.397	159.31
346.625	144.31
346.853	144.31
347.08	148.31
347.308	156.31
347.535	170.31
347.763	162.31
347.99	140.31
348.218	135.31
348.445	152.31
348.673	148.31
348.9	161.31
349.128	154.31
349.355	154.31
349.583	131.31
349.81	129.31
350.037	169.31
350.265	147.31
350.492	128.31
350.72	124.31
350.947	124.31
351.174	138.31
351.402	153.31
351.629	142.31
351.856	152.31
352.083	144.31
352.311	157.31
352.538	145.31
352.765	180.31
352.992	152.31
353.22	151.31
353.447	155.31
353.674	145.31
353.901	139.31
354.128	130.31
354.355	144.31
354.583	153.31
354.81	156.31
355.037	157.31
355.264	166.31
355.491	186.31
355.718	168.31
355.945	173.31
356.172	158.31
356.399	162.31
356.626	191.31
356.853	231.31
357.08	216.31
357.307	228.31
357.534	195.31
357.761	175.31
357.988	257.31
358.215	251.31
358.441	232.31
358.668	219.31
358.895	219.31
359.122	179.31
359.349	180.31
359.576	188.31
359.802	149.31
360.029	158.31
360.256	159.31
360.483	175.31
360.709	202.31
360.936	217.31
361.163	205.31
361.39	154.31
361.616	163.31
361.843	168.31
362.07	197.31
362.296	184.31
362.523	157.31
362.749	139.31
362.976	155.31
363.203	177.31
363.429	187.31
363.656	177.31
363.882	152.31
364.109	164.31
364.335	161.31
364.562	155.31
364.788	164.31
365.015	185.31
365.241	170.31
365.468	140.31
365.694	119.31
365.92	132.31
366.147	131.31
366.373	134.31
366.599	139.31
366.826	126.31
367.052	146.31
367.278	132.31
367.505	144.31
367.731	139.31
367.957	154.31
368.184	154.31
368.41	157.31
368.636	154.31
368.862	174.31
369.089	146.31
369.315	147.31
369.541	126.31
369.767	136.31
369.993	137.31
370.219	140.31
370.445	139.31
370.672	155.31
370.898	167.31
371.124	164.31
371.35	155.31
371.576	134.31
371.802	154.31
372.028	168.31
372.254	175.31
372.48	155.31
372.706	146.31
372.932	147.31
373.158	168.31
373.384	182.31
373.61	211.31
373.835	232.31
374.061	190.31
374.287	161.31
374.513	198.31
374.739	230.31
374.965	210.31
375.191	225.31
375.416	166.31
375.642	149.31
375.868	167.31
376.094	174.31
376.319	175.31
376.545	184.31
376.771	178.31
376.997	183.31
377.222	133.31
377.448	126.31
377.674	122.31
377.899	118.31
378.125	121.31
378.35	127.31
378.576	124.31
378.802	147.31
379.027	133.31
379.253	138.31
379.478	155.31
379.704	155.31
379.929	165.31
380.155	165.31
380.38	158.31
380.606	157.31
380.831	172.31
381.057	155.31
381.282	160.31
381.507	166.31
381.733	193.31
381.958	219.31
382.184	219.31
382.409	225.31
382.634	221.31
382.86	228.31
383.085	191.31
383.31	172.31
383.535	176.31
383.761	179.31
383.986	169.31
384.211	206.31
384.436	194.31
384.662	159.31
384.887	156.31
385.112	164.31
385.337	172.31
385.562	152.31
385.787	183.31
386.013	163.31
386.238	167.31
386.463	164.31
386.688	159.31
386.913	162.31
387.138	144.31
387.363	144.31
387.588	165.31
387.813	146.31
388.038	158.31
388.263	148.31
388.488	152.31
388.713	163.31
388.938	187.31
389.163	151.31
389.387	134.31
389.612	142.31
389.837	145.31
390.062	132.31
390.287	145.31
390.512	150.31
390.736	132.31
390.961	136.31
391.186	148.31
391.411	126.31
391.636	147.31
391.86	125.31
392.085	170.31
392.31	166.31
392.534	139.31
392.759	152.31
392.984	150.31
393.208	150.31
393.433	155.31
393.658	123.31
393.882	122.31
394.107	123.31
394.331	131.31
394.556	133.31
394.78	122.31
395.005	132.31
395.229	138.31
395.454	162.31
395.678	138.31
395.903	141.31
396.127	142.31
396.352	131.31
396.576	140.31
396.801	161.31
397.025	172.31
397.249	162.31
397.474	163.31
397.698	146.31
397.922	146.31
398.147	139.31
398.371	146.31
398.595	129.31
398.82	142.31
399.044	145.31
399.268	146.31
399.492	155.31
399.717	165.31
399.941	147.31
400.165	138.31
400.389	155.31
400.613	145.31
400.837	154.31
401.062	147.31
401.286	151.31
401.51	127.31
401.734	149.31
401.958	137.31
402.182	137.31
402.406	145.31
402.63	136.31
402.854	147.31
403.078	172.31
403.302	196.31
403.526	204.31
403.75	178.31
403.974	177.31
404.198	161.31
404.422	207.31
404.645	200.31
404.869	201.31
405.093	185.31
405.317	145.31
405.541	130.31
405.765	165.31
405.988	156.31
406.212	155.31
406.436	191.31
406.66	182.31
406.883	159.31
407.107	174.31
407.331	193.31
407.555	172.31
407.778	160.31
408.002	151.31
408.226	147.31
408.449	165.31
408.673	153.31
408.896	145.31
409.12	146.31
409.344	141.31
409.567	122.31
409.791	138.31
410.014	144.31
410.238	132.31
410.461	142.31
410.685	134.31
410.908	148.31
411.132	146.31
411.355	157.31
411.578	134.31
411.802	149.31
412.025	153.31
412.249	146.31
412.472	149.31
412.695	147.31
412.919	151.31
413.142	147.31
413.365	181.31
413.589	147.31
413.812	150.31
414.035	137.31
414.258	153.31
414.482	151.31
414.705	167.31
414.928	140.31
415.151	150.31
415.374	134.31
415.597	137.31
415.821	147.31
416.044	136.31
416.267	130.31
416.49	158.31
416.713	143.31
416.936	130.31
417.159	146.31
417.382	147.31
417.605	150.31
417.828	160.31
418.051	147.31
418.274	151.31
418.497	159.31
418.72	155.31
418.943	151.31
419.166	165.31
419.389	155.31
419.611	159.31
419.834	144.31
420.057	167.31
420.28	154.31
420.503	165.31
420.726	140.31
420.948	129.31
421.171	143.31
421.394	140.31
421.617	134.31
421.839	144.31
422.062	140.31
422.285	148.31
422.507	130.31
422.73	161.31
422.953	165.31
423.175	147.31
423.398	164.31
423.621	161.31
423.843	164.31
424.066	158.31
424.288	150.31
424.511	150.31
424.733	141.31
424.956	153.31
425.178	163.31
425.401	184.31
425.623	214.31
425.846	171.31
426.068	165.31
426.291	175.31
426.513	163.31
426.735	165.31
426.958	151.31
427.18	180.31
427.402	206.31
427.625	213.31
427.847	187.31
428.069	152.31
428.292	158.31
428.514	147.31
428.736	142.31
428.958	163.31
429.181	164.31
429.403	155.31
429.625	140.31
429.847	147.31
430.069	148.31
430.292	165.31
430.514	149.31
430.736	151.31
430.958	178.31
431.18	162.31
431.402	150.31
431.624	134.31
431.846	131.31
432.068	134.31
432.29	154.31
432.512	150.31
432.734	193.31
432.956	175.31
433.178	150.31
433.4	132.31
433.622	140.31
433.844	134.31
434.066	157.31
434.287	151.31
434.509	158.31
434.731	159.31
434.953	141.31
435.175	151.31
435.397	172.31
435.618	159.31
435.84	123.31
436.062	147.31
436.284	136.31
436.505	150.31
436.727	141.31
436.949	144.31
437.17	135.31
437.392	150.31
437.614	147.31
437.835	131.31
438.057	148.31
438.278	165.31
438.5	205.31
438.721	202.31
438.943	146.31
439.165	135.31
439.386	140.31
439.608	144.31
439.829	139.31
440.05	132.31
440.272	139.31
440.493	151.31
440.715	183.31
440.936	163.31
441.158	141.31
441.379	145.31
441.6	140.31
441.822	153.31
442.043	144.31
442.264	146.31
442.486	150.31
442.707	143.31
442.928	152.31
443.149	140.31
443.371	150.31
443.592	148.31
443.813	141.31
444.034	133.31
444.255	153.31
444.476	139.31
444.698	154.31
444.919	156.31
445.14	292.31
445.361	216.31
445.582	151.31
445.803	145.31
446.024	178.31
446.245	158.31
446.466	156.31
446.687	128.31
446.908	150.31
447.129	135.31
447.35	142.31
447.571	148.31
447.792	128.31
448.013	139.31
448.234	122.31
448.455	146.31
448.675	143.31
448.896	136.31
449.117	126.31
449.338	137.31
449.559	137.31
449.779	148.31
450	137.31
450.221	145.31
450.442	139.31
450.662	124.31
450.883	124.31
451.104	130.31
451.324	134.31
451.545	131.31
451.766	123.31
451.986	133.31
452.207	138.31
452.428	151.31
452.648	138.31
452.869	145.31
453.089	152.31
453.31	146.31
453.53	129.31
453.751	136.31
453.971	130.31
454.192	133.31
454.412	132.31
454.633	129.31
454.853	133.31
455.073	145.31
455.294	129.31
455.514	130.31
455.734	129.31
455.955	138.31
456.175	141.31
456.395	130.31
456.616	137.31
456.836	116.31
457.056	119.31
457.276	130.31
457.497	128.31
457.717	134.31
457.937	113.31
458.157	129.31
458.377	128.31
458.598	144.31
458.818	140.31
459.038	145.31
459.258	144.31
459.478	134.31
459.698	151.31
459.918	145.31
460.138	144.31
460.358	142.31
460.578	143.31
460.798	158.31
461.018	141.31
461.238	147.31
461.458	152.31
461.678	151.31
461.898	154.31
462.118	135.31
462.338	158.31
462.558	162.31
462.777	145.31
462.997	155.31
463.217	158.31
463.437	169.31
463.657	148.31
463.876	150.31
464.096	159.31
464.316	144.31
464.536	152.31
464.755	168.31
464.975	160.31
465.195	151.31
465.414	166.31
465.634	164.31
465.854	155.31
466.073	160.31
466.293	158.31
466.512	156.31
466.732	166.31
466.951	152.31
467.171	150.31
467.391	154.31
467.61	154.31
467.829	147.31
468.049	160.31
468.268	155.31
468.488	145.31
468.707	147.31
468.927	166.31
469.146	168.31
469.365	177.31
469.585	167.31
469.804	176.31
470.023	156.31
470.243	165.31
470.462	154.31
470.681	160.31
470.901	151.31
471.12	147.31
471.339	171.31
471.558	164.31
471.777	156.31
471.997	163.31
472.216	166.31
472.435	177.31
472.654	171.31
472.873	164.31
473.092	168.31
473.311	157.31
473.53	168.31
473.749	146.31
473.968	167.31
474.187	161.31
474.406	151.31
474.625	148.31
474.844	151.31
475.063	159.31
475.282	171.31
475.501	185.31
475.72	179.31
475.939	187.31
476.158	175.31
476.377	197.31
476.596	197.31
476.814	212.31
477.033	183.31
477.252	180.31
477.471	172.31
477.69	168.31
477.908	177.31
478.127	177.31
478.346	162.31
478.564	183.31
478.783	178.31
479.002	172.31
479.22	184.31
479.439	206.31
479.658	178.31
479.876	158.31
480.095	169.31
480.313	164.31
480.532	177.31
480.751	187.31
480.969	152.31
481.188	184.31
481.406	192.31
481.624	187.31
481.843	182.31
482.061	167.31
482.28	182.31
482.498	210.31
482.717	216.31
482.935	181.31
483.153	158.31
483.372	173.31
483.59	164.31
483.808	162.31
484.027	167.31
484.245	155.31
484.463	149.31
484.681	172.31
484.9	164.31
485.118	174.31
485.336	168.31
485.554	156.31
485.772	172.31
485.99	167.31
486.209	175.31
486.427	164.31
486.645	187.31
486.863	178.31
487.081	164.31
487.299	202.31
487.517	193.31
487.735	181.31
487.953	192.31
488.171	186.31
488.389	170.31
488.607	157.31
488.825	164.31
489.043	185.31
489.261	216.31
489.479	232.31
489.696	179.31
489.914	184.31
490.132	152.31
490.35	167.31
490.568	157.31
490.786	161.31
491.003	169.31
491.221	177.31
491.439	160.31
491.657	161.31
491.874	180.31
492.092	211.31
492.31	264.31
492.527	235.31
492.745	223.31
492.963	190.31
493.18	195.31
493.398	178.31
493.615	175.31
493.833	187.31
494.05	187.31
494.268	169.31
494.485	203.31
494.703	160.31
494.92	176.31
495.138	180.31
495.355	163.31
495.573	176.31
495.79	203.31
496.008	246.31
496.225	212.31
496.442	205.31
496.66	195.31
496.877	194.31
497.094	200.31
497.312	193.31
497.529	174.31
497.746	183.31
497.963	186.31
498.181	203.31
498.398	218.31
498.615	218.31
498.832	223.31
499.049	228.31
499.267	207.31
499.484	207.31
499.701	196.31
499.918	222.31
500.135	266.31
500.352	254.31
500.569	263.31
500.786	262.31
501.003	265.31
501.22	243.31
501.437	215.31
501.654	209.31
501.871	235.31
502.088	219.31
502.305	181.31
502.522	211.31
502.739	210.31
