Data from NickelSpatula_HRD10591_16-36-20-126.txt Node
Date: Mon Jul 22 16:36:20 EDT 2019
User: cochatt
Spectrometer: HR+D1059
Trigger mode: 1
Integration Time (sec): 1.000000E-1
Scans to average: 1
Electric dark correction enabled: true
Nonlinearity correction enabled: false
Boxcar width: 0
XAxis mode: Wavelengths
Number of Pixels in Spectrum: 2048
>>>>>Begin Spectral Data<<<<<
223.165	-16.56
223.4	-16.56
223.635	-16.56
223.869	-9.56
224.104	-26.56
224.338	-4.56
224.573	-17.56
224.808	-12.56
225.042	-0.56
225.277	-8.56
225.511	-6.56
225.746	-7.56
225.98	9.44
226.215	1.44
226.449	18.44
226.683	36.44
226.918	17.44
227.152	27.44
227.387	31.44
227.621	48.44
227.856	34.44
228.09	41.44
228.324	45.44
228.559	45.44
228.793	56.44
229.027	61.44
229.262	66.44
229.496	75.44
229.73	73.44
229.964	58.44
230.199	76.44
230.433	77.44
230.667	89.44
230.901	72.44
231.136	79.44
231.37	80.44
231.604	89.44
231.838	90.44
232.072	82.44
232.306	93.44
232.541	84.44
232.775	102.44
233.009	97.44
233.243	79.44
233.477	89.44
233.711	113.44
233.945	89.44
234.179	100.44
234.413	92.44
234.647	99.44
234.881	113.44
235.115	109.44
235.349	100.44
235.583	91.44
235.817	101.44
236.051	93.44
236.285	98.44
236.519	94.44
236.753	107.44
236.987	85.44
237.221	99.44
237.455	88.44
237.689	102.44
237.922	97.44
238.156	95.44
238.39	110.44
238.624	105.44
238.858	103.44
239.091	102.44
239.325	98.44
239.559	99.44
239.793	105.44
240.027	98.44
240.26	94.44
240.494	111.44
240.728	113.44
240.961	109.44
241.195	106.44
241.429	93.44
241.662	112.44
241.896	87.44
242.13	111.44
242.363	87.44
242.597	93.44
242.83	99.44
243.064	104.44
243.298	99.44
243.531	128.44
243.765	123.44
243.998	107.44
244.232	106.44
244.465	110.44
244.699	106.44
244.932	127.44
245.166	111.44
245.399	126.44
245.633	119.44
245.866	112.44
246.099	107.44
246.333	113.44
246.566	119.44
246.8	131.44
247.033	110.44
247.266	110.44
247.5	115.44
247.733	113.44
247.966	100.44
248.2	117.44
248.433	119.44
248.666	118.44
248.899	110.44
249.133	110.44
249.366	128.44
249.599	123.44
249.832	125.44
250.066	131.44
250.299	115.44
250.532	123.44
250.765	115.44
250.998	114.44
251.231	128.44
251.465	123.44
251.698	131.44
251.931	134.44
252.164	117.44
252.397	125.44
252.63	134.44
252.863	143.44
253.096	155.44
253.329	140.44
253.562	152.44
253.795	160.44
254.028	131.44
254.261	159.44
254.494	154.44
254.727	148.44
254.96	130.44
255.193	141.44
255.426	152.44
255.659	115.44
255.892	117.44
256.124	123.44
256.357	148.44
256.59	157.44
256.823	140.44
257.056	132.44
257.289	127.44
257.521	139.44
257.754	153.44
257.987	173.44
258.22	136.44
258.452	137.44
258.685	153.44
258.918	161.44
259.151	161.44
259.383	160.44
259.616	174.44
259.849	179.44
260.081	176.44
260.314	189.44
260.547	167.44
260.779	155.44
261.012	177.44
261.244	164.44
261.477	171.44
261.71	154.44
261.942	154.44
262.175	156.44
262.407	139.44
262.64	154.44
262.872	159.44
263.105	185.44
263.337	157.44
263.57	177.44
263.802	149.44
264.035	139.44
264.267	135.44
264.499	122.44
264.732	125.44
264.964	110.44
265.197	114.44
265.429	125.44
265.661	109.44
265.894	133.44
266.126	132.44
266.358	136.44
266.591	139.44
266.823	163.44
267.055	176.44
267.287	147.44
267.52	153.44
267.752	163.44
267.984	167.44
268.216	145.44
268.448	145.44
268.681	140.44
268.913	151.44
269.145	160.44
269.377	159.44
269.609	165.44
269.841	155.44
270.073	164.44
270.306	150.44
270.538	163.44
270.77	155.44
271.002	151.44
271.234	191.44
271.466	160.44
271.698	167.44
271.93	172.44
272.162	173.44
272.394	153.44
272.626	165.44
272.858	169.44
273.09	166.44
273.322	143.44
273.553	139.44
273.785	175.44
274.017	210.44
274.249	214.44
274.481	224.44
274.713	238.44
274.945	267.44
275.176	264.44
275.408	250.44
275.64	224.44
275.872	224.44
276.104	206.44
276.335	200.44
276.567	189.44
276.799	212.44
277.031	212.44
277.262	158.44
277.494	146.44
277.726	150.44
277.957	142.44
278.189	161.44
278.421	158.44
278.652	169.44
278.884	140.44
279.115	157.44
279.347	146.44
279.579	140.44
279.81	157.44
280.042	149.44
280.273	143.44
280.505	135.44
280.736	144.44
280.968	149.44
281.199	160.44
281.431	157.44
281.662	157.44
281.894	149.44
282.125	150.44
282.356	159.44
282.588	166.44
282.819	151.44
283.051	167.44
283.282	169.44
283.513	207.44
283.745	202.44
283.976	206.44
284.207	206.44
284.439	209.44
284.67	209.44
284.901	183.44
285.132	198.44
285.364	216.44
285.595	208.44
285.826	203.44
286.057	193.44
286.288	200.44
286.52	202.44
286.751	212.44
286.982	221.44
287.213	194.44
287.444	196.44
287.675	203.44
287.906	194.44
288.138	174.44
288.369	179.44
288.6	151.44
288.831	159.44
289.062	185.44
289.293	212.44
289.524	187.44
289.755	189.44
289.986	192.44
290.217	174.44
290.448	150.44
290.679	137.44
290.91	121.44
291.141	134.44
291.371	130.44
291.602	127.44
291.833	127.44
292.064	122.44
292.295	148.44
292.526	158.44
292.757	171.44
292.987	181.44
293.218	181.44
293.449	164.44
293.68	205.44
293.91	175.44
294.141	185.44
294.372	178.44
294.603	163.44
294.833	180.44
295.064	187.44
295.295	191.44
295.525	151.44
295.756	149.44
295.987	139.44
296.217	125.44
296.448	134.44
296.679	130.44
296.909	138.44
297.14	151.44
297.37	154.44
297.601	150.44
297.831	149.44
298.062	145.44
298.292	176.44
298.523	167.44
298.753	165.44
298.984	154.44
299.214	143.44
299.445	143.44
299.675	122.44
299.905	139.44
300.136	123.44
300.366	137.44
300.597	148.44
300.827	129.44
301.057	121.44
301.288	130.44
301.518	128.44
301.748	138.44
301.979	146.44
302.209	154.44
302.439	142.44
302.669	147.44
302.9	145.44
303.13	139.44
303.36	131.44
303.59	134.44
303.82	132.44
304.051	157.44
304.281	173.44
304.511	156.44
304.741	150.44
304.971	153.44
305.201	139.44
305.431	138.44
305.661	150.44
305.891	117.44
306.121	140.44
306.352	105.44
306.582	129.44
306.812	109.44
307.042	115.44
307.272	112.44
307.502	113.44
307.731	129.44
307.961	131.44
308.191	114.44
308.421	111.44
308.651	111.44
308.881	103.44
309.111	118.44
309.341	120.44
309.571	121.44
309.8	133.44
310.03	124.44
310.26	111.44
310.49	123.44
310.72	121.44
310.949	109.44
311.179	127.44
311.409	114.44
311.639	149.44
311.868	168.44
312.098	205.44
312.328	196.44
312.557	193.44
312.787	187.44
313.017	170.44
313.246	198.44
313.476	199.44
313.706	165.44
313.935	147.44
314.165	130.44
314.394	131.44
314.624	111.44
314.853	124.44
315.083	145.44
315.312	123.44
315.542	140.44
315.771	117.44
316.001	131.44
316.23	119.44
316.46	134.44
316.689	120.44
316.919	123.44
317.148	123.44
317.377	126.44
317.607	129.44
317.836	121.44
318.065	125.44
318.295	135.44
318.524	135.44
318.753	129.44
318.983	125.44
319.212	118.44
319.441	138.44
319.67	119.44
319.9	131.44
320.129	124.44
320.358	129.44
320.587	132.44
320.816	119.44
321.046	127.44
321.275	138.44
321.504	129.44
321.733	149.44
321.962	124.44
322.191	119.44
322.42	122.44
322.649	130.44
322.878	148.44
323.108	133.44
323.337	135.44
323.566	135.44
323.795	131.44
324.024	127.44
324.253	115.44
324.482	139.44
324.71	118.44
324.939	127.44
325.168	117.44
325.397	105.44
325.626	117.44
325.855	120.44
326.084	114.44
326.313	112.44
326.542	113.44
326.77	120.44
326.999	120.44
327.228	126.44
327.457	133.44
327.686	112.44
327.914	114.44
328.143	128.44
328.372	122.44
328.6	101.44
328.829	123.44
329.058	121.44
329.287	134.44
329.515	137.44
329.744	124.44
329.972	103.44
330.201	115.44
330.43	109.44
330.658	121.44
330.887	119.44
331.115	117.44
331.344	113.44
331.572	139.44
331.801	128.44
332.03	105.44
332.258	122.44
332.486	133.44
332.715	120.44
332.943	118.44
333.172	115.44
333.4	124.44
333.629	130.44
333.857	150.44
334.085	123.44
334.314	131.44
334.542	127.44
334.771	115.44
334.999	114.44
335.227	118.44
335.455	121.44
335.684	132.44
335.912	149.44
336.14	146.44
336.369	137.44
336.597	137.44
336.825	148.44
337.053	163.44
337.281	141.44
337.51	123.44
337.738	134.44
337.966	130.44
338.194	137.44
338.422	140.44
338.65	127.44
338.878	121.44
339.106	122.44
339.334	140.44
339.562	138.44
339.79	136.44
340.018	138.44
340.246	131.44
340.474	127.44
340.702	137.44
340.93	137.44
341.158	149.44
341.386	123.44
341.614	127.44
341.842	140.44
342.07	131.44
342.298	141.44
342.526	146.44
342.754	149.44
342.981	125.44
343.209	127.44
343.437	141.44
343.665	123.44
343.893	162.44
344.12	164.44
344.348	166.44
344.576	147.44
344.804	131.44
345.031	119.44
345.259	127.44
345.487	118.44
345.714	112.44
345.942	130.44
346.17	144.44
346.397	129.44
346.625	121.44
346.853	120.44
347.08	111.44
347.308	128.44
347.535	136.44
347.763	120.44
347.99	129.44
348.218	115.44
348.445	134.44
348.673	124.44
348.9	129.44
349.128	115.44
349.355	124.44
349.583	123.44
349.81	121.44
350.037	119.44
350.265	109.44
350.492	112.44
350.72	108.44
350.947	123.44
351.174	106.44
351.402	117.44
351.629	119.44
351.856	124.44
352.083	98.44
352.311	109.44
352.538	135.44
352.765	129.44
352.992	117.44
353.22	121.44
353.447	109.44
353.674	131.44
353.901	134.44
354.128	122.44
354.355	129.44
354.583	133.44
354.81	122.44
355.037	130.44
355.264	129.44
355.491	129.44
355.718	124.44
355.945	137.44
356.172	128.44
356.399	129.44
356.626	147.44
356.853	159.44
357.08	167.44
357.307	160.44
357.534	146.44
357.761	143.44
357.988	151.44
358.215	183.44
358.441	168.44
358.668	155.44
358.895	142.44
359.122	120.44
359.349	144.44
359.576	133.44
359.802	128.44
360.029	117.44
360.256	131.44
360.483	143.44
360.709	154.44
360.936	160.44
361.163	153.44
361.39	137.44
361.616	135.44
361.843	132.44
362.07	145.44
362.296	115.44
362.523	123.44
362.749	127.44
362.976	117.44
363.203	140.44
363.429	129.44
363.656	116.44
363.882	129.44
364.109	122.44
364.335	137.44
364.562	139.44
364.788	131.44
365.015	132.44
365.241	113.44
365.468	106.44
365.694	113.44
365.92	101.44
366.147	99.44
366.373	115.44
366.599	106.44
366.826	119.44
367.052	115.44
367.278	116.44
367.505	120.44
367.731	126.44
367.957	125.44
368.184	127.44
368.41	134.44
368.636	122.44
368.862	131.44
369.089	134.44
369.315	126.44
369.541	121.44
369.767	116.44
369.993	123.44
370.219	130.44
370.445	130.44
370.672	130.44
370.898	128.44
371.124	125.44
371.35	122.44
371.576	112.44
371.802	124.44
372.028	145.44
372.254	118.44
372.48	133.44
372.706	126.44
372.932	143.44
373.158	142.44
373.384	152.44
373.61	161.44
373.835	160.44
374.061	153.44
374.287	140.44
374.513	145.44
374.739	150.44
374.965	157.44
375.191	161.44
375.416	121.44
375.642	115.44
375.868	135.44
376.094	154.44
376.319	127.44
376.545	135.44
376.771	141.44
376.997	134.44
377.222	101.44
377.448	112.44
377.674	116.44
377.899	119.44
378.125	102.44
378.35	106.44
378.576	116.44
378.802	128.44
379.027	122.44
379.253	123.44
379.478	122.44
379.704	129.44
379.929	131.44
380.155	113.44
380.38	143.44
380.606	128.44
380.831	136.44
381.057	113.44
381.282	123.44
381.507	118.44
381.733	150.44
381.958	155.44
382.184	165.44
382.409	173.44
382.634	163.44
382.86	146.44
383.085	143.44
383.31	134.44
383.535	143.44
383.761	162.44
383.986	145.44
384.211	159.44
384.436	148.44
384.662	127.44
384.887	121.44
385.112	123.44
385.337	131.44
385.562	136.44
385.787	147.44
386.013	141.44
386.238	121.44
386.463	139.44
386.688	140.44
386.913	127.44
387.138	114.44
387.363	123.44
387.588	123.44
387.813	112.44
388.038	137.44
388.263	124.44
388.488	129.44
388.713	143.44
388.938	147.44
389.163	126.44
389.387	109.44
389.612	132.44
389.837	127.44
390.062	131.44
390.287	125.44
390.512	129.44
390.736	124.44
390.961	111.44
391.186	123.44
391.411	111.44
391.636	106.44
391.86	135.44
392.085	138.44
392.31	114.44
392.534	113.44
392.759	123.44
392.984	127.44
393.208	134.44
393.433	134.44
393.658	116.44
393.882	129.44
394.107	91.44
394.331	120.44
394.556	123.44
394.78	115.44
395.005	112.44
395.229	112.44
395.454	119.44
395.678	112.44
395.903	121.44
396.127	106.44
396.352	129.44
396.576	139.44
396.801	136.44
397.025	143.44
397.249	142.44
397.474	125.44
397.698	124.44
397.922	144.44
398.147	133.44
398.371	129.44
398.595	130.44
398.82	126.44
399.044	131.44
399.268	129.44
399.492	125.44
399.717	128.44
399.941	129.44
400.165	135.44
400.389	128.44
400.613	133.44
400.837	121.44
401.062	112.44
401.286	128.44
401.51	117.44
401.734	122.44
401.958	139.44
402.182	138.44
402.406	125.44
402.63	134.44
402.854	114.44
403.078	145.44
403.302	162.44
403.526	169.44
403.75	146.44
403.974	145.44
404.198	134.44
404.422	161.44
404.645	140.44
404.869	162.44
405.093	149.44
405.317	130.44
405.541	123.44
405.765	129.44
405.988	145.44
406.212	139.44
406.436	154.44
406.66	141.44
406.883	141.44
407.107	146.44
407.331	141.44
407.555	142.44
407.778	132.44
408.002	129.44
408.226	110.44
408.449	127.44
408.673	120.44
408.896	136.44
409.12	120.44
409.344	134.44
409.567	139.44
409.791	128.44
410.014	133.44
410.238	129.44
410.461	118.44
410.685	121.44
410.908	127.44
411.132	124.44
411.355	117.44
411.578	141.44
411.802	127.44
412.025	122.44
412.249	127.44
412.472	135.44
412.695	127.44
412.919	118.44
413.142	129.44
413.365	129.44
413.589	127.44
413.812	131.44
414.035	133.44
414.258	126.44
414.482	132.44
414.705	137.44
414.928	123.44
415.151	133.44
415.374	122.44
415.597	131.44
415.821	122.44
416.044	121.44
416.267	137.44
416.49	122.44
416.713	133.44
416.936	128.44
417.159	116.44
417.382	133.44
417.605	140.44
417.828	133.44
418.051	129.44
418.274	130.44
418.497	123.44
418.72	137.44
418.943	131.44
419.166	134.44
419.389	133.44
419.611	125.44
419.834	138.44
420.057	139.44
420.28	146.44
420.503	127.44
420.726	135.44
420.948	139.44
421.171	134.44
421.394	128.44
421.617	104.44
421.839	132.44
422.062	125.44
422.285	125.44
422.507	122.44
422.73	121.44
422.953	139.44
423.175	119.44
423.398	130.44
423.621	129.44
423.843	147.44
424.066	141.44
424.288	128.44
424.511	122.44
424.733	116.44
424.956	126.44
425.178	121.44
425.401	133.44
425.623	158.44
425.846	128.44
426.068	138.44
426.291	128.44
426.513	138.44
426.735	120.44
426.958	129.44
427.18	151.44
427.402	162.44
427.625	165.44
427.847	141.44
428.069	128.44
428.292	130.44
428.514	128.44
428.736	120.44
428.958	102.44
429.181	135.44
429.403	158.44
429.625	125.44
429.847	122.44
430.069	125.44
430.292	131.44
430.514	118.44
430.736	125.44
430.958	141.44
431.18	117.44
431.402	118.44
431.624	135.44
431.846	109.44
432.068	116.44
432.29	134.44
432.512	113.44
432.734	139.44
432.956	142.44
433.178	123.44
433.4	120.44
433.622	139.44
433.844	123.44
434.066	125.44
434.287	129.44
434.509	141.44
434.731	122.44
434.953	119.44
435.175	133.44
435.397	134.44
435.618	145.44
435.84	125.44
436.062	122.44
436.284	131.44
436.505	129.44
436.727	106.44
436.949	131.44
437.17	122.44
437.392	135.44
437.614	129.44
437.835	121.44
438.057	122.44
438.278	138.44
438.5	145.44
438.721	157.44
438.943	121.44
439.165	121.44
439.386	115.44
439.608	135.44
439.829	121.44
440.05	132.44
440.272	121.44
440.493	139.44
440.715	119.44
440.936	135.44
441.158	122.44
441.379	132.44
441.6	128.44
441.822	125.44
442.043	141.44
442.264	121.44
442.486	117.44
442.707	122.44
442.928	138.44
443.149	117.44
443.371	125.44
443.592	137.44
443.813	123.44
444.034	132.44
444.255	133.44
444.476	137.44
444.698	125.44
444.919	137.44
445.14	261.44
445.361	207.44
445.582	157.44
445.803	138.44
446.024	135.44
446.245	132.44
446.466	136.44
446.687	124.44
446.908	137.44
447.129	150.44
447.35	123.44
447.571	108.44
447.792	123.44
448.013	137.44
448.234	104.44
448.455	123.44
448.675	116.44
448.896	127.44
449.117	122.44
449.338	121.44
449.559	135.44
449.779	126.44
450	124.44
450.221	126.44
450.442	115.44
450.662	127.44
450.883	117.44
451.104	114.44
451.324	114.44
451.545	118.44
451.766	119.44
451.986	110.44
452.207	105.44
452.428	121.44
452.648	118.44
452.869	131.44
453.089	127.44
453.31	132.44
453.53	111.44
453.751	127.44
453.971	116.44
454.192	125.44
454.412	125.44
454.633	123.44
454.853	137.44
455.073	130.44
455.294	117.44
455.514	117.44
455.734	134.44
455.955	117.44
456.175	123.44
456.395	118.44
456.616	110.44
456.836	105.44
457.056	123.44
457.276	121.44
457.497	107.44
457.717	108.44
457.937	118.44
458.157	113.44
458.377	120.44
458.598	118.44
458.818	135.44
459.038	125.44
459.258	119.44
459.478	124.44
459.698	139.44
459.918	134.44
460.138	132.44
460.358	125.44
460.578	129.44
460.798	134.44
461.018	130.44
461.238	139.44
461.458	126.44
461.678	122.44
461.898	127.44
462.118	121.44
462.338	121.44
462.558	137.44
462.777	135.44
462.997	142.44
463.217	141.44
463.437	144.44
463.657	135.44
463.876	121.44
464.096	136.44
464.316	138.44
464.536	133.44
464.755	131.44
464.975	138.44
465.195	124.44
465.414	143.44
465.634	135.44
465.854	125.44
466.073	110.44
466.293	129.44
466.512	131.44
466.732	132.44
466.951	139.44
467.171	145.44
467.391	129.44
467.61	133.44
467.829	134.44
468.049	126.44
468.268	122.44
468.488	139.44
468.707	118.44
468.927	140.44
469.146	143.44
469.365	137.44
469.585	129.44
469.804	141.44
470.023	131.44
470.243	143.44
470.462	133.44
470.681	122.44
470.901	145.44
471.12	146.44
471.339	119.44
471.558	130.44
471.777	123.44
471.997	123.44
472.216	139.44
472.435	140.44
472.654	126.44
472.873	125.44
473.092	145.44
473.311	132.44
473.53	133.44
473.749	147.44
473.968	134.44
474.187	140.44
474.406	129.44
474.625	127.44
474.844	125.44
475.063	136.44
475.282	140.44
475.501	153.44
475.72	163.44
475.939	141.44
476.158	157.44
476.377	173.44
476.596	162.44
476.814	182.44
477.033	149.44
477.252	137.44
477.471	121.44
477.69	119.44
477.908	135.44
478.127	147.44
478.346	144.44
478.564	143.44
478.783	140.44
479.002	137.44
479.22	149.44
479.439	168.44
479.658	151.44
479.876	137.44
480.095	161.44
480.313	161.44
480.532	149.44
480.751	136.44
480.969	138.44
481.188	149.44
481.406	170.44
481.624	143.44
481.843	132.44
482.061	141.44
482.28	157.44
482.498	180.44
482.717	173.44
482.935	157.44
483.153	144.44
483.372	138.44
483.59	133.44
483.808	161.44
484.027	139.44
484.245	154.44
484.463	135.44
484.681	121.44
484.9	153.44
485.118	149.44
485.336	117.44
485.554	131.44
485.772	147.44
485.99	143.44
486.209	154.44
486.427	135.44
486.645	161.44
486.863	165.44
487.081	149.44
487.299	153.44
487.517	162.44
487.735	139.44
487.953	149.44
488.171	143.44
488.389	150.44
488.607	133.44
488.825	144.44
489.043	159.44
489.261	166.44
489.479	186.44
489.696	166.44
489.914	131.44
490.132	142.44
490.35	149.44
490.568	142.44
490.786	142.44
491.003	143.44
491.221	151.44
491.439	143.44
491.657	132.44
491.874	143.44
492.092	157.44
492.31	180.44
492.527	181.44
492.745	146.44
492.963	160.44
493.18	154.44
493.398	145.44
493.615	140.44
493.833	148.44
494.05	141.44
494.268	161.44
494.485	152.44
494.703	152.44
494.92	138.44
495.138	138.44
495.355	152.44
495.573	127.44
495.79	142.44
496.008	168.44
496.225	164.44
496.442	152.44
496.66	153.44
496.877	169.44
497.094	143.44
497.312	167.44
497.529	153.44
497.746	156.44
497.963	149.44
498.181	182.44
498.398	171.44
498.615	182.44
498.832	178.44
499.049	182.44
499.267	158.44
499.484	174.44
499.701	181.44
499.918	190.44
500.135	200.44
500.352	204.44
500.569	202.44
500.786	211.44
501.003	204.44
501.22	194.44
501.437	182.44
501.654	191.44
501.871	180.44
502.088	183.44
502.305	155.44
502.522	156.44
502.739	168.44
502.956	160.44
503.172	153.44
