Data from NickelSpatula_HRD10591_16-35-12-126.txt Node
Date: Mon Jul 22 16:35:12 EDT 2019
User: cochatt
Spectrometer: HR+D1059
Trigger mode: 1
Integration Time (sec): 1.000000E-1
Scans to average: 1
Electric dark correction enabled: true
Nonlinearity correction enabled: false
Boxcar width: 0
XAxis mode: Wavelengths
Number of Pixels in Spectrum: 2048
>>>>>Begin Spectral Data<<<<<
223.165	-17.38
223.4	-17.38
223.635	-17.38
223.869	-22.38
224.104	-21.38
224.338	-13.38
224.573	2.62
224.808	-11.38
225.042	-7.38
225.277	-10.38
225.511	5.62
225.746	4.62
225.98	-3.38
226.215	16.62
226.449	-0.38
226.683	12.62
226.918	24.62
227.152	40.62
227.387	28.62
227.621	45.62
227.856	33.62
228.09	32.62
228.324	43.62
228.559	50.62
228.793	54.62
229.027	66.62
229.262	84.62
229.496	78.62
229.73	88.62
229.964	106.62
230.199	103.62
230.433	97.62
230.667	103.62
230.901	103.62
231.136	77.62
231.37	94.62
231.604	93.62
231.838	88.62
232.072	97.62
232.306	93.62
232.541	88.62
232.775	102.62
233.009	107.62
233.243	116.62
233.477	121.62
233.711	129.62
233.945	122.62
234.179	121.62
234.413	117.62
234.647	132.62
234.881	147.62
235.115	132.62
235.349	125.62
235.583	126.62
235.817	124.62
236.051	129.62
236.285	139.62
236.519	145.62
236.753	144.62
236.987	138.62
237.221	136.62
237.455	128.62
237.689	133.62
237.922	139.62
238.156	135.62
238.39	169.62
238.624	161.62
238.858	177.62
239.091	152.62
239.325	139.62
239.559	138.62
239.793	156.62
240.027	178.62
240.26	164.62
240.494	150.62
240.728	165.62
240.961	174.62
241.195	188.62
241.429	180.62
241.662	165.62
241.896	141.62
242.13	152.62
242.363	134.62
242.597	144.62
242.83	174.62
243.064	143.62
243.298	178.62
243.531	181.62
243.765	184.62
243.998	174.62
244.232	160.62
244.465	187.62
244.699	172.62
244.932	192.62
245.166	185.62
245.399	176.62
245.633	156.62
245.866	177.62
246.099	178.62
246.333	189.62
246.566	221.62
246.8	216.62
247.033	213.62
247.266	184.62
247.5	180.62
247.733	174.62
247.966	184.62
248.2	193.62
248.433	202.62
248.666	215.62
248.899	238.62
249.133	227.62
249.366	261.62
249.599	273.62
249.832	251.62
250.066	220.62
250.299	236.62
250.532	213.62
250.765	215.62
250.998	199.62
251.231	210.62
251.465	206.62
251.698	219.62
251.931	207.62
252.164	215.62
252.397	250.62
252.63	272.62
252.863	282.62
253.096	291.62
253.329	270.62
253.562	257.62
253.795	297.62
254.028	330.62
254.261	344.62
254.494	320.62
254.727	288.62
254.96	277.62
255.193	303.62
255.426	272.62
255.659	220.62
255.892	197.62
256.124	233.62
256.357	257.62
256.59	275.62
256.823	291.62
257.056	247.62
257.289	234.62
257.521	244.62
257.754	270.62
257.987	330.62
258.22	279.62
258.452	260.62
258.685	255.62
258.918	296.62
259.151	301.62
259.383	302.62
259.616	364.62
259.849	331.62
260.081	398.62
260.314	412.62
260.547	336.62
260.779	331.62
261.012	387.62
261.244	377.62
261.477	381.62
261.71	368.62
261.942	306.62
262.175	316.62
262.407	292.62
262.64	302.62
262.872	350.62
263.105	384.62
263.337	378.62
263.57	353.62
263.802	247.62
264.035	220.62
264.267	227.62
264.499	190.62
264.732	194.62
264.964	159.62
265.197	195.62
265.429	184.62
265.661	201.62
265.894	221.62
266.126	217.62
266.358	251.62
266.591	288.62
266.823	364.62
267.055	335.62
267.287	272.62
267.52	302.62
267.752	329.62
267.984	313.62
268.216	319.62
268.448	259.62
268.681	252.62
268.913	294.62
269.145	311.62
269.377	304.62
269.609	304.62
269.841	278.62
270.073	298.62
270.306	321.62
270.538	331.62
270.77	339.62
271.002	320.62
271.234	351.62
271.466	344.62
271.698	317.62
271.93	326.62
272.162	302.62
272.394	321.62
272.626	336.62
272.858	342.62
273.09	325.62
273.322	281.62
273.553	281.62
273.785	346.62
274.017	427.62
274.249	497.62
274.481	526.62
274.713	587.62
274.945	636.62
275.176	681.62
275.408	622.62
275.64	572.62
275.872	546.62
276.104	471.62
276.335	405.62
276.567	415.62
276.799	428.62
277.031	453.62
277.262	361.62
277.494	298.62
277.726	262.62
277.957	296.62
278.189	314.62
278.421	340.62
278.652	319.62
278.884	303.62
279.115	285.62
279.347	276.62
279.579	278.62
279.81	277.62
280.042	273.62
280.273	278.62
280.505	271.62
280.736	238.62
280.968	226.62
281.199	242.62
281.431	273.62
281.662	276.62
281.894	266.62
282.125	261.62
282.356	303.62
282.588	310.62
282.819	281.62
283.051	289.62
283.282	377.62
283.513	431.62
283.745	450.62
283.976	465.62
284.207	442.62
284.439	436.62
284.67	436.62
284.901	377.62
285.132	415.62
285.364	445.62
285.595	408.62
285.826	408.62
286.057	430.62
286.288	428.62
286.52	425.62
286.751	452.62
286.982	439.62
287.213	376.62
287.444	357.62
287.675	390.62
287.906	412.62
288.138	351.62
288.369	301.62
288.6	298.62
288.831	307.62
289.062	318.62
289.293	361.62
289.524	363.62
289.755	344.62
289.986	354.62
290.217	302.62
290.448	250.62
290.679	204.62
290.91	210.62
291.141	197.62
291.371	221.62
291.602	223.62
291.833	222.62
292.064	241.62
292.295	271.62
292.526	301.62
292.757	317.62
292.987	341.62
293.218	344.62
293.449	361.62
293.68	370.62
293.91	340.62
294.141	358.62
294.372	346.62
294.603	303.62
294.833	332.62
295.064	389.62
295.295	369.62
295.525	291.62
295.756	250.62
295.987	227.62
296.217	221.62
296.448	231.62
296.679	252.62
296.909	249.62
297.14	262.62
297.37	300.62
297.601	288.62
297.831	261.62
298.062	272.62
298.292	283.62
298.523	316.62
298.753	377.62
298.984	350.62
299.214	280.62
299.445	248.62
299.675	240.62
299.905	238.62
300.136	228.62
300.366	255.62
300.597	254.62
300.827	219.62
301.057	230.62
301.288	236.62
301.518	243.62
301.748	263.62
301.979	286.62
302.209	293.62
302.439	312.62
302.669	282.62
302.9	274.62
303.13	259.62
303.36	242.62
303.59	240.62
303.82	255.62
304.051	256.62
304.281	291.62
304.511	283.62
304.741	251.62
304.971	256.62
305.201	287.62
305.431	276.62
305.661	236.62
305.891	252.62
306.121	251.62
306.352	220.62
306.582	198.62
306.812	177.62
307.042	192.62
307.272	189.62
307.502	172.62
307.731	200.62
307.961	189.62
308.191	196.62
308.421	185.62
308.651	188.62
308.881	184.62
309.111	172.62
309.341	180.62
309.571	196.62
309.8	209.62
310.03	196.62
310.26	206.62
310.49	211.62
310.72	190.62
310.949	188.62
311.179	204.62
311.409	197.62
311.639	220.62
311.868	280.62
312.098	371.62
312.328	388.62
312.557	382.62
312.787	378.62
313.017	333.62
313.246	350.62
313.476	396.62
313.706	319.62
313.935	271.62
314.165	235.62
314.394	185.62
314.624	214.62
314.853	222.62
315.083	228.62
315.312	219.62
315.542	216.62
315.771	194.62
316.001	203.62
316.23	194.62
316.46	190.62
316.689	198.62
316.919	200.62
317.148	200.62
317.377	205.62
317.607	194.62
317.836	208.62
318.065	233.62
318.295	269.62
318.524	246.62
318.753	200.62
318.983	196.62
319.212	186.62
319.441	207.62
319.67	235.62
319.9	265.62
320.129	248.62
320.358	202.62
320.587	197.62
320.816	211.62
321.046	258.62
321.275	272.62
321.504	285.62
321.733	243.62
321.962	238.62
322.191	210.62
322.42	221.62
322.649	237.62
322.878	257.62
323.108	236.62
323.337	229.62
323.566	245.62
323.795	237.62
324.024	218.62
324.253	222.62
324.482	202.62
324.71	217.62
324.939	256.62
325.168	242.62
325.397	213.62
325.626	199.62
325.855	209.62
326.084	193.62
326.313	180.62
326.542	200.62
326.77	188.62
326.999	191.62
327.228	221.62
327.457	210.62
327.686	228.62
327.914	190.62
328.143	167.62
328.372	195.62
328.6	181.62
328.829	187.62
329.058	176.62
329.287	172.62
329.515	198.62
329.744	193.62
329.972	186.62
330.201	188.62
330.43	159.62
330.658	193.62
330.887	216.62
331.115	208.62
331.344	207.62
331.572	201.62
331.801	199.62
332.03	197.62
332.258	204.62
332.486	197.62
332.715	216.62
332.943	199.62
333.172	207.62
333.4	194.62
333.629	216.62
333.857	251.62
334.085	244.62
334.314	228.62
334.542	220.62
334.771	202.62
334.999	168.62
335.227	195.62
335.455	201.62
335.684	222.62
335.912	237.62
336.14	267.62
336.369	224.62
336.597	249.62
336.825	264.62
337.053	305.62
337.281	240.62
337.51	214.62
337.738	202.62
337.966	211.62
338.194	229.62
338.422	210.62
338.65	211.62
338.878	191.62
339.106	200.62
339.334	217.62
339.562	222.62
339.79	188.62
340.018	190.62
340.246	218.62
340.474	216.62
340.702	246.62
340.93	258.62
341.158	264.62
341.386	236.62
341.614	227.62
341.842	222.62
342.07	221.62
342.298	266.62
342.526	277.62
342.754	231.62
342.981	223.62
343.209	217.62
343.437	239.62
343.665	236.62
343.893	217.62
344.12	280.62
344.348	323.62
344.576	286.62
344.804	250.62
345.031	238.62
345.259	196.62
345.487	213.62
345.714	219.62
345.942	229.62
346.17	239.62
346.397	252.62
346.625	219.62
346.853	199.62
347.08	201.62
347.308	213.62
347.535	231.62
347.763	231.62
347.99	210.62
348.218	194.62
348.445	193.62
348.673	212.62
348.9	213.62
349.128	214.62
349.355	221.62
349.583	217.62
349.81	191.62
350.037	198.62
350.265	182.62
350.492	165.62
350.72	167.62
350.947	185.62
351.174	198.62
351.402	193.62
351.629	191.62
351.856	188.62
352.083	192.62
352.311	207.62
352.538	220.62
352.765	230.62
352.992	214.62
353.22	215.62
353.447	217.62
353.674	192.62
353.901	216.62
354.128	202.62
354.355	203.62
354.583	204.62
354.81	212.62
355.037	226.62
355.264	218.62
355.491	219.62
355.718	233.62
355.945	247.62
356.172	227.62
356.399	216.62
356.626	264.62
356.853	289.62
357.08	337.62
357.307	335.62
357.534	269.62
357.761	281.62
357.988	341.62
358.215	384.62
358.441	366.62
358.668	323.62
358.895	312.62
359.122	205.62
359.349	246.62
359.576	282.62
359.802	227.62
360.029	202.62
360.256	228.62
360.483	239.62
360.709	296.62
360.936	322.62
361.163	260.62
361.39	227.62
361.616	233.62
361.843	244.62
362.07	307.62
362.296	280.62
362.523	226.62
362.749	187.62
362.976	196.62
363.203	213.62
363.429	256.62
363.656	229.62
363.882	205.62
364.109	204.62
364.335	201.62
364.562	194.62
364.788	199.62
365.015	260.62
365.241	231.62
365.468	196.62
365.694	181.62
365.92	181.62
366.147	162.62
366.373	173.62
366.599	160.62
366.826	165.62
367.052	177.62
367.278	179.62
367.505	175.62
367.731	185.62
367.957	211.62
368.184	203.62
368.41	210.62
368.636	196.62
368.862	209.62
369.089	199.62
369.315	190.62
369.541	180.62
369.767	183.62
369.993	176.62
370.219	175.62
370.445	185.62
370.672	200.62
370.898	217.62
371.124	236.62
371.35	188.62
371.576	172.62
371.802	198.62
372.028	212.62
372.254	258.62
372.48	228.62
372.706	204.62
372.932	218.62
373.158	232.62
373.384	252.62
373.61	350.62
373.835	326.62
374.061	285.62
374.287	231.62
374.513	273.62
374.739	300.62
374.965	317.62
375.191	302.62
375.416	225.62
375.642	213.62
375.868	231.62
376.094	245.62
376.319	234.62
376.545	248.62
376.771	261.62
376.997	229.62
377.222	195.62
377.448	166.62
377.674	161.62
377.899	166.62
378.125	192.62
378.35	161.62
378.576	165.62
378.802	173.62
379.027	218.62
379.253	206.62
379.478	193.62
379.704	213.62
379.929	228.62
380.155	210.62
380.38	206.62
380.606	222.62
380.831	220.62
381.057	215.62
381.282	204.62
381.507	225.62
381.733	285.62
381.958	285.62
382.184	289.62
382.409	310.62
382.634	304.62
382.86	332.62
383.085	266.62
383.31	222.62
383.535	236.62
383.761	248.62
383.986	221.62
384.211	282.62
384.436	272.62
384.662	214.62
384.887	206.62
385.112	198.62
385.337	210.62
385.562	206.62
385.787	230.62
386.013	262.62
386.238	263.62
386.463	204.62
386.688	194.62
386.913	200.62
387.138	196.62
387.363	210.62
387.588	210.62
387.813	212.62
388.038	226.62
388.263	211.62
388.488	210.62
388.713	244.62
388.938	240.62
389.163	210.62
389.387	208.62
389.612	201.62
389.837	209.62
390.062	189.62
390.287	196.62
390.512	202.62
390.736	191.62
390.961	175.62
391.186	170.62
391.411	172.62
391.636	169.62
391.86	206.62
392.085	221.62
392.31	198.62
392.534	201.62
392.759	209.62
392.984	213.62
393.208	199.62
393.433	198.62
393.658	182.62
393.882	163.62
394.107	168.62
394.331	185.62
394.556	190.62
394.78	160.62
395.005	161.62
395.229	185.62
395.454	178.62
395.678	191.62
395.903	190.62
396.127	182.62
396.352	185.62
396.576	195.62
396.801	212.62
397.025	228.62
397.249	221.62
397.474	198.62
397.698	188.62
397.922	221.62
398.147	183.62
398.371	208.62
398.595	216.62
398.82	211.62
399.044	200.62
399.268	208.62
399.492	210.62
399.717	227.62
399.941	225.62
400.165	224.62
400.389	209.62
400.613	233.62
400.837	201.62
401.062	200.62
401.286	192.62
401.51	185.62
401.734	197.62
401.958	201.62
402.182	192.62
402.406	186.62
402.63	180.62
402.854	189.62
403.078	215.62
403.302	273.62
403.526	296.62
403.75	263.62
403.974	221.62
404.198	232.62
404.422	262.62
404.645	274.62
404.869	294.62
405.093	246.62
405.317	209.62
405.541	200.62
405.765	200.62
405.988	213.62
406.212	219.62
406.436	255.62
406.66	280.62
406.883	230.62
407.107	236.62
407.331	273.62
407.555	278.62
407.778	236.62
408.002	219.62
408.226	232.62
408.449	216.62
408.673	205.62
408.896	213.62
409.12	186.62
409.344	214.62
409.567	192.62
409.791	201.62
410.014	177.62
410.238	193.62
410.461	192.62
410.685	175.62
410.908	178.62
411.132	196.62
411.355	195.62
411.578	205.62
411.802	196.62
412.025	207.62
412.249	210.62
412.472	211.62
412.695	211.62
412.919	197.62
413.142	206.62
413.365	231.62
413.589	222.62
413.812	181.62
414.035	188.62
414.258	209.62
414.482	216.62
414.705	228.62
414.928	182.62
415.151	176.62
415.374	186.62
415.597	205.62
415.821	198.62
416.044	193.62
416.267	193.62
416.49	181.62
416.713	182.62
416.936	176.62
417.159	183.62
417.382	178.62
417.605	204.62
417.828	205.62
418.051	197.62
418.274	195.62
418.497	201.62
418.72	182.62
418.943	185.62
419.166	212.62
419.389	238.62
419.611	211.62
419.834	204.62
420.057	229.62
420.28	231.62
420.503	212.62
420.726	201.62
420.948	180.62
421.171	193.62
421.394	200.62
421.617	189.62
421.839	178.62
422.062	188.62
422.285	210.62
422.507	223.62
422.73	192.62
422.953	198.62
423.175	201.62
423.398	185.62
423.621	215.62
423.843	221.62
424.066	206.62
424.288	191.62
424.511	194.62
424.733	194.62
424.956	210.62
425.178	223.62
425.401	249.62
425.623	285.62
425.846	253.62
426.068	205.62
426.291	228.62
426.513	221.62
426.735	205.62
426.958	206.62
427.18	244.62
427.402	294.62
427.625	294.62
427.847	240.62
428.069	185.62
428.292	176.62
428.514	200.62
428.736	189.62
428.958	221.62
429.181	253.62
429.403	218.62
429.625	192.62
429.847	183.62
430.069	209.62
430.292	195.62
430.514	187.62
430.736	191.62
430.958	230.62
431.18	229.62
431.402	178.62
431.624	178.62
431.846	186.62
432.068	176.62
432.29	168.62
432.512	186.62
432.734	245.62
432.956	217.62
433.178	184.62
433.4	181.62
433.622	186.62
433.844	197.62
434.066	209.62
434.287	210.62
434.509	199.62
434.731	208.62
434.953	196.62
435.175	220.62
435.397	220.62
435.618	198.62
435.84	171.62
436.062	196.62
436.284	183.62
436.505	189.62
436.727	175.62
436.949	164.62
437.17	153.62
437.392	186.62
437.614	203.62
437.835	180.62
438.057	177.62
438.278	204.62
438.5	282.62
438.721	283.62
438.943	207.62
439.165	180.62
439.386	168.62
439.608	177.62
439.829	180.62
440.05	159.62
440.272	174.62
440.493	216.62
440.715	252.62
440.936	213.62
441.158	182.62
441.379	183.62
441.6	222.62
441.822	210.62
442.043	194.62
442.264	195.62
442.486	185.62
442.707	190.62
442.928	182.62
443.149	194.62
443.371	197.62
443.592	208.62
443.813	195.62
444.034	203.62
444.255	202.62
444.476	201.62
444.698	203.62
444.919	211.62
445.14	324.62
445.361	260.62
445.582	208.62
445.803	195.62
446.024	204.62
446.245	199.62
446.466	206.62
446.687	181.62
446.908	188.62
447.129	187.62
447.35	174.62
447.571	186.62
447.792	161.62
448.013	181.62
448.234	160.62
448.455	193.62
448.675	175.62
448.896	168.62
449.117	174.62
449.338	172.62
449.559	178.62
449.779	190.62
450	193.62
450.221	166.62
450.442	162.62
450.662	194.62
450.883	180.62
451.104	165.62
451.324	192.62
451.545	164.62
451.766	178.62
451.986	185.62
452.207	174.62
452.428	161.62
452.648	158.62
452.869	184.62
453.089	194.62
453.31	215.62
453.53	164.62
453.751	165.62
453.971	173.62
454.192	160.62
454.412	191.62
454.633	176.62
454.853	182.62
455.073	181.62
455.294	165.62
455.514	160.62
455.734	160.62
455.955	173.62
456.175	171.62
456.395	150.62
456.616	157.62
456.836	151.62
457.056	165.62
457.276	153.62
457.497	164.62
457.717	159.62
457.937	158.62
458.157	157.62
458.377	169.62
458.598	172.62
458.818	176.62
459.038	185.62
459.258	168.62
459.478	207.62
459.698	205.62
459.918	209.62
460.138	205.62
460.358	195.62
460.578	190.62
460.798	201.62
461.018	201.62
461.238	196.62
461.458	190.62
461.678	187.62
461.898	204.62
462.118	192.62
462.338	179.62
462.558	194.62
462.777	221.62
462.997	203.62
463.217	220.62
463.437	242.62
463.657	242.62
463.876	207.62
464.096	215.62
464.316	202.62
464.536	201.62
464.755	245.62
464.975	229.62
465.195	229.62
465.414	224.62
465.634	192.62
465.854	197.62
466.073	200.62
466.293	196.62
466.512	203.62
466.732	226.62
466.951	215.62
467.171	193.62
467.391	187.62
467.61	189.62
467.829	207.62
468.049	204.62
468.268	201.62
468.488	193.62
468.707	180.62
468.927	219.62
469.146	252.62
469.365	232.62
469.585	221.62
469.804	223.62
470.023	236.62
470.243	212.62
470.462	179.62
470.681	190.62
470.901	212.62
471.12	202.62
471.339	206.62
471.558	207.62
471.777	198.62
471.997	227.62
472.216	240.62
472.435	231.62
472.654	205.62
472.873	220.62
473.092	226.62
473.311	221.62
473.53	206.62
473.749	207.62
473.968	194.62
474.187	215.62
474.406	200.62
474.625	197.62
474.844	209.62
475.063	221.62
475.282	219.62
475.501	238.62
475.72	225.62
475.939	236.62
476.158	241.62
476.377	268.62
476.596	297.62
476.814	335.62
477.033	290.62
477.252	242.62
477.471	234.62
477.69	210.62
477.908	226.62
478.127	246.62
478.346	233.62
478.564	257.62
478.783	227.62
479.002	216.62
479.22	266.62
479.439	288.62
479.658	254.62
479.876	241.62
480.095	234.62
480.313	257.62
480.532	237.62
480.751	240.62
480.969	253.62
481.188	277.62
481.406	271.62
481.624	276.62
481.843	231.62
482.061	216.62
482.28	254.62
482.498	310.62
482.717	275.62
482.935	261.62
483.153	254.62
483.372	201.62
483.59	217.62
483.808	216.62
484.027	205.62
484.245	209.62
484.463	208.62
484.681	219.62
484.9	221.62
485.118	260.62
485.336	235.62
485.554	237.62
485.772	213.62
485.99	231.62
486.209	241.62
486.427	259.62
486.645	261.62
486.863	243.62
487.081	258.62
487.299	290.62
487.517	279.62
487.735	247.62
487.953	232.62
488.171	260.62
488.389	248.62
488.607	223.62
488.825	246.62
489.043	248.62
489.261	284.62
489.479	327.62
489.696	261.62
489.914	239.62
490.132	220.62
490.35	231.62
490.568	215.62
490.786	232.62
491.003	236.62
491.221	224.62
491.439	206.62
491.657	212.62
491.874	234.62
492.092	324.62
492.31	371.62
492.527	323.62
492.745	297.62
492.963	287.62
493.18	257.62
493.398	258.62
493.615	263.62
493.833	255.62
494.05	247.62
494.268	260.62
494.485	250.62
494.703	237.62
494.92	235.62
495.138	225.62
495.355	245.62
495.573	224.62
495.79	267.62
496.008	366.62
496.225	309.62
496.442	269.62
496.66	265.62
496.877	270.62
497.094	259.62
497.312	247.62
497.529	248.62
497.746	254.62
497.963	263.62
498.181	290.62
498.398	297.62
498.615	328.62
498.832	341.62
499.049	343.62
499.267	310.62
499.484	319.62
499.701	341.62
499.918	366.62
500.135	391.62
500.352	406.62
500.569	424.62
500.786	440.62
501.003	430.62
501.22	380.62
501.437	357.62
501.654	352.62
501.871	323.62
502.088	303.62
502.305	295.62
502.522	316.62
502.739	309.62
