Data from NickelSpatula.Lamp.E5.5.P2_HRD10591_11-51-59-557.txt Node
Date: Tue Jul 23 11:51:59 EDT 2019
User: cochatt
Spectrometer: HR+D1059
Trigger mode: 1
Integration Time (sec): 1.000000E-1
Scans to average: 1
Electric dark correction enabled: true
Nonlinearity correction enabled: false
Boxcar width: 0
XAxis mode: Wavelengths
Number of Pixels in Spectrum: 2048
>>>>>Begin Spectral Data<<<<<
223.165	-20.88
223.4	-20.88
223.635	-20.88
223.869	-28.88
224.104	-32.88
224.338	-15.88
224.573	-5.88
224.808	-11.88
225.042	-0.88
225.277	7.12
225.511	2.12
225.746	9.12
225.98	9.12
226.215	8.12
226.449	17.12
226.683	13.12
226.918	12.12
227.152	39.12
227.387	21.12
227.621	30.12
227.856	52.12
228.09	48.12
228.324	49.12
228.559	60.12
228.793	64.12
229.027	72.12
229.262	91.12
229.496	84.12
229.73	66.12
229.964	94.12
230.199	104.12
230.433	105.12
230.667	103.12
230.901	120.12
231.136	100.12
231.37	110.12
231.604	112.12
231.838	111.12
232.072	119.12
232.306	111.12
232.541	113.12
232.775	102.12
233.009	119.12
233.243	122.12
233.477	117.12
233.711	120.12
233.945	122.12
234.179	115.12
234.413	138.12
234.647	125.12
234.881	140.12
235.115	148.12
235.349	127.12
235.583	120.12
235.817	132.12
236.051	142.12
236.285	136.12
236.519	144.12
236.753	128.12
236.987	136.12
237.221	123.12
237.455	134.12
237.689	132.12
237.922	140.12
238.156	147.12
238.39	159.12
238.624	192.12
238.858	159.12
239.091	146.12
239.325	156.12
239.559	150.12
239.793	159.12
240.027	185.12
240.26	162.12
240.494	163.12
240.728	168.12
240.961	178.12
241.195	180.12
241.429	182.12
241.662	161.12
241.896	176.12
242.13	146.12
242.363	135.12
242.597	159.12
242.83	161.12
243.064	159.12
243.298	162.12
243.531	176.12
243.765	174.12
243.998	174.12
244.232	180.12
244.465	191.12
244.699	174.12
244.932	168.12
245.166	192.12
245.399	164.12
245.633	162.12
245.866	155.12
246.099	176.12
246.333	189.12
246.566	182.12
246.8	199.12
247.033	186.12
247.266	184.12
247.5	184.12
247.733	191.12
247.966	176.12
248.2	181.12
248.433	197.12
248.666	221.12
248.899	188.12
249.133	191.12
249.366	231.12
249.599	226.12
249.832	245.12
250.066	217.12
250.299	208.12
250.532	200.12
250.765	212.12
250.998	183.12
251.231	199.12
251.465	191.12
251.698	197.12
251.931	210.12
252.164	191.12
252.397	226.12
252.63	262.12
252.863	277.12
253.096	280.12
253.329	284.12
253.562	260.12
253.795	274.12
254.028	305.12
254.261	323.12
254.494	279.12
254.727	268.12
254.96	271.12
255.193	274.12
255.426	287.12
255.659	229.12
255.892	202.12
256.124	229.12
256.357	271.12
256.59	280.12
256.823	274.12
257.056	241.12
257.289	231.12
257.521	231.12
257.754	279.12
257.987	334.12
258.22	266.12
258.452	284.12
258.685	275.12
258.918	305.12
259.151	304.12
259.383	320.12
259.616	368.12
259.849	353.12
260.081	379.12
260.314	414.12
260.547	339.12
260.779	355.12
261.012	401.12
261.244	373.12
261.477	378.12
261.71	341.12
261.942	296.12
262.175	307.12
262.407	308.12
262.64	307.12
262.872	343.12
263.105	370.12
263.337	386.12
263.57	363.12
263.802	238.12
264.035	234.12
264.267	222.12
264.499	226.12
264.732	199.12
264.964	190.12
265.197	192.12
265.429	222.12
265.661	221.12
265.894	227.12
266.126	242.12
266.358	249.12
266.591	293.12
266.823	341.12
267.055	342.12
267.287	294.12
267.52	315.12
267.752	314.12
267.984	344.12
268.216	337.12
268.448	255.12
268.681	281.12
268.913	291.12
269.145	297.12
269.377	299.12
269.609	300.12
269.841	299.12
270.073	307.12
270.306	330.12
270.538	314.12
270.77	322.12
271.002	333.12
271.234	342.12
271.466	343.12
271.698	335.12
271.93	320.12
272.162	331.12
272.394	309.12
272.626	314.12
272.858	320.12
273.09	353.12
273.322	285.12
273.553	298.12
273.785	326.12
274.017	409.12
274.249	498.12
274.481	499.12
274.713	548.12
274.945	646.12
275.176	660.12
275.408	571.12
275.64	537.12
275.872	551.12
276.104	506.12
276.335	411.12
276.567	417.12
276.799	423.12
277.031	451.12
277.262	357.12
277.494	292.12
277.726	277.12
277.957	290.12
278.189	334.12
278.421	328.12
278.652	322.12
278.884	321.12
279.115	299.12
279.347	275.12
279.579	287.12
279.81	279.12
280.042	297.12
280.273	296.12
280.505	295.12
280.736	256.12
280.968	250.12
281.199	270.12
281.431	293.12
281.662	302.12
281.894	284.12
282.125	298.12
282.356	322.12
282.588	324.12
282.819	287.12
283.051	307.12
283.282	380.12
283.513	422.12
283.745	471.12
283.976	487.12
284.207	431.12
284.439	451.12
284.67	457.12
284.901	397.12
285.132	416.12
285.364	416.12
285.595	420.12
285.826	413.12
286.057	426.12
286.288	442.12
286.52	430.12
286.751	473.12
286.982	460.12
287.213	410.12
287.444	400.12
287.675	426.12
287.906	416.12
288.138	374.12
288.369	331.12
288.6	304.12
288.831	344.12
289.062	372.12
289.293	400.12
289.524	374.12
289.755	353.12
289.986	359.12
290.217	352.12
290.448	281.12
290.679	236.12
290.91	228.12
291.141	220.12
291.371	241.12
291.602	248.12
291.833	227.12
292.064	246.12
292.295	288.12
292.526	318.12
292.757	344.12
292.987	361.12
293.218	382.12
293.449	380.12
293.68	392.12
293.91	388.12
294.141	394.12
294.372	370.12
294.603	353.12
294.833	359.12
295.064	436.12
295.295	419.12
295.525	312.12
295.756	274.12
295.987	243.12
296.217	258.12
296.448	270.12
296.679	255.12
296.909	287.12
297.14	310.12
297.37	323.12
297.601	314.12
297.831	273.12
298.062	298.12
298.292	323.12
298.523	350.12
298.753	411.12
298.984	358.12
299.214	322.12
299.445	256.12
299.675	264.12
299.905	252.12
300.136	253.12
300.366	272.12
300.597	278.12
300.827	264.12
301.057	226.12
301.288	250.12
301.518	280.12
301.748	295.12
301.979	302.12
302.209	315.12
302.439	314.12
302.669	298.12
302.9	291.12
303.13	267.12
303.36	265.12
303.59	272.12
303.82	266.12
304.051	280.12
304.281	318.12
304.511	323.12
304.741	267.12
304.971	268.12
305.201	310.12
305.431	298.12
305.661	248.12
305.891	266.12
306.121	267.12
306.352	227.12
306.582	228.12
306.812	223.12
307.042	217.12
307.272	220.12
307.502	201.12
307.731	197.12
307.961	226.12
308.191	217.12
308.421	201.12
308.651	211.12
308.881	200.12
309.111	210.12
309.341	210.12
309.571	227.12
309.8	231.12
310.03	243.12
310.26	233.12
310.49	235.12
310.72	228.12
310.949	223.12
311.179	212.12
311.409	230.12
311.639	246.12
311.868	330.12
312.098	391.12
312.328	404.12
312.557	397.12
312.787	395.12
313.017	359.12
313.246	402.12
313.476	434.12
313.706	377.12
313.935	291.12
314.165	256.12
314.394	260.12
314.624	220.12
314.853	254.12
315.083	263.12
315.312	242.12
315.542	264.12
315.771	210.12
316.001	214.12
316.23	201.12
316.46	198.12
316.689	200.12
316.919	216.12
317.148	216.12
317.377	206.12
317.607	213.12
317.836	229.12
318.065	260.12
318.295	289.12
318.524	261.12
318.753	253.12
318.983	232.12
319.212	224.12
319.441	228.12
319.67	225.12
319.9	272.12
320.129	260.12
320.358	222.12
320.587	226.12
320.816	221.12
321.046	266.12
321.275	306.12
321.504	297.12
321.733	272.12
321.962	262.12
322.191	258.12
322.42	244.12
322.649	261.12
322.878	266.12
323.108	278.12
323.337	245.12
323.566	256.12
323.795	254.12
324.024	255.12
324.253	223.12
324.482	226.12
324.71	259.12
324.939	278.12
325.168	248.12
325.397	222.12
325.626	219.12
325.855	222.12
326.084	235.12
326.313	218.12
326.542	210.12
326.77	228.12
326.999	240.12
327.228	226.12
327.457	237.12
327.686	242.12
327.914	219.12
328.143	219.12
328.372	203.12
328.6	219.12
328.829	226.12
329.058	210.12
329.287	212.12
329.515	225.12
329.744	224.12
329.972	209.12
330.201	210.12
330.43	194.12
330.658	216.12
330.887	255.12
331.115	242.12
331.344	242.12
331.572	251.12
331.801	232.12
332.03	222.12
332.258	209.12
332.486	230.12
332.715	240.12
332.943	220.12
333.172	226.12
333.4	244.12
333.629	257.12
333.857	260.12
334.085	278.12
334.314	272.12
334.542	251.12
334.771	236.12
334.999	250.12
335.227	223.12
335.455	219.12
335.684	260.12
335.912	284.12
336.14	321.12
336.369	303.12
336.597	291.12
336.825	314.12
337.053	355.12
337.281	281.12
337.51	243.12
337.738	262.12
337.966	255.12
338.194	257.12
338.422	268.12
338.65	240.12
338.878	232.12
339.106	229.12
339.334	246.12
339.562	240.12
339.79	241.12
340.018	226.12
340.246	219.12
340.474	268.12
340.702	287.12
340.93	294.12
341.158	296.12
341.386	263.12
341.614	255.12
341.842	254.12
342.07	255.12
342.298	279.12
342.526	309.12
342.754	282.12
342.981	258.12
343.209	263.12
343.437	280.12
343.665	275.12
343.893	278.12
344.12	328.12
344.348	378.12
344.576	337.12
344.804	293.12
345.031	252.12
345.259	223.12
345.487	240.12
345.714	229.12
345.942	264.12
346.17	282.12
346.397	262.12
346.625	255.12
346.853	230.12
347.08	210.12
347.308	232.12
347.535	270.12
347.763	272.12
347.99	256.12
348.218	235.12
348.445	244.12
348.673	251.12
348.9	239.12
349.128	238.12
349.355	257.12
349.583	247.12
349.81	250.12
350.037	244.12
350.265	217.12
350.492	210.12
350.72	202.12
350.947	210.12
351.174	202.12
351.402	239.12
351.629	231.12
351.856	229.12
352.083	209.12
352.311	240.12
352.538	242.12
352.765	262.12
352.992	276.12
353.22	256.12
353.447	247.12
353.674	231.12
353.901	222.12
354.128	227.12
354.355	228.12
354.583	226.12
354.81	235.12
355.037	260.12
355.264	254.12
355.491	246.12
355.718	263.12
355.945	267.12
356.172	273.12
356.399	240.12
356.626	306.12
356.853	348.12
357.08	372.12
357.307	376.12
357.534	304.12
357.761	330.12
357.988	384.12
358.215	434.12
358.441	393.12
358.668	347.12
358.895	310.12
359.122	286.12
359.349	280.12
359.576	332.12
359.802	270.12
360.029	246.12
360.256	238.12
360.483	310.12
360.709	352.12
360.936	366.12
361.163	312.12
361.39	250.12
361.616	242.12
361.843	278.12
362.07	322.12
362.296	273.12
362.523	223.12
362.749	230.12
362.976	217.12
363.203	275.12
363.429	283.12
363.656	255.12
363.882	233.12
364.109	240.12
364.335	242.12
364.562	240.12
364.788	260.12
365.015	290.12
365.241	271.12
365.468	222.12
365.694	203.12
365.92	219.12
366.147	201.12
366.373	183.12
366.599	192.12
366.826	209.12
367.052	199.12
367.278	201.12
367.505	224.12
367.731	223.12
367.957	234.12
368.184	233.12
368.41	235.12
368.636	223.12
368.862	242.12
369.089	233.12
369.315	219.12
369.541	216.12
369.767	217.12
369.993	216.12
370.219	218.12
370.445	235.12
370.672	238.12
370.898	254.12
371.124	267.12
371.35	227.12
371.576	224.12
371.802	247.12
372.028	266.12
372.254	296.12
372.48	274.12
372.706	253.12
372.932	266.12
373.158	282.12
373.384	306.12
373.61	381.12
373.835	395.12
374.061	316.12
374.287	278.12
374.513	326.12
374.739	356.12
374.965	373.12
375.191	366.12
375.416	275.12
375.642	264.12
375.868	298.12
376.094	312.12
376.319	275.12
376.545	293.12
376.771	297.12
376.997	279.12
377.222	254.12
377.448	216.12
377.674	198.12
377.899	200.12
378.125	200.12
378.35	203.12
378.576	197.12
378.802	225.12
379.027	221.12
379.253	243.12
379.478	224.12
379.704	252.12
379.929	264.12
380.155	268.12
380.38	256.12
380.606	252.12
380.831	270.12
381.057	235.12
381.282	244.12
381.507	271.12
381.733	299.12
381.958	314.12
382.184	350.12
382.409	359.12
382.634	359.12
382.86	368.12
383.085	332.12
383.31	286.12
383.535	288.12
383.761	290.12
383.986	287.12
384.211	312.12
384.436	306.12
384.662	263.12
384.887	258.12
385.112	241.12
385.337	258.12
385.562	259.12
385.787	276.12
386.013	284.12
386.238	294.12
386.463	266.12
386.688	247.12
386.913	230.12
387.138	226.12
387.363	237.12
387.588	244.12
387.813	254.12
388.038	268.12
388.263	254.12
388.488	238.12
388.713	267.12
388.938	290.12
389.163	265.12
389.387	239.12
389.612	235.12
389.837	229.12
390.062	230.12
390.287	257.12
390.512	236.12
390.736	243.12
390.961	240.12
391.186	235.12
391.411	225.12
391.636	221.12
391.86	242.12
392.085	254.12
392.31	268.12
392.534	247.12
392.759	252.12
392.984	248.12
393.208	243.12
393.433	232.12
393.658	212.12
393.882	190.12
394.107	195.12
394.331	195.12
394.556	212.12
394.78	200.12
395.005	211.12
395.229	222.12
395.454	219.12
395.678	217.12
395.903	240.12
396.127	219.12
396.352	208.12
396.576	237.12
396.801	247.12
397.025	256.12
397.249	264.12
397.474	247.12
397.698	248.12
397.922	259.12
398.147	247.12
398.371	217.12
398.595	232.12
398.82	238.12
399.044	247.12
399.268	266.12
399.492	310.12
399.717	296.12
399.941	285.12
400.165	287.12
400.389	274.12
400.613	266.12
400.837	256.12
401.062	256.12
401.286	240.12
401.51	220.12
401.734	226.12
401.958	244.12
402.182	236.12
402.406	234.12
402.63	244.12
402.854	269.12
403.078	295.12
403.302	383.12
403.526	409.12
403.75	331.12
403.974	293.12
404.198	283.12
404.422	324.12
404.645	338.12
404.869	376.12
405.093	294.12
405.317	268.12
405.541	270.12
405.765	264.12
405.988	262.12
406.212	294.12
406.436	289.12
406.66	341.12
406.883	284.12
407.107	294.12
407.331	342.12
407.555	312.12
407.778	302.12
408.002	280.12
408.226	265.12
408.449	278.12
408.673	262.12
408.896	260.12
409.12	243.12
409.344	232.12
409.567	239.12
409.791	245.12
410.014	255.12
410.238	250.12
410.461	260.12
410.685	243.12
410.908	234.12
411.132	274.12
411.355	235.12
411.578	251.12
411.802	241.12
412.025	243.12
412.249	241.12
412.472	238.12
412.695	238.12
412.919	246.12
413.142	242.12
413.365	235.12
413.589	275.12
413.812	244.12
414.035	246.12
414.258	265.12
414.482	266.12
414.705	277.12
414.928	241.12
415.151	210.12
415.374	240.12
415.597	227.12
415.821	250.12
416.044	242.12
416.267	243.12
416.49	236.12
416.713	229.12
416.936	240.12
417.159	254.12
417.382	232.12
417.605	229.12
417.828	230.12
418.051	242.12
418.274	245.12
418.497	260.12
418.72	264.12
418.943	257.12
419.166	265.12
419.389	264.12
419.611	251.12
419.834	281.12
420.057	267.12
420.28	273.12
420.503	247.12
420.726	258.12
420.948	225.12
421.171	254.12
421.394	235.12
421.617	241.12
421.839	228.12
422.062	247.12
422.285	222.12
422.507	254.12
422.73	247.12
422.953	249.12
423.175	250.12
423.398	250.12
423.621	261.12
423.843	286.12
424.066	262.12
424.288	250.12
424.511	248.12
424.733	243.12
424.956	236.12
425.178	278.12
425.401	306.12
425.623	370.12
425.846	320.12
426.068	251.12
426.291	258.12
426.513	269.12
426.735	233.12
426.958	267.12
427.18	291.12
427.402	350.12
427.625	392.12
427.847	334.12
428.069	245.12
428.292	246.12
428.514	251.12
428.736	232.12
428.958	257.12
429.181	342.12
429.403	286.12
429.625	231.12
429.847	222.12
430.069	233.12
430.292	246.12
430.514	229.12
430.736	243.12
430.958	274.12
431.18	271.12
431.402	219.12
431.624	232.12
431.846	218.12
432.068	217.12
432.29	226.12
432.512	246.12
432.734	284.12
432.956	264.12
433.178	248.12
433.4	228.12
433.622	219.12
433.844	226.12
434.066	247.12
434.287	266.12
434.509	256.12
434.731	267.12
434.953	262.12
435.175	254.12
435.397	298.12
435.618	252.12
435.84	216.12
436.062	214.12
436.284	221.12
436.505	229.12
436.727	227.12
436.949	228.12
437.17	229.12
437.392	223.12
437.614	231.12
437.835	247.12
438.057	234.12
438.278	244.12
438.5	333.12
438.721	318.12
438.943	236.12
439.165	212.12
439.386	213.12
439.608	225.12
439.829	206.12
440.05	217.12
440.272	223.12
440.493	242.12
440.715	304.12
440.936	244.12
441.158	223.12
441.379	235.12
441.6	261.12
441.822	278.12
442.043	246.12
442.264	239.12
442.486	243.12
442.707	244.12
442.928	239.12
443.149	248.12
443.371	254.12
443.592	246.12
443.813	253.12
444.034	245.12
444.255	259.12
444.476	247.12
444.698	254.12
444.919	277.12
445.14	342.12
445.361	305.12
445.582	258.12
445.803	267.12
446.024	245.12
446.245	228.12
446.466	236.12
446.687	239.12
446.908	224.12
447.129	232.12
447.35	225.12
447.571	213.12
447.792	235.12
448.013	200.12
448.234	230.12
448.455	208.12
448.675	225.12
448.896	214.12
449.117	220.12
449.338	226.12
449.559	215.12
449.779	215.12
450	223.12
450.221	235.12
450.442	215.12
450.662	216.12
450.883	217.12
451.104	227.12
451.324	222.12
451.545	210.12
451.766	215.12
451.986	241.12
452.207	234.12
452.428	239.12
452.648	213.12
452.869	220.12
453.089	233.12
453.31	228.12
453.53	189.12
453.751	215.12
453.971	209.12
454.192	212.12
454.412	223.12
454.633	225.12
454.853	218.12
455.073	197.12
455.294	202.12
455.514	189.12
455.734	207.12
455.955	204.12
456.175	226.12
456.395	204.12
456.616	200.12
456.836	207.12
457.056	220.12
457.276	204.12
457.497	201.12
457.717	204.12
457.937	197.12
458.157	205.12
458.377	202.12
458.598	200.12
458.818	224.12
459.038	207.12
459.258	225.12
459.478	247.12
459.698	250.12
459.918	241.12
460.138	244.12
460.358	259.12
460.578	246.12
460.798	268.12
461.018	246.12
461.238	220.12
461.458	253.12
461.678	233.12
461.898	256.12
462.118	242.12
462.338	254.12
462.558	278.12
462.777	269.12
462.997	261.12
463.217	300.12
463.437	306.12
463.657	279.12
463.876	270.12
464.096	276.12
464.316	291.12
464.536	287.12
464.755	288.12
464.975	277.12
465.195	278.12
465.414	283.12
465.634	268.12
465.854	268.12
466.073	242.12
466.293	241.12
466.512	251.12
466.732	270.12
466.951	279.12
467.171	235.12
467.391	226.12
467.61	222.12
467.829	239.12
468.049	237.12
468.268	228.12
468.488	232.12
468.707	236.12
468.927	283.12
469.146	296.12
469.365	257.12
469.585	243.12
469.804	278.12
470.023	289.12
470.243	252.12
470.462	228.12
470.681	243.12
470.901	261.12
471.12	259.12
471.339	246.12
471.558	254.12
471.777	248.12
471.997	263.12
472.216	289.12
472.435	279.12
472.654	258.12
472.873	231.12
473.092	264.12
473.311	278.12
473.53	264.12
473.749	231.12
473.968	235.12
474.187	276.12
474.406	240.12
474.625	254.12
474.844	229.12
475.063	268.12
475.282	258.12
475.501	274.12
475.72	291.12
475.939	257.12
476.158	264.12
476.377	312.12
476.596	367.12
476.814	355.12
477.033	302.12
477.252	266.12
477.471	247.12
477.69	256.12
477.908	268.12
478.127	321.12
478.346	282.12
478.564	308.12
478.783	292.12
479.002	299.12
479.22	325.12
479.439	352.12
479.658	306.12
479.876	276.12
480.095	300.12
480.313	316.12
480.532	296.12
480.751	280.12
480.969	279.12
481.188	322.12
481.406	331.12
481.624	316.12
481.843	284.12
482.061	285.12
482.28	276.12
482.498	367.12
482.717	339.12
482.935	275.12
483.153	276.12
483.372	264.12
483.59	258.12
483.808	263.12
484.027	246.12
484.245	254.12
484.463	251.12
484.681	282.12
484.9	270.12
485.118	287.12
485.336	311.12
485.554	271.12
485.772	267.12
485.99	281.12
486.209	310.12
486.427	308.12
486.645	288.12
486.863	312.12
487.081	302.12
487.299	322.12
487.517	329.12
487.735	294.12
487.953	302.12
488.171	310.12
488.389	315.12
488.607	271.12
488.825	276.12
489.043	297.12
489.261	331.12
489.479	361.12
489.696	311.12
489.914	295.12
490.132	279.12
490.35	273.12
490.568	264.12
490.786	299.12
491.003	268.12
491.221	297.12
491.439	289.12
491.657	272.12
491.874	270.12
492.092	340.12
492.31	376.12
492.527	376.12
492.745	346.12
492.963	300.12
493.18	296.12
493.398	325.12
493.615	308.12
493.833	316.12
494.05	315.12
494.268	320.12
494.485	288.12
494.703	291.12
494.92	304.12
495.138	298.12
495.355	297.12
495.573	304.12
495.79	327.12
496.008	379.12
496.225	338.12
496.442	310.12
496.66	306.12
496.877	340.12
497.094	318.12
497.312	298.12
497.529	315.12
497.746	328.12
497.963	316.12
498.181	363.12
498.398	362.12
498.615	386.12
498.832	380.12
499.049	431.12
499.267	372.12
499.484	404.12
499.701	429.12
499.918	436.12
500.135	510.12
500.352	531.12
500.569	578.12
500.786	585.12
501.003	544.12
501.22	528.12
501.437	449.12
501.654	422.12
501.871	407.12
502.088	384.12
502.305	348.12
502.522	350.12
