Data from NickelSpatula_HRD10591_16-33-44-125.txt Node
Date: Mon Jul 22 16:33:44 EDT 2019
User: cochatt
Spectrometer: HR+D1059
Trigger mode: 1
Integration Time (sec): 1.000000E-1
Scans to average: 1
Electric dark correction enabled: true
Nonlinearity correction enabled: false
Boxcar width: 0
XAxis mode: Wavelengths
Number of Pixels in Spectrum: 2048
>>>>>Begin Spectral Data<<<<<
223.165	-21.44
223.4	-21.44
223.635	-21.44
223.869	-24.44
224.104	-26.44
224.338	-13.44
224.573	-6.44
224.808	-2.44
225.042	-0.44
225.277	-10.44
225.511	-12.44
225.746	3.56
225.98	6.56
226.215	9.56
226.449	8.56
226.683	19.56
226.918	37.56
227.152	32.56
227.387	46.56
227.621	45.56
227.856	54.56
228.09	39.56
228.324	43.56
228.559	57.56
228.793	53.56
229.027	72.56
229.262	73.56
229.496	70.56
229.73	69.56
229.964	90.56
230.199	89.56
230.433	90.56
230.667	83.56
230.901	84.56
231.136	80.56
231.37	96.56
231.604	99.56
231.838	106.56
232.072	109.56
232.306	106.56
232.541	119.56
232.775	106.56
233.009	109.56
233.243	111.56
233.477	98.56
233.711	107.56
233.945	123.56
234.179	109.56
234.413	120.56
234.647	127.56
234.881	137.56
235.115	125.56
235.349	120.56
235.583	122.56
235.817	130.56
236.051	110.56
236.285	126.56
236.519	132.56
236.753	123.56
236.987	122.56
237.221	137.56
237.455	127.56
237.689	117.56
237.922	121.56
238.156	132.56
238.39	134.56
238.624	157.56
238.858	132.56
239.091	130.56
239.325	137.56
239.559	122.56
239.793	139.56
240.027	155.56
240.26	153.56
240.494	143.56
240.728	135.56
240.961	157.56
241.195	169.56
241.429	163.56
241.662	155.56
241.896	137.56
242.13	124.56
242.363	117.56
242.597	120.56
242.83	140.56
243.064	143.56
243.298	147.56
243.531	151.56
243.765	159.56
243.998	157.56
244.232	153.56
244.465	158.56
244.699	153.56
244.932	162.56
245.166	142.56
245.399	152.56
245.633	136.56
245.866	152.56
246.099	177.56
246.333	183.56
246.566	181.56
246.8	182.56
247.033	184.56
247.266	185.56
247.5	167.56
247.733	185.56
247.966	165.56
248.2	164.56
248.433	178.56
248.666	185.56
248.899	177.56
249.133	190.56
249.366	221.56
249.599	227.56
249.832	202.56
250.066	191.56
250.299	211.56
250.532	171.56
250.765	185.56
250.998	184.56
251.231	164.56
251.465	186.56
251.698	211.56
251.931	201.56
252.164	195.56
252.397	209.56
252.63	209.56
252.863	237.56
253.096	239.56
253.329	231.56
253.562	233.56
253.795	272.56
254.028	284.56
254.261	297.56
254.494	262.56
254.727	250.56
254.96	245.56
255.193	257.56
255.426	254.56
255.659	197.56
255.892	194.56
256.124	199.56
256.357	227.56
256.59	264.56
256.823	251.56
257.056	207.56
257.289	203.56
257.521	200.56
257.754	249.56
257.987	286.56
258.22	266.56
258.452	213.56
258.685	245.56
258.918	275.56
259.151	249.56
259.383	275.56
259.616	322.56
259.849	328.56
260.081	327.56
260.314	361.56
260.547	301.56
260.779	298.56
261.012	336.56
261.244	330.56
261.477	335.56
261.71	305.56
261.942	279.56
262.175	285.56
262.407	270.56
262.64	271.56
262.872	305.56
263.105	334.56
263.337	320.56
263.57	332.56
263.802	248.56
264.035	211.56
264.267	203.56
264.499	180.56
264.732	177.56
264.964	182.56
265.197	179.56
265.429	179.56
265.661	186.56
265.894	190.56
266.126	198.56
266.358	228.56
266.591	262.56
266.823	313.56
267.055	295.56
267.287	271.56
267.52	274.56
267.752	278.56
267.984	295.56
268.216	298.56
268.448	245.56
268.681	253.56
268.913	280.56
269.145	295.56
269.377	289.56
269.609	283.56
269.841	279.56
270.073	287.56
270.306	298.56
270.538	306.56
270.77	310.56
271.002	305.56
271.234	319.56
271.466	338.56
271.698	312.56
271.93	304.56
272.162	293.56
272.394	305.56
272.626	281.56
272.858	310.56
273.09	314.56
273.322	268.56
273.553	259.56
273.785	275.56
274.017	366.56
274.249	441.56
274.481	453.56
274.713	472.56
274.945	545.56
275.176	550.56
275.408	519.56
275.64	502.56
275.872	478.56
276.104	417.56
276.335	375.56
276.567	375.56
276.799	387.56
277.031	396.56
277.262	338.56
277.494	269.56
277.726	271.56
277.957	280.56
278.189	305.56
278.421	307.56
278.652	291.56
278.884	275.56
279.115	259.56
279.347	252.56
279.579	259.56
279.81	266.56
280.042	244.56
280.273	254.56
280.505	259.56
280.736	222.56
280.968	220.56
281.199	245.56
281.431	273.56
281.662	275.56
281.894	267.56
282.125	252.56
282.356	279.56
282.588	282.56
282.819	252.56
283.051	303.56
283.282	330.56
283.513	381.56
283.745	413.56
283.976	419.56
284.207	402.56
284.439	391.56
284.67	409.56
284.901	350.56
285.132	381.56
285.364	401.56
285.595	382.56
285.826	392.56
286.057	389.56
286.288	374.56
286.52	382.56
286.751	404.56
286.982	412.56
287.213	361.56
287.444	350.56
287.675	375.56
287.906	375.56
288.138	322.56
288.369	295.56
288.6	281.56
288.831	287.56
289.062	348.56
289.293	361.56
289.524	340.56
289.755	331.56
289.986	345.56
290.217	298.56
290.448	264.56
290.679	219.56
290.91	210.56
291.141	215.56
291.371	215.56
291.602	209.56
291.833	201.56
292.064	214.56
292.295	257.56
292.526	295.56
292.757	310.56
292.987	310.56
293.218	324.56
293.449	342.56
293.68	370.56
293.91	330.56
294.141	338.56
294.372	311.56
294.603	301.56
294.833	319.56
295.064	377.56
295.295	383.56
295.525	265.56
295.756	249.56
295.987	230.56
296.217	218.56
296.448	231.56
296.679	234.56
296.909	254.56
297.14	255.56
297.37	311.56
297.601	281.56
297.831	259.56
298.062	267.56
298.292	292.56
298.523	311.56
298.753	333.56
298.984	331.56
299.214	259.56
299.445	238.56
299.675	216.56
299.905	224.56
300.136	227.56
300.366	248.56
300.597	228.56
300.827	222.56
301.057	220.56
301.288	220.56
301.518	259.56
301.748	253.56
301.979	275.56
302.209	289.56
302.439	267.56
302.669	249.56
302.9	253.56
303.13	261.56
303.36	227.56
303.59	223.56
303.82	251.56
304.051	257.56
304.281	271.56
304.511	279.56
304.741	252.56
304.971	250.56
305.201	273.56
305.431	249.56
305.661	210.56
305.891	218.56
306.121	215.56
306.352	213.56
306.582	200.56
306.812	189.56
307.042	197.56
307.272	189.56
307.502	192.56
307.731	196.56
307.961	205.56
308.191	186.56
308.421	175.56
308.651	188.56
308.881	177.56
309.111	178.56
309.341	188.56
309.571	196.56
309.8	198.56
310.03	200.56
310.26	208.56
310.49	210.56
310.72	204.56
310.949	198.56
311.179	192.56
311.409	201.56
311.639	232.56
311.868	290.56
312.098	347.56
312.328	377.56
312.557	344.56
312.787	339.56
313.017	336.56
313.246	337.56
313.476	373.56
313.706	326.56
313.935	275.56
314.165	245.56
314.394	215.56
314.624	206.56
314.853	216.56
315.083	222.56
315.312	213.56
315.542	208.56
315.771	208.56
316.001	197.56
316.23	184.56
316.46	189.56
316.689	198.56
316.919	201.56
317.148	194.56
317.377	170.56
317.607	181.56
317.836	200.56
318.065	223.56
318.295	234.56
318.524	258.56
318.753	207.56
318.983	193.56
319.212	198.56
319.441	202.56
319.67	239.56
319.9	257.56
320.129	266.56
320.358	222.56
320.587	189.56
320.816	215.56
321.046	230.56
321.275	303.56
321.504	273.56
321.733	267.56
321.962	233.56
322.191	248.56
322.42	221.56
322.649	245.56
322.878	249.56
323.108	262.56
323.337	239.56
323.566	225.56
323.795	224.56
324.024	217.56
324.253	226.56
324.482	209.56
324.71	218.56
324.939	245.56
325.168	230.56
325.397	206.56
325.626	199.56
325.855	207.56
326.084	194.56
326.313	206.56
326.542	183.56
326.77	199.56
326.999	210.56
327.228	197.56
327.457	206.56
327.686	219.56
327.914	170.56
328.143	186.56
328.372	192.56
328.6	194.56
328.829	190.56
329.058	181.56
329.287	170.56
329.515	190.56
329.744	212.56
329.972	179.56
330.201	164.56
330.43	170.56
330.658	191.56
330.887	203.56
331.115	214.56
331.344	207.56
331.572	201.56
331.801	192.56
332.03	194.56
332.258	185.56
332.486	188.56
332.715	205.56
332.943	185.56
333.172	200.56
333.4	209.56
333.629	230.56
333.857	234.56
334.085	230.56
334.314	238.56
334.542	218.56
334.771	206.56
334.999	206.56
335.227	213.56
335.455	197.56
335.684	211.56
335.912	250.56
336.14	281.56
336.369	271.56
336.597	233.56
336.825	275.56
337.053	295.56
337.281	242.56
337.51	216.56
337.738	196.56
337.966	219.56
338.194	245.56
338.422	225.56
338.65	219.56
338.878	193.56
339.106	175.56
339.334	222.56
339.562	221.56
339.79	222.56
340.018	209.56
340.246	209.56
340.474	223.56
340.702	263.56
340.93	259.56
341.158	279.56
341.386	222.56
341.614	231.56
341.842	212.56
342.07	230.56
342.298	241.56
342.526	275.56
342.754	233.56
342.981	226.56
343.209	216.56
343.437	237.56
343.665	261.56
343.893	247.56
344.12	280.56
344.348	337.56
344.576	316.56
344.804	260.56
345.031	213.56
345.259	198.56
345.487	198.56
345.714	211.56
345.942	203.56
346.17	247.56
346.397	239.56
346.625	209.56
346.853	197.56
347.08	201.56
347.308	209.56
347.535	234.56
347.763	241.56
347.99	217.56
348.218	193.56
348.445	203.56
348.673	201.56
348.9	196.56
349.128	214.56
349.355	213.56
349.583	208.56
349.81	214.56
350.037	200.56
350.265	187.56
350.492	174.56
350.72	177.56
350.947	167.56
351.174	197.56
351.402	187.56
351.629	211.56
351.856	199.56
352.083	180.56
352.311	201.56
352.538	223.56
352.765	243.56
352.992	228.56
353.22	226.56
353.447	217.56
353.674	217.56
353.901	203.56
354.128	213.56
354.355	209.56
354.583	224.56
354.81	222.56
355.037	211.56
355.264	213.56
355.491	228.56
355.718	249.56
355.945	249.56
356.172	245.56
356.399	227.56
356.626	263.56
356.853	308.56
357.08	330.56
357.307	350.56
357.534	282.56
357.761	275.56
357.988	314.56
358.215	370.56
358.441	358.56
358.668	325.56
358.895	312.56
359.122	217.56
359.349	244.56
359.576	267.56
359.802	225.56
360.029	183.56
360.256	203.56
360.483	248.56
360.709	309.56
360.936	315.56
361.163	290.56
361.39	213.56
361.616	205.56
361.843	223.56
362.07	259.56
362.296	254.56
362.523	218.56
362.749	195.56
362.976	210.56
363.203	223.56
363.429	260.56
363.656	223.56
363.882	204.56
364.109	213.56
364.335	220.56
364.562	205.56
364.788	219.56
365.015	257.56
365.241	219.56
365.468	184.56
365.694	182.56
365.92	161.56
366.147	159.56
366.373	162.56
366.599	166.56
366.826	177.56
367.052	178.56
367.278	183.56
367.505	176.56
367.731	181.56
367.957	211.56
368.184	217.56
368.41	216.56
368.636	195.56
368.862	215.56
369.089	237.56
369.315	197.56
369.541	201.56
369.767	182.56
369.993	178.56
370.219	185.56
370.445	216.56
370.672	207.56
370.898	213.56
371.124	214.56
371.35	216.56
371.576	187.56
371.802	196.56
372.028	229.56
372.254	242.56
372.48	234.56
372.706	214.56
372.932	227.56
373.158	231.56
373.384	253.56
373.61	296.56
373.835	344.56
374.061	262.56
374.287	219.56
374.513	268.56
374.739	301.56
374.965	289.56
375.191	290.56
375.416	229.56
375.642	206.56
375.868	240.56
376.094	259.56
376.319	224.56
376.545	229.56
376.771	263.56
376.997	226.56
377.222	193.56
377.448	162.56
377.674	167.56
377.899	178.56
378.125	177.56
378.35	168.56
378.576	173.56
378.802	192.56
379.027	193.56
379.253	180.56
379.478	190.56
379.704	210.56
379.929	246.56
380.155	228.56
380.38	197.56
380.606	205.56
380.831	224.56
381.057	211.56
381.282	200.56
381.507	239.56
381.733	276.56
381.958	298.56
382.184	298.56
382.409	323.56
382.634	301.56
382.86	327.56
383.085	273.56
383.31	235.56
383.535	217.56
383.761	242.56
383.986	258.56
384.211	267.56
384.436	293.56
384.662	200.56
384.887	229.56
385.112	202.56
385.337	208.56
385.562	213.56
385.787	224.56
386.013	238.56
386.238	259.56
386.463	226.56
386.688	208.56
386.913	213.56
387.138	189.56
387.363	201.56
387.588	208.56
387.813	199.56
388.038	223.56
388.263	210.56
388.488	221.56
388.713	237.56
388.938	241.56
389.163	206.56
389.387	184.56
389.612	191.56
389.837	192.56
390.062	207.56
390.287	199.56
390.512	208.56
390.736	210.56
390.961	183.56
391.186	173.56
391.411	180.56
391.636	203.56
391.86	199.56
392.085	235.56
392.31	244.56
392.534	229.56
392.759	203.56
392.984	214.56
393.208	219.56
393.433	204.56
393.658	175.56
393.882	167.56
394.107	179.56
394.331	168.56
394.556	180.56
394.78	173.56
395.005	182.56
395.229	205.56
395.454	190.56
395.678	205.56
395.903	185.56
396.127	181.56
396.352	184.56
396.576	211.56
396.801	201.56
397.025	234.56
397.249	235.56
397.474	220.56
397.698	191.56
397.922	223.56
398.147	200.56
398.371	179.56
398.595	199.56
398.82	186.56
399.044	191.56
399.268	228.56
399.492	215.56
399.717	210.56
399.941	240.56
400.165	216.56
400.389	217.56
400.613	199.56
400.837	220.56
401.062	181.56
401.286	190.56
401.51	178.56
401.734	194.56
401.958	200.56
402.182	188.56
402.406	198.56
402.63	196.56
402.854	203.56
403.078	217.56
403.302	270.56
403.526	307.56
403.75	284.56
403.974	227.56
404.198	255.56
404.422	260.56
404.645	270.56
404.869	326.56
405.093	240.56
405.317	204.56
405.541	200.56
405.765	225.56
405.988	221.56
406.212	219.56
406.436	254.56
406.66	284.56
406.883	237.56
407.107	232.56
407.331	271.56
407.555	265.56
407.778	225.56
408.002	222.56
408.226	227.56
408.449	226.56
408.673	237.56
408.896	214.56
409.12	214.56
409.344	187.56
409.567	203.56
409.791	193.56
410.014	200.56
410.238	187.56
410.461	198.56
410.685	183.56
410.908	195.56
411.132	204.56
411.355	203.56
411.578	206.56
411.802	200.56
412.025	206.56
412.249	227.56
412.472	207.56
412.695	213.56
412.919	211.56
413.142	210.56
413.365	224.56
413.589	209.56
413.812	210.56
414.035	213.56
414.258	187.56
414.482	230.56
414.705	218.56
414.928	183.56
415.151	206.56
415.374	197.56
415.597	215.56
415.821	193.56
416.044	185.56
416.267	196.56
416.49	197.56
416.713	192.56
416.936	186.56
417.159	186.56
417.382	201.56
417.605	203.56
417.828	207.56
418.051	195.56
418.274	212.56
418.497	213.56
418.72	197.56
418.943	191.56
419.166	218.56
419.389	218.56
419.611	215.56
419.834	224.56
420.057	245.56
420.28	229.56
420.503	226.56
420.726	204.56
420.948	191.56
421.171	202.56
421.394	198.56
421.617	191.56
421.839	184.56
422.062	185.56
422.285	202.56
422.507	196.56
422.73	189.56
422.953	223.56
423.175	213.56
423.398	202.56
423.621	232.56
423.843	241.56
424.066	200.56
424.288	187.56
424.511	199.56
424.733	181.56
424.956	207.56
425.178	223.56
425.401	277.56
425.623	281.56
425.846	253.56
426.068	226.56
426.291	230.56
426.513	216.56
426.735	200.56
426.958	208.56
427.18	238.56
427.402	293.56
427.625	301.56
427.847	253.56
428.069	199.56
428.292	198.56
428.514	180.56
428.736	166.56
428.958	213.56
429.181	257.56
429.403	230.56
429.625	198.56
429.847	198.56
430.069	189.56
430.292	199.56
430.514	186.56
430.736	207.56
430.958	212.56
431.18	215.56
431.402	181.56
431.624	166.56
431.846	184.56
432.068	172.56
432.29	190.56
432.512	186.56
432.734	230.56
432.956	215.56
433.178	188.56
433.4	173.56
433.622	193.56
433.844	197.56
434.066	215.56
434.287	199.56
434.509	207.56
434.731	211.56
434.953	175.56
435.175	200.56
435.397	237.56
435.618	199.56
435.84	178.56
436.062	202.56
436.284	192.56
436.505	177.56
436.727	174.56
436.949	195.56
437.17	188.56
437.392	176.56
437.614	182.56
437.835	175.56
438.057	184.56
438.278	186.56
438.5	270.56
438.721	273.56
438.943	213.56
439.165	186.56
439.386	190.56
439.608	178.56
439.829	177.56
440.05	181.56
440.272	181.56
440.493	194.56
440.715	241.56
440.936	208.56
441.158	205.56
441.379	183.56
441.6	199.56
441.822	228.56
442.043	201.56
442.264	181.56
442.486	198.56
442.707	201.56
442.928	195.56
443.149	187.56
443.371	186.56
443.592	206.56
443.813	194.56
444.034	198.56
444.255	185.56
444.476	179.56
444.698	198.56
444.919	205.56
445.14	309.56
445.361	266.56
445.582	219.56
445.803	205.56
446.024	211.56
446.245	209.56
446.466	216.56
446.687	197.56
446.908	187.56
447.129	173.56
447.35	182.56
447.571	181.56
447.792	186.56
448.013	163.56
448.234	162.56
448.455	169.56
448.675	173.56
448.896	196.56
449.117	162.56
449.338	177.56
449.559	163.56
449.779	177.56
450	187.56
450.221	176.56
450.442	183.56
450.662	182.56
450.883	169.56
451.104	176.56
451.324	178.56
451.545	175.56
451.766	183.56
451.986	179.56
452.207	159.56
452.428	162.56
452.648	181.56
452.869	198.56
453.089	189.56
453.31	179.56
453.53	166.56
453.751	177.56
453.971	170.56
454.192	167.56
454.412	189.56
454.633	181.56
454.853	190.56
455.073	152.56
455.294	162.56
455.514	166.56
455.734	182.56
455.955	173.56
456.175	183.56
456.395	160.56
456.616	157.56
456.836	162.56
457.056	152.56
457.276	157.56
457.497	165.56
457.717	173.56
457.937	157.56
458.157	170.56
458.377	165.56
458.598	160.56
458.818	150.56
459.038	165.56
459.258	179.56
459.478	180.56
459.698	182.56
459.918	199.56
460.138	194.56
460.358	190.56
460.578	182.56
460.798	185.56
461.018	207.56
461.238	182.56
461.458	181.56
461.678	185.56
461.898	207.56
462.118	196.56
462.338	203.56
462.558	204.56
462.777	220.56
462.997	227.56
463.217	229.56
463.437	233.56
463.657	219.56
463.876	211.56
464.096	212.56
464.316	215.56
464.536	218.56
464.755	225.56
464.975	229.56
465.195	190.56
465.414	221.56
465.634	206.56
465.854	190.56
466.073	189.56
466.293	193.56
466.512	186.56
466.732	209.56
466.951	215.56
467.171	191.56
467.391	163.56
467.61	177.56
467.829	194.56
468.049	190.56
468.268	204.56
468.488	179.56
468.707	187.56
468.927	194.56
469.146	232.56
469.365	204.56
469.585	182.56
469.804	207.56
470.023	229.56
470.243	217.56
470.462	200.56
470.681	190.56
470.901	204.56
471.12	209.56
471.339	192.56
471.558	194.56
471.777	193.56
471.997	192.56
472.216	221.56
472.435	217.56
472.654	208.56
472.873	223.56
473.092	212.56
473.311	203.56
473.53	185.56
473.749	196.56
473.968	207.56
474.187	200.56
474.406	204.56
474.625	196.56
474.844	185.56
475.063	196.56
475.282	208.56
475.501	232.56
475.72	267.56
475.939	229.56
476.158	215.56
476.377	260.56
476.596	289.56
476.814	312.56
477.033	256.56
477.252	216.56
477.471	183.56
477.69	193.56
477.908	234.56
478.127	217.56
478.346	219.56
478.564	244.56
478.783	226.56
479.002	233.56
479.22	246.56
479.439	263.56
479.658	237.56
479.876	219.56
480.095	233.56
480.313	259.56
480.532	226.56
480.751	230.56
480.969	225.56
481.188	234.56
481.406	247.56
481.624	229.56
481.843	237.56
482.061	215.56
482.28	234.56
482.498	288.56
482.717	293.56
482.935	249.56
483.153	221.56
483.372	199.56
483.59	221.56
483.808	204.56
484.027	226.56
484.245	220.56
484.463	189.56
484.681	208.56
484.9	218.56
485.118	231.56
485.336	232.56
485.554	201.56
485.772	214.56
485.99	235.56
486.209	233.56
486.427	229.56
486.645	235.56
486.863	244.56
487.081	228.56
487.299	273.56
487.517	260.56
487.735	241.56
487.953	250.56
488.171	244.56
488.389	209.56
488.607	221.56
488.825	223.56
489.043	243.56
489.261	297.56
489.479	319.56
489.696	268.56
489.914	234.56
490.132	209.56
490.35	230.56
490.568	221.56
490.786	218.56
491.003	213.56
491.221	214.56
491.439	203.56
491.657	215.56
491.874	230.56
492.092	280.56
492.31	367.56
492.527	341.56
492.745	290.56
492.963	256.56
493.18	250.56
493.398	242.56
493.615	256.56
493.833	253.56
494.05	238.56
494.268	253.56
494.485	255.56
494.703	234.56
494.92	246.56
495.138	216.56
495.355	250.56
495.573	240.56
495.79	285.56
496.008	370.56
496.225	300.56
496.442	265.56
496.66	271.56
496.877	263.56
497.094	253.56
497.312	260.56
497.529	258.56
497.746	266.56
497.963	261.56
498.181	285.56
498.398	274.56
498.615	305.56
498.832	309.56
499.049	323.56
499.267	299.56
499.484	317.56
499.701	327.56
499.918	341.56
500.135	361.56
500.352	394.56
500.569	408.56
500.786	443.56
501.003	434.56
501.22	369.56
501.437	351.56
501.654	335.56
501.871	326.56
502.088	328.56
502.305	304.56
502.522	294.56
502.739	293.56
