Data from NickelSpatula.Lamp.E10.P2_HRD10591_11-56-51-534.txt Node
Date: Tue Jul 23 11:56:51 EDT 2019
User: cochatt
Spectrometer: HR+D1059
Trigger mode: 1
Integration Time (sec): 1.000000E-1
Scans to average: 1
Electric dark correction enabled: true
Nonlinearity correction enabled: false
Boxcar width: 0
XAxis mode: Wavelengths
Number of Pixels in Spectrum: 2048
>>>>>Begin Spectral Data<<<<<
223.165	-11.25
223.4	-11.25
223.635	-11.25
223.869	-15.25
224.104	-10.25
224.338	-13.25
224.573	-17.25
224.808	-15.25
225.042	-10.25
225.277	-12.25
225.511	-2.25
225.746	6.75
225.98	9.75
226.215	-1.25
226.449	0.75
226.683	21.75
226.918	38.75
227.152	30.75
227.387	38.75
227.621	30.75
227.856	32.75
228.09	44.75
228.324	61.75
228.559	55.75
228.793	71.75
229.027	122.75
229.262	148.75
229.496	143.75
229.73	154.75
229.964	171.75
230.199	181.75
230.433	198.75
230.667	204.75
230.901	200.75
231.136	183.75
231.37	187.75
231.604	201.75
231.838	219.75
232.072	231.75
232.306	238.75
232.541	244.75
232.775	240.75
233.009	242.75
233.243	254.75
233.477	288.75
233.711	316.75
233.945	297.75
234.179	308.75
234.413	337.75
234.647	336.75
234.881	408.75
235.115	382.75
235.349	351.75
235.583	336.75
235.817	325.75
236.051	338.75
236.285	378.75
236.519	388.75
236.753	393.75
236.987	395.75
237.221	374.75
237.455	376.75
237.689	402.75
237.922	421.75
238.156	449.75
238.39	542.75
238.624	580.75
238.858	532.75
239.091	430.75
239.325	476.75
239.559	423.75
239.793	477.75
240.027	584.75
240.26	548.75
240.494	530.75
240.728	548.75
240.961	610.75
241.195	566.75
241.429	570.75
241.662	545.75
241.896	459.75
242.13	438.75
242.363	406.75
242.597	420.75
242.83	486.75
243.064	477.75
243.298	512.75
243.531	565.75
243.765	591.75
243.998	572.75
244.232	562.75
244.465	555.75
244.699	524.75
244.932	594.75
245.166	577.75
245.399	497.75
245.633	489.75
245.866	532.75
246.099	566.75
246.333	634.75
246.566	688.75
246.8	686.75
247.033	655.75
247.266	620.75
247.5	609.75
247.733	617.75
247.966	590.75
248.2	600.75
248.433	676.75
248.666	726.75
248.899	728.75
249.133	755.75
249.366	867.75
249.599	915.75
249.832	836.75
250.066	756.75
250.299	743.75
250.532	734.75
250.765	731.75
250.998	652.75
251.231	659.75
251.465	658.75
251.698	740.75
251.931	718.75
252.164	774.75
252.397	826.75
252.63	928.75
252.863	1000.75
253.096	1042.75
253.329	998.75
253.562	1000.75
253.795	1063.75
254.028	1192.75
254.261	1221.75
254.494	1102.75
254.727	1001.75
254.96	980.75
255.193	1052.75
255.426	992.75
255.659	790.75
255.892	745.75
256.124	834.75
256.357	931.75
256.59	1065.75
256.823	1043.75
257.056	894.75
257.289	860.75
257.521	886.75
257.754	1054.75
257.987	1196.75
258.22	1049.75
258.452	936.75
258.685	1055.75
258.918	1170.75
259.151	1150.75
259.383	1241.75
259.616	1396.75
259.849	1452.75
260.081	1535.75
260.314	1683.75
260.547	1354.75
260.779	1383.75
261.012	1554.75
261.244	1471.75
261.477	1477.75
261.71	1375.75
261.942	1172.75
262.175	1200.75
262.407	1097.75
262.64	1155.75
262.872	1358.75
263.105	1441.75
263.337	1513.75
263.57	1364.75
263.802	989.75
264.035	884.75
264.267	862.75
264.499	746.75
264.732	676.75
264.964	688.75
265.197	710.75
265.429	718.75
265.661	773.75
265.894	826.75
266.126	865.75
266.358	978.75
266.591	1135.75
266.823	1383.75
267.055	1320.75
267.287	1162.75
267.52	1197.75
267.752	1281.75
267.984	1360.75
268.216	1298.75
268.448	1096.75
268.681	1062.75
268.913	1120.75
269.145	1168.75
269.377	1254.75
269.609	1249.75
269.841	1164.75
270.073	1238.75
270.306	1324.75
270.538	1333.75
270.77	1366.75
271.002	1324.75
271.234	1375.75
271.466	1399.75
271.698	1290.75
271.93	1256.75
272.162	1273.75
272.394	1302.75
272.626	1282.75
272.858	1317.75
273.09	1318.75
273.322	1162.75
273.553	1094.75
273.785	1334.75
274.017	1699.75
274.249	2091.75
274.481	2158.75
274.713	2329.75
274.945	2690.75
275.176	2814.75
275.408	2499.75
275.64	2295.75
275.872	2302.75
276.104	2019.75
276.335	1766.75
276.567	1704.75
276.799	1781.75
277.031	1853.75
277.262	1489.75
277.494	1144.75
277.726	1081.75
277.957	1265.75
278.189	1342.75
278.421	1350.75
278.652	1334.75
278.884	1268.75
279.115	1203.75
279.347	1129.75
279.579	1101.75
279.81	1136.75
280.042	1096.75
280.273	1164.75
280.505	1064.75
280.736	949.75
280.968	938.75
281.199	1028.75
281.431	1194.75
281.662	1186.75
281.894	1134.75
282.125	1214.75
282.356	1300.75
282.588	1304.75
282.819	1167.75
283.051	1247.75
283.282	1556.75
283.513	1859.75
283.745	2031.75
283.976	1990.75
284.207	1866.75
284.439	1927.75
284.67	1838.75
284.901	1632.75
285.132	1782.75
285.364	1838.75
285.595	1712.75
285.826	1753.75
286.057	1840.75
286.288	1749.75
286.52	1851.75
286.751	1891.75
286.982	1920.75
287.213	1637.75
287.444	1627.75
287.675	1719.75
287.906	1731.75
288.138	1462.75
288.369	1298.75
288.6	1265.75
288.831	1269.75
289.062	1539.75
289.293	1652.75
289.524	1533.75
289.755	1534.75
289.986	1565.75
290.217	1356.75
290.448	1065.75
290.679	932.75
290.91	840.75
291.141	850.75
291.371	926.75
291.602	944.75
291.833	916.75
292.064	1006.75
292.295	1137.75
292.526	1306.75
292.757	1385.75
292.987	1479.75
293.218	1492.75
293.449	1559.75
293.68	1606.75
293.91	1550.75
294.141	1586.75
294.372	1472.75
294.603	1358.75
294.833	1480.75
295.064	1688.75
295.295	1680.75
295.525	1266.75
295.756	1065.75
295.987	927.75
296.217	932.75
296.448	928.75
296.679	983.75
296.909	1078.75
297.14	1162.75
297.37	1289.75
297.601	1211.75
297.831	1073.75
298.062	1147.75
298.292	1305.75
298.523	1356.75
298.753	1518.75
298.984	1404.75
299.214	1157.75
299.445	947.75
299.675	910.75
299.905	919.75
300.136	927.75
300.366	971.75
300.597	963.75
300.827	889.75
301.057	839.75
301.288	910.75
301.518	963.75
301.748	1056.75
301.979	1117.75
302.209	1162.75
302.439	1174.75
302.669	1072.75
302.9	1084.75
303.13	1071.75
303.36	980.75
303.59	980.75
303.82	1006.75
304.051	1134.75
304.281	1205.75
304.511	1162.75
304.741	1022.75
304.971	1064.75
305.201	1174.75
305.431	1128.75
305.661	950.75
305.891	921.75
306.121	936.75
306.352	880.75
306.582	791.75
306.812	791.75
307.042	804.75
307.272	751.75
307.502	735.75
307.731	803.75
307.961	836.75
308.191	780.75
308.421	721.75
308.651	759.75
308.881	710.75
309.111	718.75
309.341	786.75
309.571	833.75
309.8	839.75
310.03	844.75
310.26	883.75
310.49	874.75
310.72	813.75
310.949	826.75
311.179	842.75
311.409	879.75
311.639	1024.75
311.868	1280.75
312.098	1606.75
312.328	1824.75
312.557	1705.75
312.787	1711.75
313.017	1504.75
313.246	1659.75
313.476	1767.75
313.706	1500.75
313.935	1148.75
314.165	970.75
314.394	900.75
314.624	915.75
314.853	915.75
315.083	995.75
315.312	937.75
315.542	877.75
315.771	873.75
316.001	794.75
316.23	796.75
316.46	787.75
316.689	783.75
316.919	819.75
317.148	814.75
317.377	800.75
317.607	800.75
317.836	847.75
318.065	1003.75
318.295	1140.75
318.524	1052.75
318.753	894.75
318.983	869.75
319.212	829.75
319.441	893.75
319.67	994.75
319.9	1039.75
320.129	969.75
320.358	896.75
320.587	857.75
320.816	900.75
321.046	1006.75
321.275	1107.75
321.504	1106.75
321.733	1056.75
321.962	1076.75
322.191	968.75
322.42	917.75
322.649	948.75
322.878	998.75
323.108	1013.75
323.337	954.75
323.566	969.75
323.795	927.75
324.024	918.75
324.253	889.75
324.482	861.75
324.71	918.75
324.939	1006.75
325.168	955.75
325.397	833.75
325.626	825.75
325.855	832.75
326.084	852.75
326.313	803.75
326.542	770.75
326.77	811.75
326.999	795.75
327.228	851.75
327.457	903.75
327.686	880.75
327.914	795.75
328.143	777.75
328.372	751.75
328.6	778.75
328.829	775.75
329.058	806.75
329.287	815.75
329.515	818.75
329.744	814.75
329.972	801.75
330.201	746.75
330.43	787.75
330.658	864.75
330.887	939.75
331.115	955.75
331.344	919.75
331.572	891.75
331.801	850.75
332.03	812.75
332.258	798.75
332.486	874.75
332.715	916.75
332.943	838.75
333.172	844.75
333.4	882.75
333.629	1001.75
333.857	1029.75
334.085	1024.75
334.314	1048.75
334.542	983.75
334.771	914.75
334.999	875.75
335.227	878.75
335.455	888.75
335.684	970.75
335.912	1108.75
336.14	1196.75
336.369	1158.75
336.597	1123.75
336.825	1227.75
337.053	1370.75
337.281	1081.75
337.51	912.75
337.738	896.75
337.966	955.75
338.194	1045.75
338.422	1018.75
338.65	858.75
338.878	843.75
339.106	847.75
339.334	908.75
339.562	976.75
339.79	880.75
340.018	895.75
340.246	935.75
340.474	1041.75
340.702	1120.75
340.93	1147.75
341.158	1120.75
341.386	982.75
341.614	940.75
341.842	971.75
342.07	995.75
342.298	1167.75
342.526	1200.75
342.754	1052.75
342.981	936.75
343.209	926.75
343.437	994.75
343.665	1056.75
343.893	1052.75
344.12	1178.75
344.348	1330.75
344.576	1266.75
344.804	1008.75
345.031	894.75
345.259	901.75
345.487	897.75
345.714	911.75
345.942	976.75
346.17	1046.75
346.397	1009.75
346.625	909.75
346.853	848.75
347.08	844.75
347.308	899.75
347.535	991.75
347.763	989.75
347.99	871.75
348.218	851.75
348.445	878.75
348.673	884.75
348.9	898.75
349.128	919.75
349.355	906.75
349.583	928.75
349.81	907.75
350.037	875.75
350.265	795.75
350.492	723.75
350.72	736.75
350.947	774.75
351.174	772.75
351.402	807.75
351.629	839.75
351.856	791.75
352.083	784.75
352.311	836.75
352.538	856.75
352.765	939.75
352.992	858.75
353.22	827.75
353.447	849.75
353.674	843.75
353.901	819.75
354.128	827.75
354.355	842.75
354.583	829.75
354.81	872.75
355.037	893.75
355.264	862.75
355.491	914.75
355.718	945.75
355.945	944.75
356.172	919.75
356.399	930.75
356.626	1060.75
356.853	1225.75
357.08	1299.75
357.307	1308.75
357.534	1099.75
357.761	1129.75
357.988	1359.75
358.215	1540.75
358.441	1454.75
358.668	1239.75
358.895	1163.75
359.122	1004.75
359.349	1011.75
359.576	1079.75
359.802	921.75
360.029	810.75
360.256	865.75
360.483	1025.75
360.709	1194.75
360.936	1258.75
361.163	1114.75
361.39	952.75
361.616	887.75
361.843	988.75
362.07	1124.75
362.296	1074.75
362.523	877.75
362.749	816.75
362.976	874.75
363.203	971.75
363.429	1059.75
363.656	912.75
363.882	839.75
364.109	845.75
364.335	857.75
364.562	821.75
364.788	928.75
365.015	1036.75
365.241	933.75
365.468	819.75
365.694	745.75
365.92	725.75
366.147	718.75
366.373	707.75
366.599	748.75
366.826	728.75
367.052	723.75
367.278	716.75
367.505	735.75
367.731	792.75
367.957	878.75
368.184	900.75
368.41	849.75
368.636	864.75
368.862	881.75
369.089	837.75
369.315	810.75
369.541	795.75
369.767	796.75
369.993	755.75
370.219	769.75
370.445	762.75
370.672	847.75
370.898	905.75
371.124	912.75
371.35	814.75
371.576	786.75
371.802	866.75
372.028	925.75
372.254	1060.75
372.48	918.75
372.706	858.75
372.932	897.75
373.158	916.75
373.384	1079.75
373.61	1346.75
373.835	1356.75
374.061	1076.75
374.287	979.75
374.513	1095.75
374.739	1239.75
374.965	1277.75
375.191	1268.75
375.416	971.75
375.642	857.75
375.868	976.75
376.094	1076.75
376.319	950.75
376.545	1042.75
376.771	1076.75
376.997	943.75
377.222	807.75
377.448	689.75
377.674	690.75
377.899	679.75
378.125	687.75
378.35	709.75
378.576	701.75
378.802	743.75
379.027	778.75
379.253	782.75
379.478	793.75
379.704	858.75
379.929	879.75
380.155	886.75
380.38	827.75
380.606	868.75
380.831	939.75
381.057	886.75
381.282	842.75
381.507	929.75
381.733	1136.75
381.958	1170.75
382.184	1248.75
382.409	1296.75
382.634	1275.75
382.86	1371.75
383.085	1146.75
383.31	938.75
383.535	984.75
383.761	1020.75
383.986	986.75
384.211	1104.75
384.436	1107.75
384.662	912.75
384.887	883.75
385.112	883.75
385.337	930.75
385.562	880.75
385.787	937.75
386.013	968.75
386.238	1016.75
386.463	904.75
386.688	892.75
386.913	810.75
387.138	850.75
387.363	849.75
387.588	866.75
387.813	864.75
388.038	906.75
388.263	868.75
388.488	876.75
388.713	953.75
388.938	991.75
389.163	886.75
389.387	832.75
389.612	822.75
389.837	849.75
390.062	871.75
390.287	885.75
390.512	890.75
390.736	886.75
390.961	826.75
391.186	787.75
391.411	783.75
391.636	821.75
391.86	854.75
392.085	900.75
392.31	911.75
392.534	860.75
392.759	864.75
392.984	883.75
393.208	881.75
393.433	822.75
393.658	771.75
393.882	781.75
394.107	762.75
394.331	784.75
394.556	769.75
394.78	800.75
395.005	779.75
395.229	796.75
395.454	821.75
395.678	808.75
395.903	832.75
396.127	817.75
396.352	839.75
396.576	873.75
396.801	888.75
397.025	972.75
397.249	980.75
397.474	878.75
397.698	860.75
397.922	890.75
398.147	854.75
398.371	844.75
398.595	898.75
398.82	894.75
399.044	906.75
399.268	945.75
399.492	1021.75
399.717	1019.75
399.941	1062.75
400.165	1030.75
400.389	1004.75
400.613	976.75
400.837	941.75
401.062	889.75
401.286	900.75
401.51	902.75
401.734	852.75
401.958	878.75
402.182	871.75
402.406	851.75
402.63	908.75
402.854	915.75
403.078	1011.75
403.302	1202.75
403.526	1219.75
403.75	1130.75
403.974	995.75
404.198	1022.75
404.422	1128.75
404.645	1221.75
404.869	1290.75
405.093	1078.75
405.317	963.75
405.541	944.75
405.765	963.75
405.988	965.75
406.212	992.75
406.436	1115.75
406.66	1167.75
406.883	1022.75
407.107	1079.75
407.331	1161.75
407.555	1153.75
407.778	1025.75
408.002	1004.75
408.226	1014.75
408.449	992.75
408.673	992.75
408.896	924.75
409.12	888.75
409.344	917.75
409.567	914.75
409.791	900.75
410.014	875.75
410.238	895.75
410.461	891.75
410.685	867.75
410.908	889.75
411.132	892.75
411.355	887.75
411.578	931.75
411.802	907.75
412.025	948.75
412.249	943.75
412.472	947.75
412.695	898.75
412.919	923.75
413.142	919.75
413.365	943.75
413.589	965.75
413.812	906.75
414.035	853.75
414.258	890.75
414.482	939.75
414.705	934.75
414.928	868.75
415.151	860.75
415.374	835.75
415.597	874.75
415.821	871.75
416.044	874.75
416.267	852.75
416.49	820.75
416.713	839.75
416.936	822.75
417.159	846.75
417.382	881.75
417.605	882.75
417.828	864.75
418.051	871.75
418.274	880.75
418.497	871.75
418.72	878.75
418.943	898.75
419.166	915.75
419.389	964.75
419.611	899.75
419.834	963.75
420.057	998.75
420.28	984.75
420.503	917.75
420.726	864.75
420.948	826.75
421.171	852.75
421.394	852.75
421.617	815.75
421.839	871.75
422.062	903.75
422.285	869.75
422.507	922.75
422.73	892.75
422.953	884.75
423.175	897.75
423.398	894.75
423.621	951.75
423.843	963.75
424.066	910.75
424.288	898.75
424.511	880.75
424.733	867.75
424.956	879.75
425.178	966.75
425.401	1072.75
425.623	1224.75
425.846	1044.75
426.068	939.75
426.291	958.75
426.513	940.75
426.735	900.75
426.958	906.75
427.18	1004.75
427.402	1226.75
427.625	1239.75
427.847	1057.75
428.069	849.75
428.292	869.75
428.514	856.75
428.736	844.75
428.958	864.75
429.181	997.75
429.403	908.75
429.625	840.75
429.847	819.75
430.069	836.75
430.292	850.75
430.514	796.75
430.736	871.75
430.958	1013.75
431.18	924.75
431.402	788.75
431.624	809.75
431.846	762.75
432.068	779.75
432.29	821.75
432.512	850.75
432.734	1028.75
432.956	1010.75
433.178	823.75
433.4	806.75
433.622	856.75
433.844	831.75
434.066	896.75
434.287	876.75
434.509	846.75
434.731	860.75
434.953	858.75
435.175	893.75
435.397	964.75
435.618	864.75
435.84	828.75
436.062	816.75
436.284	830.75
436.505	770.75
436.727	786.75
436.949	788.75
437.17	819.75
437.392	807.75
437.614	788.75
437.835	765.75
438.057	790.75
438.278	893.75
438.5	1139.75
438.721	1128.75
438.943	868.75
439.165	780.75
439.386	743.75
439.608	755.75
439.829	782.75
440.05	798.75
440.272	835.75
440.493	901.75
440.715	1043.75
440.936	890.75
441.158	804.75
441.379	835.75
441.6	892.75
441.822	918.75
442.043	887.75
442.264	824.75
442.486	863.75
442.707	840.75
442.928	828.75
443.149	861.75
443.371	859.75
443.592	899.75
443.813	914.75
444.034	894.75
444.255	901.75
444.476	892.75
444.698	923.75
444.919	934.75
445.14	1007.75
445.361	974.75
445.582	934.75
445.803	895.75
446.024	868.75
446.245	926.75
446.466	917.75
446.687	831.75
446.908	848.75
447.129	800.75
447.35	788.75
447.571	785.75
447.792	736.75
448.013	766.75
448.234	760.75
448.455	752.75
448.675	789.75
448.896	776.75
449.117	774.75
449.338	779.75
449.559	791.75
449.779	833.75
450	814.75
450.221	808.75
450.442	804.75
450.662	786.75
450.883	762.75
451.104	773.75
451.324	765.75
451.545	772.75
451.766	789.75
451.986	765.75
452.207	723.75
452.428	750.75
452.648	743.75
452.869	775.75
453.089	786.75
453.31	780.75
453.53	715.75
453.751	700.75
453.971	698.75
454.192	736.75
454.412	748.75
454.633	736.75
454.853	727.75
455.073	726.75
455.294	715.75
455.514	724.75
455.734	754.75
455.955	771.75
456.175	795.75
456.395	730.75
456.616	718.75
456.836	679.75
457.056	679.75
457.276	681.75
457.497	693.75
457.717	699.75
457.937	679.75
458.157	688.75
458.377	726.75
458.598	723.75
458.818	747.75
459.038	778.75
459.258	820.75
459.478	818.75
459.698	874.75
459.918	866.75
460.138	843.75
460.358	860.75
460.578	847.75
460.798	848.75
461.018	886.75
461.238	820.75
461.458	850.75
461.678	877.75
461.898	914.75
462.118	886.75
462.338	928.75
462.558	923.75
462.777	948.75
462.997	991.75
463.217	992.75
463.437	1023.75
463.657	986.75
463.876	962.75
464.096	936.75
464.316	966.75
464.536	961.75
464.755	946.75
464.975	992.75
465.195	923.75
465.414	968.75
465.634	931.75
465.854	898.75
466.073	833.75
466.293	819.75
466.512	885.75
466.732	956.75
466.951	984.75
467.171	891.75
467.391	849.75
467.61	858.75
467.829	867.75
468.049	878.75
468.268	827.75
468.488	817.75
468.707	874.75
468.927	1030.75
469.146	1036.75
469.365	971.75
469.585	887.75
469.804	950.75
470.023	1016.75
470.243	920.75
470.462	878.75
470.681	873.75
470.901	892.75
471.12	933.75
471.339	926.75
471.558	853.75
471.777	889.75
471.997	944.75
472.216	1032.75
472.435	1009.75
472.654	914.75
472.873	902.75
473.092	935.75
473.311	975.75
473.53	896.75
473.749	889.75
473.968	906.75
474.187	929.75
474.406	898.75
474.625	884.75
474.844	877.75
475.063	956.75
475.282	967.75
475.501	1002.75
475.72	1058.75
475.939	1014.75
476.158	1054.75
476.377	1179.75
476.596	1306.75
476.814	1358.75
477.033	1135.75
477.252	992.75
477.471	926.75
477.69	980.75
477.908	1054.75
478.127	1107.75
478.346	1005.75
478.564	1082.75
478.783	1063.75
479.002	1058.75
479.22	1155.75
479.439	1330.75
479.658	1179.75
479.876	1090.75
480.095	1126.75
480.313	1162.75
480.532	1052.75
480.751	1034.75
480.969	1074.75
481.188	1163.75
481.406	1232.75
481.624	1166.75
481.843	1065.75
482.061	1036.75
482.28	1126.75
482.498	1369.75
482.717	1292.75
482.935	1132.75
483.153	1074.75
483.372	1001.75
483.59	1027.75
483.808	1000.75
484.027	983.75
484.245	962.75
484.463	974.75
484.681	983.75
484.9	1046.75
485.118	1125.75
485.336	1050.75
485.554	1024.75
485.772	1024.75
485.99	1098.75
486.209	1165.75
486.427	1146.75
486.645	1100.75
486.863	1169.75
487.081	1146.75
487.299	1223.75
487.517	1191.75
487.735	1121.75
487.953	1148.75
488.171	1195.75
488.389	1113.75
488.607	1042.75
488.825	1091.75
489.043	1149.75
489.261	1278.75
489.479	1307.75
489.696	1187.75
489.914	1122.75
490.132	1074.75
490.35	1079.75
490.568	1050.75
490.786	1080.75
491.003	1068.75
491.221	1098.75
491.439	1101.75
491.657	1091.75
491.874	1111.75
492.092	1318.75
492.31	1453.75
492.527	1514.75
492.745	1336.75
492.963	1246.75
493.18	1218.75
493.398	1206.75
493.615	1212.75
493.833	1160.75
494.05	1185.75
494.268	1190.75
494.485	1146.75
494.703	1115.75
494.92	1163.75
495.138	1179.75
495.355	1120.75
495.573	1149.75
495.79	1204.75
496.008	1434.75
496.225	1306.75
496.442	1222.75
496.66	1242.75
