Data from NickelSpatula_HRD10591_16-34-08-125.txt Node
Date: Mon Jul 22 16:34:08 EDT 2019
User: cochatt
Spectrometer: HR+D1059
Trigger mode: 1
Integration Time (sec): 1.000000E-1
Scans to average: 1
Electric dark correction enabled: true
Nonlinearity correction enabled: false
Boxcar width: 0
XAxis mode: Wavelengths
Number of Pixels in Spectrum: 2048
>>>>>Begin Spectral Data<<<<<
223.165	-9.69
223.4	-9.69
223.635	-9.69
223.869	-18.69
224.104	-14.69
224.338	-19.69
224.573	-24.69
224.808	-13.69
225.042	-8.69
225.277	-4.69
225.511	-2.69
225.746	3.31
225.98	-2.69
226.215	17.31
226.449	14.31
226.683	24.31
226.918	21.31
227.152	39.31
227.387	27.31
227.621	48.31
227.856	37.31
228.09	41.31
228.324	38.31
228.559	50.31
228.793	61.31
229.027	68.31
229.262	74.31
229.496	71.31
229.73	78.31
229.964	88.31
230.199	97.31
230.433	91.31
230.667	110.31
230.901	74.31
231.136	88.31
231.37	91.31
231.604	88.31
231.838	99.31
232.072	109.31
232.306	91.31
232.541	105.31
232.775	109.31
233.009	96.31
233.243	88.31
233.477	104.31
233.711	121.31
233.945	114.31
234.179	99.31
234.413	117.31
234.647	125.31
234.881	136.31
235.115	117.31
235.349	113.31
235.583	111.31
235.817	118.31
236.051	106.31
236.285	125.31
236.519	141.31
236.753	118.31
236.987	131.31
237.221	122.31
237.455	125.31
237.689	123.31
237.922	129.31
238.156	111.31
238.39	136.31
238.624	145.31
238.858	158.31
239.091	134.31
239.325	131.31
239.559	124.31
239.793	135.31
240.027	161.31
240.26	151.31
240.494	158.31
240.728	147.31
240.961	154.31
241.195	151.31
241.429	130.31
241.662	161.31
241.896	145.31
242.13	127.31
242.363	135.31
242.597	137.31
242.83	141.31
243.064	146.31
243.298	169.31
243.531	163.31
243.765	163.31
243.998	163.31
244.232	151.31
244.465	173.31
244.699	153.31
244.932	164.31
245.166	143.31
245.399	167.31
245.633	135.31
245.866	155.31
246.099	164.31
246.333	161.31
246.566	189.31
246.8	191.31
247.033	187.31
247.266	185.31
247.5	164.31
247.733	164.31
247.966	156.31
248.2	160.31
248.433	186.31
248.666	198.31
248.899	187.31
249.133	194.31
249.366	211.31
249.599	225.31
249.832	209.31
250.066	200.31
250.299	186.31
250.532	181.31
250.765	184.31
250.998	169.31
251.231	156.31
251.465	185.31
251.698	191.31
251.931	192.31
252.164	183.31
252.397	212.31
252.63	230.31
252.863	234.31
253.096	245.31
253.329	243.31
253.562	233.31
253.795	264.31
254.028	287.31
254.261	299.31
254.494	271.31
254.727	243.31
254.96	217.31
255.193	251.31
255.426	240.31
255.659	203.31
255.892	193.31
256.124	201.31
256.357	254.31
256.59	264.31
256.823	246.31
257.056	213.31
257.289	221.31
257.521	211.31
257.754	259.31
257.987	288.31
258.22	248.31
258.452	214.31
258.685	243.31
258.918	278.31
259.151	256.31
259.383	266.31
259.616	306.31
259.849	346.31
260.081	328.31
260.314	352.31
260.547	294.31
260.779	317.31
261.012	348.31
261.244	325.31
261.477	328.31
261.71	310.31
261.942	281.31
262.175	275.31
262.407	250.31
262.64	270.31
262.872	307.31
263.105	330.31
263.337	362.31
263.57	322.31
263.802	235.31
264.035	226.31
264.267	214.31
264.499	186.31
264.732	179.31
264.964	161.31
265.197	177.31
265.429	186.31
265.661	191.31
265.894	209.31
266.126	212.31
266.358	237.31
266.591	264.31
266.823	321.31
267.055	318.31
267.287	287.31
267.52	287.31
267.752	278.31
267.984	306.31
268.216	307.31
268.448	257.31
268.681	237.31
268.913	267.31
269.145	253.31
269.377	286.31
269.609	289.31
269.841	280.31
270.073	278.31
270.306	286.31
270.538	286.31
270.77	313.31
271.002	309.31
271.234	303.31
271.466	330.31
271.698	290.31
271.93	280.31
272.162	311.31
272.394	283.31
272.626	288.31
272.858	299.31
273.09	312.31
273.322	293.31
273.553	258.31
273.785	307.31
274.017	358.31
274.249	436.31
274.481	461.31
274.713	485.31
274.945	573.31
275.176	605.31
275.408	545.31
275.64	500.31
275.872	490.31
276.104	429.31
276.335	370.31
276.567	384.31
276.799	405.31
277.031	442.31
277.262	317.31
277.494	261.31
277.726	246.31
277.957	274.31
278.189	318.31
278.421	302.31
278.652	307.31
278.884	280.31
279.115	253.31
279.347	249.31
279.579	259.31
279.81	256.31
280.042	268.31
280.273	267.31
280.505	261.31
280.736	234.31
280.968	225.31
281.199	247.31
281.431	267.31
281.662	261.31
281.894	257.31
282.125	268.31
282.356	272.31
282.588	317.31
282.819	255.31
283.051	271.31
283.282	338.31
283.513	370.31
283.745	424.31
283.976	404.31
284.207	396.31
284.439	405.31
284.67	395.31
284.901	341.31
285.132	391.31
285.364	401.31
285.595	361.31
285.826	396.31
286.057	401.31
286.288	391.31
286.52	410.31
286.751	421.31
286.982	416.31
287.213	380.31
287.444	355.31
287.675	377.31
287.906	375.31
288.138	314.31
288.369	284.31
288.6	271.31
288.831	273.31
289.062	338.31
289.293	360.31
289.524	323.31
289.755	333.31
289.986	336.31
290.217	307.31
290.448	232.31
290.679	213.31
290.91	207.31
291.141	205.31
291.371	222.31
291.602	210.31
291.833	224.31
292.064	228.31
292.295	257.31
292.526	289.31
292.757	293.31
292.987	318.31
293.218	331.31
293.449	338.31
293.68	353.31
293.91	342.31
294.141	348.31
294.372	328.31
294.603	317.31
294.833	329.31
295.064	387.31
295.295	369.31
295.525	272.31
295.756	243.31
295.987	211.31
296.217	223.31
296.448	221.31
296.679	224.31
296.909	238.31
297.14	279.31
297.37	293.31
297.601	282.31
297.831	243.31
298.062	270.31
298.292	286.31
298.523	311.31
298.753	331.31
298.984	324.31
299.214	275.31
299.445	219.31
299.675	215.31
299.905	211.31
300.136	241.31
300.366	238.31
300.597	230.31
300.827	233.31
301.057	221.31
301.288	238.31
301.518	232.31
301.748	252.31
301.979	265.31
302.209	275.31
302.439	268.31
302.669	264.31
302.9	259.31
303.13	240.31
303.36	232.31
303.59	222.31
303.82	242.31
304.051	250.31
304.281	294.31
304.511	264.31
304.741	247.31
304.971	254.31
305.201	258.31
305.431	239.31
305.661	226.31
305.891	223.31
306.121	238.31
306.352	214.31
306.582	193.31
306.812	194.31
307.042	193.31
307.272	178.31
307.502	185.31
307.731	191.31
307.961	209.31
308.191	176.31
308.421	190.31
308.651	179.31
308.881	153.31
309.111	179.31
309.341	177.31
309.571	188.31
309.8	201.31
310.03	196.31
310.26	207.31
310.49	206.31
310.72	192.31
310.949	191.31
311.179	190.31
311.409	194.31
311.639	237.31
311.868	278.31
312.098	358.31
312.328	371.31
312.557	358.31
312.787	373.31
313.017	334.31
313.246	328.31
313.476	385.31
313.706	326.31
313.935	277.31
314.165	216.31
314.394	208.31
314.624	211.31
314.853	222.31
315.083	226.31
315.312	225.31
315.542	216.31
315.771	213.31
316.001	211.31
316.23	194.31
316.46	183.31
316.689	195.31
316.919	190.31
317.148	190.31
317.377	181.31
317.607	192.31
317.836	202.31
318.065	212.31
318.295	249.31
318.524	244.31
318.753	203.31
318.983	200.31
319.212	179.31
319.441	195.31
319.67	242.31
319.9	234.31
320.129	241.31
320.358	206.31
320.587	190.31
320.816	215.31
321.046	223.31
321.275	237.31
321.504	267.31
321.733	256.31
321.962	249.31
322.191	254.31
322.42	239.31
322.649	228.31
322.878	245.31
323.108	243.31
323.337	226.31
323.566	230.31
323.795	215.31
324.024	193.31
324.253	216.31
324.482	201.31
324.71	228.31
324.939	230.31
325.168	226.31
325.397	214.31
325.626	185.31
325.855	196.31
326.084	221.31
326.313	184.31
326.542	189.31
326.77	202.31
326.999	186.31
327.228	186.31
327.457	187.31
327.686	209.31
327.914	190.31
328.143	185.31
328.372	182.31
328.6	184.31
328.829	182.31
329.058	179.31
329.287	193.31
329.515	194.31
329.744	192.31
329.972	175.31
330.201	175.31
330.43	190.31
330.658	187.31
330.887	215.31
331.115	218.31
331.344	206.31
331.572	214.31
331.801	214.31
332.03	202.31
332.258	180.31
332.486	200.31
332.715	221.31
332.943	221.31
333.172	176.31
333.4	199.31
333.629	226.31
333.857	247.31
334.085	240.31
334.314	251.31
334.542	219.31
334.771	226.31
334.999	204.31
335.227	201.31
335.455	199.31
335.684	213.31
335.912	249.31
336.14	265.31
336.369	277.31
336.597	246.31
336.825	292.31
337.053	303.31
337.281	246.31
337.51	200.31
337.738	204.31
337.966	217.31
338.194	222.31
338.422	214.31
338.65	213.31
338.878	193.31
339.106	206.31
339.334	221.31
339.562	215.31
339.79	218.31
340.018	202.31
340.246	229.31
340.474	239.31
340.702	245.31
340.93	259.31
341.158	262.31
341.386	199.31
341.614	233.31
341.842	236.31
342.07	245.31
342.298	273.31
342.526	266.31
342.754	230.31
342.981	214.31
343.209	222.31
343.437	223.31
343.665	238.31
343.893	240.31
344.12	265.31
344.348	322.31
344.576	304.31
344.804	248.31
345.031	216.31
345.259	190.31
345.487	212.31
345.714	201.31
345.942	214.31
346.17	229.31
346.397	239.31
346.625	217.31
346.853	191.31
347.08	197.31
347.308	216.31
347.535	224.31
347.763	236.31
347.99	195.31
348.218	191.31
348.445	212.31
348.673	216.31
348.9	204.31
349.128	202.31
349.355	199.31
349.583	216.31
349.81	211.31
350.037	185.31
350.265	195.31
350.492	190.31
350.72	165.31
350.947	167.31
351.174	177.31
351.402	195.31
351.629	200.31
351.856	199.31
352.083	176.31
352.311	198.31
352.538	225.31
352.765	224.31
352.992	219.31
353.22	210.31
353.447	200.31
353.674	198.31
353.901	184.31
354.128	201.31
354.355	199.31
354.583	193.31
354.81	209.31
355.037	207.31
355.264	216.31
355.491	208.31
355.718	251.31
355.945	225.31
356.172	215.31
356.399	217.31
356.626	247.31
356.853	295.31
357.08	317.31
357.307	332.31
357.534	253.31
357.761	256.31
357.988	301.31
358.215	344.31
358.441	341.31
358.668	297.31
358.895	287.31
359.122	249.31
359.349	244.31
359.576	269.31
359.802	226.31
360.029	195.31
360.256	211.31
360.483	228.31
360.709	281.31
360.936	301.31
361.163	263.31
361.39	220.31
361.616	215.31
361.843	214.31
362.07	274.31
362.296	255.31
362.523	206.31
362.749	191.31
362.976	203.31
363.203	230.31
363.429	244.31
363.656	213.31
363.882	219.31
364.109	218.31
364.335	216.31
364.562	189.31
364.788	194.31
365.015	241.31
365.241	230.31
365.468	183.31
365.694	181.31
365.92	167.31
366.147	175.31
366.373	164.31
366.599	180.31
366.826	181.31
367.052	188.31
367.278	168.31
367.505	165.31
367.731	184.31
367.957	203.31
368.184	208.31
368.41	197.31
368.636	219.31
368.862	220.31
369.089	209.31
369.315	186.31
369.541	169.31
369.767	183.31
369.993	174.31
370.219	176.31
370.445	183.31
370.672	196.31
370.898	220.31
371.124	214.31
371.35	194.31
371.576	186.31
371.802	181.31
372.028	200.31
372.254	253.31
372.48	229.31
372.706	197.31
372.932	223.31
373.158	208.31
373.384	257.31
373.61	303.31
373.835	313.31
374.061	253.31
374.287	218.31
374.513	261.31
374.739	285.31
374.965	305.31
375.191	299.31
375.416	224.31
375.642	191.31
375.868	213.31
376.094	257.31
376.319	230.31
376.545	237.31
376.771	243.31
376.997	218.31
377.222	181.31
377.448	181.31
377.674	155.31
377.899	160.31
378.125	158.31
378.35	187.31
378.576	178.31
378.802	182.31
379.027	211.31
379.253	201.31
379.478	188.31
379.704	198.31
379.929	223.31
380.155	216.31
380.38	214.31
380.606	214.31
380.831	226.31
381.057	216.31
381.282	200.31
381.507	225.31
381.733	253.31
381.958	253.31
382.184	279.31
382.409	305.31
382.634	303.31
382.86	313.31
383.085	266.31
383.31	208.31
383.535	229.31
383.761	233.31
383.986	223.31
384.211	272.31
384.436	274.31
384.662	215.31
384.887	223.31
385.112	218.31
385.337	221.31
385.562	218.31
385.787	198.31
386.013	237.31
386.238	259.31
386.463	208.31
386.688	214.31
386.913	202.31
387.138	190.31
387.363	194.31
387.588	207.31
387.813	209.31
388.038	229.31
388.263	218.31
388.488	217.31
388.713	228.31
388.938	242.31
389.163	217.31
389.387	197.31
389.612	185.31
389.837	194.31
390.062	221.31
390.287	200.31
390.512	214.31
390.736	206.31
390.961	200.31
391.186	196.31
391.411	197.31
391.636	190.31
391.86	210.31
392.085	222.31
392.31	213.31
392.534	194.31
392.759	194.31
392.984	223.31
393.208	207.31
393.433	187.31
393.658	181.31
393.882	171.31
394.107	181.31
394.331	195.31
394.556	168.31
394.78	184.31
395.005	199.31
395.229	192.31
395.454	193.31
395.678	190.31
395.903	193.31
396.127	190.31
396.352	193.31
396.576	201.31
396.801	209.31
397.025	235.31
397.249	239.31
397.474	197.31
397.698	189.31
397.922	215.31
398.147	203.31
398.371	201.31
398.595	230.31
398.82	211.31
399.044	207.31
399.268	218.31
399.492	217.31
399.717	230.31
399.941	252.31
400.165	229.31
400.389	222.31
400.613	228.31
400.837	218.31
401.062	195.31
401.286	199.31
401.51	200.31
401.734	214.31
401.958	199.31
402.182	193.31
402.406	206.31
402.63	203.31
402.854	199.31
403.078	225.31
403.302	265.31
403.526	302.31
403.75	276.31
403.974	225.31
404.198	243.31
404.422	265.31
404.645	294.31
404.869	303.31
405.093	232.31
405.317	214.31
405.541	214.31
405.765	219.31
405.988	249.31
406.212	226.31
406.436	262.31
406.66	280.31
406.883	216.31
407.107	242.31
407.331	272.31
407.555	274.31
407.778	225.31
408.002	237.31
408.226	238.31
408.449	243.31
408.673	222.31
408.896	208.31
409.12	204.31
409.344	195.31
409.567	179.31
409.791	207.31
410.014	206.31
410.238	191.31
410.461	214.31
410.685	200.31
410.908	206.31
411.132	216.31
411.355	202.31
411.578	200.31
411.802	205.31
412.025	220.31
412.249	204.31
412.472	226.31
412.695	204.31
412.919	207.31
413.142	210.31
413.365	234.31
413.589	222.31
413.812	213.31
414.035	191.31
414.258	211.31
414.482	213.31
414.705	233.31
414.928	202.31
415.151	189.31
415.374	184.31
415.597	195.31
415.821	205.31
416.044	207.31
416.267	195.31
416.49	179.31
416.713	196.31
416.936	200.31
417.159	185.31
417.382	177.31
417.605	195.31
417.828	189.31
418.051	176.31
418.274	210.31
418.497	200.31
418.72	197.31
418.943	223.31
419.166	213.31
419.389	220.31
419.611	229.31
419.834	215.31
420.057	218.31
420.28	217.31
420.503	218.31
420.726	204.31
420.948	191.31
421.171	200.31
421.394	189.31
421.617	192.31
421.839	199.31
422.062	195.31
422.285	210.31
422.507	201.31
422.73	199.31
422.953	199.31
423.175	185.31
423.398	193.31
423.621	212.31
423.843	220.31
424.066	198.31
424.288	208.31
424.511	198.31
424.733	201.31
424.956	210.31
425.178	217.31
425.401	245.31
425.623	278.31
425.846	214.31
426.068	226.31
426.291	233.31
426.513	212.31
426.735	196.31
426.958	218.31
427.18	224.31
427.402	286.31
427.625	302.31
427.847	266.31
428.069	205.31
428.292	216.31
428.514	200.31
428.736	188.31
428.958	201.31
429.181	242.31
429.403	222.31
429.625	203.31
429.847	183.31
430.069	197.31
430.292	201.31
430.514	175.31
430.736	182.31
430.958	240.31
431.18	207.31
431.402	189.31
431.624	180.31
431.846	158.31
432.068	186.31
432.29	175.31
432.512	196.31
432.734	234.31
432.956	228.31
433.178	189.31
433.4	185.31
433.622	195.31
433.844	193.31
434.066	215.31
434.287	220.31
434.509	202.31
434.731	206.31
434.953	202.31
435.175	193.31
435.397	228.31
435.618	216.31
435.84	187.31
436.062	184.31
436.284	189.31
436.505	188.31
436.727	186.31
436.949	195.31
437.17	166.31
437.392	180.31
437.614	183.31
437.835	194.31
438.057	191.31
438.278	194.31
438.5	266.31
438.721	267.31
438.943	201.31
439.165	194.31
439.386	170.31
439.608	166.31
439.829	180.31
440.05	186.31
440.272	194.31
440.493	213.31
440.715	241.31
440.936	221.31
441.158	182.31
441.379	191.31
441.6	214.31
441.822	228.31
442.043	190.31
442.264	207.31
442.486	189.31
442.707	204.31
442.928	200.31
443.149	193.31
443.371	218.31
443.592	209.31
443.813	202.31
444.034	197.31
444.255	192.31
444.476	201.31
444.698	198.31
444.919	194.31
445.14	357.31
445.361	287.31
445.582	218.31
445.803	194.31
446.024	199.31
446.245	204.31
446.466	212.31
446.687	193.31
446.908	189.31
447.129	184.31
447.35	183.31
447.571	168.31
447.792	171.31
448.013	179.31
448.234	185.31
448.455	166.31
448.675	173.31
448.896	163.31
449.117	161.31
449.338	170.31
449.559	187.31
449.779	174.31
450	189.31
450.221	193.31
450.442	178.31
450.662	170.31
450.883	185.31
451.104	183.31
451.324	182.31
451.545	167.31
451.766	165.31
451.986	181.31
452.207	178.31
452.428	161.31
452.648	164.31
452.869	187.31
453.089	197.31
453.31	177.31
453.53	190.31
453.751	177.31
453.971	172.31
454.192	182.31
454.412	163.31
454.633	173.31
454.853	185.31
455.073	153.31
455.294	169.31
455.514	176.31
455.734	184.31
455.955	189.31
456.175	183.31
456.395	163.31
456.616	146.31
456.836	169.31
457.056	149.31
457.276	157.31
457.497	168.31
457.717	161.31
457.937	165.31
458.157	166.31
458.377	174.31
458.598	175.31
458.818	169.31
459.038	173.31
459.258	179.31
459.478	196.31
459.698	203.31
459.918	201.31
460.138	194.31
460.358	206.31
460.578	198.31
460.798	200.31
461.018	201.31
461.238	184.31
461.458	195.31
461.678	215.31
461.898	206.31
462.118	206.31
462.338	198.31
462.558	216.31
462.777	218.31
462.997	239.31
463.217	226.31
463.437	224.31
463.657	218.31
463.876	195.31
464.096	213.31
464.316	208.31
464.536	197.31
464.755	231.31
464.975	230.31
465.195	203.31
465.414	224.31
465.634	206.31
465.854	197.31
466.073	193.31
466.293	188.31
466.512	200.31
466.732	210.31
466.951	227.31
467.171	186.31
467.391	189.31
467.61	199.31
467.829	201.31
468.049	220.31
468.268	201.31
468.488	180.31
468.707	192.31
468.927	200.31
469.146	230.31
469.365	221.31
469.585	204.31
469.804	216.31
470.023	217.31
470.243	212.31
470.462	180.31
470.681	196.31
470.901	204.31
471.12	212.31
471.339	205.31
471.558	198.31
471.777	208.31
471.997	199.31
472.216	220.31
472.435	209.31
472.654	202.31
472.873	213.31
473.092	207.31
473.311	224.31
473.53	189.31
473.749	191.31
473.968	209.31
474.187	210.31
474.406	209.31
474.625	206.31
474.844	198.31
475.063	218.31
475.282	220.31
475.501	206.31
475.72	271.31
475.939	231.31
476.158	225.31
476.377	240.31
476.596	287.31
476.814	290.31
477.033	265.31
477.252	217.31
477.471	201.31
477.69	208.31
477.908	215.31
478.127	229.31
478.346	219.31
478.564	248.31
478.783	221.31
479.002	215.31
479.22	262.31
479.439	267.31
479.658	245.31
479.876	239.31
480.095	245.31
480.313	254.31
480.532	243.31
480.751	228.31
480.969	210.31
481.188	257.31
481.406	265.31
481.624	246.31
481.843	224.31
482.061	199.31
482.28	240.31
482.498	293.31
482.717	297.31
482.935	240.31
483.153	231.31
483.372	209.31
483.59	216.31
483.808	207.31
484.027	203.31
484.245	198.31
484.463	200.31
484.681	210.31
484.9	243.31
485.118	258.31
485.336	227.31
485.554	214.31
485.772	218.31
485.99	230.31
486.209	242.31
486.427	238.31
486.645	242.31
486.863	231.31
487.081	247.31
487.299	265.31
487.517	264.31
487.735	239.31
487.953	233.31
488.171	246.31
488.389	221.31
488.607	223.31
488.825	203.31
489.043	251.31
489.261	293.31
489.479	273.31
489.696	251.31
489.914	238.31
490.132	210.31
490.35	225.31
490.568	230.31
490.786	226.31
491.003	210.31
491.221	231.31
491.439	200.31
491.657	221.31
491.874	233.31
492.092	285.31
492.31	333.31
492.527	329.31
492.745	295.31
492.963	252.31
493.18	261.31
493.398	240.31
493.615	245.31
493.833	243.31
494.05	232.31
494.268	254.31
494.485	240.31
494.703	218.31
494.92	229.31
495.138	226.31
495.355	215.31
495.573	246.31
495.79	261.31
496.008	370.31
496.225	263.31
496.442	277.31
496.66	259.31
496.877	281.31
497.094	265.31
497.312	254.31
497.529	260.31
497.746	261.31
497.963	261.31
498.181	277.31
498.398	297.31
498.615	324.31
498.832	339.31
499.049	341.31
499.267	321.31
499.484	334.31
499.701	325.31
499.918	350.31
500.135	393.31
500.352	413.31
500.569	435.31
500.786	447.31
501.003	434.31
501.22	402.31
501.437	350.31
501.654	331.31
501.871	314.31
502.088	323.31
502.305	297.31
502.522	285.31
502.739	284.31
