Data from NickelSpatula_HRD10591_16-35-30-126.txt Node
Date: Mon Jul 22 16:35:30 EDT 2019
User: cochatt
Spectrometer: HR+D1059
Trigger mode: 1
Integration Time (sec): 1.000000E-1
Scans to average: 1
Electric dark correction enabled: true
Nonlinearity correction enabled: false
Boxcar width: 0
XAxis mode: Wavelengths
Number of Pixels in Spectrum: 2048
>>>>>Begin Spectral Data<<<<<
223.165	-20.31
223.4	-20.31
223.635	-20.31
223.869	-14.31
224.104	-17.31
224.338	-12.31
224.573	-25.31
224.808	-15.31
225.042	-9.31
225.277	-1.31
225.511	-7.31
225.746	-1.31
225.98	10.69
226.215	15.69
226.449	20.69
226.683	25.69
226.918	25.69
227.152	25.69
227.387	30.69
227.621	34.69
227.856	35.69
228.09	43.69
228.324	50.69
228.559	50.69
228.793	57.69
229.027	82.69
229.262	80.69
229.496	73.69
229.73	96.69
229.964	82.69
230.199	91.69
230.433	93.69
230.667	87.69
230.901	102.69
231.136	95.69
231.37	100.69
231.604	103.69
231.838	104.69
232.072	85.69
232.306	93.69
232.541	101.69
232.775	91.69
233.009	112.69
233.243	110.69
233.477	114.69
233.711	101.69
233.945	120.69
234.179	119.69
234.413	119.69
234.647	124.69
234.881	134.69
235.115	123.69
235.349	120.69
235.583	107.69
235.817	85.69
236.051	132.69
236.285	112.69
236.519	132.69
236.753	135.69
236.987	118.69
237.221	98.69
237.455	112.69
237.689	122.69
237.922	121.69
238.156	123.69
238.39	139.69
238.624	148.69
238.858	137.69
239.091	130.69
239.325	124.69
239.559	122.69
239.793	124.69
240.027	149.69
240.26	155.69
240.494	151.69
240.728	137.69
240.961	156.69
241.195	151.69
241.429	154.69
241.662	140.69
241.896	125.69
242.13	128.69
242.363	130.69
242.597	148.69
242.83	146.69
243.064	160.69
243.298	138.69
243.531	133.69
243.765	154.69
243.998	136.69
244.232	151.69
244.465	174.69
244.699	147.69
244.932	151.69
245.166	148.69
245.399	143.69
245.633	154.69
245.866	162.69
246.099	158.69
246.333	158.69
246.566	162.69
246.8	164.69
247.033	174.69
247.266	163.69
247.5	164.69
247.733	171.69
247.966	146.69
248.2	160.69
248.433	176.69
248.666	183.69
248.899	174.69
249.133	180.69
249.366	202.69
249.599	216.69
249.832	200.69
250.066	155.69
250.299	182.69
250.532	187.69
250.765	180.69
250.998	180.69
251.231	159.69
251.465	183.69
251.698	185.69
251.931	170.69
252.164	162.69
252.397	188.69
252.63	206.69
252.863	223.69
253.096	248.69
253.329	233.69
253.562	238.69
253.795	224.69
254.028	276.69
254.261	280.69
254.494	239.69
254.727	218.69
254.96	216.69
255.193	236.69
255.426	211.69
255.659	186.69
255.892	171.69
256.124	176.69
256.357	210.69
256.59	255.69
256.823	217.69
257.056	190.69
257.289	190.69
257.521	204.69
257.754	234.69
257.987	248.69
258.22	221.69
258.452	196.69
258.685	223.69
258.918	238.69
259.151	246.69
259.383	265.69
259.616	295.69
259.849	298.69
260.081	311.69
260.314	318.69
260.547	275.69
260.779	295.69
261.012	323.69
261.244	295.69
261.477	288.69
261.71	268.69
261.942	249.69
262.175	266.69
262.407	232.69
262.64	241.69
262.872	267.69
263.105	294.69
263.337	317.69
263.57	264.69
263.802	219.69
264.035	204.69
264.267	197.69
264.499	178.69
264.732	167.69
264.964	164.69
265.197	166.69
265.429	179.69
265.661	182.69
265.894	195.69
266.126	209.69
266.358	203.69
266.591	240.69
266.823	280.69
267.055	272.69
267.287	265.69
267.52	279.69
267.752	269.69
267.984	290.69
268.216	272.69
268.448	236.69
268.681	240.69
268.913	248.69
269.145	272.69
269.377	268.69
269.609	274.69
269.841	258.69
270.073	274.69
270.306	284.69
270.538	299.69
270.77	277.69
271.002	293.69
271.234	287.69
271.466	285.69
271.698	274.69
271.93	281.69
272.162	285.69
272.394	269.69
272.626	253.69
272.858	269.69
273.09	289.69
273.322	242.69
273.553	246.69
273.785	258.69
274.017	333.69
274.249	400.69
274.481	425.69
274.713	427.69
274.945	509.69
275.176	524.69
275.408	451.69
275.64	416.69
275.872	427.69
276.104	385.69
276.335	359.69
276.567	347.69
276.799	344.69
277.031	343.69
277.262	298.69
277.494	250.69
277.726	240.69
277.957	252.69
278.189	274.69
278.421	283.69
278.652	262.69
278.884	251.69
279.115	240.69
279.347	240.69
279.579	249.69
279.81	254.69
280.042	238.69
280.273	266.69
280.505	240.69
280.736	214.69
280.968	214.69
281.199	233.69
281.431	258.69
281.662	241.69
281.894	241.69
282.125	265.69
282.356	249.69
282.588	279.69
282.819	225.69
283.051	260.69
283.282	306.69
283.513	363.69
283.745	386.69
283.976	385.69
284.207	336.69
284.439	360.69
284.67	356.69
284.901	321.69
285.132	343.69
285.364	370.69
285.595	341.69
285.826	354.69
286.057	353.69
286.288	338.69
286.52	377.69
286.751	376.69
286.982	367.69
287.213	331.69
287.444	320.69
287.675	329.69
287.906	340.69
288.138	299.69
288.369	277.69
288.6	254.69
288.831	246.69
289.062	319.69
289.293	333.69
289.524	305.69
289.755	295.69
289.986	328.69
290.217	291.69
290.448	226.69
290.679	197.69
290.91	201.69
291.141	188.69
291.371	200.69
291.602	209.69
291.833	210.69
292.064	204.69
292.295	242.69
292.526	260.69
292.757	274.69
292.987	298.69
293.218	293.69
293.449	322.69
293.68	336.69
293.91	320.69
294.141	307.69
294.372	298.69
294.603	284.69
294.833	307.69
295.064	369.69
295.295	315.69
295.525	248.69
295.756	227.69
295.987	190.69
296.217	196.69
296.448	225.69
296.679	214.69
296.909	212.69
297.14	217.69
297.37	281.69
297.601	258.69
297.831	221.69
298.062	243.69
298.292	255.69
298.523	275.69
298.753	297.69
298.984	288.69
299.214	249.69
299.445	219.69
299.675	208.69
299.905	193.69
300.136	208.69
300.366	206.69
300.597	224.69
300.827	212.69
301.057	214.69
301.288	207.69
301.518	222.69
301.748	229.69
301.979	242.69
302.209	261.69
302.439	263.69
302.669	242.69
302.9	238.69
303.13	243.69
303.36	233.69
303.59	201.69
303.82	228.69
304.051	234.69
304.281	268.69
304.511	267.69
304.741	223.69
304.971	222.69
305.201	228.69
305.431	221.69
305.661	202.69
305.891	190.69
306.121	210.69
306.352	186.69
306.582	171.69
306.812	184.69
307.042	181.69
307.272	167.69
307.502	178.69
307.731	198.69
307.961	179.69
308.191	169.69
308.421	180.69
308.651	182.69
308.881	153.69
309.111	155.69
309.341	160.69
309.571	182.69
309.8	158.69
310.03	187.69
310.26	194.69
310.49	186.69
310.72	170.69
310.949	180.69
311.179	183.69
311.409	185.69
311.639	202.69
311.868	232.69
312.098	335.69
312.328	354.69
312.557	342.69
312.787	324.69
313.017	281.69
313.246	309.69
313.476	334.69
313.706	283.69
313.935	232.69
314.165	223.69
314.394	198.69
314.624	206.69
314.853	206.69
315.083	210.69
315.312	185.69
315.542	187.69
315.771	185.69
316.001	174.69
316.23	170.69
316.46	177.69
316.689	181.69
316.919	171.69
317.148	182.69
317.377	174.69
317.607	153.69
317.836	160.69
318.065	212.69
318.295	234.69
318.524	209.69
318.753	198.69
318.983	178.69
319.212	188.69
319.441	187.69
319.67	191.69
319.9	222.69
320.129	193.69
320.358	189.69
320.587	184.69
320.816	192.69
321.046	215.69
321.275	226.69
321.504	260.69
321.733	214.69
321.962	234.69
322.191	208.69
322.42	206.69
322.649	197.69
322.878	206.69
323.108	213.69
323.337	207.69
323.566	187.69
323.795	188.69
324.024	207.69
324.253	191.69
324.482	182.69
324.71	206.69
324.939	198.69
325.168	210.69
325.397	183.69
325.626	185.69
325.855	183.69
326.084	194.69
326.313	180.69
326.542	176.69
326.77	166.69
326.999	189.69
327.228	176.69
327.457	206.69
327.686	183.69
327.914	178.69
328.143	166.69
328.372	164.69
328.6	171.69
328.829	176.69
329.058	166.69
329.287	182.69
329.515	178.69
329.744	160.69
329.972	164.69
330.201	164.69
330.43	167.69
330.658	187.69
330.887	204.69
331.115	205.69
331.344	179.69
331.572	188.69
331.801	161.69
332.03	154.69
332.258	187.69
332.486	182.69
332.715	200.69
332.943	169.69
333.172	185.69
333.4	186.69
333.629	210.69
333.857	218.69
334.085	204.69
334.314	211.69
334.542	194.69
334.771	203.69
334.999	211.69
335.227	192.69
335.455	169.69
335.684	182.69
335.912	200.69
336.14	242.69
336.369	223.69
336.597	235.69
336.825	241.69
337.053	266.69
337.281	222.69
337.51	177.69
337.738	192.69
337.966	194.69
338.194	210.69
338.422	204.69
338.65	200.69
338.878	178.69
339.106	168.69
339.334	214.69
339.562	209.69
339.79	169.69
340.018	182.69
340.246	191.69
340.474	189.69
340.702	217.69
340.93	225.69
341.158	233.69
341.386	207.69
341.614	200.69
341.842	198.69
342.07	208.69
342.298	227.69
342.526	240.69
342.754	208.69
342.981	190.69
343.209	182.69
343.437	200.69
343.665	213.69
343.893	198.69
344.12	234.69
344.348	282.69
344.576	272.69
344.804	218.69
345.031	188.69
345.259	174.69
345.487	188.69
345.714	202.69
345.942	193.69
346.17	227.69
346.397	218.69
346.625	186.69
346.853	199.69
347.08	192.69
347.308	183.69
347.535	211.69
347.763	210.69
347.99	183.69
348.218	177.69
348.445	199.69
348.673	193.69
348.9	184.69
349.128	191.69
349.355	198.69
349.583	197.69
349.81	196.69
350.037	178.69
350.265	175.69
350.492	151.69
350.72	159.69
350.947	169.69
351.174	164.69
351.402	174.69
351.629	183.69
351.856	170.69
352.083	169.69
352.311	164.69
352.538	187.69
352.765	203.69
352.992	187.69
353.22	196.69
353.447	204.69
353.674	201.69
353.901	194.69
354.128	183.69
354.355	178.69
354.583	175.69
354.81	207.69
355.037	196.69
355.264	193.69
355.491	190.69
355.718	222.69
355.945	223.69
356.172	193.69
356.399	191.69
356.626	226.69
356.853	274.69
357.08	305.69
357.307	318.69
357.534	229.69
357.761	265.69
357.988	311.69
358.215	327.69
358.441	287.69
358.668	284.69
358.895	266.69
359.122	223.69
359.349	211.69
359.576	244.69
359.802	217.69
360.029	187.69
360.256	179.69
360.483	234.69
360.709	274.69
360.936	274.69
361.163	252.69
361.39	205.69
361.616	174.69
361.843	217.69
362.07	256.69
362.296	225.69
362.523	186.69
362.749	173.69
362.976	183.69
363.203	219.69
363.429	235.69
363.656	182.69
363.882	187.69
364.109	200.69
364.335	201.69
364.562	175.69
364.788	198.69
365.015	225.69
365.241	217.69
365.468	188.69
365.694	150.69
365.92	159.69
366.147	158.69
366.373	155.69
366.599	158.69
366.826	151.69
367.052	163.69
367.278	159.69
367.505	139.69
367.731	174.69
367.957	186.69
368.184	199.69
368.41	185.69
368.636	184.69
368.862	178.69
369.089	185.69
369.315	178.69
369.541	158.69
369.767	172.69
369.993	162.69
370.219	163.69
370.445	176.69
370.672	189.69
370.898	199.69
371.124	182.69
371.35	172.69
371.576	176.69
371.802	169.69
372.028	207.69
372.254	230.69
372.48	198.69
372.706	193.69
372.932	217.69
373.158	193.69
373.384	231.69
373.61	282.69
373.835	282.69
374.061	242.69
374.287	203.69
374.513	238.69
374.739	276.69
374.965	283.69
375.191	283.69
375.416	197.69
375.642	197.69
375.868	223.69
376.094	240.69
376.319	212.69
376.545	218.69
376.771	218.69
376.997	215.69
377.222	164.69
377.448	160.69
377.674	155.69
377.899	169.69
378.125	143.69
378.35	143.69
378.576	155.69
378.802	148.69
379.027	184.69
379.253	176.69
379.478	179.69
379.704	187.69
379.929	198.69
380.155	201.69
380.38	182.69
380.606	176.69
380.831	206.69
381.057	198.69
381.282	199.69
381.507	216.69
381.733	248.69
381.958	257.69
382.184	282.69
382.409	286.69
382.634	273.69
382.86	288.69
383.085	239.69
383.31	200.69
383.535	223.69
383.761	226.69
383.986	219.69
384.211	239.69
384.436	246.69
384.662	197.69
384.887	178.69
385.112	196.69
385.337	195.69
385.562	194.69
385.787	204.69
386.013	232.69
386.238	222.69
386.463	192.69
386.688	170.69
386.913	179.69
387.138	171.69
387.363	203.69
387.588	194.69
387.813	204.69
388.038	212.69
388.263	191.69
388.488	187.69
388.713	207.69
388.938	220.69
389.163	198.69
389.387	178.69
389.612	179.69
389.837	176.69
390.062	193.69
390.287	186.69
390.512	194.69
390.736	198.69
390.961	155.69
391.186	172.69
391.411	160.69
391.636	185.69
391.86	186.69
392.085	187.69
392.31	196.69
392.534	179.69
392.759	192.69
392.984	201.69
393.208	189.69
393.433	182.69
393.658	178.69
393.882	166.69
394.107	148.69
394.331	166.69
394.556	158.69
394.78	154.69
395.005	159.69
395.229	174.69
395.454	174.69
395.678	179.69
395.903	185.69
396.127	175.69
396.352	180.69
396.576	188.69
396.801	187.69
397.025	226.69
397.249	223.69
397.474	185.69
397.698	187.69
397.922	183.69
398.147	186.69
398.371	179.69
398.595	204.69
398.82	203.69
399.044	190.69
399.268	199.69
399.492	207.69
399.717	202.69
399.941	210.69
400.165	213.69
400.389	194.69
400.613	193.69
400.837	201.69
401.062	191.69
401.286	177.69
401.51	178.69
401.734	184.69
401.958	184.69
402.182	166.69
402.406	183.69
402.63	183.69
402.854	198.69
403.078	225.69
403.302	282.69
403.526	302.69
403.75	255.69
403.974	201.69
404.198	210.69
404.422	242.69
404.645	255.69
404.869	273.69
405.093	225.69
405.317	198.69
405.541	208.69
405.765	200.69
405.988	215.69
406.212	217.69
406.436	239.69
406.66	263.69
406.883	225.69
407.107	215.69
407.331	248.69
407.555	233.69
407.778	202.69
408.002	211.69
408.226	224.69
408.449	224.69
408.673	211.69
408.896	188.69
409.12	188.69
409.344	175.69
409.567	188.69
409.791	185.69
410.014	176.69
410.238	190.69
410.461	179.69
410.685	160.69
410.908	189.69
411.132	197.69
411.355	188.69
411.578	201.69
411.802	180.69
412.025	174.69
412.249	187.69
412.472	198.69
412.695	195.69
412.919	186.69
413.142	188.69
413.365	218.69
413.589	209.69
413.812	200.69
414.035	175.69
414.258	196.69
414.482	196.69
414.705	213.69
414.928	180.69
415.151	172.69
415.374	183.69
415.597	189.69
415.821	183.69
416.044	175.69
416.267	169.69
416.49	166.69
416.713	176.69
416.936	163.69
417.159	168.69
417.382	174.69
417.605	176.69
417.828	185.69
418.051	197.69
418.274	203.69
418.497	187.69
418.72	176.69
418.943	204.69
419.166	188.69
419.389	198.69
419.611	176.69
419.834	198.69
420.057	210.69
420.28	210.69
420.503	194.69
420.726	179.69
420.948	179.69
421.171	181.69
421.394	176.69
421.617	193.69
421.839	180.69
422.062	182.69
422.285	171.69
422.507	170.69
422.73	180.69
422.953	182.69
423.175	194.69
423.398	207.69
423.621	195.69
423.843	206.69
424.066	191.69
424.288	161.69
424.511	188.69
424.733	178.69
424.956	207.69
425.178	208.69
425.401	230.69
425.623	256.69
425.846	226.69
426.068	193.69
426.291	203.69
426.513	207.69
426.735	187.69
426.958	191.69
427.18	224.69
427.402	271.69
427.625	268.69
427.847	225.69
428.069	199.69
428.292	181.69
428.514	188.69
428.736	167.69
428.958	190.69
429.181	224.69
429.403	208.69
429.625	191.69
429.847	187.69
430.069	167.69
430.292	176.69
430.514	194.69
430.736	184.69
430.958	214.69
431.18	201.69
431.402	168.69
431.624	169.69
431.846	164.69
432.068	153.69
432.29	176.69
432.512	186.69
432.734	214.69
432.956	222.69
433.178	179.69
433.4	164.69
433.622	184.69
433.844	182.69
434.066	198.69
434.287	210.69
434.509	176.69
434.731	197.69
434.953	180.69
435.175	194.69
435.397	212.69
435.618	194.69
435.84	180.69
436.062	178.69
436.284	168.69
436.505	180.69
436.727	168.69
436.949	153.69
437.17	176.69
437.392	187.69
437.614	161.69
437.835	165.69
438.057	182.69
438.278	182.69
438.5	236.69
438.721	265.69
438.943	196.69
439.165	167.69
439.386	158.69
439.608	156.69
439.829	172.69
440.05	156.69
440.272	162.69
440.493	187.69
440.715	219.69
440.936	185.69
441.158	185.69
441.379	176.69
441.6	187.69
441.822	192.69
442.043	170.69
442.264	172.69
442.486	190.69
442.707	182.69
442.928	184.69
443.149	171.69
443.371	177.69
443.592	181.69
443.813	181.69
444.034	181.69
444.255	184.69
444.476	183.69
444.698	178.69
444.919	167.69
445.14	313.69
445.361	249.69
445.582	209.69
445.803	220.69
446.024	196.69
446.245	196.69
446.466	196.69
446.687	197.69
446.908	179.69
447.129	181.69
447.35	176.69
447.571	160.69
447.792	163.69
448.013	170.69
448.234	158.69
448.455	158.69
448.675	155.69
448.896	174.69
449.117	167.69
449.338	180.69
449.559	167.69
449.779	184.69
450	172.69
450.221	166.69
450.442	166.69
450.662	154.69
450.883	163.69
451.104	165.69
451.324	149.69
451.545	172.69
451.766	159.69
451.986	153.69
452.207	147.69
452.428	161.69
452.648	162.69
452.869	169.69
453.089	178.69
453.31	195.69
453.53	156.69
453.751	151.69
453.971	160.69
454.192	159.69
454.412	177.69
454.633	149.69
454.853	160.69
455.073	177.69
455.294	146.69
455.514	148.69
455.734	164.69
455.955	158.69
456.175	168.69
456.395	166.69
456.616	155.69
456.836	141.69
457.056	163.69
457.276	143.69
457.497	158.69
457.717	155.69
457.937	147.69
458.157	158.69
458.377	151.69
458.598	162.69
458.818	152.69
459.038	167.69
459.258	179.69
459.478	190.69
459.698	184.69
459.918	169.69
460.138	178.69
460.358	185.69
460.578	191.69
460.798	181.69
461.018	176.69
461.238	191.69
461.458	188.69
461.678	183.69
461.898	184.69
462.118	181.69
462.338	185.69
462.558	185.69
462.777	198.69
462.997	209.69
463.217	202.69
463.437	199.69
463.657	216.69
463.876	202.69
464.096	193.69
464.316	195.69
464.536	197.69
464.755	192.69
464.975	201.69
465.195	203.69
465.414	216.69
465.634	184.69
465.854	185.69
466.073	177.69
466.293	189.69
466.512	185.69
466.732	192.69
466.951	206.69
467.171	191.69
467.391	180.69
467.61	178.69
467.829	191.69
468.049	201.69
468.268	178.69
468.488	167.69
468.707	183.69
468.927	197.69
469.146	207.69
469.365	181.69
469.585	186.69
469.804	182.69
470.023	209.69
470.243	193.69
470.462	169.69
470.681	186.69
470.901	198.69
471.12	203.69
471.339	209.69
471.558	194.69
471.777	204.69
471.997	192.69
472.216	204.69
472.435	207.69
472.654	189.69
472.873	190.69
473.092	183.69
473.311	207.69
473.53	191.69
473.749	181.69
473.968	203.69
474.187	182.69
474.406	181.69
474.625	197.69
474.844	179.69
475.063	211.69
475.282	185.69
475.501	212.69
475.72	240.69
475.939	217.69
476.158	205.69
476.377	235.69
476.596	271.69
476.814	282.69
477.033	249.69
477.252	203.69
477.471	196.69
477.69	198.69
477.908	189.69
478.127	209.69
478.346	182.69
478.564	240.69
478.783	194.69
479.002	211.69
479.22	226.69
479.439	242.69
479.658	218.69
479.876	193.69
480.095	219.69
480.313	221.69
480.532	234.69
480.751	203.69
480.969	218.69
481.188	223.69
481.406	232.69
481.624	216.69
481.843	185.69
482.061	200.69
482.28	239.69
482.498	298.69
482.717	275.69
482.935	225.69
483.153	212.69
483.372	203.69
483.59	186.69
483.808	185.69
484.027	204.69
484.245	186.69
484.463	189.69
484.681	199.69
484.9	205.69
485.118	214.69
485.336	195.69
485.554	203.69
485.772	209.69
485.99	218.69
486.209	231.69
486.427	227.69
486.645	232.69
486.863	224.69
487.081	223.69
487.299	240.69
487.517	258.69
487.735	218.69
487.953	199.69
488.171	220.69
488.389	223.69
488.607	209.69
488.825	226.69
489.043	248.69
489.261	266.69
489.479	287.69
489.696	242.69
489.914	210.69
490.132	193.69
490.35	202.69
490.568	208.69
490.786	204.69
491.003	208.69
491.221	220.69
491.439	190.69
491.657	214.69
491.874	208.69
492.092	244.69
492.31	320.69
492.527	303.69
492.745	258.69
492.963	250.69
493.18	239.69
493.398	208.69
493.615	227.69
493.833	231.69
494.05	212.69
494.268	214.69
494.485	223.69
494.703	211.69
494.92	209.69
495.138	200.69
495.355	196.69
495.573	230.69
495.79	254.69
496.008	326.69
496.225	257.69
496.442	233.69
496.66	227.69
496.877	238.69
497.094	251.69
497.312	230.69
497.529	234.69
497.746	230.69
497.963	249.69
498.181	267.69
498.398	268.69
498.615	293.69
498.832	292.69
499.049	290.69
499.267	277.69
499.484	300.69
499.701	296.69
499.918	314.69
500.135	353.69
500.352	340.69
500.569	370.69
500.786	392.69
501.003	378.69
501.22	338.69
501.437	308.69
501.654	300.69
501.871	304.69
502.088	290.69
502.305	259.69
502.522	272.69
502.739	242.69
