Data from NickelSpatula.Lamp.E10.P2_HRD10591_11-58-33-528.txt Node
Date: Tue Jul 23 11:58:33 EDT 2019
User: cochatt
Spectrometer: HR+D1059
Trigger mode: 1
Integration Time (sec): 1.000000E-1
Scans to average: 1
Electric dark correction enabled: true
Nonlinearity correction enabled: false
Boxcar width: 0
XAxis mode: Wavelengths
Number of Pixels in Spectrum: 2048
>>>>>Begin Spectral Data<<<<<
223.165	-18.69
223.4	-18.69
223.635	-18.69
223.869	-9.69
224.104	-12.69
224.338	-12.69
224.573	-15.69
224.808	-5.69
225.042	-9.69
225.277	-5.69
225.511	-6.69
225.746	11.31
225.98	6.31
226.215	-7.69
226.449	16.31
226.683	13.31
226.918	36.31
227.152	21.31
227.387	33.31
227.621	27.31
227.856	42.31
228.09	37.31
228.324	41.31
228.559	48.31
228.793	60.31
229.027	142.31
229.262	161.31
229.496	158.31
229.73	174.31
229.964	195.31
230.199	210.31
230.433	216.31
230.667	212.31
230.901	221.31
231.136	199.31
231.37	196.31
231.604	224.31
231.838	237.31
232.072	221.31
232.306	236.31
232.541	252.31
232.775	245.31
233.009	261.31
233.243	303.31
233.477	308.31
233.711	334.31
233.945	334.31
234.179	314.31
234.413	324.31
234.647	380.31
234.881	452.31
235.115	424.31
235.349	400.31
235.583	347.31
235.817	342.31
236.051	373.31
236.285	412.31
236.519	466.31
236.753	440.31
236.987	440.31
237.221	418.31
237.455	397.31
237.689	410.31
237.922	463.31
238.156	497.31
238.39	562.31
238.624	646.31
238.858	591.31
239.091	496.31
239.325	510.31
239.559	491.31
239.793	539.31
240.027	668.31
240.26	611.31
240.494	584.31
240.728	593.31
240.961	688.31
241.195	618.31
241.429	616.31
241.662	617.31
241.896	519.31
242.13	454.31
242.363	444.31
242.597	466.31
242.83	546.31
243.064	540.31
243.298	580.31
243.531	645.31
243.765	640.31
243.998	617.31
244.232	622.31
244.465	603.31
244.699	588.31
244.932	660.31
245.166	636.31
245.399	534.31
245.633	540.31
245.866	578.31
246.099	614.31
246.333	731.31
246.566	774.31
246.8	778.31
247.033	735.31
247.266	678.31
247.5	694.31
247.733	689.31
247.966	646.31
248.2	681.31
248.433	795.31
248.666	826.31
248.899	847.31
249.133	880.31
249.366	994.31
249.599	1053.31
249.832	961.31
250.066	844.31
250.299	860.31
250.532	833.31
250.765	779.31
250.998	722.31
251.231	729.31
251.465	792.31
251.698	847.31
251.931	811.31
252.164	829.31
252.397	917.31
252.63	1056.31
252.863	1170.31
253.096	1174.31
253.329	1173.31
253.562	1111.31
253.795	1246.31
254.028	1381.31
254.261	1416.31
254.494	1280.31
254.727	1130.31
254.96	1130.31
255.193	1190.31
255.426	1132.31
255.659	854.31
255.892	788.31
256.124	859.31
256.357	1012.31
256.59	1228.31
256.823	1191.31
257.056	947.31
257.289	932.31
257.521	967.31
257.754	1132.31
257.987	1304.31
258.22	1105.31
258.452	1014.31
258.685	1137.31
258.918	1265.31
259.151	1239.31
259.383	1300.31
259.616	1486.31
259.849	1550.31
260.081	1732.31
260.314	1904.31
260.547	1442.31
260.779	1456.31
261.012	1741.31
261.244	1630.31
261.477	1664.31
261.71	1524.31
261.942	1287.31
262.175	1307.31
262.407	1224.31
262.64	1247.31
262.872	1507.31
263.105	1671.31
263.337	1743.31
263.57	1516.31
263.802	1029.31
264.035	888.31
264.267	874.31
264.499	757.31
264.732	696.31
264.964	687.31
265.197	700.31
265.429	754.31
265.661	830.31
265.894	837.31
266.126	897.31
266.358	1023.31
266.591	1224.31
266.823	1493.31
267.055	1403.31
267.287	1254.31
267.52	1244.31
267.752	1324.31
267.984	1448.31
268.216	1370.31
268.448	1134.31
268.681	1084.31
268.913	1218.31
269.145	1265.31
269.377	1324.31
269.609	1312.31
269.841	1224.31
270.073	1294.31
270.306	1374.31
270.538	1382.31
270.77	1404.31
271.002	1443.31
271.234	1519.31
271.466	1468.31
271.698	1447.31
271.93	1397.31
272.162	1418.31
272.394	1442.31
272.626	1394.31
272.858	1441.31
273.09	1473.31
273.322	1313.31
273.553	1264.31
273.785	1512.31
274.017	1977.31
274.249	2446.31
274.481	2561.31
274.713	2769.31
274.945	3165.31
275.176	3264.31
275.408	2920.31
275.64	2668.31
275.872	2639.31
276.104	2196.31
276.335	1904.31
276.567	1888.31
276.799	1988.31
277.031	2015.31
277.262	1611.31
277.494	1232.31
277.726	1178.31
277.957	1310.31
278.189	1511.31
278.421	1488.31
278.652	1405.31
278.884	1370.31
279.115	1259.31
279.347	1194.31
279.579	1210.31
279.81	1208.31
280.042	1192.31
280.273	1249.31
280.505	1175.31
280.736	1006.31
280.968	1020.31
281.199	1087.31
281.431	1268.31
281.662	1209.31
281.894	1160.31
282.125	1267.31
282.356	1333.31
282.588	1393.31
282.819	1246.31
283.051	1407.31
283.282	1671.31
283.513	1971.31
283.745	2214.31
283.976	2192.31
284.207	1962.31
284.439	2108.31
284.67	2017.31
284.901	1801.31
285.132	1968.31
285.364	2028.31
285.595	1901.31
285.826	1995.31
286.057	2066.31
286.288	1995.31
286.52	2002.31
286.751	2122.31
286.982	2123.31
287.213	1808.31
287.444	1767.31
287.675	1857.31
287.906	1862.31
288.138	1527.31
288.369	1365.31
288.6	1295.31
288.831	1353.31
289.062	1541.31
289.293	1698.31
289.524	1604.31
289.755	1600.31
289.986	1622.31
290.217	1408.31
290.448	1089.31
290.679	960.31
290.91	910.31
291.141	938.31
291.371	961.31
291.602	978.31
291.833	988.31
292.064	1050.31
292.295	1177.31
292.526	1417.31
292.757	1469.31
292.987	1570.31
293.218	1563.31
293.449	1599.31
293.68	1690.31
293.91	1614.31
294.141	1637.31
294.372	1538.31
294.603	1445.31
294.833	1589.31
295.064	1829.31
295.295	1776.31
295.525	1312.31
295.756	1143.31
295.987	980.31
296.217	982.31
296.448	1042.31
296.679	1085.31
296.909	1218.31
297.14	1300.31
297.37	1439.31
297.601	1354.31
297.831	1154.31
298.062	1274.31
298.292	1445.31
298.523	1574.31
298.753	1797.31
298.984	1619.31
299.214	1247.31
299.445	1059.31
299.675	1040.31
299.905	1035.31
300.136	1060.31
300.366	1195.31
300.597	1106.31
300.827	991.31
301.057	987.31
301.288	993.31
301.518	1085.31
301.748	1194.31
301.979	1314.31
302.209	1427.31
302.439	1424.31
302.669	1237.31
302.9	1243.31
303.13	1146.31
303.36	1105.31
303.59	1060.31
303.82	1118.31
304.051	1256.31
304.281	1320.31
304.511	1296.31
304.741	1141.31
304.971	1202.31
305.201	1298.31
305.431	1183.31
305.661	1021.31
305.891	1044.31
306.121	1071.31
306.352	977.31
306.582	861.31
306.812	859.31
307.042	861.31
307.272	804.31
307.502	820.31
307.731	877.31
307.961	915.31
308.191	853.31
308.421	813.31
308.651	800.31
308.881	752.31
309.111	779.31
309.341	818.31
309.571	862.31
309.8	901.31
310.03	952.31
310.26	1017.31
310.49	953.31
310.72	879.31
310.949	884.31
311.179	887.31
311.409	930.31
311.639	1115.31
311.868	1387.31
312.098	1770.31
312.328	1962.31
312.557	1855.31
312.787	1914.31
313.017	1674.31
313.246	1816.31
313.476	1964.31
313.706	1634.31
313.935	1311.31
314.165	1046.31
314.394	963.31
314.624	951.31
314.853	1030.31
315.083	1050.31
315.312	1000.31
315.542	1004.31
315.771	932.31
316.001	858.31
316.23	835.31
316.46	857.31
316.689	856.31
316.919	858.31
317.148	897.31
317.377	874.31
317.607	886.31
317.836	972.31
318.065	1103.31
318.295	1219.31
318.524	1154.31
318.753	983.31
318.983	917.31
319.212	924.31
319.441	1014.31
319.67	1110.31
319.9	1201.31
320.129	1116.31
320.358	955.31
320.587	965.31
320.816	1012.31
321.046	1178.31
321.275	1324.31
321.504	1330.31
321.733	1276.31
321.962	1198.31
322.191	1164.31
322.42	1093.31
322.649	1106.31
322.878	1212.31
323.108	1192.31
323.337	1110.31
323.566	1102.31
323.795	1047.31
324.024	1009.31
324.253	976.31
324.482	944.31
324.71	1073.31
324.939	1174.31
325.168	1122.31
325.397	917.31
325.626	883.31
325.855	910.31
326.084	909.31
326.313	874.31
326.542	832.31
326.77	868.31
326.999	873.31
327.228	944.31
327.457	992.31
327.686	1006.31
327.914	896.31
328.143	832.31
328.372	818.31
328.6	822.31
328.829	859.31
329.058	900.31
329.287	879.31
329.515	886.31
329.744	856.31
329.972	822.31
330.201	821.31
330.43	841.31
330.658	915.31
330.887	1105.31
331.115	1028.31
331.344	1009.31
331.572	936.31
331.801	918.31
332.03	834.31
332.258	869.31
332.486	962.31
332.715	953.31
332.943	922.31
333.172	886.31
333.4	930.31
333.629	1011.31
333.857	1105.31
334.085	1083.31
334.314	1102.31
334.542	1003.31
334.771	964.31
334.999	942.31
335.227	940.31
335.455	896.31
335.684	1036.31
335.912	1176.31
336.14	1269.31
336.369	1260.31
336.597	1221.31
336.825	1365.31
337.053	1505.31
337.281	1227.31
337.51	981.31
337.738	959.31
337.966	1068.31
338.194	1178.31
338.422	1124.31
338.65	951.31
338.878	882.31
339.106	919.31
339.334	1016.31
339.562	1089.31
339.79	978.31
340.018	952.31
340.246	1054.31
340.474	1210.31
340.702	1245.31
340.93	1301.31
341.158	1310.31
341.386	1110.31
341.614	1092.31
341.842	1106.31
342.07	1140.31
342.298	1318.31
342.526	1397.31
342.754	1197.31
342.981	1091.31
343.209	1050.31
343.437	1100.31
343.665	1147.31
343.893	1163.31
344.12	1355.31
344.348	1561.31
344.576	1402.31
344.804	1169.31
345.031	998.31
345.259	977.31
345.487	987.31
345.714	1005.31
345.942	1068.31
346.17	1167.31
346.397	1126.31
346.625	997.31
346.853	960.31
347.08	925.31
347.308	998.31
347.535	1093.31
347.763	1129.31
347.99	976.31
348.218	916.31
348.445	946.31
348.673	974.31
348.9	961.31
349.128	1024.31
349.355	1088.31
349.583	1018.31
349.81	996.31
350.037	920.31
350.265	847.31
350.492	762.31
350.72	768.31
350.947	824.31
351.174	869.31
351.402	947.31
351.629	948.31
351.856	940.31
352.083	873.31
352.311	961.31
352.538	1068.31
352.765	1121.31
352.992	1014.31
353.22	946.31
353.447	974.31
353.674	952.31
353.901	931.31
354.128	964.31
354.355	973.31
354.583	988.31
354.81	981.31
355.037	1032.31
355.264	989.31
355.491	1074.31
355.718	1162.31
355.945	1152.31
356.172	1052.31
356.399	1096.31
356.626	1334.31
356.853	1605.31
357.08	1696.31
357.307	1722.31
357.534	1362.31
357.761	1371.31
357.988	1672.31
358.215	2034.31
358.441	1908.31
358.668	1612.31
358.895	1492.31
359.122	1189.31
359.349	1171.31
359.576	1288.31
359.802	1079.31
360.029	929.31
360.256	1009.31
360.483	1255.31
360.709	1604.31
360.936	1642.31
361.163	1440.31
361.39	1080.31
361.616	1040.31
361.843	1214.31
362.07	1498.31
362.296	1362.31
362.523	1061.31
362.749	931.31
362.976	970.31
363.203	1196.31
363.429	1348.31
363.656	1069.31
363.882	973.31
364.109	1004.31
364.335	985.31
364.562	980.31
364.788	1096.31
365.015	1297.31
365.241	1161.31
365.468	948.31
365.694	844.31
365.92	802.31
366.147	789.31
366.373	740.31
366.599	762.31
366.826	790.31
367.052	816.31
367.278	817.31
367.505	805.31
367.731	889.31
367.957	1014.31
368.184	1020.31
368.41	985.31
368.636	1020.31
368.862	1053.31
369.089	1028.31
369.315	854.31
369.541	867.31
369.767	868.31
369.993	848.31
370.219	834.31
370.445	896.31
370.672	1013.31
370.898	1055.31
371.124	1092.31
371.35	952.31
371.576	894.31
371.802	973.31
372.028	1119.31
372.254	1278.31
372.48	1124.31
372.706	1009.31
372.932	1102.31
373.158	1109.31
373.384	1362.31
373.61	1795.31
373.835	1805.31
374.061	1366.31
374.287	1154.31
374.513	1333.31
374.739	1636.31
374.965	1718.31
375.191	1662.31
375.416	1138.31
375.642	990.31
375.868	1182.31
376.094	1299.31
376.319	1174.31
376.545	1278.31
376.771	1350.31
376.997	1128.31
377.222	854.31
377.448	746.31
377.674	722.31
377.899	760.31
378.125	739.31
378.35	741.31
378.576	808.31
378.802	873.31
379.027	916.31
379.253	898.31
379.478	915.31
379.704	1016.31
379.929	1045.31
380.155	1054.31
380.38	942.31
380.606	1005.31
380.831	1070.31
381.057	1019.31
381.282	981.31
381.507	1153.31
381.733	1426.31
381.958	1480.31
382.184	1604.31
382.409	1664.31
382.634	1642.31
382.86	1791.31
383.085	1424.31
383.31	1114.31
383.535	1185.31
383.761	1196.31
383.986	1130.31
384.211	1381.31
384.436	1348.31
384.662	1033.31
384.887	998.31
385.112	1038.31
385.337	1051.31
385.562	976.31
385.787	1080.31
386.013	1202.31
386.238	1202.31
386.463	1003.31
386.688	980.31
386.913	922.31
387.138	897.31
387.363	960.31
387.588	982.31
387.813	968.31
388.038	1098.31
388.263	977.31
388.488	952.31
388.713	1080.31
388.938	1189.31
389.163	1013.31
389.387	907.31
389.612	914.31
389.837	949.31
390.062	940.31
390.287	1026.31
390.512	1002.31
390.736	910.31
390.961	896.31
391.186	865.31
391.411	841.31
391.636	845.31
391.86	903.31
392.085	984.31
392.31	989.31
392.534	932.31
392.759	946.31
392.984	986.31
393.208	960.31
393.433	837.31
393.658	782.31
393.882	794.31
394.107	802.31
394.331	799.31
394.556	824.31
394.78	822.31
395.005	858.31
395.229	853.31
395.454	888.31
395.678	882.31
395.903	890.31
396.127	851.31
396.352	874.31
396.576	970.31
396.801	979.31
397.025	1049.31
397.249	1106.31
397.474	926.31
397.698	883.31
397.922	969.31
398.147	893.31
398.371	917.31
398.595	954.31
398.82	957.31
399.044	929.31
399.268	1013.31
399.492	1048.31
399.717	1060.31
399.941	1100.31
400.165	1037.31
400.389	1007.31
400.613	1037.31
400.837	1049.31
401.062	902.31
401.286	925.31
401.51	903.31
401.734	899.31
401.958	906.31
402.182	916.31
402.406	896.31
402.63	868.31
402.854	977.31
403.078	1059.31
403.302	1291.31
403.526	1323.31
403.75	1173.31
403.974	1047.31
404.198	1107.31
404.422	1224.31
404.645	1442.31
404.869	1576.31
405.093	1163.31
405.317	989.31
405.541	980.31
405.765	1006.31
405.988	1016.31
406.212	1086.31
406.436	1263.31
406.66	1412.31
406.883	1133.31
407.107	1152.31
407.331	1335.31
407.555	1294.31
407.778	1119.31
408.002	1068.31
408.226	1035.31
408.449	1029.31
408.673	1009.31
408.896	951.31
409.12	910.31
409.344	898.31
409.567	876.31
409.791	899.31
410.014	877.31
410.238	888.31
410.461	880.31
410.685	915.31
410.908	912.31
411.132	927.31
411.355	933.31
411.578	972.31
411.802	921.31
412.025	1021.31
412.249	988.31
412.472	940.31
412.695	923.31
412.919	928.31
413.142	950.31
413.365	1014.31
413.589	1047.31
413.812	953.31
414.035	888.31
414.258	909.31
414.482	1051.31
414.705	1036.31
414.928	910.31
415.151	880.31
415.374	875.31
415.597	926.31
415.821	921.31
416.044	878.31
416.267	866.31
416.49	872.31
416.713	820.31
416.936	881.31
417.159	853.31
417.382	892.31
417.605	892.31
417.828	908.31
418.051	886.31
418.274	954.31
418.497	947.31
418.72	936.31
418.943	924.31
419.166	985.31
419.389	1012.31
419.611	1013.31
419.834	1007.31
420.057	1112.31
420.28	1130.31
420.503	1041.31
420.726	886.31
420.948	882.31
421.171	852.31
421.394	872.31
421.617	844.31
421.839	891.31
422.062	942.31
422.285	918.31
422.507	922.31
422.73	945.31
422.953	965.31
423.175	910.31
423.398	955.31
423.621	996.31
423.843	1049.31
424.066	991.31
424.288	941.31
424.511	917.31
424.733	908.31
424.956	977.31
425.178	1082.31
425.401	1229.31
425.623	1341.31
425.846	1136.31
426.068	1039.31
426.291	1114.31
426.513	1017.31
426.735	918.31
426.958	1000.31
427.18	1137.31
427.402	1470.31
427.625	1464.31
427.847	1181.31
428.069	892.31
428.292	879.31
428.514	908.31
428.736	856.31
428.958	936.31
429.181	1098.31
429.403	949.31
429.625	853.31
429.847	857.31
430.069	901.31
430.292	890.31
430.514	876.31
430.736	934.31
430.958	1176.31
431.18	1077.31
431.402	846.31
431.624	813.31
431.846	798.31
432.068	796.31
432.29	818.31
432.512	918.31
432.734	1215.31
432.956	1133.31
433.178	861.31
433.4	833.31
433.622	884.31
433.844	896.31
434.066	969.31
434.287	908.31
434.509	906.31
434.731	931.31
434.953	853.31
435.175	897.31
435.397	1024.31
435.618	885.31
435.84	834.31
436.062	840.31
436.284	852.31
436.505	781.31
436.727	783.31
436.949	765.31
437.17	830.31
437.392	851.31
437.614	842.31
437.835	835.31
438.057	824.31
438.278	957.31
438.5	1388.31
438.721	1409.31
438.943	947.31
439.165	822.31
439.386	786.31
439.608	764.31
439.829	757.31
440.05	784.31
440.272	859.31
440.493	1026.31
440.715	1206.31
440.936	965.31
441.158	847.31
441.379	865.31
441.6	979.31
441.822	1046.31
442.043	892.31
442.264	860.31
442.486	895.31
442.707	876.31
442.928	848.31
443.149	885.31
443.371	894.31
443.592	924.31
443.813	909.31
444.034	888.31
444.255	907.31
444.476	944.31
444.698	932.31
444.919	920.31
445.14	1065.31
445.361	1006.31
445.582	963.31
445.803	932.31
446.024	914.31
446.245	955.31
446.466	909.31
446.687	859.31
446.908	867.31
447.129	833.31
447.35	825.31
447.571	793.31
447.792	780.31
448.013	799.31
448.234	777.31
448.455	794.31
448.675	795.31
448.896	780.31
449.117	820.31
449.338	829.31
449.559	794.31
449.779	870.31
450	883.31
450.221	837.31
450.442	821.31
450.662	805.31
450.883	801.31
451.104	822.31
451.324	800.31
451.545	806.31
451.766	811.31
451.986	808.31
452.207	768.31
452.428	766.31
452.648	790.31
452.869	822.31
453.089	857.31
453.31	872.31
453.53	748.31
453.751	717.31
453.971	739.31
454.192	757.31
454.412	788.31
454.633	756.31
454.853	762.31
455.073	736.31
455.294	733.31
455.514	728.31
455.734	758.31
455.955	807.31
456.175	820.31
456.395	741.31
456.616	725.31
456.836	710.31
457.056	697.31
457.276	712.31
457.497	713.31
457.717	716.31
457.937	706.31
458.157	710.31
458.377	724.31
458.598	737.31
458.818	776.31
459.038	788.31
459.258	801.31
459.478	854.31
459.698	911.31
459.918	882.31
460.138	899.31
460.358	906.31
460.578	865.31
460.798	892.31
461.018	892.31
461.238	844.31
461.458	878.31
461.678	883.31
461.898	934.31
462.118	914.31
462.338	944.31
462.558	949.31
462.777	1007.31
462.997	1012.31
463.217	993.31
463.437	1014.31
463.657	1008.31
463.876	971.31
464.096	974.31
464.316	991.31
464.536	971.31
464.755	1032.31
464.975	1042.31
465.195	957.31
465.414	993.31
465.634	968.31
465.854	936.31
466.073	866.31
466.293	877.31
466.512	940.31
466.732	1027.31
466.951	1070.31
467.171	921.31
467.391	884.31
467.61	878.31
467.829	933.31
468.049	930.31
468.268	881.31
468.488	886.31
468.707	913.31
468.927	1085.31
469.146	1153.31
469.365	1029.31
469.585	929.31
469.804	967.31
470.023	1078.31
470.243	956.31
470.462	926.31
470.681	928.31
470.901	935.31
471.12	981.31
471.339	954.31
471.558	932.31
471.777	943.31
471.997	1011.31
472.216	1117.31
472.435	1079.31
472.654	983.31
472.873	944.31
473.092	995.31
473.311	1056.31
473.53	972.31
473.749	930.31
473.968	998.31
474.187	939.31
474.406	924.31
474.625	940.31
474.844	952.31
475.063	1040.31
475.282	1030.31
475.501	1093.31
475.72	1133.31
475.939	1109.31
476.158	1082.31
476.377	1248.31
476.596	1427.31
476.814	1488.31
477.033	1220.31
477.252	1050.31
477.471	1028.31
477.69	982.31
477.908	1108.31
478.127	1201.31
478.346	1045.31
478.564	1142.31
478.783	1093.31
479.002	1103.31
479.22	1299.31
479.439	1412.31
479.658	1245.31
479.876	1140.31
480.095	1184.31
480.313	1221.31
480.532	1154.31
480.751	1095.31
480.969	1114.31
481.188	1278.31
481.406	1323.31
481.624	1245.31
481.843	1112.31
482.061	1044.31
482.28	1218.31
482.498	1450.31
482.717	1388.31
482.935	1209.31
483.153	1129.31
483.372	1104.31
483.59	1069.31
483.808	1058.31
484.027	1028.31
484.245	1018.31
484.463	990.31
484.681	1019.31
484.9	1111.31
485.118	1224.31
485.336	1118.31
485.554	1068.31
485.772	1081.31
485.99	1176.31
486.209	1233.31
486.427	1206.31
486.645	1224.31
486.863	1200.31
487.081	1206.31
487.299	1396.31
487.517	1325.31
487.735	1219.31
487.953	1243.31
488.171	1280.31
488.389	1152.31
488.607	1125.31
488.825	1183.31
489.043	1278.31
489.261	1417.31
489.479	1548.31
489.696	1304.31
489.914	1189.31
490.132	1116.31
490.35	1104.31
490.568	1136.31
490.786	1118.31
491.003	1088.31
491.221	1131.31
491.439	1119.31
491.657	1128.31
491.874	1241.31
492.092	1491.31
492.31	1765.31
492.527	1737.31
492.745	1516.31
492.963	1304.31
493.18	1309.31
493.398	1307.31
493.615	1268.31
493.833	1220.31
494.05	1218.31
494.268	1258.31
494.485	1226.31
