Data from NickelSpatula.Lamp.E10.P2_HRD10591_11-59-43-525.txt Node
Date: Tue Jul 23 11:59:43 EDT 2019
User: cochatt
Spectrometer: HR+D1059
Trigger mode: 1
Integration Time (sec): 1.000000E-1
Scans to average: 1
Electric dark correction enabled: true
Nonlinearity correction enabled: false
Boxcar width: 0
XAxis mode: Wavelengths
Number of Pixels in Spectrum: 2048
>>>>>Begin Spectral Data<<<<<
223.165	-21.94
223.4	-21.94
223.635	-21.94
223.869	-26.94
224.104	-8.94
224.338	-17.94
224.573	-10.94
224.808	-17.94
225.042	-7.94
225.277	-5.94
225.511	-7.94
225.746	7.06
225.98	1.06
226.215	6.06
226.449	18.06
226.683	35.06
226.918	31.06
227.152	28.06
227.387	28.06
227.621	35.06
227.856	41.06
228.09	37.06
228.324	43.06
228.559	52.06
228.793	82.06
229.027	149.06
229.262	145.06
229.496	154.06
229.73	160.06
229.964	183.06
230.199	207.06
230.433	214.06
230.667	208.06
230.901	194.06
231.136	224.06
231.37	211.06
231.604	227.06
231.838	254.06
232.072	243.06
232.306	224.06
232.541	267.06
232.775	246.06
233.009	259.06
233.243	306.06
233.477	328.06
233.711	348.06
233.945	324.06
234.179	329.06
234.413	365.06
234.647	394.06
234.881	455.06
235.115	437.06
235.349	408.06
235.583	362.06
235.817	361.06
236.051	382.06
236.285	420.06
236.519	453.06
236.753	457.06
236.987	439.06
237.221	403.06
237.455	452.06
237.689	432.06
237.922	464.06
238.156	501.06
238.39	550.06
238.624	663.06
238.858	591.06
239.091	512.06
239.325	534.06
239.559	476.06
239.793	554.06
240.027	661.06
240.26	614.06
240.494	608.06
240.728	617.06
240.961	708.06
241.195	654.06
241.429	632.06
241.662	637.06
241.896	533.06
242.13	499.06
242.363	469.06
242.597	492.06
242.83	550.06
243.064	553.06
243.298	592.06
243.531	618.06
243.765	665.06
243.998	645.06
244.232	609.06
244.465	605.06
244.699	600.06
244.932	692.06
245.166	664.06
245.399	554.06
245.633	551.06
245.866	565.06
246.099	600.06
246.333	719.06
246.566	796.06
246.8	774.06
247.033	753.06
247.266	701.06
247.5	703.06
247.733	696.06
247.966	684.06
248.2	712.06
248.433	771.06
248.666	842.06
248.899	873.06
249.133	872.06
249.366	1074.06
249.599	1071.06
249.832	971.06
250.066	848.06
250.299	850.06
250.532	825.06
250.765	801.06
250.998	732.06
251.231	755.06
251.465	826.06
251.698	868.06
251.931	806.06
252.164	872.06
252.397	985.06
252.63	1073.06
252.863	1197.06
253.096	1221.06
253.329	1158.06
253.562	1122.06
253.795	1288.06
254.028	1367.06
254.261	1433.06
254.494	1272.06
254.727	1149.06
254.96	1140.06
255.193	1204.06
255.426	1145.06
255.659	886.06
255.892	806.06
256.124	893.06
256.357	1062.06
256.59	1212.06
256.823	1167.06
257.056	980.06
257.289	939.06
257.521	1002.06
257.754	1166.06
257.987	1316.06
258.22	1135.06
258.452	992.06
258.685	1158.06
258.918	1304.06
259.151	1263.06
259.383	1356.06
259.616	1530.06
259.849	1564.06
260.081	1704.06
260.314	1928.06
260.547	1494.06
260.779	1494.06
261.012	1760.06
261.244	1634.06
261.477	1682.06
261.71	1574.06
261.942	1323.06
262.175	1330.06
262.407	1285.06
262.64	1294.06
262.872	1546.06
263.105	1686.06
263.337	1801.06
263.57	1554.06
263.802	1036.06
264.035	910.06
264.267	890.06
264.499	770.06
264.732	720.06
264.964	686.06
265.197	743.06
265.429	789.06
265.661	842.06
265.894	852.06
266.126	927.06
266.358	1057.06
266.591	1288.06
266.823	1512.06
267.055	1439.06
267.287	1278.06
267.52	1290.06
267.752	1348.06
267.984	1450.06
268.216	1392.06
268.448	1136.06
268.681	1104.06
268.913	1209.06
269.145	1288.06
269.377	1328.06
269.609	1314.06
269.841	1208.06
270.073	1337.06
270.306	1384.06
270.538	1406.06
270.77	1428.06
271.002	1442.06
271.234	1487.06
271.466	1512.06
271.698	1475.06
271.93	1421.06
272.162	1486.06
272.394	1436.06
272.626	1437.06
272.858	1487.06
273.09	1497.06
273.322	1356.06
273.553	1308.06
273.785	1558.06
274.017	2079.06
274.249	2442.06
274.481	2581.06
274.713	2821.06
274.945	3260.06
275.176	3301.06
275.408	2936.06
275.64	2678.06
275.872	2699.06
276.104	2278.06
276.335	1999.06
276.567	1964.06
276.799	2009.06
277.031	2112.06
277.262	1657.06
277.494	1287.06
277.726	1204.06
277.957	1322.06
278.189	1526.06
278.421	1506.06
278.652	1474.06
278.884	1386.06
279.115	1255.06
279.347	1217.06
279.579	1214.06
279.81	1248.06
280.042	1235.06
280.273	1274.06
280.505	1146.06
280.736	1030.06
280.968	1022.06
281.199	1110.06
281.431	1230.06
281.662	1210.06
281.894	1171.06
282.125	1292.06
282.356	1382.06
282.588	1424.06
282.819	1306.06
283.051	1420.06
283.282	1756.06
283.513	1998.06
283.745	2190.06
283.976	2224.06
284.207	2014.06
284.439	2118.06
284.67	2093.06
284.901	1856.06
285.132	1959.06
285.364	2014.06
285.595	1930.06
285.826	2049.06
286.057	2112.06
286.288	1993.06
286.52	2047.06
286.751	2149.06
286.982	2136.06
287.213	1857.06
287.444	1826.06
287.675	1895.06
287.906	1840.06
288.138	1582.06
288.369	1366.06
288.6	1314.06
288.831	1362.06
289.062	1613.06
289.293	1703.06
289.524	1612.06
289.755	1616.06
289.986	1638.06
290.217	1484.06
290.448	1126.06
290.679	957.06
290.91	937.06
291.141	933.06
291.371	980.06
291.602	984.06
291.833	970.06
292.064	1098.06
292.295	1252.06
292.526	1433.06
292.757	1481.06
292.987	1577.06
293.218	1594.06
293.449	1620.06
293.68	1680.06
293.91	1608.06
294.141	1646.06
294.372	1536.06
294.603	1437.06
294.833	1632.06
295.064	1916.06
295.295	1736.06
295.525	1339.06
295.756	1169.06
295.987	1014.06
296.217	1010.06
296.448	1064.06
296.679	1146.06
296.909	1299.06
297.14	1363.06
297.37	1478.06
297.601	1385.06
297.831	1197.06
298.062	1272.06
298.292	1472.06
298.523	1609.06
298.753	1836.06
298.984	1635.06
299.214	1289.06
299.445	1079.06
299.675	1104.06
299.905	1060.06
300.136	1100.06
300.366	1242.06
300.597	1232.06
300.827	1049.06
301.057	1046.06
301.288	1072.06
301.518	1122.06
301.748	1267.06
301.979	1376.06
302.209	1556.06
302.439	1554.06
302.669	1296.06
302.9	1302.06
303.13	1187.06
303.36	1136.06
303.59	1101.06
303.82	1118.06
304.051	1253.06
304.281	1372.06
304.511	1339.06
304.741	1171.06
304.971	1220.06
305.201	1285.06
305.431	1237.06
305.661	1097.06
305.891	1093.06
306.121	1116.06
306.352	982.06
306.582	896.06
306.812	858.06
307.042	883.06
307.272	831.06
307.502	830.06
307.731	913.06
307.961	935.06
308.191	860.06
308.421	802.06
308.651	818.06
308.881	772.06
309.111	787.06
309.341	803.06
309.571	909.06
309.8	920.06
310.03	936.06
310.26	1041.06
310.49	961.06
310.72	865.06
310.949	885.06
311.179	889.06
311.409	954.06
311.639	1130.06
311.868	1425.06
312.098	1808.06
312.328	2021.06
312.557	1880.06
312.787	1914.06
313.017	1719.06
313.246	1834.06
313.476	2019.06
313.706	1665.06
313.935	1304.06
314.165	1068.06
314.394	961.06
314.624	984.06
314.853	1020.06
315.083	1071.06
315.312	1028.06
315.542	1050.06
315.771	959.06
316.001	870.06
316.23	853.06
316.46	878.06
316.689	886.06
316.919	900.06
317.148	936.06
317.377	883.06
317.607	900.06
317.836	972.06
318.065	1143.06
318.295	1265.06
318.524	1178.06
318.753	1011.06
318.983	970.06
319.212	965.06
319.441	1053.06
319.67	1191.06
319.9	1275.06
320.129	1153.06
320.358	992.06
320.587	966.06
320.816	1043.06
321.046	1196.06
321.275	1371.06
321.504	1388.06
321.733	1359.06
321.962	1284.06
322.191	1207.06
322.42	1168.06
322.649	1170.06
322.878	1258.06
323.108	1230.06
323.337	1134.06
323.566	1124.06
323.795	1073.06
324.024	1041.06
324.253	1006.06
324.482	1001.06
324.71	1114.06
324.939	1265.06
325.168	1130.06
325.397	956.06
325.626	951.06
325.855	956.06
326.084	950.06
326.313	896.06
326.542	839.06
326.77	888.06
326.999	904.06
327.228	1001.06
327.457	1075.06
327.686	1034.06
327.914	895.06
328.143	874.06
328.372	844.06
328.6	838.06
328.829	918.06
329.058	944.06
329.287	897.06
329.515	902.06
329.744	911.06
329.972	859.06
330.201	820.06
330.43	860.06
330.658	962.06
330.887	1094.06
331.115	1030.06
331.344	1029.06
331.572	975.06
331.801	906.06
332.03	868.06
332.258	888.06
332.486	981.06
332.715	991.06
332.943	913.06
333.172	923.06
333.4	969.06
333.629	1048.06
333.857	1137.06
334.085	1140.06
334.314	1129.06
334.542	1063.06
334.771	973.06
334.999	959.06
335.227	937.06
335.455	954.06
335.684	1039.06
335.912	1228.06
336.14	1326.06
336.369	1268.06
336.597	1241.06
336.825	1393.06
337.053	1572.06
337.281	1270.06
337.51	1025.06
337.738	1008.06
337.966	1063.06
338.194	1220.06
338.422	1158.06
338.65	955.06
338.878	906.06
339.106	940.06
339.334	1063.06
339.562	1127.06
339.79	1015.06
340.018	991.06
340.246	1104.06
340.474	1199.06
340.702	1278.06
340.93	1367.06
341.158	1340.06
341.386	1145.06
341.614	1138.06
341.842	1140.06
342.07	1185.06
342.298	1383.06
342.526	1445.06
342.754	1236.06
342.981	1124.06
343.209	1088.06
343.437	1158.06
343.665	1226.06
343.893	1201.06
344.12	1442.06
344.348	1651.06
344.576	1457.06
344.804	1263.06
345.031	1064.06
345.259	980.06
345.487	1022.06
345.714	1056.06
345.942	1137.06
346.17	1215.06
346.397	1188.06
346.625	1020.06
346.853	1001.06
347.08	952.06
347.308	1026.06
347.535	1119.06
347.763	1154.06
347.99	1026.06
348.218	950.06
348.445	972.06
348.673	992.06
348.9	1011.06
349.128	1104.06
349.355	1124.06
349.583	1094.06
349.81	1044.06
350.037	988.06
350.265	864.06
350.492	796.06
350.72	832.06
350.947	840.06
351.174	899.06
351.402	982.06
351.629	1032.06
351.856	984.06
352.083	911.06
352.311	1024.06
352.538	1121.06
352.765	1204.06
352.992	1096.06
353.22	1012.06
353.447	1029.06
353.674	989.06
353.901	1007.06
354.128	1012.06
354.355	1018.06
354.583	1016.06
354.81	1026.06
355.037	1060.06
355.264	1040.06
355.491	1145.06
355.718	1226.06
355.945	1170.06
356.172	1097.06
356.399	1160.06
356.626	1389.06
356.853	1708.06
357.08	1828.06
357.307	1837.06
357.534	1470.06
357.761	1479.06
357.988	1871.06
358.215	2194.06
358.441	2047.06
358.668	1720.06
358.895	1571.06
359.122	1273.06
359.349	1249.06
359.576	1392.06
359.802	1113.06
360.029	966.06
360.256	1057.06
360.483	1363.06
360.709	1693.06
360.936	1749.06
361.163	1513.06
361.39	1153.06
361.616	1107.06
361.843	1332.06
362.07	1609.06
362.296	1429.06
362.523	1100.06
362.749	969.06
362.976	1022.06
363.203	1261.06
363.429	1443.06
363.656	1126.06
363.882	1023.06
364.109	1038.06
364.335	1025.06
364.562	1021.06
364.788	1136.06
365.015	1377.06
365.241	1206.06
365.468	997.06
365.694	875.06
365.92	836.06
366.147	843.06
366.373	820.06
366.599	808.06
366.826	821.06
367.052	840.06
367.278	855.06
367.505	859.06
367.731	936.06
367.957	1046.06
368.184	1074.06
368.41	1049.06
368.636	1072.06
368.862	1090.06
369.089	1059.06
369.315	944.06
369.541	916.06
369.767	888.06
369.993	861.06
370.219	884.06
370.445	961.06
370.672	1064.06
370.898	1167.06
371.124	1137.06
371.35	964.06
371.576	948.06
371.802	1008.06
372.028	1249.06
372.254	1381.06
372.48	1189.06
372.706	1075.06
372.932	1133.06
373.158	1191.06
373.384	1444.06
373.61	1969.06
373.835	1992.06
374.061	1429.06
374.287	1216.06
374.513	1488.06
374.739	1729.06
374.965	1850.06
375.191	1735.06
375.416	1198.06
375.642	1041.06
375.868	1258.06
376.094	1410.06
376.319	1238.06
376.545	1348.06
376.771	1414.06
376.997	1216.06
377.222	904.06
377.448	759.06
377.674	773.06
377.899	759.06
378.125	779.06
378.35	797.06
378.576	828.06
378.802	860.06
379.027	982.06
379.253	925.06
379.478	952.06
379.704	1082.06
379.929	1134.06
380.155	1115.06
380.38	960.06
380.606	1028.06
380.831	1152.06
381.057	1057.06
381.282	1018.06
381.507	1226.06
381.733	1524.06
381.958	1640.06
382.184	1758.06
382.409	1808.06
382.634	1766.06
382.86	1860.06
383.085	1534.06
383.31	1186.06
383.535	1252.06
383.761	1257.06
383.986	1211.06
384.211	1481.06
384.436	1428.06
384.662	1100.06
384.887	1024.06
385.112	1053.06
385.337	1080.06
385.562	1038.06
385.787	1121.06
386.013	1270.06
386.238	1309.06
386.463	1041.06
386.688	1035.06
386.913	983.06
387.138	895.06
387.363	967.06
387.588	1012.06
387.813	1042.06
388.038	1165.06
388.263	999.06
388.488	988.06
388.713	1139.06
388.938	1267.06
389.163	1080.06
389.387	952.06
389.612	924.06
389.837	978.06
390.062	994.06
390.287	1017.06
390.512	1042.06
390.736	958.06
390.961	912.06
391.186	870.06
391.411	841.06
391.636	853.06
391.86	961.06
392.085	1020.06
392.31	1010.06
392.534	1005.06
392.759	963.06
392.984	1014.06
393.208	1004.06
393.433	889.06
393.658	827.06
393.882	791.06
394.107	786.06
394.331	822.06
394.556	786.06
394.78	824.06
395.005	847.06
395.229	890.06
395.454	880.06
395.678	914.06
395.903	933.06
396.127	893.06
396.352	915.06
396.576	994.06
396.801	1044.06
397.025	1121.06
397.249	1169.06
397.474	971.06
397.698	932.06
397.922	968.06
398.147	906.06
398.371	926.06
398.595	1012.06
398.82	927.06
399.044	963.06
399.268	1020.06
399.492	1076.06
399.717	1060.06
399.941	1113.06
400.165	1071.06
400.389	1042.06
400.613	1095.06
400.837	1030.06
401.062	940.06
401.286	921.06
401.51	924.06
401.734	909.06
401.958	918.06
402.182	920.06
402.406	900.06
402.63	912.06
402.854	957.06
403.078	1124.06
403.302	1330.06
403.526	1393.06
403.75	1252.06
403.974	1068.06
404.198	1106.06
404.422	1279.06
404.645	1516.06
404.869	1639.06
405.093	1205.06
405.317	1013.06
405.541	1016.06
405.765	1031.06
405.988	1062.06
406.212	1142.06
406.436	1325.06
406.66	1500.06
406.883	1162.06
407.107	1187.06
407.331	1441.06
407.555	1326.06
407.778	1127.06
408.002	1074.06
408.226	1084.06
408.449	1071.06
408.673	1036.06
408.896	964.06
409.12	910.06
409.344	952.06
409.567	885.06
409.791	904.06
410.014	911.06
410.238	887.06
410.461	897.06
410.685	921.06
410.908	924.06
411.132	950.06
411.355	964.06
411.578	948.06
411.802	938.06
412.025	1016.06
412.249	1008.06
412.472	977.06
412.695	981.06
412.919	992.06
413.142	993.06
413.365	1095.06
413.589	1060.06
413.812	990.06
414.035	932.06
414.258	957.06
414.482	1041.06
414.705	1114.06
414.928	938.06
415.151	884.06
415.374	892.06
415.597	929.06
415.821	954.06
416.044	906.06
416.267	904.06
416.49	901.06
416.713	876.06
416.936	878.06
417.159	853.06
417.382	898.06
417.605	912.06
417.828	946.06
418.051	942.06
418.274	966.06
418.497	958.06
418.72	930.06
418.943	1011.06
419.166	998.06
419.389	1014.06
419.611	1035.06
419.834	1056.06
420.057	1168.06
420.28	1152.06
420.503	1064.06
420.726	914.06
420.948	873.06
421.171	910.06
421.394	896.06
421.617	869.06
421.839	898.06
422.062	964.06
422.285	949.06
422.507	946.06
422.73	981.06
422.953	995.06
423.175	961.06
423.398	953.06
423.621	1032.06
423.843	1069.06
424.066	994.06
424.288	946.06
424.511	920.06
424.733	918.06
424.956	981.06
425.178	1134.06
425.401	1269.06
425.623	1438.06
425.846	1185.06
426.068	1060.06
426.291	1178.06
426.513	1038.06
426.735	984.06
426.958	997.06
427.18	1244.06
427.402	1558.06
427.625	1532.06
427.847	1239.06
428.069	916.06
428.292	928.06
428.514	921.06
428.736	871.06
428.958	992.06
429.181	1169.06
429.403	989.06
429.625	937.06
429.847	909.06
430.069	942.06
430.292	935.06
430.514	888.06
430.736	944.06
430.958	1238.06
431.18	1104.06
431.402	858.06
431.624	830.06
431.846	835.06
432.068	812.06
432.29	838.06
432.512	967.06
432.734	1246.06
432.956	1152.06
433.178	878.06
433.4	846.06
433.622	868.06
433.844	894.06
434.066	951.06
434.287	920.06
434.509	897.06
434.731	906.06
434.953	891.06
435.175	940.06
435.397	1054.06
435.618	928.06
435.84	840.06
436.062	864.06
436.284	841.06
436.505	790.06
436.727	793.06
436.949	813.06
437.17	848.06
437.392	867.06
437.614	863.06
437.835	839.06
438.057	868.06
438.278	1006.06
438.5	1452.06
438.721	1463.06
438.943	941.06
439.165	824.06
439.386	819.06
439.608	824.06
439.829	782.06
440.05	822.06
440.272	871.06
440.493	1028.06
440.715	1288.06
440.936	1018.06
441.158	886.06
441.379	853.06
441.6	992.06
441.822	1077.06
442.043	892.06
442.264	883.06
442.486	886.06
442.707	869.06
442.928	887.06
443.149	888.06
443.371	913.06
443.592	949.06
443.813	952.06
444.034	874.06
444.255	914.06
444.476	944.06
444.698	943.06
444.919	954.06
445.14	1054.06
445.361	1018.06
445.582	983.06
445.803	962.06
446.024	967.06
446.245	949.06
446.466	933.06
446.687	885.06
446.908	904.06
447.129	841.06
447.35	818.06
447.571	810.06
447.792	812.06
448.013	810.06
448.234	788.06
448.455	778.06
448.675	773.06
448.896	837.06
449.117	805.06
449.338	806.06
449.559	824.06
449.779	918.06
450	904.06
450.221	868.06
450.442	809.06
450.662	801.06
450.883	807.06
451.104	812.06
451.324	836.06
451.545	817.06
451.766	784.06
451.986	788.06
452.207	784.06
452.428	768.06
452.648	771.06
452.869	834.06
453.089	868.06
453.31	853.06
453.53	762.06
453.751	741.06
453.971	748.06
454.192	768.06
454.412	788.06
454.633	747.06
454.853	750.06
455.073	737.06
455.294	739.06
455.514	741.06
455.734	777.06
455.955	830.06
456.175	853.06
456.395	772.06
456.616	735.06
456.836	705.06
457.056	728.06
457.276	704.06
457.497	725.06
457.717	729.06
457.937	722.06
458.157	713.06
458.377	749.06
458.598	748.06
458.818	771.06
459.038	820.06
459.258	822.06
459.478	866.06
459.698	917.06
459.918	899.06
460.138	894.06
460.358	902.06
460.578	891.06
460.798	880.06
461.018	901.06
461.238	853.06
461.458	871.06
461.678	912.06
461.898	953.06
462.118	937.06
462.338	938.06
462.558	981.06
462.777	981.06
462.997	1035.06
463.217	1011.06
463.437	1029.06
463.657	1016.06
463.876	967.06
464.096	968.06
464.316	983.06
464.536	986.06
464.755	1037.06
464.975	1048.06
465.195	952.06
465.414	1034.06
465.634	958.06
465.854	962.06
466.073	875.06
466.293	876.06
466.512	925.06
466.732	1052.06
466.951	1058.06
467.171	941.06
467.391	892.06
467.61	875.06
467.829	970.06
468.049	946.06
468.268	893.06
468.488	901.06
468.707	934.06
468.927	1093.06
469.146	1158.06
469.365	1041.06
469.585	984.06
469.804	1024.06
470.023	1142.06
470.243	992.06
470.462	932.06
470.681	929.06
470.901	931.06
471.12	994.06
471.339	989.06
471.558	893.06
471.777	923.06
471.997	1024.06
472.216	1167.06
472.435	1091.06
472.654	986.06
472.873	978.06
473.092	1039.06
473.311	1047.06
473.53	977.06
473.749	957.06
473.968	1012.06
474.187	1008.06
474.406	994.06
474.625	951.06
474.844	972.06
475.063	1059.06
475.282	1022.06
475.501	1097.06
475.72	1164.06
475.939	1089.06
476.158	1124.06
476.377	1296.06
476.596	1450.06
476.814	1540.06
477.033	1268.06
477.252	1082.06
477.471	1009.06
477.69	1040.06
477.908	1146.06
478.127	1198.06
478.346	1065.06
478.564	1148.06
478.783	1121.06
479.002	1144.06
479.22	1344.06
479.439	1442.06
479.658	1255.06
479.876	1144.06
480.095	1217.06
480.313	1268.06
480.532	1154.06
480.751	1093.06
480.969	1130.06
481.188	1289.06
481.406	1330.06
481.624	1234.06
481.843	1139.06
482.061	1092.06
482.28	1245.06
482.498	1493.06
482.717	1406.06
482.935	1231.06
483.153	1170.06
483.372	1102.06
483.59	1101.06
483.808	1068.06
484.027	1054.06
484.245	1031.06
484.463	1007.06
484.681	1021.06
484.9	1142.06
485.118	1222.06
485.336	1128.06
485.554	1091.06
485.772	1104.06
485.99	1180.06
486.209	1265.06
486.427	1270.06
486.645	1231.06
486.863	1281.06
487.081	1237.06
487.299	1408.06
487.517	1385.06
487.735	1230.06
487.953	1281.06
488.171	1288.06
488.389	1210.06
488.607	1132.06
488.825	1192.06
489.043	1307.06
489.261	1544.06
489.479	1641.06
489.696	1340.06
489.914	1204.06
490.132	1153.06
490.35	1142.06
490.568	1154.06
490.786	1143.06
491.003	1151.06
491.221	1172.06
491.439	1180.06
491.657	1161.06
491.874	1232.06
492.092	1534.06
492.31	1869.06
492.527	1820.06
492.745	1548.06
492.963	1393.06
493.18	1339.06
493.398	1308.06
493.615	1302.06
