Data from NickelSpatula.Lamp.E10.P2_HRD10591_11-59-53-523.txt Node
Date: Tue Jul 23 11:59:53 EDT 2019
User: cochatt
Spectrometer: HR+D1059
Trigger mode: 1
Integration Time (sec): 1.000000E-1
Scans to average: 1
Electric dark correction enabled: true
Nonlinearity correction enabled: false
Boxcar width: 0
XAxis mode: Wavelengths
Number of Pixels in Spectrum: 2048
>>>>>Begin Spectral Data<<<<<
223.165	-7.88
223.4	-7.88
223.635	-7.88
223.869	-13.88
224.104	-12.88
224.338	-17.88
224.573	-6.88
224.808	-8.88
225.042	-2.88
225.277	-3.88
225.511	-12.88
225.746	-0.88
225.98	-7.88
226.215	4.12
226.449	17.12
226.683	30.12
226.918	26.12
227.152	19.12
227.387	32.12
227.621	42.12
227.856	37.12
228.09	47.12
228.324	52.12
228.559	57.12
228.793	82.12
229.027	142.12
229.262	162.12
229.496	157.12
229.73	152.12
229.964	192.12
230.199	236.12
230.433	204.12
230.667	204.12
230.901	213.12
231.136	189.12
231.37	187.12
231.604	224.12
231.838	257.12
232.072	260.12
232.306	261.12
232.541	250.12
232.775	268.12
233.009	290.12
233.243	312.12
233.477	303.12
233.711	353.12
233.945	326.12
234.179	321.12
234.413	358.12
234.647	382.12
234.881	457.12
235.115	436.12
235.349	422.12
235.583	367.12
235.817	362.12
236.051	378.12
236.285	432.12
236.519	485.12
236.753	434.12
236.987	432.12
237.221	417.12
237.455	413.12
237.689	447.12
237.922	466.12
238.156	490.12
238.39	579.12
238.624	659.12
238.858	599.12
239.091	508.12
239.325	528.12
239.559	508.12
239.793	530.12
240.027	655.12
240.26	599.12
240.494	609.12
240.728	630.12
240.961	696.12
241.195	670.12
241.429	635.12
241.662	632.12
241.896	543.12
242.13	473.12
242.363	462.12
242.597	482.12
242.83	568.12
243.064	566.12
243.298	578.12
243.531	629.12
243.765	672.12
243.998	640.12
244.232	600.12
244.465	604.12
244.699	587.12
244.932	688.12
245.166	647.12
245.399	546.12
245.633	542.12
245.866	587.12
246.099	630.12
246.333	731.12
246.566	797.12
246.8	791.12
247.033	762.12
247.266	707.12
247.5	718.12
247.733	691.12
247.966	672.12
248.2	720.12
248.433	786.12
248.666	874.12
248.899	846.12
249.133	859.12
249.366	1020.12
249.599	1068.12
249.832	945.12
250.066	832.12
250.299	836.12
250.532	834.12
250.765	842.12
250.998	742.12
251.231	729.12
251.465	795.12
251.698	845.12
251.931	862.12
252.164	873.12
252.397	963.12
252.63	1066.12
252.863	1188.12
253.096	1218.12
253.329	1186.12
253.562	1135.12
253.795	1268.12
254.028	1345.12
254.261	1428.12
254.494	1281.12
254.727	1162.12
254.96	1141.12
255.193	1174.12
255.426	1187.12
255.659	881.12
255.892	816.12
256.124	883.12
256.357	1042.12
256.59	1204.12
256.823	1131.12
257.056	994.12
257.289	946.12
257.521	1002.12
257.754	1146.12
257.987	1286.12
258.22	1150.12
258.452	1043.12
258.685	1202.12
258.918	1309.12
259.151	1258.12
259.383	1347.12
259.616	1494.12
259.849	1588.12
260.081	1740.12
260.314	1944.12
260.547	1458.12
260.779	1500.12
261.012	1737.12
261.244	1628.12
261.477	1690.12
261.71	1576.12
261.942	1307.12
262.175	1309.12
262.407	1227.12
262.64	1265.12
262.872	1546.12
263.105	1652.12
263.337	1757.12
263.57	1569.12
263.802	1062.12
264.035	930.12
264.267	882.12
264.499	784.12
264.732	704.12
264.964	720.12
265.197	716.12
265.429	777.12
265.661	849.12
265.894	867.12
266.126	922.12
266.358	1050.12
266.591	1283.12
266.823	1533.12
267.055	1411.12
267.287	1258.12
267.52	1255.12
267.752	1338.12
267.984	1462.12
268.216	1388.12
268.448	1120.12
268.681	1131.12
268.913	1218.12
269.145	1302.12
269.377	1312.12
269.609	1311.12
269.841	1250.12
270.073	1338.12
270.306	1401.12
270.538	1390.12
270.77	1390.12
271.002	1454.12
271.234	1518.12
271.466	1535.12
271.698	1505.12
271.93	1454.12
272.162	1460.12
272.394	1462.12
272.626	1416.12
272.858	1442.12
273.09	1538.12
273.322	1317.12
273.553	1278.12
273.785	1518.12
274.017	2039.12
274.249	2502.12
274.481	2543.12
274.713	2762.12
274.945	3246.12
275.176	3322.12
275.408	2923.12
275.64	2656.12
275.872	2688.12
276.104	2254.12
276.335	1970.12
276.567	1974.12
276.799	2027.12
277.031	2078.12
277.262	1628.12
277.494	1293.12
277.726	1233.12
277.957	1362.12
278.189	1503.12
278.421	1502.12
278.652	1442.12
278.884	1371.12
279.115	1302.12
279.347	1198.12
279.579	1221.12
279.81	1234.12
280.042	1242.12
280.273	1268.12
280.505	1176.12
280.736	1041.12
280.968	1050.12
281.199	1100.12
281.431	1282.12
281.662	1203.12
281.894	1219.12
282.125	1290.12
282.356	1367.12
282.588	1415.12
282.819	1254.12
283.051	1400.12
283.282	1717.12
283.513	1984.12
283.745	2224.12
283.976	2205.12
284.207	2051.12
284.439	2082.12
284.67	2060.12
284.901	1806.12
285.132	1961.12
285.364	2064.12
285.595	1916.12
285.826	2032.12
286.057	2105.12
286.288	1987.12
286.52	2045.12
286.751	2144.12
286.982	2195.12
287.213	1846.12
287.444	1779.12
287.675	1902.12
287.906	1867.12
288.138	1585.12
288.369	1380.12
288.6	1318.12
288.831	1370.12
289.062	1571.12
289.293	1726.12
289.524	1608.12
289.755	1648.12
289.986	1670.12
290.217	1424.12
290.448	1134.12
290.679	974.12
290.91	934.12
291.141	935.12
291.371	993.12
291.602	1005.12
291.833	1003.12
292.064	1102.12
292.295	1212.12
292.526	1447.12
292.757	1494.12
292.987	1578.12
293.218	1550.12
293.449	1613.12
293.68	1713.12
293.91	1654.12
294.141	1643.12
294.372	1560.12
294.603	1444.12
294.833	1627.12
295.064	1877.12
295.295	1784.12
295.525	1330.12
295.756	1129.12
295.987	1019.12
296.217	1038.12
296.448	1078.12
296.679	1126.12
296.909	1267.12
297.14	1400.12
297.37	1464.12
297.601	1423.12
297.831	1210.12
298.062	1286.12
298.292	1484.12
298.523	1597.12
298.753	1822.12
298.984	1616.12
299.214	1267.12
299.445	1104.12
299.675	1087.12
299.905	1034.12
300.136	1096.12
300.366	1215.12
300.597	1196.12
300.827	1045.12
301.057	1034.12
301.288	1073.12
301.518	1154.12
301.748	1252.12
301.979	1392.12
302.209	1492.12
302.439	1512.12
302.669	1283.12
302.9	1276.12
303.13	1193.12
303.36	1127.12
303.59	1083.12
303.82	1127.12
304.051	1231.12
304.281	1351.12
304.511	1331.12
304.741	1168.12
304.971	1216.12
305.201	1324.12
305.431	1221.12
305.661	1089.12
305.891	1095.12
306.121	1119.12
306.352	991.12
306.582	878.12
306.812	852.12
307.042	866.12
307.272	844.12
307.502	852.12
307.731	893.12
307.961	953.12
308.191	880.12
308.421	834.12
308.651	800.12
308.881	782.12
309.111	806.12
309.341	838.12
309.571	927.12
309.8	966.12
310.03	930.12
310.26	994.12
310.49	1006.12
310.72	886.12
310.949	878.12
311.179	903.12
311.409	980.12
311.639	1103.12
311.868	1431.12
312.098	1854.12
312.328	1995.12
312.557	1872.12
312.787	1911.12
313.017	1676.12
313.246	1822.12
313.476	1955.12
313.706	1680.12
313.935	1311.12
314.165	1076.12
314.394	975.12
314.624	963.12
314.853	1020.12
315.083	1063.12
315.312	1014.12
315.542	1003.12
315.771	966.12
316.001	864.12
316.23	840.12
316.46	875.12
316.689	875.12
316.919	891.12
317.148	903.12
317.377	868.12
317.607	902.12
317.836	954.12
318.065	1118.12
318.295	1251.12
318.524	1176.12
318.753	1013.12
318.983	954.12
319.212	935.12
319.441	1006.12
319.67	1148.12
319.9	1227.12
320.129	1156.12
320.358	1001.12
320.587	967.12
320.816	1034.12
321.046	1219.12
321.275	1385.12
321.504	1354.12
321.733	1303.12
321.962	1240.12
322.191	1183.12
322.42	1121.12
322.649	1176.12
322.878	1264.12
323.108	1243.12
323.337	1123.12
323.566	1118.12
323.795	1082.12
324.024	1055.12
324.253	1014.12
324.482	1006.12
324.71	1074.12
324.939	1215.12
325.168	1127.12
325.397	940.12
325.626	926.12
325.855	922.12
326.084	941.12
326.313	914.12
326.542	840.12
326.77	896.12
326.999	930.12
327.228	968.12
327.457	1029.12
327.686	1066.12
327.914	900.12
328.143	839.12
328.372	859.12
328.6	849.12
328.829	899.12
329.058	907.12
329.287	896.12
329.515	914.12
329.744	880.12
329.972	852.12
330.201	819.12
330.43	839.12
330.658	950.12
330.887	1095.12
331.115	1047.12
331.344	1030.12
331.572	972.12
331.801	923.12
332.03	860.12
332.258	890.12
332.486	966.12
332.715	1003.12
332.943	926.12
333.172	934.12
333.4	964.12
333.629	1033.12
333.857	1128.12
334.085	1130.12
334.314	1120.12
334.542	1076.12
334.771	974.12
334.999	953.12
335.227	909.12
335.455	939.12
335.684	1042.12
335.912	1203.12
336.14	1338.12
336.369	1258.12
336.597	1249.12
336.825	1438.12
337.053	1555.12
337.281	1253.12
337.51	1009.12
337.738	978.12
337.966	1045.12
338.194	1232.12
338.422	1140.12
338.65	996.12
338.878	901.12
339.106	936.12
339.334	1043.12
339.562	1123.12
339.79	1032.12
340.018	982.12
340.246	1068.12
340.474	1210.12
340.702	1295.12
340.93	1360.12
341.158	1360.12
341.386	1129.12
341.614	1144.12
341.842	1125.12
342.07	1172.12
342.298	1373.12
342.526	1449.12
342.754	1260.12
342.981	1118.12
343.209	1062.12
343.437	1154.12
343.665	1248.12
343.893	1240.12
344.12	1476.12
344.348	1683.12
344.576	1467.12
344.804	1227.12
345.031	1086.12
345.259	997.12
345.487	1016.12
345.714	1038.12
345.942	1112.12
346.17	1235.12
346.397	1179.12
346.625	1008.12
346.853	1008.12
347.08	938.12
347.308	1026.12
347.535	1137.12
347.763	1170.12
347.99	990.12
348.218	985.12
348.445	985.12
348.673	982.12
348.9	996.12
349.128	1078.12
349.355	1103.12
349.583	1064.12
349.81	1045.12
350.037	944.12
350.265	862.12
350.492	829.12
350.72	800.12
350.947	843.12
351.174	934.12
351.402	978.12
351.629	1050.12
351.856	975.12
352.083	912.12
352.311	991.12
352.538	1109.12
352.765	1178.12
352.992	1031.12
353.22	1027.12
353.447	997.12
353.674	981.12
353.901	1000.12
354.128	1008.12
354.355	1033.12
354.583	1014.12
354.81	1003.12
355.037	1062.12
355.264	1046.12
355.491	1088.12
355.718	1231.12
355.945	1152.12
356.172	1117.12
356.399	1117.12
356.626	1367.12
356.853	1694.12
357.08	1812.12
357.307	1842.12
357.534	1415.12
357.761	1464.12
357.988	1856.12
358.215	2150.12
358.441	2024.12
358.668	1673.12
358.895	1556.12
359.122	1278.12
359.349	1255.12
359.576	1360.12
359.802	1119.12
360.029	967.12
360.256	1111.12
360.483	1316.12
360.709	1716.12
360.936	1756.12
361.163	1521.12
361.39	1166.12
361.616	1077.12
361.843	1265.12
362.07	1563.12
362.296	1410.12
362.523	1098.12
362.749	953.12
362.976	1019.12
363.203	1251.12
363.429	1400.12
363.656	1120.12
363.882	1018.12
364.109	1027.12
364.335	1011.12
364.562	991.12
364.788	1148.12
365.015	1351.12
365.241	1218.12
365.468	1007.12
365.694	887.12
365.92	847.12
366.147	807.12
366.373	790.12
366.599	826.12
366.826	815.12
367.052	854.12
367.278	867.12
367.505	842.12
367.731	939.12
367.957	1030.12
368.184	1081.12
368.41	1048.12
368.636	1077.12
368.862	1132.12
369.089	1060.12
369.315	951.12
369.541	930.12
369.767	878.12
369.993	891.12
370.219	883.12
370.445	952.12
370.672	1070.12
370.898	1142.12
371.124	1103.12
371.35	989.12
371.576	912.12
371.802	1029.12
372.028	1193.12
372.254	1391.12
372.48	1166.12
372.706	1074.12
372.932	1144.12
373.158	1178.12
373.384	1434.12
373.61	1914.12
373.835	1975.12
374.061	1440.12
374.287	1220.12
374.513	1490.12
374.739	1699.12
374.965	1795.12
375.191	1726.12
375.416	1210.12
375.642	1061.12
375.868	1252.12
376.094	1428.12
376.319	1202.12
376.545	1342.12
376.771	1409.12
376.997	1174.12
377.222	864.12
377.448	778.12
377.674	754.12
377.899	730.12
378.125	770.12
378.35	776.12
378.576	807.12
378.802	895.12
379.027	937.12
379.253	909.12
379.478	979.12
379.704	1073.12
379.929	1142.12
380.155	1137.12
380.38	950.12
380.606	1048.12
380.831	1117.12
381.057	1063.12
381.282	995.12
381.507	1223.12
381.733	1527.12
381.958	1621.12
382.184	1733.12
382.409	1803.12
382.634	1763.12
382.86	1817.12
383.085	1486.12
383.31	1155.12
383.535	1251.12
383.761	1232.12
383.986	1191.12
384.211	1487.12
384.436	1438.12
384.662	1076.12
384.887	1034.12
385.112	1077.12
385.337	1060.12
385.562	1065.12
385.787	1146.12
386.013	1286.12
386.238	1330.12
386.463	1060.12
386.688	1026.12
386.913	979.12
387.138	958.12
387.363	982.12
387.588	1031.12
387.813	1027.12
388.038	1155.12
388.263	1015.12
388.488	1003.12
388.713	1134.12
388.938	1286.12
389.163	1074.12
389.387	944.12
389.612	936.12
389.837	1003.12
390.062	1008.12
390.287	1039.12
390.512	1042.12
390.736	990.12
390.961	899.12
391.186	903.12
391.411	870.12
391.636	860.12
391.86	942.12
392.085	1047.12
392.31	1020.12
392.534	970.12
392.759	963.12
392.984	1014.12
393.208	1012.12
393.433	883.12
393.658	806.12
393.882	806.12
394.107	798.12
394.331	823.12
394.556	827.12
394.78	868.12
395.005	855.12
395.229	885.12
395.454	896.12
395.678	892.12
395.903	947.12
396.127	883.12
396.352	905.12
396.576	994.12
396.801	1050.12
397.025	1125.12
397.249	1179.12
397.474	960.12
397.698	927.12
397.922	1003.12
398.147	929.12
398.371	932.12
398.595	967.12
398.82	943.12
399.044	970.12
399.268	1022.12
399.492	1083.12
399.717	1088.12
399.941	1129.12
400.165	1067.12
400.389	1057.12
400.613	1092.12
400.837	1016.12
401.062	946.12
401.286	913.12
401.51	929.12
401.734	906.12
401.958	935.12
402.182	916.12
402.406	929.12
402.63	934.12
402.854	955.12
403.078	1095.12
403.302	1372.12
403.526	1379.12
403.75	1220.12
403.974	1066.12
404.198	1155.12
404.422	1270.12
404.645	1476.12
404.869	1643.12
405.093	1210.12
405.317	1024.12
405.541	980.12
405.765	1018.12
405.988	1034.12
406.212	1112.12
406.436	1371.12
406.66	1458.12
406.883	1182.12
407.107	1208.12
407.331	1398.12
407.555	1370.12
407.778	1138.12
408.002	1094.12
408.226	1073.12
408.449	1100.12
408.673	1058.12
408.896	935.12
409.12	907.12
409.344	904.12
409.567	921.12
409.791	902.12
410.014	917.12
410.238	902.12
410.461	909.12
410.685	882.12
410.908	925.12
411.132	913.12
411.355	958.12
411.578	1000.12
411.802	969.12
412.025	984.12
412.249	1020.12
412.472	973.12
412.695	955.12
412.919	987.12
413.142	1003.12
413.365	1070.12
413.589	1106.12
413.812	1002.12
414.035	913.12
414.258	963.12
414.482	1099.12
414.705	1085.12
414.928	903.12
415.151	910.12
415.374	891.12
415.597	954.12
415.821	938.12
416.044	899.12
416.267	873.12
416.49	899.12
416.713	881.12
416.936	871.12
417.159	849.12
417.382	920.12
417.605	903.12
417.828	924.12
418.051	934.12
418.274	950.12
418.497	958.12
418.72	914.12
418.943	1004.12
419.166	1016.12
419.389	1041.12
419.611	1052.12
419.834	1073.12
420.057	1155.12
420.28	1159.12
420.503	1041.12
420.726	950.12
420.948	881.12
421.171	906.12
421.394	888.12
421.617	891.12
421.839	889.12
422.062	952.12
422.285	940.12
422.507	962.12
422.73	974.12
422.953	981.12
423.175	960.12
423.398	942.12
423.621	1010.12
423.843	1100.12
424.066	1026.12
424.288	957.12
424.511	912.12
424.733	910.12
424.956	997.12
425.178	1136.12
425.401	1278.12
425.623	1463.12
425.846	1217.12
426.068	1031.12
426.291	1126.12
426.513	1017.12
426.735	966.12
426.958	984.12
427.18	1208.12
427.402	1608.12
427.625	1547.12
427.847	1260.12
428.069	930.12
428.292	915.12
428.514	923.12
428.736	900.12
428.958	969.12
429.181	1185.12
429.403	1010.12
429.625	898.12
429.847	872.12
430.069	904.12
430.292	896.12
430.514	889.12
430.736	987.12
430.958	1255.12
431.18	1120.12
431.402	867.12
431.624	794.12
431.846	825.12
432.068	783.12
432.29	835.12
432.512	968.12
432.734	1285.12
432.956	1192.12
433.178	898.12
433.4	855.12
433.622	875.12
433.844	900.12
434.066	934.12
434.287	942.12
434.509	904.12
434.731	916.12
434.953	890.12
435.175	942.12
435.397	1041.12
435.618	934.12
435.84	836.12
436.062	850.12
436.284	856.12
436.505	815.12
436.727	802.12
436.949	826.12
437.17	857.12
437.392	889.12
437.614	841.12
437.835	832.12
438.057	866.12
438.278	997.12
438.5	1460.12
438.721	1474.12
438.943	973.12
439.165	822.12
439.386	819.12
439.608	796.12
439.829	802.12
440.05	797.12
440.272	874.12
440.493	1021.12
440.715	1276.12
440.936	1020.12
441.158	872.12
441.379	898.12
441.6	1003.12
441.822	1050.12
442.043	898.12
442.264	889.12
442.486	896.12
442.707	911.12
442.928	881.12
443.149	899.12
443.371	890.12
443.592	947.12
443.813	931.12
444.034	901.12
444.255	907.12
444.476	963.12
444.698	968.12
444.919	961.12
445.14	1071.12
445.361	1022.12
445.582	978.12
445.803	930.12
446.024	950.12
446.245	972.12
446.466	907.12
446.687	885.12
446.908	903.12
447.129	838.12
447.35	841.12
447.571	816.12
447.792	833.12
448.013	802.12
448.234	791.12
448.455	818.12
448.675	806.12
448.896	800.12
449.117	821.12
449.338	836.12
449.559	832.12
449.779	879.12
450	878.12
450.221	840.12
450.442	831.12
450.662	818.12
450.883	820.12
451.104	796.12
451.324	808.12
451.545	835.12
451.766	802.12
451.986	790.12
452.207	784.12
452.428	790.12
452.648	818.12
452.869	816.12
453.089	866.12
453.31	845.12
453.53	770.12
453.751	782.12
453.971	772.12
454.192	788.12
454.412	800.12
454.633	780.12
454.853	784.12
455.073	737.12
455.294	741.12
455.514	755.12
455.734	756.12
455.955	846.12
456.175	846.12
456.395	746.12
456.616	732.12
456.836	718.12
457.056	707.12
457.276	688.12
457.497	726.12
457.717	737.12
457.937	729.12
458.157	737.12
458.377	763.12
458.598	766.12
458.818	768.12
459.038	830.12
459.258	825.12
459.478	845.12
459.698	931.12
459.918	904.12
460.138	883.12
460.358	934.12
460.578	889.12
460.798	924.12
461.018	917.12
461.238	871.12
461.458	866.12
461.678	894.12
461.898	956.12
462.118	942.12
462.338	935.12
462.558	958.12
462.777	995.12
462.997	1024.12
463.217	1031.12
463.437	1063.12
463.657	1008.12
463.876	996.12
464.096	984.12
464.316	964.12
464.536	976.12
464.755	1055.12
464.975	1025.12
465.195	977.12
465.414	1021.12
465.634	971.12
465.854	945.12
466.073	878.12
466.293	864.12
466.512	948.12
466.732	1047.12
466.951	1042.12
467.171	959.12
467.391	881.12
467.61	871.12
467.829	932.12
468.049	962.12
468.268	900.12
468.488	895.12
468.707	945.12
468.927	1086.12
469.146	1176.12
469.365	1065.12
469.585	950.12
469.804	1033.12
470.023	1107.12
470.243	996.12
470.462	968.12
470.681	926.12
470.901	921.12
471.12	1009.12
471.339	988.12
471.558	938.12
471.777	932.12
471.997	1034.12
472.216	1123.12
472.435	1099.12
472.654	991.12
472.873	959.12
473.092	1028.12
473.311	1081.12
473.53	978.12
473.749	936.12
473.968	966.12
474.187	985.12
474.406	971.12
474.625	968.12
474.844	971.12
475.063	1051.12
475.282	1074.12
475.501	1085.12
475.72	1166.12
475.939	1099.12
476.158	1099.12
476.377	1250.12
476.596	1502.12
476.814	1544.12
477.033	1287.12
477.252	1089.12
477.471	1010.12
477.69	1036.12
477.908	1112.12
478.127	1166.12
478.346	1074.12
478.564	1184.12
478.783	1119.12
479.002	1125.12
479.22	1300.12
479.439	1458.12
479.658	1262.12
479.876	1138.12
480.095	1203.12
480.313	1234.12
480.532	1164.12
480.751	1142.12
480.969	1152.12
481.188	1287.12
481.406	1326.12
481.624	1242.12
481.843	1115.12
482.061	1106.12
482.28	1222.12
482.498	1470.12
482.717	1421.12
482.935	1204.12
483.153	1182.12
483.372	1054.12
483.59	1083.12
483.808	1074.12
484.027	1076.12
484.245	1015.12
484.463	1033.12
484.681	1038.12
484.9	1107.12
485.118	1221.12
485.336	1119.12
485.554	1083.12
485.772	1106.12
485.99	1200.12
486.209	1247.12
486.427	1290.12
486.645	1210.12
486.863	1243.12
487.081	1248.12
487.299	1415.12
487.517	1383.12
487.735	1238.12
487.953	1259.12
488.171	1299.12
488.389	1215.12
488.607	1127.12
488.825	1202.12
489.043	1266.12
489.261	1504.12
489.479	1604.12
489.696	1361.12
489.914	1194.12
490.132	1142.12
490.35	1124.12
490.568	1179.12
490.786	1119.12
491.003	1170.12
491.221	1182.12
491.439	1162.12
491.657	1152.12
491.874	1236.12
492.092	1549.12
492.31	1880.12
492.527	1815.12
492.745	1521.12
492.963	1355.12
493.18	1321.12
493.398	1323.12
493.615	1289.12
