Data from NickelSpatula.Lamp.E10.P2_HRD10591_11-57-49-531.txt Node
Date: Tue Jul 23 11:57:49 EDT 2019
User: cochatt
Spectrometer: HR+D1059
Trigger mode: 1
Integration Time (sec): 1.000000E-1
Scans to average: 1
Electric dark correction enabled: true
Nonlinearity correction enabled: false
Boxcar width: 0
XAxis mode: Wavelengths
Number of Pixels in Spectrum: 2048
>>>>>Begin Spectral Data<<<<<
223.165	-5.19
223.4	-5.19
223.635	-5.19
223.869	-17.19
224.104	-10.19
224.338	-5.19
224.573	-29.19
224.808	-15.19
225.042	-21.19
225.277	11.81
225.511	-5.19
225.746	1.81
225.98	-5.19
226.215	-1.19
226.449	23.81
226.683	29.81
226.918	26.81
227.152	20.81
227.387	33.81
227.621	29.81
227.856	30.81
228.09	35.81
228.324	42.81
228.559	51.81
228.793	84.81
229.027	124.81
229.262	158.81
229.496	145.81
229.73	163.81
229.964	171.81
230.199	189.81
230.433	205.81
230.667	191.81
230.901	203.81
231.136	197.81
231.37	196.81
231.604	211.81
231.838	212.81
232.072	248.81
232.306	242.81
232.541	238.81
232.775	252.81
233.009	267.81
233.243	296.81
233.477	299.81
233.711	329.81
233.945	323.81
234.179	319.81
234.413	345.81
234.647	386.81
234.881	436.81
235.115	410.81
235.349	398.81
235.583	329.81
235.817	340.81
236.051	352.81
236.285	398.81
236.519	452.81
236.753	408.81
236.987	439.81
237.221	385.81
237.455	396.81
237.689	401.81
237.922	459.81
238.156	445.81
238.39	526.81
238.624	627.81
238.858	575.81
239.091	462.81
239.325	492.81
239.559	483.81
239.793	537.81
240.027	650.81
240.26	588.81
240.494	544.81
240.728	580.81
240.961	667.81
241.195	622.81
241.429	597.81
241.662	582.81
241.896	515.81
242.13	477.81
242.363	449.81
242.597	445.81
242.83	523.81
243.064	523.81
243.298	571.81
243.531	618.81
243.765	620.81
243.998	612.81
244.232	573.81
244.465	590.81
244.699	564.81
244.932	642.81
245.166	606.81
245.399	542.81
245.633	527.81
245.866	554.81
246.099	590.81
246.333	682.81
246.566	760.81
246.8	742.81
247.033	698.81
247.266	660.81
247.5	656.81
247.733	640.81
247.966	638.81
248.2	656.81
248.433	747.81
248.666	828.81
248.899	818.81
249.133	840.81
249.366	964.81
249.599	1018.81
249.832	932.81
250.066	806.81
250.299	826.81
250.532	760.81
250.765	766.81
250.998	708.81
251.231	691.81
251.465	755.81
251.698	797.81
251.931	754.81
252.164	812.81
252.397	882.81
252.63	1000.81
252.863	1129.81
253.096	1157.81
253.329	1098.81
253.562	1076.81
253.795	1176.81
254.028	1279.81
254.261	1308.81
254.494	1204.81
254.727	1072.81
254.96	1040.81
255.193	1132.81
255.426	1082.81
255.659	833.81
255.892	750.81
256.124	857.81
256.357	966.81
256.59	1164.81
256.823	1098.81
257.056	894.81
257.289	864.81
257.521	941.81
257.754	1082.81
257.987	1217.81
258.22	1071.81
258.452	972.81
258.685	1112.81
258.918	1231.81
259.151	1197.81
259.383	1258.81
259.616	1450.81
259.849	1525.81
260.081	1666.81
260.314	1820.81
260.547	1441.81
260.779	1445.81
261.012	1657.81
261.244	1536.81
261.477	1595.81
261.71	1490.81
261.942	1265.81
262.175	1273.81
262.407	1178.81
262.64	1259.81
262.872	1445.81
263.105	1595.81
263.337	1679.81
263.57	1484.81
263.802	1014.81
264.035	883.81
264.267	864.81
264.499	756.81
264.732	695.81
264.964	666.81
265.197	676.81
265.429	752.81
265.661	783.81
265.894	801.81
266.126	886.81
266.358	1024.81
266.591	1188.81
266.823	1430.81
267.055	1352.81
267.287	1206.81
267.52	1230.81
267.752	1262.81
267.984	1402.81
268.216	1346.81
268.448	1103.81
268.681	1057.81
268.913	1141.81
269.145	1245.81
269.377	1240.81
269.609	1280.81
269.841	1153.81
270.073	1221.81
270.306	1334.81
270.538	1338.81
270.77	1363.81
271.002	1370.81
271.234	1428.81
271.466	1454.81
271.698	1397.81
271.93	1372.81
272.162	1342.81
272.394	1361.81
272.626	1333.81
272.858	1364.81
273.09	1448.81
273.322	1269.81
273.553	1203.81
273.785	1472.81
274.017	1868.81
274.249	2321.81
274.481	2434.81
274.713	2674.81
274.945	3028.81
275.176	3163.81
275.408	2776.81
275.64	2515.81
275.872	2510.81
276.104	2126.81
276.335	1829.81
276.567	1857.81
276.799	1908.81
277.031	2011.81
277.262	1542.81
277.494	1206.81
277.726	1162.81
277.957	1280.81
278.189	1418.81
278.421	1408.81
278.652	1380.81
278.884	1302.81
279.115	1189.81
279.347	1168.81
279.579	1164.81
279.81	1121.81
280.042	1122.81
280.273	1154.81
280.505	1090.81
280.736	985.81
280.968	983.81
281.199	1046.81
281.431	1194.81
281.662	1164.81
281.894	1117.81
282.125	1197.81
282.356	1273.81
282.588	1350.81
282.819	1222.81
283.051	1328.81
283.282	1627.81
283.513	1880.81
283.745	2084.81
283.976	2117.81
284.207	1939.81
284.439	2018.81
284.67	1938.81
284.901	1733.81
285.132	1832.81
285.364	1946.81
285.595	1766.81
285.826	1908.81
286.057	1936.81
286.288	1879.81
286.52	1891.81
286.751	2022.81
286.982	2000.81
287.213	1741.81
287.444	1678.81
287.675	1772.81
287.906	1762.81
288.138	1471.81
288.369	1309.81
288.6	1247.81
288.831	1282.81
289.062	1513.81
289.293	1635.81
289.524	1527.81
289.755	1580.81
289.986	1581.81
290.217	1390.81
290.448	1100.81
290.679	930.81
290.91	874.81
291.141	896.81
291.371	913.81
291.602	941.81
291.833	931.81
292.064	1006.81
292.295	1158.81
292.526	1314.81
292.757	1355.81
292.987	1483.81
293.218	1504.81
293.449	1540.81
293.68	1622.81
293.91	1515.81
294.141	1583.81
294.372	1476.81
294.603	1377.81
294.833	1537.81
295.064	1760.81
295.295	1625.81
295.525	1260.81
295.756	1090.81
295.987	930.81
296.217	977.81
296.448	990.81
296.679	1057.81
296.909	1164.81
297.14	1234.81
297.37	1374.81
297.601	1297.81
297.831	1120.81
298.062	1170.81
298.292	1365.81
298.523	1497.81
298.753	1669.81
298.984	1512.81
299.214	1206.81
299.445	1032.81
299.675	977.81
299.905	955.81
300.136	1011.81
300.366	1102.81
300.597	1110.81
300.827	950.81
301.057	937.81
301.288	956.81
301.518	1037.81
301.748	1180.81
301.979	1253.81
302.209	1329.81
302.439	1376.81
302.669	1152.81
302.9	1166.81
303.13	1128.81
303.36	1054.81
303.59	992.81
303.82	1031.81
304.051	1173.81
304.281	1276.81
304.511	1226.81
304.741	1071.81
304.971	1129.81
305.201	1236.81
305.431	1150.81
305.661	975.81
305.891	976.81
306.121	999.81
306.352	924.81
306.582	841.81
306.812	798.81
307.042	813.81
307.272	780.81
307.502	793.81
307.731	845.81
307.961	864.81
308.191	800.81
308.421	774.81
308.651	793.81
308.881	750.81
309.111	768.81
309.341	811.81
309.571	855.81
309.8	889.81
310.03	890.81
310.26	915.81
310.49	910.81
310.72	833.81
310.949	810.81
311.179	834.81
311.409	896.81
311.639	1048.81
311.868	1337.81
312.098	1683.81
312.328	1839.81
312.557	1772.81
312.787	1814.81
313.017	1599.81
313.246	1710.81
313.476	1884.81
313.706	1538.81
313.935	1217.81
314.165	1030.81
314.394	905.81
314.624	933.81
314.853	971.81
315.083	1018.81
315.312	975.81
315.542	943.81
315.771	903.81
316.001	837.81
316.23	801.81
316.46	842.81
316.689	826.81
316.919	838.81
317.148	875.81
317.377	830.81
317.607	835.81
317.836	925.81
318.065	1045.81
318.295	1157.81
318.524	1095.81
318.753	931.81
318.983	876.81
319.212	878.81
319.441	929.81
319.67	1052.81
319.9	1130.81
320.129	1048.81
320.358	926.81
320.587	886.81
320.816	960.81
321.046	1103.81
321.275	1247.81
321.504	1262.81
321.733	1189.81
321.962	1138.81
322.191	1115.81
322.42	1030.81
322.649	1041.81
322.878	1139.81
323.108	1124.81
323.337	1055.81
323.566	1048.81
323.795	1024.81
324.024	968.81
324.253	916.81
324.482	933.81
324.71	1018.81
324.939	1152.81
325.168	1036.81
325.397	884.81
325.626	857.81
325.855	878.81
326.084	886.81
326.313	864.81
326.542	801.81
326.77	849.81
326.999	850.81
327.228	920.81
327.457	921.81
327.686	960.81
327.914	833.81
328.143	795.81
328.372	789.81
328.6	790.81
328.829	845.81
329.058	835.81
329.287	861.81
329.515	841.81
329.744	834.81
329.972	806.81
330.201	760.81
330.43	784.81
330.658	888.81
330.887	1024.81
331.115	956.81
331.344	958.81
331.572	906.81
331.801	864.81
332.03	818.81
332.258	849.81
332.486	910.81
332.715	947.81
332.943	875.81
333.172	856.81
333.4	888.81
333.629	959.81
333.857	1055.81
334.085	1046.81
334.314	1066.81
334.542	1011.81
334.771	918.81
334.999	907.81
335.227	900.81
335.455	918.81
335.684	984.81
335.912	1152.81
336.14	1268.81
336.369	1206.81
336.597	1141.81
336.825	1306.81
337.053	1462.81
337.281	1170.81
337.51	951.81
337.738	912.81
337.966	1037.81
338.194	1115.81
338.422	1042.81
338.65	916.81
338.878	836.81
339.106	881.81
339.334	954.81
339.562	1050.81
339.79	945.81
340.018	947.81
340.246	986.81
340.474	1131.81
340.702	1194.81
340.93	1244.81
341.158	1221.81
341.386	1055.81
341.614	1051.81
341.842	1039.81
342.07	1079.81
342.298	1272.81
342.526	1313.81
342.754	1101.81
342.981	1043.81
343.209	992.81
343.437	1094.81
343.665	1125.81
343.893	1120.81
344.12	1304.81
344.348	1453.81
344.576	1368.81
344.804	1125.81
345.031	977.81
345.259	951.81
345.487	971.81
345.714	970.81
345.942	1062.81
346.17	1133.81
346.397	1072.81
346.625	945.81
346.853	918.81
347.08	864.81
347.308	952.81
347.535	1049.81
347.763	1068.81
347.99	949.81
348.218	877.81
348.445	917.81
348.673	931.81
348.9	941.81
349.128	992.81
349.355	1036.81
349.583	960.81
349.81	954.81
350.037	870.81
350.265	796.81
350.492	770.81
350.72	746.81
350.947	781.81
351.174	835.81
351.402	890.81
351.629	929.81
351.856	865.81
352.083	875.81
352.311	898.81
352.538	989.81
352.765	1060.81
352.992	965.81
353.22	929.81
353.447	940.81
353.674	904.81
353.901	918.81
354.128	937.81
354.355	964.81
354.583	950.81
354.81	930.81
355.037	942.81
355.264	957.81
355.491	1009.81
355.718	1088.81
355.945	1076.81
356.172	1022.81
356.399	1021.81
356.626	1232.81
356.853	1484.81
357.08	1547.81
357.307	1614.81
357.534	1264.81
357.761	1309.81
357.988	1592.81
358.215	1869.81
358.441	1768.81
358.668	1484.81
358.895	1406.81
359.122	1126.81
359.349	1140.81
359.576	1242.81
359.802	1036.81
360.029	890.81
360.256	966.81
360.483	1149.81
360.709	1467.81
360.936	1545.81
361.163	1309.81
361.39	1018.81
361.616	976.81
361.843	1172.81
362.07	1409.81
362.296	1258.81
362.523	1021.81
362.749	895.81
362.976	920.81
363.203	1128.81
363.429	1246.81
363.656	1004.81
363.882	956.81
364.109	936.81
364.335	950.81
364.562	915.81
364.788	1026.81
365.015	1206.81
365.241	1094.81
365.468	918.81
365.694	817.81
365.92	766.81
366.147	754.81
366.373	725.81
366.599	763.81
366.826	774.81
367.052	775.81
367.278	790.81
367.505	798.81
367.731	856.81
367.957	958.81
368.184	986.81
368.41	948.81
368.636	969.81
368.862	998.81
369.089	938.81
369.315	867.81
369.541	826.81
369.767	825.81
369.993	817.81
370.219	783.81
370.445	881.81
370.672	957.81
370.898	1013.81
371.124	1019.81
371.35	909.81
371.576	853.81
371.802	952.81
372.028	1098.81
372.254	1251.81
372.48	1080.81
372.706	962.81
372.932	1000.81
373.158	1056.81
373.384	1252.81
373.61	1679.81
373.835	1723.81
374.061	1304.81
374.287	1072.81
374.513	1270.81
374.739	1527.81
374.965	1576.81
375.191	1570.81
375.416	1091.81
375.642	978.81
375.868	1140.81
376.094	1241.81
376.319	1084.81
376.545	1208.81
376.771	1242.81
376.997	1093.81
377.222	798.81
377.448	712.81
377.674	729.81
377.899	734.81
378.125	733.81
378.35	724.81
378.576	750.81
378.802	792.81
379.027	895.81
379.253	838.81
379.478	877.81
379.704	989.81
379.929	1020.81
380.155	1014.81
380.38	898.81
380.606	954.81
380.831	1031.81
381.057	979.81
381.282	905.81
381.507	1075.81
381.733	1334.81
381.958	1413.81
382.184	1494.81
382.409	1550.81
382.634	1516.81
382.86	1625.81
383.085	1314.81
383.31	1081.81
383.535	1136.81
383.761	1160.81
383.986	1118.81
384.211	1306.81
384.436	1262.81
384.662	965.81
384.887	924.81
385.112	962.81
385.337	987.81
385.562	924.81
385.787	1031.81
386.013	1148.81
386.238	1158.81
386.463	958.81
386.688	935.81
386.913	894.81
387.138	852.81
387.363	924.81
387.588	932.81
387.813	933.81
388.038	1037.81
388.263	942.81
388.488	899.81
388.713	1032.81
388.938	1136.81
389.163	961.81
389.387	895.81
389.612	892.81
389.837	927.81
390.062	934.81
390.287	949.81
390.512	972.81
390.736	887.81
390.961	853.81
391.186	804.81
391.411	815.81
391.636	824.81
391.86	865.81
392.085	957.81
392.31	929.81
392.534	890.81
392.759	893.81
392.984	910.81
393.208	916.81
393.433	822.81
393.658	794.81
393.882	748.81
394.107	751.81
394.331	773.81
394.556	781.81
394.78	771.81
395.005	804.81
395.229	858.81
395.454	854.81
395.678	857.81
395.903	866.81
396.127	837.81
396.352	861.81
396.576	931.81
396.801	956.81
397.025	1022.81
397.249	1050.81
397.474	876.81
397.698	886.81
397.922	934.81
398.147	892.81
398.371	875.81
398.595	902.81
398.82	902.81
399.044	893.81
399.268	972.81
399.492	1014.81
399.717	1005.81
399.941	1043.81
400.165	997.81
400.389	948.81
400.613	1026.81
400.837	994.81
401.062	874.81
401.286	872.81
401.51	875.81
401.734	880.81
401.958	888.81
402.182	869.81
402.406	874.81
402.63	894.81
402.854	920.81
403.078	1014.81
403.302	1228.81
403.526	1255.81
403.75	1130.81
403.974	1034.81
404.198	1079.81
404.422	1154.81
404.645	1338.81
404.869	1458.81
405.093	1122.81
405.317	972.81
405.541	954.81
405.765	952.81
405.988	984.81
406.212	1045.81
406.436	1228.81
406.66	1311.81
406.883	1096.81
407.107	1084.81
407.331	1304.81
407.555	1240.81
407.778	1053.81
408.002	1008.81
408.226	1033.81
408.449	1010.81
408.673	955.81
408.896	898.81
409.12	872.81
409.344	872.81
409.567	859.81
409.791	861.81
410.014	838.81
410.238	866.81
410.461	883.81
410.685	840.81
410.908	888.81
411.132	921.81
411.355	932.81
411.578	902.81
411.802	929.81
412.025	931.81
412.249	953.81
412.472	914.81
412.695	900.81
412.919	932.81
413.142	957.81
413.365	996.81
413.589	993.81
413.812	898.81
414.035	888.81
414.258	883.81
414.482	1011.81
414.705	1012.81
414.928	866.81
415.151	884.81
415.374	856.81
415.597	898.81
415.821	856.81
416.044	846.81
416.267	856.81
416.49	839.81
416.713	825.81
416.936	825.81
417.159	814.81
417.382	861.81
417.605	888.81
417.828	886.81
418.051	878.81
418.274	888.81
418.497	888.81
418.72	889.81
418.943	923.81
419.166	953.81
419.389	980.81
419.611	956.81
419.834	993.81
420.057	1062.81
420.28	1070.81
420.503	998.81
420.726	865.81
420.948	867.81
421.171	846.81
421.394	848.81
421.617	827.81
421.839	832.81
422.062	907.81
422.285	931.81
422.507	886.81
422.73	905.81
422.953	925.81
423.175	909.81
423.398	890.81
423.621	979.81
423.843	987.81
424.066	958.81
424.288	898.81
424.511	879.81
424.733	886.81
424.956	902.81
425.178	1018.81
425.401	1147.81
425.623	1306.81
425.846	1074.81
426.068	989.81
426.291	1039.81
426.513	990.81
426.735	892.81
426.958	954.81
427.18	1092.81
427.402	1384.81
427.625	1389.81
427.847	1122.81
428.069	861.81
428.292	848.81
428.514	864.81
428.736	857.81
428.958	900.81
429.181	1076.81
429.403	909.81
429.625	865.81
429.847	832.81
430.069	857.81
430.292	878.81
430.514	842.81
430.736	920.81
430.958	1124.81
431.18	1023.81
431.402	788.81
431.624	796.81
431.846	787.81
432.068	740.81
432.29	803.81
432.512	891.81
432.734	1108.81
432.956	1086.81
433.178	863.81
433.4	805.81
433.622	811.81
433.844	864.81
434.066	907.81
434.287	888.81
434.509	851.81
434.731	891.81
434.953	845.81
435.175	884.81
435.397	997.81
435.618	867.81
435.84	824.81
436.062	796.81
436.284	808.81
436.505	788.81
436.727	770.81
436.949	773.81
437.17	798.81
437.392	867.81
437.614	843.81
437.835	797.81
438.057	817.81
438.278	946.81
438.5	1300.81
438.721	1285.81
438.943	890.81
439.165	812.81
439.386	756.81
439.608	775.81
439.829	756.81
440.05	772.81
440.272	849.81
440.493	951.81
440.715	1172.81
440.936	949.81
441.158	828.81
441.379	819.81
441.6	918.81
441.822	989.81
442.043	857.81
442.264	837.81
442.486	833.81
442.707	824.81
442.928	855.81
443.149	853.81
443.371	893.81
443.592	912.81
443.813	897.81
444.034	885.81
444.255	883.81
444.476	907.81
444.698	927.81
444.919	922.81
445.14	1018.81
445.361	979.81
445.582	899.81
445.803	913.81
446.024	903.81
446.245	927.81
446.466	880.81
446.687	836.81
446.908	857.81
447.129	819.81
447.35	760.81
447.571	759.81
447.792	774.81
448.013	754.81
448.234	748.81
448.455	762.81
448.675	784.81
448.896	768.81
449.117	769.81
449.338	773.81
449.559	787.81
449.779	832.81
450	849.81
450.221	817.81
450.442	792.81
450.662	792.81
450.883	790.81
451.104	784.81
451.324	760.81
451.545	775.81
451.766	774.81
451.986	763.81
452.207	740.81
452.428	763.81
452.648	745.81
452.869	765.81
453.089	844.81
453.31	812.81
453.53	747.81
453.751	705.81
453.971	728.81
454.192	765.81
454.412	768.81
454.633	725.81
454.853	714.81
455.073	723.81
455.294	699.81
455.514	724.81
455.734	751.81
455.955	758.81
456.175	793.81
456.395	738.81
456.616	684.81
456.836	684.81
457.056	704.81
457.276	650.81
457.497	688.81
457.717	713.81
457.937	694.81
458.157	705.81
458.377	686.81
458.598	729.81
458.818	744.81
459.038	787.81
459.258	778.81
459.478	808.81
459.698	868.81
459.918	865.81
460.138	822.81
460.358	865.81
460.578	829.81
460.798	860.81
461.018	884.81
461.238	832.81
461.458	812.81
461.678	842.81
461.898	909.81
462.118	901.81
462.338	907.81
462.558	922.81
462.777	961.81
462.997	992.81
463.217	962.81
463.437	984.81
463.657	982.81
463.876	958.81
464.096	915.81
464.316	933.81
464.536	977.81
464.755	996.81
464.975	964.81
465.195	918.81
465.414	959.81
465.634	910.81
465.854	904.81
466.073	851.81
466.293	863.81
466.512	873.81
466.732	984.81
466.951	1012.81
467.171	894.81
467.391	841.81
467.61	844.81
467.829	881.81
468.049	892.81
468.268	846.81
468.488	839.81
468.707	885.81
468.927	1022.81
469.146	1112.81
469.365	987.81
469.585	898.81
469.804	986.81
470.023	1079.81
470.243	938.81
470.462	898.81
470.681	890.81
470.901	880.81
471.12	950.81
471.339	931.81
471.558	886.81
471.777	906.81
471.997	940.81
472.216	1054.81
472.435	1014.81
472.654	969.81
472.873	925.81
473.092	976.81
473.311	1022.81
473.53	913.81
473.749	898.81
473.968	948.81
474.187	919.81
474.406	928.81
474.625	898.81
474.844	915.81
475.063	998.81
475.282	993.81
475.501	1026.81
475.72	1103.81
475.939	1042.81
476.158	1042.81
476.377	1206.81
476.596	1420.81
476.814	1391.81
477.033	1216.81
477.252	1010.81
477.471	982.81
477.69	973.81
477.908	1071.81
478.127	1121.81
478.346	1030.81
478.564	1097.81
478.783	1048.81
479.002	1060.81
479.22	1245.81
479.439	1382.81
479.658	1176.81
479.876	1092.81
480.095	1174.81
480.313	1198.81
480.532	1095.81
480.751	1090.81
480.969	1071.81
481.188	1214.81
481.406	1250.81
481.624	1206.81
481.843	1070.81
482.061	1044.81
482.28	1167.81
482.498	1426.81
482.717	1340.81
482.935	1166.81
483.153	1108.81
483.372	1028.81
483.59	1023.81
483.808	1004.81
484.027	1000.81
484.245	970.81
484.463	953.81
484.681	1001.81
484.9	1083.81
485.118	1154.81
485.336	1059.81
485.554	1025.81
485.772	1047.81
485.99	1122.81
486.209	1230.81
486.427	1174.81
486.645	1157.81
486.863	1205.81
487.081	1184.81
487.299	1330.81
487.517	1265.81
487.735	1168.81
487.953	1201.81
488.171	1202.81
488.389	1158.81
488.607	1110.81
488.825	1144.81
489.043	1207.81
489.261	1372.81
489.479	1475.81
489.696	1213.81
489.914	1157.81
490.132	1076.81
490.35	1076.81
490.568	1112.81
490.786	1089.81
491.003	1072.81
491.221	1124.81
491.439	1119.81
491.657	1083.81
491.874	1202.81
492.092	1415.81
492.31	1654.81
492.527	1677.81
492.745	1470.81
492.963	1298.81
493.18	1264.81
493.398	1283.81
493.615	1262.81
493.833	1211.81
494.05	1209.81
494.268	1203.81
494.485	1179.81
494.703	1173.81
494.92	1198.81
495.138	1169.81
495.355	1176.81
495.573	1198.81
