Data from NickelSpatula.Lamp.E5.5.P2_HRD10591_11-50-51-564.txt Node
Date: Tue Jul 23 11:50:51 EDT 2019
User: cochatt
Spectrometer: HR+D1059
Trigger mode: 1
Integration Time (sec): 1.000000E-1
Scans to average: 1
Electric dark correction enabled: true
Nonlinearity correction enabled: false
Boxcar width: 0
XAxis mode: Wavelengths
Number of Pixels in Spectrum: 2048
>>>>>Begin Spectral Data<<<<<
223.165	-4.81
223.4	-4.81
223.635	-4.81
223.869	-20.81
224.104	-22.81
224.338	-21.81
224.573	-16.81
224.808	-8.81
225.042	-5.81
225.277	-1.81
225.511	0.19
225.746	13.19
225.98	0.19
226.215	7.19
226.449	0.19
226.683	19.19
226.918	25.19
227.152	38.19
227.387	28.19
227.621	29.19
227.856	39.19
228.09	45.19
228.324	57.19
228.559	62.19
228.793	66.19
229.027	81.19
229.262	65.19
229.496	63.19
229.73	69.19
229.964	100.19
230.199	86.19
230.433	94.19
230.667	95.19
230.901	104.19
231.136	96.19
231.37	92.19
231.604	82.19
231.838	94.19
232.072	116.19
232.306	108.19
232.541	101.19
232.775	98.19
233.009	116.19
233.243	113.19
233.477	112.19
233.711	112.19
233.945	120.19
234.179	108.19
234.413	108.19
234.647	118.19
234.881	119.19
235.115	125.19
235.349	119.19
235.583	114.19
235.817	124.19
236.051	116.19
236.285	130.19
236.519	120.19
236.753	114.19
236.987	123.19
237.221	124.19
237.455	121.19
237.689	113.19
237.922	128.19
238.156	118.19
238.39	129.19
238.624	159.19
238.858	142.19
239.091	129.19
239.325	129.19
239.559	114.19
239.793	130.19
240.027	136.19
240.26	130.19
240.494	140.19
240.728	136.19
240.961	144.19
241.195	120.19
241.429	147.19
241.662	116.19
241.896	135.19
242.13	118.19
242.363	135.19
242.597	127.19
242.83	148.19
243.064	130.19
243.298	145.19
243.531	152.19
243.765	145.19
243.998	131.19
244.232	146.19
244.465	148.19
244.699	135.19
244.932	148.19
245.166	148.19
245.399	123.19
245.633	124.19
245.866	145.19
246.099	153.19
246.333	152.19
246.566	184.19
246.8	165.19
247.033	166.19
247.266	149.19
247.5	147.19
247.733	138.19
247.966	156.19
248.2	154.19
248.433	144.19
248.666	157.19
248.899	172.19
249.133	182.19
249.366	186.19
249.599	196.19
249.832	175.19
250.066	165.19
250.299	173.19
250.532	174.19
250.765	163.19
250.998	158.19
251.231	154.19
251.465	158.19
251.698	153.19
251.931	167.19
252.164	185.19
252.397	202.19
252.63	195.19
252.863	202.19
253.096	224.19
253.329	212.19
253.562	211.19
253.795	212.19
254.028	241.19
254.261	240.19
254.494	219.19
254.727	217.19
254.96	219.19
255.193	216.19
255.426	214.19
255.659	180.19
255.892	184.19
256.124	191.19
256.357	205.19
256.59	224.19
256.823	226.19
257.056	206.19
257.289	192.19
257.521	217.19
257.754	213.19
257.987	248.19
258.22	240.19
258.452	200.19
258.685	222.19
258.918	239.19
259.151	242.19
259.383	264.19
259.616	287.19
259.849	284.19
260.081	295.19
260.314	302.19
260.547	263.19
260.779	261.19
261.012	306.19
261.244	288.19
261.477	302.19
261.71	283.19
261.942	218.19
262.175	232.19
262.407	221.19
262.64	212.19
262.872	268.19
263.105	296.19
263.337	306.19
263.57	279.19
263.802	213.19
264.035	196.19
264.267	198.19
264.499	177.19
264.732	167.19
264.964	173.19
265.197	174.19
265.429	176.19
265.661	171.19
265.894	185.19
266.126	191.19
266.358	199.19
266.591	248.19
266.823	276.19
267.055	261.19
267.287	257.19
267.52	249.19
267.752	257.19
267.984	289.19
268.216	259.19
268.448	217.19
268.681	211.19
268.913	239.19
269.145	252.19
269.377	250.19
269.609	272.19
269.841	245.19
270.073	258.19
270.306	270.19
270.538	281.19
270.77	272.19
271.002	267.19
271.234	281.19
271.466	285.19
271.698	264.19
271.93	257.19
272.162	264.19
272.394	246.19
272.626	222.19
272.858	260.19
273.09	257.19
273.322	222.19
273.553	224.19
273.785	255.19
274.017	318.19
274.249	366.19
274.481	380.19
274.713	416.19
274.945	469.19
275.176	468.19
275.408	412.19
275.64	402.19
275.872	415.19
276.104	360.19
276.335	325.19
276.567	338.19
276.799	332.19
277.031	337.19
277.262	288.19
277.494	241.19
277.726	253.19
277.957	229.19
278.189	275.19
278.421	264.19
278.652	256.19
278.884	240.19
279.115	269.19
279.347	225.19
279.579	230.19
279.81	240.19
280.042	254.19
280.273	252.19
280.505	255.19
280.736	214.19
280.968	219.19
281.199	216.19
281.431	249.19
281.662	241.19
281.894	240.19
282.125	242.19
282.356	260.19
282.588	272.19
282.819	238.19
283.051	252.19
283.282	302.19
283.513	343.19
283.745	364.19
283.976	377.19
284.207	340.19
284.439	348.19
284.67	346.19
284.901	316.19
285.132	321.19
285.364	337.19
285.595	319.19
285.826	366.19
286.057	347.19
286.288	345.19
286.52	348.19
286.751	366.19
286.982	366.19
287.213	327.19
287.444	328.19
287.675	321.19
287.906	351.19
288.138	310.19
288.369	276.19
288.6	254.19
288.831	265.19
289.062	305.19
289.293	330.19
289.524	315.19
289.755	312.19
289.986	317.19
290.217	276.19
290.448	240.19
290.679	207.19
290.91	212.19
291.141	213.19
291.371	206.19
291.602	213.19
291.833	206.19
292.064	199.19
292.295	256.19
292.526	273.19
292.757	268.19
292.987	284.19
293.218	290.19
293.449	306.19
293.68	334.19
293.91	324.19
294.141	323.19
294.372	295.19
294.603	268.19
294.833	300.19
295.064	364.19
295.295	345.19
295.525	265.19
295.756	234.19
295.987	216.19
296.217	216.19
296.448	221.19
296.679	207.19
296.909	234.19
297.14	250.19
297.37	285.19
297.601	265.19
297.831	221.19
298.062	253.19
298.292	261.19
298.523	275.19
298.753	320.19
298.984	298.19
299.214	266.19
299.445	225.19
299.675	220.19
299.905	216.19
300.136	201.19
300.366	250.19
300.597	228.19
300.827	231.19
301.057	212.19
301.288	228.19
301.518	228.19
301.748	261.19
301.979	258.19
302.209	267.19
302.439	292.19
302.669	249.19
302.9	238.19
303.13	251.19
303.36	224.19
303.59	218.19
303.82	231.19
304.051	237.19
304.281	263.19
304.511	279.19
304.741	231.19
304.971	244.19
305.201	264.19
305.431	260.19
305.661	229.19
305.891	218.19
306.121	218.19
306.352	205.19
306.582	189.19
306.812	204.19
307.042	188.19
307.272	178.19
307.502	187.19
307.731	187.19
307.961	198.19
308.191	197.19
308.421	187.19
308.651	178.19
308.881	193.19
309.111	173.19
309.341	192.19
309.571	198.19
309.8	209.19
310.03	207.19
310.26	211.19
310.49	192.19
310.72	196.19
310.949	199.19
311.179	184.19
311.409	212.19
311.639	209.19
311.868	262.19
312.098	320.19
312.328	330.19
312.557	328.19
312.787	352.19
313.017	324.19
313.246	336.19
313.476	337.19
313.706	272.19
313.935	247.19
314.165	236.19
314.394	218.19
314.624	193.19
314.853	194.19
315.083	223.19
315.312	232.19
315.542	207.19
315.771	200.19
316.001	186.19
316.23	182.19
316.46	168.19
316.689	194.19
316.919	191.19
317.148	201.19
317.377	190.19
317.607	191.19
317.836	196.19
318.065	217.19
318.295	257.19
318.524	231.19
318.753	218.19
318.983	197.19
319.212	204.19
319.441	206.19
319.67	238.19
319.9	231.19
320.129	214.19
320.358	206.19
320.587	205.19
320.816	206.19
321.046	231.19
321.275	256.19
321.504	225.19
321.733	254.19
321.962	229.19
322.191	224.19
322.42	205.19
322.649	238.19
322.878	257.19
323.108	248.19
323.337	237.19
323.566	232.19
323.795	236.19
324.024	202.19
324.253	213.19
324.482	192.19
324.71	229.19
324.939	233.19
325.168	231.19
325.397	213.19
325.626	193.19
325.855	203.19
326.084	202.19
326.313	194.19
326.542	191.19
326.77	202.19
326.999	198.19
327.228	226.19
327.457	233.19
327.686	204.19
327.914	207.19
328.143	198.19
328.372	192.19
328.6	200.19
328.829	190.19
329.058	204.19
329.287	179.19
329.515	188.19
329.744	215.19
329.972	193.19
330.201	165.19
330.43	180.19
330.658	204.19
330.887	204.19
331.115	209.19
331.344	230.19
331.572	216.19
331.801	202.19
332.03	196.19
332.258	209.19
332.486	212.19
332.715	235.19
332.943	212.19
333.172	210.19
333.4	213.19
333.629	228.19
333.857	243.19
334.085	245.19
334.314	234.19
334.542	236.19
334.771	214.19
334.999	221.19
335.227	216.19
335.455	224.19
335.684	226.19
335.912	259.19
336.14	244.19
336.369	253.19
336.597	238.19
336.825	264.19
337.053	295.19
337.281	245.19
337.51	214.19
337.738	225.19
337.966	217.19
338.194	240.19
338.422	210.19
338.65	226.19
338.878	214.19
339.106	217.19
339.334	217.19
339.562	211.19
339.79	203.19
340.018	207.19
340.246	208.19
340.474	247.19
340.702	237.19
340.93	260.19
341.158	277.19
341.386	228.19
341.614	224.19
341.842	228.19
342.07	231.19
342.298	232.19
342.526	273.19
342.754	234.19
342.981	241.19
343.209	231.19
343.437	236.19
343.665	254.19
343.893	264.19
344.12	276.19
344.348	309.19
344.576	304.19
344.804	253.19
345.031	225.19
345.259	192.19
345.487	223.19
345.714	205.19
345.942	223.19
346.17	249.19
346.397	229.19
346.625	212.19
346.853	202.19
347.08	191.19
347.308	212.19
347.535	240.19
347.763	244.19
347.99	232.19
348.218	204.19
348.445	208.19
348.673	207.19
348.9	222.19
349.128	219.19
349.355	230.19
349.583	224.19
349.81	217.19
350.037	223.19
350.265	185.19
350.492	193.19
350.72	192.19
350.947	205.19
351.174	195.19
351.402	208.19
351.629	206.19
351.856	210.19
352.083	178.19
352.311	205.19
352.538	226.19
352.765	233.19
352.992	231.19
353.22	205.19
353.447	223.19
353.674	209.19
353.901	204.19
354.128	206.19
354.355	232.19
354.583	212.19
354.81	238.19
355.037	238.19
355.264	213.19
355.491	206.19
355.718	229.19
355.945	225.19
356.172	208.19
356.399	220.19
356.626	247.19
356.853	303.19
357.08	331.19
357.307	334.19
357.534	261.19
357.761	290.19
357.988	350.19
358.215	390.19
358.441	345.19
358.668	286.19
358.895	289.19
359.122	256.19
359.349	262.19
359.576	290.19
359.802	247.19
360.029	194.19
360.256	219.19
360.483	266.19
360.709	308.19
360.936	306.19
361.163	297.19
361.39	212.19
361.616	218.19
361.843	245.19
362.07	272.19
362.296	245.19
362.523	220.19
362.749	206.19
362.976	213.19
363.203	260.19
363.429	270.19
363.656	216.19
363.882	212.19
364.109	210.19
364.335	211.19
364.562	201.19
364.788	223.19
365.015	258.19
365.241	226.19
365.468	215.19
365.694	190.19
365.92	186.19
366.147	180.19
366.373	180.19
366.599	198.19
366.826	182.19
367.052	181.19
367.278	184.19
367.505	202.19
367.731	190.19
367.957	208.19
368.184	203.19
368.41	215.19
368.636	210.19
368.862	201.19
369.089	227.19
369.315	204.19
369.541	208.19
369.767	200.19
369.993	197.19
370.219	198.19
370.445	203.19
370.672	211.19
370.898	214.19
371.124	220.19
371.35	214.19
371.576	192.19
371.802	200.19
372.028	252.19
372.254	272.19
372.48	246.19
372.706	232.19
372.932	254.19
373.158	243.19
373.384	264.19
373.61	327.19
373.835	353.19
374.061	270.19
374.287	232.19
374.513	285.19
374.739	313.19
374.965	330.19
375.191	319.19
375.416	253.19
375.642	235.19
375.868	252.19
376.094	276.19
376.319	250.19
376.545	257.19
376.771	281.19
376.997	241.19
377.222	202.19
377.448	174.19
377.674	186.19
377.899	184.19
378.125	195.19
378.35	199.19
378.576	191.19
378.802	190.19
379.027	228.19
379.253	207.19
379.478	230.19
379.704	216.19
379.929	242.19
380.155	232.19
380.38	208.19
380.606	210.19
380.831	223.19
381.057	231.19
381.282	225.19
381.507	238.19
381.733	286.19
381.958	313.19
382.184	316.19
382.409	308.19
382.634	328.19
382.86	350.19
383.085	275.19
383.31	244.19
383.535	267.19
383.761	282.19
383.986	243.19
384.211	290.19
384.436	282.19
384.662	219.19
384.887	236.19
385.112	232.19
385.337	240.19
385.562	216.19
385.787	256.19
386.013	262.19
386.238	272.19
386.463	238.19
386.688	240.19
386.913	223.19
387.138	210.19
387.363	230.19
387.588	243.19
387.813	228.19
388.038	236.19
388.263	261.19
388.488	230.19
388.713	253.19
388.938	254.19
389.163	239.19
389.387	212.19
389.612	228.19
389.837	222.19
390.062	215.19
390.287	231.19
390.512	231.19
390.736	229.19
390.961	210.19
391.186	213.19
391.411	201.19
391.636	218.19
391.86	229.19
392.085	232.19
392.31	243.19
392.534	211.19
392.759	224.19
392.984	238.19
393.208	222.19
393.433	216.19
393.658	199.19
393.882	201.19
394.107	202.19
394.331	202.19
394.556	197.19
394.78	220.19
395.005	206.19
395.229	218.19
395.454	199.19
395.678	210.19
395.903	210.19
396.127	219.19
396.352	213.19
396.576	230.19
396.801	233.19
397.025	236.19
397.249	277.19
397.474	233.19
397.698	206.19
397.922	221.19
398.147	216.19
398.371	212.19
398.595	236.19
398.82	233.19
399.044	234.19
399.268	245.19
399.492	274.19
399.717	287.19
399.941	293.19
400.165	276.19
400.389	243.19
400.613	225.19
400.837	238.19
401.062	210.19
401.286	215.19
401.51	218.19
401.734	205.19
401.958	244.19
402.182	227.19
402.406	227.19
402.63	238.19
402.854	241.19
403.078	278.19
403.302	354.19
403.526	353.19
403.75	340.19
403.974	266.19
404.198	287.19
404.422	308.19
404.645	312.19
404.869	326.19
405.093	272.19
405.317	262.19
405.541	264.19
405.765	278.19
405.988	271.19
406.212	272.19
406.436	294.19
406.66	311.19
406.883	265.19
407.107	273.19
407.331	306.19
407.555	306.19
407.778	272.19
408.002	266.19
408.226	274.19
408.449	262.19
408.673	241.19
408.896	256.19
409.12	234.19
409.344	243.19
409.567	242.19
409.791	249.19
410.014	246.19
410.238	241.19
410.461	217.19
410.685	236.19
410.908	233.19
411.132	234.19
411.355	242.19
411.578	240.19
411.802	241.19
412.025	224.19
412.249	242.19
412.472	233.19
412.695	239.19
412.919	224.19
413.142	218.19
413.365	259.19
413.589	239.19
413.812	241.19
414.035	210.19
414.258	226.19
414.482	255.19
414.705	272.19
414.928	244.19
415.151	217.19
415.374	249.19
415.597	214.19
415.821	221.19
416.044	232.19
416.267	219.19
416.49	221.19
416.713	224.19
416.936	213.19
417.159	215.19
417.382	210.19
417.605	233.19
417.828	231.19
418.051	236.19
418.274	223.19
418.497	228.19
418.72	243.19
418.943	256.19
419.166	245.19
419.389	255.19
419.611	248.19
419.834	233.19
420.057	274.19
420.28	256.19
420.503	257.19
420.726	232.19
420.948	218.19
421.171	219.19
421.394	237.19
421.617	221.19
421.839	225.19
422.062	228.19
422.285	249.19
422.507	243.19
422.73	233.19
422.953	229.19
423.175	228.19
423.398	249.19
423.621	243.19
423.843	251.19
424.066	242.19
424.288	248.19
424.511	236.19
424.733	251.19
424.956	255.19
425.178	254.19
425.401	313.19
425.623	351.19
425.846	289.19
426.068	273.19
426.291	263.19
426.513	260.19
426.735	239.19
426.958	248.19
427.18	273.19
427.402	306.19
427.625	349.19
427.847	297.19
428.069	211.19
428.292	229.19
428.514	233.19
428.736	258.19
428.958	252.19
429.181	296.19
429.403	253.19
429.625	214.19
429.847	216.19
430.069	207.19
430.292	224.19
430.514	205.19
430.736	225.19
430.958	256.19
431.18	254.19
431.402	212.19
431.624	198.19
431.846	212.19
432.068	225.19
432.29	199.19
432.512	230.19
432.734	260.19
432.956	246.19
433.178	217.19
433.4	204.19
433.622	216.19
433.844	234.19
434.066	233.19
434.287	239.19
434.509	231.19
434.731	243.19
434.953	239.19
435.175	246.19
435.397	265.19
435.618	238.19
435.84	217.19
436.062	199.19
436.284	233.19
436.505	206.19
436.727	220.19
436.949	222.19
437.17	214.19
437.392	217.19
437.614	226.19
437.835	198.19
438.057	214.19
438.278	227.19
438.5	285.19
438.721	289.19
438.943	234.19
439.165	194.19
439.386	202.19
439.608	213.19
439.829	200.19
440.05	197.19
440.272	214.19
440.493	254.19
440.715	269.19
440.936	248.19
441.158	226.19
441.379	197.19
441.6	252.19
441.822	254.19
442.043	232.19
442.264	230.19
442.486	230.19
442.707	228.19
442.928	228.19
443.149	229.19
443.371	238.19
443.592	228.19
443.813	226.19
444.034	227.19
444.255	244.19
444.476	243.19
444.698	261.19
444.919	267.19
445.14	351.19
445.361	291.19
445.582	264.19
445.803	224.19
446.024	225.19
446.245	221.19
446.466	240.19
446.687	229.19
446.908	220.19
447.129	216.19
447.35	212.19
447.571	206.19
447.792	206.19
448.013	208.19
448.234	200.19
448.455	189.19
448.675	194.19
448.896	192.19
449.117	196.19
449.338	213.19
449.559	214.19
449.779	218.19
450	219.19
450.221	212.19
450.442	197.19
450.662	224.19
450.883	220.19
451.104	201.19
451.324	191.19
451.545	208.19
451.766	203.19
451.986	212.19
452.207	201.19
452.428	201.19
452.648	199.19
452.869	215.19
453.089	223.19
453.31	206.19
453.53	190.19
453.751	192.19
453.971	206.19
454.192	207.19
454.412	225.19
454.633	209.19
454.853	221.19
455.073	199.19
455.294	192.19
455.514	206.19
455.734	215.19
455.955	225.19
456.175	212.19
456.395	195.19
456.616	198.19
456.836	184.19
457.056	197.19
457.276	182.19
457.497	186.19
457.717	180.19
457.937	194.19
458.157	192.19
458.377	208.19
458.598	176.19
458.818	202.19
459.038	216.19
459.258	215.19
459.478	223.19
459.698	229.19
459.918	241.19
460.138	224.19
460.358	256.19
460.578	223.19
460.798	237.19
461.018	232.19
461.238	231.19
461.458	219.19
461.678	230.19
461.898	251.19
462.118	245.19
462.338	240.19
462.558	259.19
462.777	258.19
462.997	273.19
463.217	302.19
463.437	291.19
463.657	265.19
463.876	261.19
464.096	266.19
464.316	250.19
464.536	270.19
464.755	274.19
464.975	277.19
465.195	253.19
465.414	251.19
465.634	261.19
465.854	240.19
466.073	215.19
466.293	225.19
466.512	242.19
466.732	242.19
466.951	238.19
467.171	229.19
467.391	235.19
467.61	208.19
467.829	229.19
468.049	225.19
468.268	213.19
468.488	219.19
468.707	221.19
468.927	221.19
469.146	270.19
469.365	229.19
469.585	226.19
469.804	216.19
470.023	241.19
470.243	246.19
470.462	231.19
470.681	222.19
470.901	226.19
471.12	230.19
471.339	225.19
471.558	229.19
471.777	213.19
471.997	225.19
472.216	241.19
472.435	241.19
472.654	215.19
472.873	229.19
473.092	234.19
473.311	233.19
473.53	212.19
473.749	225.19
473.968	231.19
474.187	215.19
474.406	222.19
474.625	212.19
474.844	220.19
475.063	238.19
475.282	244.19
475.501	246.19
475.72	271.19
475.939	248.19
476.158	243.19
476.377	259.19
476.596	296.19
476.814	315.19
477.033	276.19
477.252	240.19
477.471	218.19
477.69	235.19
477.908	243.19
478.127	253.19
478.346	230.19
478.564	270.19
478.783	262.19
479.002	266.19
479.22	300.19
479.439	312.19
479.658	264.19
479.876	250.19
480.095	261.19
480.313	272.19
480.532	278.19
480.751	251.19
480.969	264.19
481.188	268.19
481.406	276.19
481.624	258.19
481.843	246.19
482.061	262.19
482.28	271.19
482.498	292.19
482.717	298.19
482.935	266.19
483.153	268.19
483.372	245.19
483.59	234.19
483.808	256.19
484.027	232.19
484.245	236.19
484.463	231.19
484.681	248.19
484.9	233.19
485.118	265.19
485.336	248.19
485.554	241.19
485.772	252.19
485.99	289.19
486.209	288.19
486.427	280.19
486.645	263.19
486.863	271.19
487.081	276.19
487.299	280.19
487.517	283.19
487.735	261.19
487.953	260.19
488.171	269.19
488.389	250.19
488.607	270.19
488.825	263.19
489.043	269.19
489.261	296.19
489.479	309.19
489.696	272.19
489.914	248.19
490.132	246.19
490.35	250.19
490.568	254.19
490.786	248.19
491.003	273.19
491.221	254.19
491.439	239.19
491.657	254.19
491.874	258.19
492.092	294.19
492.31	345.19
492.527	339.19
492.745	304.19
492.963	270.19
493.18	271.19
493.398	286.19
493.615	291.19
493.833	300.19
494.05	280.19
494.268	281.19
494.485	256.19
494.703	264.19
494.92	270.19
495.138	272.19
495.355	261.19
495.573	273.19
495.79	282.19
496.008	322.19
496.225	305.19
496.442	271.19
496.66	294.19
496.877	306.19
497.094	289.19
497.312	283.19
497.529	290.19
497.746	288.19
497.963	301.19
498.181	299.19
498.398	303.19
498.615	336.19
498.832	365.19
499.049	346.19
499.267	357.19
499.484	385.19
499.701	417.19
499.918	436.19
500.135	493.19
500.352	548.19
500.569	558.19
500.786	560.19
501.003	513.19
501.22	494.19
501.437	419.19
501.654	387.19
501.871	362.19
502.088	361.19
502.305	335.19
502.522	333.19
