Data from NickelSpatula_HRD10591_16-35-16-125.txt Node
Date: Mon Jul 22 16:35:16 EDT 2019
User: cochatt
Spectrometer: HR+D1059
Trigger mode: 1
Integration Time (sec): 1.000000E-1
Scans to average: 1
Electric dark correction enabled: true
Nonlinearity correction enabled: false
Boxcar width: 0
XAxis mode: Wavelengths
Number of Pixels in Spectrum: 2048
>>>>>Begin Spectral Data<<<<<
223.165	-19.31
223.4	-19.31
223.635	-19.31
223.869	-30.31
224.104	-19.31
224.338	-28.31
224.573	-16.31
224.808	-5.31
225.042	-10.31
225.277	-1.31
225.511	13.69
225.746	8.69
225.98	14.69
226.215	15.69
226.449	8.69
226.683	23.69
226.918	18.69
227.152	26.69
227.387	16.69
227.621	47.69
227.856	46.69
228.09	40.69
228.324	52.69
228.559	36.69
228.793	67.69
229.027	74.69
229.262	67.69
229.496	81.69
229.73	82.69
229.964	60.69
230.199	83.69
230.433	86.69
230.667	76.69
230.901	89.69
231.136	93.69
231.37	101.69
231.604	108.69
231.838	99.69
232.072	119.69
232.306	100.69
232.541	87.69
232.775	87.69
233.009	114.69
233.243	132.69
233.477	125.69
233.711	116.69
233.945	101.69
234.179	108.69
234.413	112.69
234.647	121.69
234.881	121.69
235.115	135.69
235.349	131.69
235.583	128.69
235.817	121.69
236.051	122.69
236.285	116.69
236.519	130.69
236.753	128.69
236.987	125.69
237.221	124.69
237.455	125.69
237.689	132.69
237.922	121.69
238.156	114.69
238.39	146.69
238.624	169.69
238.858	154.69
239.091	131.69
239.325	126.69
239.559	120.69
239.793	140.69
240.027	171.69
240.26	145.69
240.494	155.69
240.728	162.69
240.961	162.69
241.195	162.69
241.429	170.69
241.662	180.69
241.896	146.69
242.13	135.69
242.363	117.69
242.597	126.69
242.83	140.69
243.064	163.69
243.298	158.69
243.531	157.69
243.765	167.69
243.998	152.69
244.232	140.69
244.465	159.69
244.699	156.69
244.932	175.69
245.166	169.69
245.399	149.69
245.633	128.69
245.866	142.69
246.099	157.69
246.333	176.69
246.566	178.69
246.8	174.69
247.033	191.69
247.266	159.69
247.5	172.69
247.733	173.69
247.966	157.69
248.2	151.69
248.433	180.69
248.666	180.69
248.899	190.69
249.133	177.69
249.366	204.69
249.599	245.69
249.832	215.69
250.066	184.69
250.299	189.69
250.532	190.69
250.765	186.69
250.998	170.69
251.231	167.69
251.465	179.69
251.698	185.69
251.931	176.69
252.164	187.69
252.397	209.69
252.63	244.69
252.863	255.69
253.096	271.69
253.329	257.69
253.562	231.69
253.795	267.69
254.028	297.69
254.261	293.69
254.494	273.69
254.727	235.69
254.96	256.69
255.193	270.69
255.426	248.69
255.659	207.69
255.892	171.69
256.124	185.69
256.357	225.69
256.59	239.69
256.823	231.69
257.056	206.69
257.289	198.69
257.521	193.69
257.754	233.69
257.987	271.69
258.22	226.69
258.452	206.69
258.685	228.69
258.918	277.69
259.151	256.69
259.383	276.69
259.616	306.69
259.849	307.69
260.081	322.69
260.314	363.69
260.547	307.69
260.779	305.69
261.012	346.69
261.244	319.69
261.477	327.69
261.71	274.69
261.942	268.69
262.175	283.69
262.407	249.69
262.64	281.69
262.872	322.69
263.105	327.69
263.337	338.69
263.57	311.69
263.802	213.69
264.035	203.69
264.267	204.69
264.499	184.69
264.732	164.69
264.964	165.69
265.197	172.69
265.429	199.69
265.661	197.69
265.894	191.69
266.126	199.69
266.358	216.69
266.591	249.69
266.823	301.69
267.055	298.69
267.287	282.69
267.52	254.69
267.752	284.69
267.984	304.69
268.216	281.69
268.448	238.69
268.681	230.69
268.913	270.69
269.145	273.69
269.377	257.69
269.609	261.69
269.841	267.69
270.073	249.69
270.306	296.69
270.538	293.69
270.77	307.69
271.002	302.69
271.234	319.69
271.466	304.69
271.698	290.69
271.93	282.69
272.162	281.69
272.394	282.69
272.626	280.69
272.858	297.69
273.09	288.69
273.322	272.69
273.553	269.69
273.785	274.69
274.017	375.69
274.249	451.69
274.481	452.69
274.713	469.69
274.945	533.69
275.176	573.69
275.408	511.69
275.64	465.69
275.872	445.69
276.104	423.69
276.335	351.69
276.567	346.69
276.799	365.69
277.031	388.69
277.262	309.69
277.494	252.69
277.726	226.69
277.957	247.69
278.189	293.69
278.421	286.69
278.652	279.69
278.884	271.69
279.115	250.69
279.347	234.69
279.579	272.69
279.81	245.69
280.042	238.69
280.273	277.69
280.505	239.69
280.736	218.69
280.968	206.69
281.199	228.69
281.431	256.69
281.662	258.69
281.894	246.69
282.125	233.69
282.356	262.69
282.588	283.69
282.819	242.69
283.051	285.69
283.282	334.69
283.513	335.69
283.745	375.69
283.976	394.69
284.207	352.69
284.439	391.69
284.67	368.69
284.901	336.69
285.132	368.69
285.364	380.69
285.595	346.69
285.826	364.69
286.057	375.69
286.288	359.69
286.52	372.69
286.751	402.69
286.982	388.69
287.213	358.69
287.444	336.69
287.675	352.69
287.906	351.69
288.138	320.69
288.369	270.69
288.6	257.69
288.831	277.69
289.062	320.69
289.293	306.69
289.524	323.69
289.755	286.69
289.986	323.69
290.217	278.69
290.448	233.69
290.679	200.69
290.91	185.69
291.141	216.69
291.371	202.69
291.602	203.69
291.833	212.69
292.064	219.69
292.295	245.69
292.526	272.69
292.757	276.69
292.987	295.69
293.218	296.69
293.449	320.69
293.68	312.69
293.91	317.69
294.141	334.69
294.372	282.69
294.603	262.69
294.833	305.69
295.064	350.69
295.295	332.69
295.525	269.69
295.756	242.69
295.987	193.69
296.217	211.69
296.448	213.69
296.679	236.69
296.909	243.69
297.14	252.69
297.37	270.69
297.601	267.69
297.831	225.69
298.062	248.69
298.292	266.69
298.523	296.69
298.753	328.69
298.984	302.69
299.214	252.69
299.445	232.69
299.675	207.69
299.905	209.69
300.136	209.69
300.366	230.69
300.597	229.69
300.827	201.69
301.057	206.69
301.288	223.69
301.518	232.69
301.748	260.69
301.979	272.69
302.209	258.69
302.439	256.69
302.669	231.69
302.9	237.69
303.13	245.69
303.36	223.69
303.59	215.69
303.82	222.69
304.051	241.69
304.281	263.69
304.511	254.69
304.741	223.69
304.971	220.69
305.201	253.69
305.431	228.69
305.661	219.69
305.891	195.69
306.121	205.69
306.352	210.69
306.582	195.69
306.812	180.69
307.042	164.69
307.272	175.69
307.502	169.69
307.731	200.69
307.961	197.69
308.191	181.69
308.421	179.69
308.651	191.69
308.881	175.69
309.111	163.69
309.341	180.69
309.571	192.69
309.8	202.69
310.03	193.69
310.26	210.69
310.49	202.69
310.72	183.69
310.949	186.69
311.179	188.69
311.409	186.69
311.639	217.69
311.868	245.69
312.098	326.69
312.328	343.69
312.557	319.69
312.787	348.69
313.017	313.69
313.246	326.69
313.476	329.69
313.706	280.69
313.935	243.69
314.165	229.69
314.394	198.69
314.624	182.69
314.853	196.69
315.083	201.69
315.312	206.69
315.542	206.69
315.771	185.69
316.001	189.69
316.23	181.69
316.46	174.69
316.689	182.69
316.919	191.69
317.148	181.69
317.377	174.69
317.607	194.69
317.836	181.69
318.065	198.69
318.295	240.69
318.524	214.69
318.753	200.69
318.983	188.69
319.212	188.69
319.441	196.69
319.67	214.69
319.9	225.69
320.129	229.69
320.358	187.69
320.587	182.69
320.816	198.69
321.046	225.69
321.275	245.69
321.504	258.69
321.733	256.69
321.962	244.69
322.191	228.69
322.42	206.69
322.649	215.69
322.878	228.69
323.108	243.69
323.337	226.69
323.566	207.69
323.795	219.69
324.024	198.69
324.253	200.69
324.482	197.69
324.71	222.69
324.939	240.69
325.168	208.69
325.397	192.69
325.626	197.69
325.855	193.69
326.084	200.69
326.313	194.69
326.542	172.69
326.77	180.69
326.999	185.69
327.228	189.69
327.457	198.69
327.686	193.69
327.914	172.69
328.143	166.69
328.372	165.69
328.6	178.69
328.829	180.69
329.058	165.69
329.287	182.69
329.515	199.69
329.744	182.69
329.972	174.69
330.201	164.69
330.43	174.69
330.658	182.69
330.887	220.69
331.115	197.69
331.344	195.69
331.572	198.69
331.801	190.69
332.03	176.69
332.258	190.69
332.486	181.69
332.715	201.69
332.943	183.69
333.172	169.69
333.4	180.69
333.629	201.69
333.857	221.69
334.085	208.69
334.314	205.69
334.542	211.69
334.771	205.69
334.999	190.69
335.227	189.69
335.455	177.69
335.684	198.69
335.912	209.69
336.14	248.69
336.369	229.69
336.597	235.69
336.825	239.69
337.053	294.69
337.281	236.69
337.51	177.69
337.738	190.69
337.966	208.69
338.194	207.69
338.422	221.69
338.65	187.69
338.878	177.69
339.106	172.69
339.334	201.69
339.562	211.69
339.79	202.69
340.018	184.69
340.246	207.69
340.474	208.69
340.702	238.69
340.93	232.69
341.158	251.69
341.386	214.69
341.614	216.69
341.842	214.69
342.07	209.69
342.298	258.69
342.526	258.69
342.754	230.69
342.981	207.69
343.209	204.69
343.437	213.69
343.665	233.69
343.893	222.69
344.12	254.69
344.348	276.69
344.576	266.69
344.804	220.69
345.031	204.69
345.259	192.69
345.487	201.69
345.714	190.69
345.942	210.69
346.17	236.69
346.397	217.69
346.625	183.69
346.853	195.69
347.08	195.69
347.308	190.69
347.535	213.69
347.763	231.69
347.99	216.69
348.218	185.69
348.445	202.69
348.673	180.69
348.9	192.69
349.128	194.69
349.355	205.69
349.583	215.69
349.81	197.69
350.037	177.69
350.265	170.69
350.492	162.69
350.72	162.69
350.947	177.69
351.174	162.69
351.402	173.69
351.629	178.69
351.856	189.69
352.083	177.69
352.311	195.69
352.538	203.69
352.765	221.69
352.992	195.69
353.22	200.69
353.447	195.69
353.674	192.69
353.901	194.69
354.128	183.69
354.355	209.69
354.583	207.69
354.81	221.69
355.037	220.69
355.264	208.69
355.491	208.69
355.718	229.69
355.945	230.69
356.172	223.69
356.399	191.69
356.626	246.69
356.853	290.69
357.08	300.69
357.307	307.69
357.534	243.69
357.761	254.69
357.988	288.69
358.215	368.69
358.441	335.69
358.668	308.69
358.895	283.69
359.122	248.69
359.349	220.69
359.576	257.69
359.802	206.69
360.029	196.69
360.256	198.69
360.483	230.69
360.709	296.69
360.936	302.69
361.163	279.69
361.39	216.69
361.616	209.69
361.843	241.69
362.07	269.69
362.296	238.69
362.523	220.69
362.749	188.69
362.976	183.69
363.203	229.69
363.429	231.69
363.656	207.69
363.882	201.69
364.109	199.69
364.335	205.69
364.562	192.69
364.788	218.69
365.015	227.69
365.241	234.69
365.468	197.69
365.694	167.69
365.92	156.69
366.147	189.69
366.373	164.69
366.599	165.69
366.826	151.69
367.052	164.69
367.278	169.69
367.505	174.69
367.731	175.69
367.957	200.69
368.184	192.69
368.41	201.69
368.636	197.69
368.862	208.69
369.089	204.69
369.315	181.69
369.541	186.69
369.767	167.69
369.993	162.69
370.219	186.69
370.445	184.69
370.672	192.69
370.898	207.69
371.124	214.69
371.35	179.69
371.576	168.69
371.802	182.69
372.028	206.69
372.254	229.69
372.48	223.69
372.706	213.69
372.932	214.69
373.158	199.69
373.384	219.69
373.61	289.69
373.835	310.69
374.061	261.69
374.287	232.69
374.513	277.69
374.739	302.69
374.965	297.69
375.191	274.69
375.416	229.69
375.642	205.69
375.868	226.69
376.094	250.69
376.319	213.69
376.545	233.69
376.771	237.69
376.997	221.69
377.222	172.69
377.448	161.69
377.674	147.69
377.899	156.69
378.125	162.69
378.35	159.69
378.576	161.69
378.802	184.69
379.027	189.69
379.253	178.69
379.478	183.69
379.704	207.69
379.929	229.69
380.155	203.69
380.38	206.69
380.606	206.69
380.831	217.69
381.057	235.69
381.282	195.69
381.507	230.69
381.733	264.69
381.958	269.69
382.184	288.69
382.409	308.69
382.634	292.69
382.86	307.69
383.085	243.69
383.31	215.69
383.535	214.69
383.761	243.69
383.986	229.69
384.211	280.69
384.436	258.69
384.662	202.69
384.887	206.69
385.112	221.69
385.337	228.69
385.562	202.69
385.787	229.69
386.013	238.69
386.238	256.69
386.463	187.69
386.688	202.69
386.913	215.69
387.138	169.69
387.363	190.69
387.588	200.69
387.813	199.69
388.038	210.69
388.263	196.69
388.488	194.69
388.713	236.69
388.938	238.69
389.163	196.69
389.387	176.69
389.612	192.69
389.837	196.69
390.062	214.69
390.287	186.69
390.512	208.69
390.736	193.69
390.961	165.69
391.186	181.69
391.411	169.69
391.636	183.69
391.86	194.69
392.085	200.69
392.31	199.69
392.534	202.69
392.759	196.69
392.984	209.69
393.208	201.69
393.433	170.69
393.658	172.69
393.882	168.69
394.107	152.69
394.331	182.69
394.556	171.69
394.78	176.69
395.005	171.69
395.229	190.69
395.454	189.69
395.678	189.69
395.903	184.69
396.127	196.69
396.352	189.69
396.576	210.69
396.801	222.69
397.025	223.69
397.249	236.69
397.474	194.69
397.698	167.69
397.922	214.69
398.147	178.69
398.371	188.69
398.595	219.69
398.82	199.69
399.044	194.69
399.268	201.69
399.492	209.69
399.717	233.69
399.941	224.69
400.165	219.69
400.389	209.69
400.613	215.69
400.837	192.69
401.062	205.69
401.286	178.69
401.51	179.69
401.734	169.69
401.958	201.69
402.182	192.69
402.406	188.69
402.63	192.69
402.854	210.69
403.078	228.69
403.302	276.69
403.526	274.69
403.75	261.69
403.974	225.69
404.198	225.69
404.422	240.69
404.645	252.69
404.869	278.69
405.093	231.69
405.317	206.69
405.541	215.69
405.765	213.69
405.988	216.69
406.212	221.69
406.436	249.69
406.66	283.69
406.883	234.69
407.107	250.69
407.331	261.69
407.555	250.69
407.778	202.69
408.002	225.69
408.226	217.69
408.449	228.69
408.673	200.69
408.896	197.69
409.12	195.69
409.344	192.69
409.567	202.69
409.791	188.69
410.014	206.69
410.238	191.69
410.461	188.69
410.685	188.69
410.908	191.69
411.132	201.69
411.355	197.69
411.578	197.69
411.802	190.69
412.025	194.69
412.249	225.69
412.472	210.69
412.695	198.69
412.919	188.69
413.142	201.69
413.365	205.69
413.589	227.69
413.812	193.69
414.035	201.69
414.258	203.69
414.482	213.69
414.705	214.69
414.928	193.69
415.151	193.69
415.374	197.69
415.597	196.69
415.821	193.69
416.044	195.69
416.267	177.69
416.49	187.69
416.713	188.69
416.936	192.69
417.159	185.69
417.382	188.69
417.605	196.69
417.828	194.69
418.051	200.69
418.274	202.69
418.497	189.69
418.72	191.69
418.943	209.69
419.166	198.69
419.389	180.69
419.611	204.69
419.834	211.69
420.057	217.69
420.28	218.69
420.503	200.69
420.726	182.69
420.948	173.69
421.171	162.69
421.394	194.69
421.617	179.69
421.839	176.69
422.062	177.69
422.285	185.69
422.507	192.69
422.73	195.69
422.953	191.69
423.175	210.69
423.398	202.69
423.621	215.69
423.843	215.69
424.066	224.69
424.288	208.69
424.511	191.69
424.733	185.69
424.956	214.69
425.178	213.69
425.401	260.69
425.623	283.69
425.846	248.69
426.068	215.69
426.291	248.69
426.513	207.69
426.735	206.69
426.958	191.69
427.18	241.69
427.402	281.69
427.625	298.69
427.847	256.69
428.069	181.69
428.292	183.69
428.514	186.69
428.736	189.69
428.958	199.69
429.181	217.69
429.403	215.69
429.625	195.69
429.847	188.69
430.069	183.69
430.292	177.69
430.514	184.69
430.736	210.69
430.958	236.69
431.18	217.69
431.402	164.69
431.624	173.69
431.846	179.69
432.068	160.69
432.29	191.69
432.512	204.69
432.734	226.69
432.956	209.69
433.178	192.69
433.4	160.69
433.622	192.69
433.844	200.69
434.066	222.69
434.287	201.69
434.509	182.69
434.731	219.69
434.953	197.69
435.175	202.69
435.397	229.69
435.618	200.69
435.84	197.69
436.062	176.69
436.284	185.69
436.505	184.69
436.727	169.69
436.949	182.69
437.17	191.69
437.392	175.69
437.614	197.69
437.835	165.69
438.057	175.69
438.278	206.69
438.5	256.69
438.721	242.69
438.943	193.69
439.165	172.69
439.386	167.69
439.608	165.69
439.829	159.69
440.05	174.69
440.272	185.69
440.493	211.69
440.715	234.69
440.936	196.69
441.158	184.69
441.379	182.69
441.6	216.69
441.822	225.69
442.043	198.69
442.264	182.69
442.486	193.69
442.707	194.69
442.928	186.69
443.149	185.69
443.371	196.69
443.592	206.69
443.813	190.69
444.034	199.69
444.255	180.69
444.476	216.69
444.698	202.69
444.919	201.69
445.14	335.69
445.361	275.69
445.582	213.69
445.803	206.69
446.024	196.69
446.245	199.69
446.466	184.69
446.687	201.69
446.908	185.69
447.129	174.69
447.35	175.69
447.571	159.69
447.792	182.69
448.013	200.69
448.234	164.69
448.455	169.69
448.675	157.69
448.896	180.69
449.117	179.69
449.338	175.69
449.559	183.69
449.779	189.69
450	183.69
450.221	172.69
450.442	179.69
450.662	194.69
450.883	182.69
451.104	168.69
451.324	195.69
451.545	180.69
451.766	170.69
451.986	160.69
452.207	172.69
452.428	186.69
452.648	177.69
452.869	177.69
453.089	184.69
453.31	188.69
453.53	172.69
453.751	169.69
453.971	158.69
454.192	173.69
454.412	174.69
454.633	157.69
454.853	175.69
455.073	174.69
455.294	167.69
455.514	164.69
455.734	170.69
455.955	168.69
456.175	183.69
456.395	167.69
456.616	178.69
456.836	164.69
457.056	159.69
457.276	163.69
457.497	168.69
457.717	168.69
457.937	165.69
458.157	179.69
458.377	171.69
458.598	155.69
458.818	174.69
459.038	184.69
459.258	184.69
459.478	189.69
459.698	197.69
459.918	194.69
460.138	196.69
460.358	205.69
460.578	193.69
460.798	188.69
461.018	189.69
461.238	177.69
461.458	203.69
461.678	201.69
461.898	213.69
462.118	194.69
462.338	196.69
462.558	201.69
462.777	203.69
462.997	234.69
463.217	202.69
463.437	206.69
463.657	221.69
463.876	211.69
464.096	210.69
464.316	185.69
464.536	203.69
464.755	209.69
464.975	220.69
465.195	209.69
465.414	216.69
465.634	209.69
465.854	185.69
466.073	188.69
466.293	190.69
466.512	190.69
466.732	201.69
466.951	235.69
467.171	206.69
467.391	190.69
467.61	190.69
467.829	208.69
468.049	209.69
468.268	185.69
468.488	188.69
468.707	184.69
468.927	223.69
469.146	229.69
469.365	203.69
469.585	196.69
469.804	209.69
470.023	221.69
470.243	201.69
470.462	210.69
470.681	175.69
470.901	187.69
471.12	200.69
471.339	209.69
471.558	197.69
471.777	191.69
471.997	207.69
472.216	221.69
472.435	223.69
472.654	205.69
472.873	215.69
473.092	213.69
473.311	219.69
473.53	213.69
473.749	189.69
473.968	220.69
474.187	194.69
474.406	180.69
474.625	202.69
474.844	200.69
475.063	209.69
475.282	199.69
475.501	218.69
475.72	246.69
475.939	221.69
476.158	217.69
476.377	268.69
476.596	286.69
476.814	294.69
477.033	253.69
477.252	226.69
477.471	196.69
477.69	195.69
477.908	198.69
478.127	240.69
478.346	219.69
478.564	249.69
478.783	233.69
479.002	221.69
479.22	247.69
479.439	264.69
479.658	257.69
479.876	212.69
480.095	233.69
480.313	242.69
480.532	221.69
480.751	238.69
480.969	229.69
481.188	254.69
481.406	244.69
481.624	240.69
481.843	223.69
482.061	212.69
482.28	242.69
482.498	290.69
482.717	289.69
482.935	219.69
483.153	234.69
483.372	210.69
483.59	202.69
483.808	208.69
484.027	216.69
484.245	204.69
484.463	192.69
484.681	197.69
484.9	212.69
485.118	234.69
485.336	231.69
485.554	196.69
485.772	205.69
485.99	228.69
486.209	241.69
486.427	259.69
486.645	226.69
486.863	238.69
487.081	232.69
487.299	265.69
487.517	275.69
487.735	222.69
487.953	232.69
488.171	245.69
488.389	230.69
488.607	226.69
488.825	237.69
489.043	241.69
489.261	289.69
489.479	303.69
489.696	245.69
489.914	214.69
490.132	209.69
490.35	205.69
490.568	215.69
490.786	233.69
491.003	216.69
491.221	217.69
491.439	220.69
491.657	210.69
491.874	248.69
492.092	280.69
492.31	349.69
492.527	320.69
492.745	283.69
492.963	238.69
493.18	249.69
493.398	246.69
493.615	245.69
493.833	227.69
494.05	244.69
494.268	226.69
494.485	257.69
494.703	231.69
494.92	231.69
495.138	224.69
495.355	216.69
495.573	241.69
495.79	246.69
496.008	364.69
496.225	290.69
496.442	247.69
496.66	257.69
496.877	259.69
497.094	272.69
497.312	268.69
497.529	261.69
497.746	238.69
497.963	260.69
498.181	262.69
498.398	301.69
498.615	312.69
498.832	325.69
499.049	317.69
499.267	274.69
499.484	295.69
499.701	300.69
499.918	344.69
500.135	376.69
500.352	368.69
500.569	411.69
500.786	402.69
501.003	392.69
501.22	375.69
501.437	327.69
501.654	331.69
501.871	300.69
502.088	304.69
502.305	293.69
502.522	292.69
502.739	296.69
