Data from NickelSpatula.Lamp.E10.P2_HRD10591_11-57-58-530.txt Node
Date: Tue Jul 23 11:57:58 EDT 2019
User: cochatt
Spectrometer: HR+D1059
Trigger mode: 1
Integration Time (sec): 1.000000E-1
Scans to average: 1
Electric dark correction enabled: true
Nonlinearity correction enabled: false
Boxcar width: 0
XAxis mode: Wavelengths
Number of Pixels in Spectrum: 2048
>>>>>Begin Spectral Data<<<<<
223.165	-15.69
223.4	-15.69
223.635	-15.69
223.869	-21.69
224.104	-26.69
224.338	-21.69
224.573	-18.69
224.808	-18.69
225.042	-10.69
225.277	-6.69
225.511	4.31
225.746	7.31
225.98	10.31
226.215	8.31
226.449	12.31
226.683	30.31
226.918	25.31
227.152	42.31
227.387	24.31
227.621	30.31
227.856	37.31
228.09	46.31
228.324	48.31
228.559	63.31
228.793	77.31
229.027	155.31
229.262	150.31
229.496	154.31
229.73	141.31
229.964	188.31
230.199	207.31
230.433	204.31
230.667	211.31
230.901	196.31
231.136	199.31
231.37	211.31
231.604	217.31
231.838	237.31
232.072	250.31
232.306	259.31
232.541	247.31
232.775	238.31
233.009	260.31
233.243	302.31
233.477	318.31
233.711	346.31
233.945	322.31
234.179	339.31
234.413	329.31
234.647	409.31
234.881	446.31
235.115	440.31
235.349	400.31
235.583	362.31
235.817	334.31
236.051	364.31
236.285	414.31
236.519	486.31
236.753	419.31
236.987	414.31
237.221	395.31
237.455	408.31
237.689	445.31
237.922	458.31
238.156	458.31
238.39	564.31
238.624	671.31
238.858	605.31
239.091	480.31
239.325	508.31
239.559	485.31
239.793	530.31
240.027	668.31
240.26	590.31
240.494	581.31
240.728	591.31
240.961	710.31
241.195	636.31
241.429	612.31
241.662	608.31
241.896	518.31
242.13	484.31
242.363	450.31
242.597	476.31
242.83	533.31
243.064	524.31
243.298	586.31
243.531	627.31
243.765	632.31
243.998	627.31
244.232	599.31
244.465	583.31
244.699	580.31
244.932	651.31
245.166	615.31
245.399	545.31
245.633	531.31
245.866	568.31
246.099	620.31
246.333	707.31
246.566	785.31
246.8	776.31
247.033	726.31
247.266	709.31
247.5	699.31
247.733	687.31
247.966	651.31
248.2	686.31
248.433	765.31
248.666	848.31
248.899	830.31
249.133	863.31
249.366	987.31
249.599	1040.31
249.832	901.31
250.066	799.31
250.299	848.31
250.532	852.31
250.765	810.31
250.998	746.31
251.231	701.31
251.465	774.31
251.698	824.31
251.931	820.31
252.164	838.31
252.397	937.31
252.63	1066.31
252.863	1185.31
253.096	1206.31
253.329	1146.31
253.562	1077.31
253.795	1217.31
254.028	1330.31
254.261	1399.31
254.494	1233.31
254.727	1143.31
254.96	1109.31
255.193	1184.31
255.426	1138.31
255.659	845.31
255.892	798.31
256.124	844.31
256.357	995.31
256.59	1159.31
256.823	1115.31
257.056	948.31
257.289	910.31
257.521	970.31
257.754	1143.31
257.987	1274.31
258.22	1114.31
258.452	1011.31
258.685	1182.31
258.918	1277.31
259.151	1245.31
259.383	1314.31
259.616	1491.31
259.849	1558.31
260.081	1701.31
260.314	1912.31
260.547	1475.31
260.779	1450.31
261.012	1708.31
261.244	1612.31
261.477	1650.31
261.71	1536.31
261.942	1292.31
262.175	1276.31
262.407	1190.31
262.64	1242.31
262.872	1509.31
263.105	1644.31
263.337	1710.31
263.57	1531.31
263.802	1032.31
264.035	879.31
264.267	846.31
264.499	742.31
264.732	686.31
264.964	670.31
265.197	694.31
265.429	755.31
265.661	834.31
265.894	855.31
266.126	900.31
266.358	1035.31
266.591	1233.31
266.823	1495.31
267.055	1394.31
267.287	1235.31
267.52	1231.31
267.752	1320.31
267.984	1400.31
268.216	1380.31
268.448	1117.31
268.681	1091.31
268.913	1177.31
269.145	1257.31
269.377	1286.31
269.609	1301.31
269.841	1224.31
270.073	1284.31
270.306	1355.31
270.538	1343.31
270.77	1408.31
271.002	1409.31
271.234	1444.31
271.466	1485.31
271.698	1450.31
271.93	1410.31
272.162	1416.31
272.394	1404.31
272.626	1368.31
272.858	1452.31
273.09	1479.31
273.322	1280.31
273.553	1266.31
273.785	1510.31
274.017	1972.31
274.249	2427.31
274.481	2495.31
274.713	2719.31
274.945	3183.31
275.176	3261.31
275.408	2804.31
275.64	2634.31
275.872	2618.31
276.104	2210.31
276.335	1926.31
276.567	1893.31
276.799	1956.31
277.031	2076.31
277.262	1584.31
277.494	1203.31
277.726	1205.31
277.957	1269.31
278.189	1478.31
278.421	1468.31
278.652	1405.31
278.884	1372.31
279.115	1264.31
279.347	1183.31
279.579	1228.31
279.81	1202.31
280.042	1171.31
280.273	1282.31
280.505	1134.31
280.736	1002.31
280.968	1026.31
281.199	1107.31
281.431	1259.31
281.662	1220.31
281.894	1161.31
282.125	1232.31
282.356	1318.31
282.588	1351.31
282.819	1250.31
283.051	1364.31
283.282	1685.31
283.513	1938.31
283.745	2167.31
283.976	2169.31
284.207	2002.31
284.439	2068.31
284.67	1982.31
284.901	1794.31
285.132	1929.31
285.364	1975.31
285.595	1854.31
285.826	1942.31
286.057	2009.31
286.288	1936.31
286.52	2044.31
286.751	2130.31
286.982	2072.31
287.213	1757.31
287.444	1713.31
287.675	1798.31
287.906	1808.31
288.138	1509.31
288.369	1377.31
288.6	1258.31
288.831	1304.31
289.062	1549.31
289.293	1657.31
289.524	1618.31
289.755	1590.31
289.986	1598.31
290.217	1404.31
290.448	1089.31
290.679	970.31
290.91	908.31
291.141	915.31
291.371	957.31
291.602	966.31
291.833	982.31
292.064	1070.31
292.295	1194.31
292.526	1356.31
292.757	1413.31
292.987	1532.31
293.218	1541.31
293.449	1594.31
293.68	1649.31
293.91	1573.31
294.141	1632.31
294.372	1526.31
294.603	1419.31
294.833	1562.31
295.064	1838.31
295.295	1672.31
295.525	1284.31
295.756	1136.31
295.987	987.31
296.217	987.31
296.448	997.31
296.679	1078.31
296.909	1207.31
297.14	1270.31
297.37	1410.31
297.601	1366.31
297.831	1152.31
298.062	1229.31
298.292	1408.31
298.523	1558.31
298.753	1730.31
298.984	1562.31
299.214	1211.31
299.445	1044.31
299.675	1007.31
299.905	1021.31
300.136	1061.31
300.366	1150.31
300.597	1146.31
300.827	998.31
301.057	952.31
301.288	1007.31
301.518	1052.31
301.748	1197.31
301.979	1301.31
302.209	1407.31
302.439	1396.31
302.669	1216.31
302.9	1192.31
303.13	1131.31
303.36	1086.31
303.59	1046.31
303.82	1088.31
304.051	1200.31
304.281	1322.31
304.511	1245.31
304.741	1131.31
304.971	1174.31
305.201	1278.31
305.431	1212.31
305.661	1029.31
305.891	1054.31
306.121	1047.31
306.352	947.31
306.582	867.31
306.812	824.31
307.042	839.31
307.272	803.31
307.502	820.31
307.731	879.31
307.961	908.31
308.191	839.31
308.421	806.31
308.651	784.31
308.881	760.31
309.111	742.31
309.341	798.31
309.571	876.31
309.8	903.31
310.03	899.31
310.26	976.31
310.49	920.31
310.72	853.31
310.949	850.31
311.179	868.31
311.409	906.31
311.639	1070.31
311.868	1376.31
312.098	1739.31
312.328	1924.31
312.557	1824.31
312.787	1859.31
313.017	1655.31
313.246	1813.31
313.476	1950.31
313.706	1614.31
313.935	1283.31
314.165	1054.31
314.394	961.31
314.624	948.31
314.853	989.31
315.083	1014.31
315.312	984.31
315.542	1005.31
315.771	925.31
316.001	848.31
316.23	790.31
316.46	827.31
316.689	833.31
316.919	888.31
317.148	877.31
317.377	869.31
317.607	896.31
317.836	949.31
318.065	1071.31
318.295	1181.31
318.524	1103.31
318.753	974.31
318.983	907.31
319.212	918.31
319.441	982.31
319.67	1086.31
319.9	1183.31
320.129	1095.31
320.358	982.31
320.587	921.31
320.816	988.31
321.046	1172.31
321.275	1308.31
321.504	1280.31
321.733	1234.31
321.962	1182.31
322.191	1102.31
322.42	1102.31
322.649	1084.31
322.878	1166.31
323.108	1156.31
323.337	1086.31
323.566	1058.31
323.795	1043.31
324.024	979.31
324.253	979.31
324.482	964.31
324.71	1055.31
324.939	1148.31
325.168	1102.31
325.397	894.31
325.626	866.31
325.855	890.31
326.084	910.31
326.313	859.31
326.542	824.31
326.77	876.31
326.999	864.31
327.228	956.31
327.457	978.31
327.686	996.31
327.914	877.31
328.143	848.31
328.372	825.31
328.6	828.31
328.829	876.31
329.058	898.31
329.287	866.31
329.515	905.31
329.744	857.31
329.972	780.31
330.201	779.31
330.43	840.31
330.658	926.31
330.887	1036.31
331.115	979.31
331.344	985.31
331.572	962.31
331.801	882.31
332.03	826.31
332.258	856.31
332.486	946.31
332.715	950.31
332.943	901.31
333.172	886.31
333.4	912.31
333.629	1015.31
333.857	1096.31
334.085	1064.31
334.314	1076.31
334.542	1052.31
334.771	957.31
334.999	935.31
335.227	917.31
335.455	931.31
335.684	1022.31
335.912	1186.31
336.14	1274.31
336.369	1258.31
336.597	1198.31
336.825	1352.31
337.053	1496.31
337.281	1219.31
337.51	959.31
337.738	950.31
337.966	1043.31
338.194	1168.31
338.422	1099.31
338.65	938.31
338.878	867.31
339.106	894.31
339.334	1007.31
339.562	1086.31
339.79	991.31
340.018	970.31
340.246	1024.31
340.474	1166.31
340.702	1247.31
340.93	1312.31
341.158	1295.31
341.386	1113.31
341.614	1083.31
341.842	1080.31
342.07	1165.31
342.298	1310.31
342.526	1347.31
342.754	1154.31
342.981	1083.31
343.209	1035.31
343.437	1086.31
343.665	1174.31
343.893	1154.31
344.12	1394.31
344.348	1567.31
344.576	1414.31
344.804	1183.31
345.031	995.31
345.259	962.31
345.487	971.31
345.714	1020.31
345.942	1079.31
346.17	1167.31
346.397	1120.31
346.625	991.31
346.853	915.31
347.08	919.31
347.308	970.31
347.535	1127.31
347.763	1123.31
347.99	993.31
348.218	901.31
348.445	956.31
348.673	986.31
348.9	958.31
349.128	1027.31
349.355	1081.31
349.583	1022.31
349.81	972.31
350.037	917.31
350.265	837.31
350.492	786.31
350.72	784.31
350.947	829.31
351.174	860.31
351.402	929.31
351.629	963.31
351.856	917.31
352.083	858.31
352.311	954.31
352.538	1024.31
352.765	1120.31
352.992	1017.31
353.22	970.31
353.447	964.31
353.674	932.31
353.901	926.31
354.128	946.31
354.355	965.31
354.583	953.31
354.81	956.31
355.037	993.31
355.264	980.31
355.491	1070.31
355.718	1144.31
355.945	1102.31
356.172	1046.31
356.399	1058.31
356.626	1287.31
356.853	1552.31
357.08	1676.31
357.307	1703.31
357.534	1321.31
357.761	1346.31
357.988	1678.31
358.215	1974.31
358.441	1882.31
358.668	1539.31
358.895	1420.31
359.122	1180.31
359.349	1183.31
359.576	1267.31
359.802	1086.31
360.029	947.31
360.256	1015.31
360.483	1233.31
360.709	1565.31
360.936	1636.31
361.163	1393.31
361.39	1083.31
361.616	998.31
361.843	1147.31
362.07	1459.31
362.296	1356.31
362.523	1027.31
362.749	900.31
362.976	950.31
363.203	1179.31
363.429	1301.31
363.656	1054.31
363.882	1002.31
364.109	995.31
364.335	970.31
364.562	942.31
364.788	1105.31
365.015	1258.31
365.241	1103.31
365.468	934.31
365.694	835.31
365.92	791.31
366.147	779.31
366.373	760.31
366.599	783.31
366.826	779.31
367.052	834.31
367.278	806.31
367.505	793.31
367.731	867.31
367.957	986.31
368.184	1014.31
368.41	996.31
368.636	1008.31
368.862	1019.31
369.089	1009.31
369.315	886.31
369.541	895.31
369.767	884.31
369.993	855.31
370.219	840.31
370.445	872.31
370.672	974.31
370.898	1031.31
371.124	1050.31
371.35	935.31
371.576	881.31
371.802	956.31
372.028	1148.31
372.254	1300.31
372.48	1092.31
372.706	998.31
372.932	1035.31
373.158	1086.31
373.384	1333.31
373.61	1730.31
373.835	1770.31
374.061	1365.31
374.287	1154.31
374.513	1340.31
374.739	1588.31
374.965	1708.31
375.191	1601.31
375.416	1136.31
375.642	992.31
375.868	1183.31
376.094	1297.31
376.319	1133.31
376.545	1233.31
376.771	1290.31
376.997	1124.31
377.222	828.31
377.448	745.31
377.674	733.31
377.899	746.31
378.125	735.31
378.35	750.31
378.576	764.31
378.802	826.31
379.027	904.31
379.253	886.31
379.478	902.31
379.704	1025.31
379.929	1053.31
380.155	1040.31
380.38	934.31
380.606	986.31
380.831	1058.31
381.057	1015.31
381.282	935.31
381.507	1146.31
381.733	1420.31
381.958	1479.31
382.184	1587.31
382.409	1661.31
382.634	1571.31
382.86	1725.31
383.085	1377.31
383.31	1104.31
383.535	1166.31
383.761	1214.31
383.986	1120.31
384.211	1356.31
384.436	1279.31
384.662	1024.31
384.887	955.31
385.112	985.31
385.337	998.31
385.562	960.31
385.787	1070.31
386.013	1203.31
386.238	1229.31
386.463	968.31
386.688	936.31
386.913	916.31
387.138	878.31
387.363	922.31
387.588	948.31
387.813	947.31
388.038	1057.31
388.263	961.31
388.488	935.31
388.713	1071.31
388.938	1184.31
389.163	979.31
389.387	892.31
389.612	898.31
389.837	915.31
390.062	943.31
390.287	1006.31
390.512	1012.31
390.736	928.31
390.961	864.31
391.186	836.31
391.411	827.31
391.636	828.31
391.86	909.31
392.085	998.31
392.31	1003.31
392.534	954.31
392.759	919.31
392.984	950.31
393.208	951.31
393.433	856.31
393.658	785.31
393.882	773.31
394.107	786.31
394.331	780.31
394.556	798.31
394.78	775.31
395.005	806.31
395.229	882.31
395.454	849.31
395.678	861.31
395.903	916.31
396.127	848.31
396.352	846.31
396.576	971.31
396.801	984.31
397.025	1096.31
397.249	1130.31
397.474	932.31
397.698	916.31
397.922	958.31
398.147	890.31
398.371	874.31
398.595	945.31
398.82	919.31
399.044	945.31
399.268	999.31
399.492	1025.31
399.717	1021.31
399.941	1079.31
400.165	1037.31
400.389	1009.31
400.613	1035.31
400.837	1005.31
401.062	914.31
401.286	876.31
401.51	886.31
401.734	881.31
401.958	914.31
402.182	900.31
402.406	896.31
402.63	892.31
402.854	927.31
403.078	1077.31
403.302	1271.31
403.526	1311.31
403.75	1166.31
403.974	1050.31
404.198	1064.31
404.422	1209.31
404.645	1402.31
404.869	1548.31
405.093	1167.31
405.317	990.31
405.541	986.31
405.765	1009.31
405.988	980.31
406.212	1112.31
406.436	1253.31
406.66	1381.31
406.883	1132.31
407.107	1156.31
407.331	1350.31
407.555	1242.31
407.778	1079.31
408.002	1044.31
408.226	1056.31
408.449	1047.31
408.673	1041.31
408.896	922.31
409.12	916.31
409.344	881.31
409.567	905.31
409.791	905.31
410.014	877.31
410.238	867.31
410.461	867.31
410.685	861.31
410.908	877.31
411.132	916.31
411.355	961.31
411.578	949.31
411.802	927.31
412.025	963.31
412.249	944.31
412.472	923.31
412.695	946.31
412.919	956.31
413.142	959.31
413.365	1023.31
413.589	1054.31
413.812	942.31
414.035	907.31
414.258	909.31
414.482	1001.31
414.705	1043.31
414.928	893.31
415.151	884.31
415.374	875.31
415.597	902.31
415.821	904.31
416.044	874.31
416.267	851.31
416.49	858.31
416.713	840.31
416.936	835.31
417.159	866.31
417.382	885.31
417.605	896.31
417.828	916.31
418.051	904.31
418.274	942.31
418.497	914.31
418.72	908.31
418.943	961.31
419.166	960.31
419.389	1041.31
419.611	984.31
419.834	1040.31
420.057	1072.31
420.28	1083.31
420.503	1002.31
420.726	914.31
420.948	867.31
421.171	866.31
421.394	874.31
421.617	854.31
421.839	909.31
422.062	928.31
422.285	932.31
422.507	913.31
422.73	939.31
422.953	980.31
423.175	947.31
423.398	927.31
423.621	1011.31
423.843	1058.31
424.066	986.31
424.288	929.31
424.511	908.31
424.733	909.31
424.956	974.31
425.178	1061.31
425.401	1183.31
425.623	1367.31
425.846	1132.31
426.068	1012.31
426.291	1119.31
426.513	1011.31
426.735	966.31
426.958	990.31
427.18	1130.31
427.402	1452.31
427.625	1444.31
427.847	1156.31
428.069	922.31
428.292	894.31
428.514	857.31
428.736	858.31
428.958	943.31
429.181	1104.31
429.403	948.31
429.625	894.31
429.847	872.31
430.069	880.31
430.292	914.31
430.514	862.31
430.736	933.31
430.958	1141.31
431.18	1068.31
431.402	833.31
431.624	810.31
431.846	781.31
432.068	759.31
432.29	798.31
432.512	932.31
432.734	1194.31
432.956	1142.31
433.178	854.31
433.4	838.31
433.622	848.31
433.844	885.31
434.066	902.31
434.287	893.31
434.509	878.31
434.731	915.31
434.953	883.31
435.175	910.31
435.397	1016.31
435.618	889.31
435.84	830.31
436.062	818.31
436.284	845.31
436.505	783.31
436.727	784.31
436.949	812.31
437.17	868.31
437.392	842.31
437.614	811.31
437.835	807.31
438.057	838.31
438.278	954.31
438.5	1351.31
438.721	1320.31
438.943	889.31
439.165	788.31
439.386	790.31
439.608	750.31
439.829	756.31
440.05	798.31
440.272	836.31
440.493	991.31
440.715	1198.31
440.936	981.31
441.158	858.31
441.379	869.31
441.6	967.31
441.822	997.31
442.043	852.31
442.264	860.31
442.486	859.31
442.707	855.31
442.928	870.31
443.149	876.31
443.371	867.31
443.592	934.31
443.813	896.31
444.034	886.31
444.255	910.31
444.476	917.31
444.698	937.31
444.919	928.31
445.14	1039.31
445.361	1012.31
445.582	925.31
445.803	924.31
446.024	910.31
446.245	925.31
446.466	896.31
446.687	873.31
446.908	866.31
447.129	841.31
447.35	797.31
447.571	794.31
447.792	789.31
448.013	779.31
448.234	777.31
448.455	760.31
448.675	767.31
448.896	786.31
449.117	790.31
449.338	808.31
449.559	830.31
449.779	834.31
450	846.31
450.221	833.31
450.442	796.31
450.662	784.31
450.883	804.31
451.104	820.31
451.324	795.31
451.545	798.31
451.766	798.31
451.986	772.31
452.207	747.31
452.428	754.31
452.648	754.31
452.869	818.31
453.089	826.31
453.31	834.31
453.53	752.31
453.751	728.31
453.971	734.31
454.192	779.31
454.412	793.31
454.633	760.31
454.853	737.31
455.073	708.31
455.294	718.31
455.514	715.31
455.734	764.31
455.955	794.31
456.175	807.31
456.395	727.31
456.616	720.31
456.836	719.31
457.056	696.31
457.276	709.31
457.497	698.31
457.717	714.31
457.937	693.31
458.157	713.31
458.377	728.31
458.598	734.31
458.818	751.31
459.038	797.31
459.258	794.31
459.478	859.31
459.698	900.31
459.918	886.31
460.138	880.31
460.358	865.31
460.578	877.31
460.798	868.31
461.018	888.31
461.238	841.31
461.458	846.31
461.678	888.31
461.898	902.31
462.118	914.31
462.338	952.31
462.558	972.31
462.777	978.31
462.997	1042.31
463.217	996.31
463.437	1014.31
463.657	984.31
463.876	961.31
464.096	965.31
464.316	966.31
464.536	978.31
464.755	1005.31
464.975	1006.31
465.195	924.31
465.414	975.31
465.634	940.31
465.854	916.31
466.073	869.31
466.293	840.31
466.512	915.31
466.732	1016.31
466.951	1067.31
467.171	910.31
467.391	869.31
467.61	900.31
467.829	894.31
468.049	940.31
468.268	871.31
468.488	880.31
468.707	920.31
468.927	1079.31
469.146	1174.31
469.365	1028.31
469.585	929.31
469.804	1018.31
470.023	1105.31
470.243	957.31
470.462	914.31
470.681	917.31
470.901	885.31
471.12	978.31
471.339	953.31
471.558	920.31
471.777	960.31
471.997	1028.31
472.216	1098.31
472.435	1079.31
472.654	960.31
472.873	946.31
473.092	982.31
473.311	1054.31
473.53	954.31
473.749	928.31
473.968	965.31
474.187	959.31
474.406	931.31
474.625	922.31
474.844	960.31
475.063	998.31
475.282	1021.31
475.501	1071.31
475.72	1098.31
475.939	1076.31
476.158	1076.31
476.377	1253.31
476.596	1444.31
476.814	1512.31
477.033	1229.31
477.252	1050.31
477.471	1005.31
477.69	1017.31
477.908	1085.31
478.127	1173.31
478.346	1043.31
478.564	1158.31
478.783	1064.31
479.002	1118.31
479.22	1266.31
479.439	1425.31
479.658	1211.31
479.876	1107.31
480.095	1174.31
480.313	1238.31
480.532	1126.31
480.751	1102.31
480.969	1100.31
481.188	1259.31
481.406	1313.31
481.624	1262.31
481.843	1108.31
482.061	1082.31
482.28	1204.31
482.498	1460.31
482.717	1355.31
482.935	1186.31
483.153	1126.31
483.372	1051.31
483.59	1056.31
483.808	1053.31
484.027	1026.31
484.245	990.31
484.463	960.31
484.681	1018.31
484.9	1089.31
485.118	1169.31
485.336	1117.31
485.554	1036.31
485.772	1057.31
485.99	1170.31
486.209	1209.31
486.427	1184.31
486.645	1218.31
486.863	1216.31
487.081	1237.31
487.299	1373.31
487.517	1315.31
487.735	1210.31
487.953	1252.31
488.171	1275.31
488.389	1170.31
488.607	1109.31
488.825	1140.31
489.043	1208.31
489.261	1450.31
489.479	1522.31
489.696	1246.31
489.914	1162.31
490.132	1084.31
490.35	1140.31
490.568	1156.31
490.786	1108.31
491.003	1126.31
491.221	1139.31
491.439	1140.31
491.657	1153.31
491.874	1241.31
492.092	1443.31
492.31	1744.31
492.527	1718.31
492.745	1502.31
492.963	1321.31
493.18	1288.31
493.398	1276.31
493.615	1286.31
493.833	1224.31
494.05	1222.31
494.268	1238.31
494.485	1224.31
494.703	1202.31
