Data from NickelSpatula.Lamp.E5.5.P2_HRD10591_11-52-08-556.txt Node
Date: Tue Jul 23 11:52:08 EDT 2019
User: cochatt
Spectrometer: HR+D1059
Trigger mode: 1
Integration Time (sec): 1.000000E-1
Scans to average: 1
Electric dark correction enabled: true
Nonlinearity correction enabled: false
Boxcar width: 0
XAxis mode: Wavelengths
Number of Pixels in Spectrum: 2048
>>>>>Begin Spectral Data<<<<<
223.165	-17.31
223.4	-17.31
223.635	-17.31
223.869	-21.31
224.104	-33.31
224.338	-21.31
224.573	-5.31
224.808	-15.31
225.042	-9.31
225.277	-10.31
225.511	8.69
225.746	16.69
225.98	11.69
226.215	11.69
226.449	16.69
226.683	15.69
226.918	18.69
227.152	33.69
227.387	31.69
227.621	31.69
227.856	40.69
228.09	43.69
228.324	60.69
228.559	55.69
228.793	63.69
229.027	64.69
229.262	76.69
229.496	86.69
229.73	72.69
229.964	105.69
230.199	101.69
230.433	103.69
230.667	106.69
230.901	103.69
231.136	88.69
231.37	98.69
231.604	106.69
231.838	101.69
232.072	95.69
232.306	122.69
232.541	96.69
232.775	114.69
233.009	111.69
233.243	114.69
233.477	125.69
233.711	133.69
233.945	115.69
234.179	108.69
234.413	131.69
234.647	130.69
234.881	153.69
235.115	151.69
235.349	132.69
235.583	120.69
235.817	120.69
236.051	137.69
236.285	144.69
236.519	134.69
236.753	145.69
236.987	120.69
237.221	130.69
237.455	158.69
237.689	145.69
237.922	141.69
238.156	144.69
238.39	167.69
238.624	200.69
238.858	169.69
239.091	152.69
239.325	152.69
239.559	159.69
239.793	142.69
240.027	179.69
240.26	172.69
240.494	172.69
240.728	166.69
240.961	185.69
241.195	180.69
241.429	178.69
241.662	172.69
241.896	150.69
242.13	136.69
242.363	148.69
242.597	126.69
242.83	163.69
243.064	167.69
243.298	169.69
243.531	179.69
243.765	184.69
243.998	158.69
244.232	175.69
244.465	184.69
244.699	170.69
244.932	178.69
245.166	182.69
245.399	149.69
245.633	155.69
245.866	148.69
246.099	151.69
246.333	178.69
246.566	224.69
246.8	215.69
247.033	197.69
247.266	177.69
247.5	182.69
247.733	196.69
247.966	166.69
248.2	176.69
248.433	203.69
248.666	209.69
248.899	207.69
249.133	220.69
249.366	241.69
249.599	262.69
249.832	231.69
250.066	230.69
250.299	203.69
250.532	196.69
250.765	214.69
250.998	186.69
251.231	183.69
251.465	215.69
251.698	215.69
251.931	205.69
252.164	212.69
252.397	243.69
252.63	260.69
252.863	282.69
253.096	282.69
253.329	268.69
253.562	247.69
253.795	293.69
254.028	322.69
254.261	322.69
254.494	295.69
254.727	276.69
254.96	272.69
255.193	269.69
255.426	268.69
255.659	214.69
255.892	205.69
256.124	211.69
256.357	251.69
256.59	282.69
256.823	274.69
257.056	235.69
257.289	232.69
257.521	244.69
257.754	278.69
257.987	306.69
258.22	286.69
258.452	249.69
258.685	275.69
258.918	313.69
259.151	299.69
259.383	298.69
259.616	373.69
259.849	358.69
260.081	392.69
260.314	412.69
260.547	330.69
260.779	351.69
261.012	393.69
261.244	376.69
261.477	371.69
261.71	343.69
261.942	315.69
262.175	303.69
262.407	284.69
262.64	294.69
262.872	353.69
263.105	358.69
263.337	377.69
263.57	342.69
263.802	261.69
264.035	235.69
264.267	217.69
264.499	210.69
264.732	190.69
264.964	169.69
265.197	187.69
265.429	195.69
265.661	231.69
265.894	207.69
266.126	243.69
266.358	262.69
266.591	308.69
266.823	346.69
267.055	324.69
267.287	303.69
267.52	294.69
267.752	297.69
267.984	335.69
268.216	331.69
268.448	261.69
268.681	260.69
268.913	283.69
269.145	313.69
269.377	316.69
269.609	334.69
269.841	295.69
270.073	310.69
270.306	334.69
270.538	338.69
270.77	326.69
271.002	335.69
271.234	352.69
271.466	346.69
271.698	332.69
271.93	330.69
272.162	319.69
272.394	316.69
272.626	315.69
272.858	308.69
273.09	340.69
273.322	303.69
273.553	276.69
273.785	335.69
274.017	414.69
274.249	483.69
274.481	527.69
274.713	542.69
274.945	629.69
275.176	670.69
275.408	595.69
275.64	566.69
275.872	545.69
276.104	467.69
276.335	421.69
276.567	424.69
276.799	431.69
277.031	462.69
277.262	374.69
277.494	283.69
277.726	280.69
277.957	313.69
278.189	324.69
278.421	335.69
278.652	334.69
278.884	331.69
279.115	292.69
279.347	281.69
279.579	300.69
279.81	292.69
280.042	297.69
280.273	313.69
280.505	277.69
280.736	270.69
280.968	244.69
281.199	276.69
281.431	298.69
281.662	297.69
281.894	281.69
282.125	302.69
282.356	317.69
282.588	303.69
282.819	294.69
283.051	302.69
283.282	368.69
283.513	416.69
283.745	460.69
283.976	466.69
284.207	453.69
284.439	442.69
284.67	438.69
284.901	384.69
285.132	408.69
285.364	439.69
285.595	419.69
285.826	437.69
286.057	455.69
286.288	432.69
286.52	429.69
286.751	440.69
286.982	449.69
287.213	395.69
287.444	388.69
287.675	411.69
287.906	402.69
288.138	358.69
288.369	326.69
288.6	306.69
288.831	301.69
289.062	350.69
289.293	380.69
289.524	373.69
289.755	354.69
289.986	362.69
290.217	341.69
290.448	272.69
290.679	238.69
290.91	227.69
291.141	233.69
291.371	235.69
291.602	233.69
291.833	239.69
292.064	252.69
292.295	287.69
292.526	332.69
292.757	323.69
292.987	352.69
293.218	347.69
293.449	362.69
293.68	396.69
293.91	386.69
294.141	392.69
294.372	371.69
294.603	317.69
294.833	356.69
295.064	424.69
295.295	408.69
295.525	307.69
295.756	267.69
295.987	257.69
296.217	256.69
296.448	245.69
296.679	271.69
296.909	281.69
297.14	298.69
297.37	342.69
297.601	319.69
297.831	261.69
298.062	275.69
298.292	335.69
298.523	355.69
298.753	402.69
298.984	376.69
299.214	312.69
299.445	277.69
299.675	258.69
299.905	265.69
300.136	258.69
300.366	273.69
300.597	286.69
300.827	243.69
301.057	249.69
301.288	241.69
301.518	276.69
301.748	298.69
301.979	307.69
302.209	327.69
302.439	335.69
302.669	310.69
302.9	293.69
303.13	284.69
303.36	267.69
303.59	273.69
303.82	271.69
304.051	282.69
304.281	317.69
304.511	312.69
304.741	277.69
304.971	294.69
305.201	318.69
305.431	297.69
305.661	241.69
305.891	246.69
306.121	255.69
306.352	219.69
306.582	211.69
306.812	209.69
307.042	226.69
307.272	217.69
307.502	204.69
307.731	217.69
307.961	226.69
308.191	229.69
308.421	209.69
308.651	209.69
308.881	198.69
309.111	199.69
309.341	206.69
309.571	212.69
309.8	228.69
310.03	220.69
310.26	230.69
310.49	233.69
310.72	224.69
310.949	210.69
311.179	219.69
311.409	228.69
311.639	258.69
311.868	310.69
312.098	399.69
312.328	423.69
312.557	410.69
312.787	405.69
313.017	375.69
313.246	412.69
313.476	438.69
313.706	367.69
313.935	281.69
314.165	254.69
314.394	231.69
314.624	233.69
314.853	251.69
315.083	254.69
315.312	230.69
315.542	235.69
315.771	227.69
316.001	208.69
316.23	215.69
316.46	204.69
316.689	204.69
316.919	230.69
317.148	232.69
317.377	212.69
317.607	219.69
317.836	222.69
318.065	263.69
318.295	288.69
318.524	281.69
318.753	260.69
318.983	223.69
319.212	214.69
319.441	236.69
319.67	263.69
319.9	291.69
320.129	268.69
320.358	214.69
320.587	240.69
320.816	238.69
321.046	244.69
321.275	292.69
321.504	298.69
321.733	264.69
321.962	280.69
322.191	265.69
322.42	250.69
322.649	255.69
322.878	274.69
323.108	260.69
323.337	244.69
323.566	265.69
323.795	265.69
324.024	232.69
324.253	219.69
324.482	228.69
324.71	254.69
324.939	286.69
325.168	268.69
325.397	232.69
325.626	219.69
325.855	211.69
326.084	226.69
326.313	241.69
326.542	213.69
326.77	219.69
326.999	226.69
327.228	237.69
327.457	230.69
327.686	243.69
327.914	221.69
328.143	210.69
328.372	209.69
328.6	210.69
328.829	218.69
329.058	217.69
329.287	243.69
329.515	226.69
329.744	204.69
329.972	195.69
330.201	228.69
330.43	217.69
330.658	204.69
330.887	258.69
331.115	248.69
331.344	242.69
331.572	248.69
331.801	229.69
332.03	202.69
332.258	231.69
332.486	241.69
332.715	254.69
332.943	238.69
333.172	243.69
333.4	244.69
333.629	259.69
333.857	286.69
334.085	267.69
334.314	275.69
334.542	255.69
334.771	262.69
334.999	235.69
335.227	238.69
335.455	219.69
335.684	239.69
335.912	269.69
336.14	310.69
336.369	295.69
336.597	291.69
336.825	319.69
337.053	355.69
337.281	303.69
337.51	218.69
337.738	227.69
337.966	241.69
338.194	266.69
338.422	271.69
338.65	220.69
338.878	213.69
339.106	231.69
339.334	266.69
339.562	249.69
339.79	242.69
340.018	232.69
340.246	221.69
340.474	258.69
340.702	304.69
340.93	310.69
341.158	299.69
341.386	257.69
341.614	254.69
341.842	259.69
342.07	264.69
342.298	294.69
342.526	306.69
342.754	268.69
342.981	273.69
343.209	239.69
343.437	253.69
343.665	279.69
343.893	277.69
344.12	329.69
344.348	371.69
344.576	327.69
344.804	284.69
345.031	234.69
345.259	235.69
345.487	240.69
345.714	228.69
345.942	272.69
346.17	278.69
346.397	283.69
346.625	244.69
346.853	254.69
347.08	230.69
347.308	243.69
347.535	265.69
347.763	276.69
347.99	249.69
348.218	231.69
348.445	258.69
348.673	231.69
348.9	239.69
349.128	263.69
349.355	284.69
349.583	257.69
349.81	250.69
350.037	229.69
350.265	216.69
350.492	197.69
350.72	204.69
350.947	207.69
351.174	221.69
351.402	226.69
351.629	238.69
351.856	232.69
352.083	213.69
352.311	227.69
352.538	249.69
352.765	271.69
352.992	242.69
353.22	242.69
353.447	243.69
353.674	236.69
353.901	234.69
354.128	220.69
354.355	229.69
354.583	239.69
354.81	242.69
355.037	267.69
355.264	238.69
355.491	252.69
355.718	262.69
355.945	282.69
356.172	258.69
356.399	267.69
356.626	305.69
356.853	352.69
357.08	386.69
357.307	403.69
357.534	306.69
357.761	320.69
357.988	408.69
358.215	454.69
358.441	384.69
358.668	346.69
358.895	346.69
359.122	285.69
359.349	274.69
359.576	312.69
359.802	272.69
360.029	222.69
360.256	240.69
360.483	294.69
360.709	358.69
360.936	363.69
361.163	344.69
361.39	271.69
361.616	242.69
361.843	288.69
362.07	320.69
362.296	297.69
362.523	242.69
362.749	232.69
362.976	241.69
363.203	265.69
363.429	306.69
363.656	276.69
363.882	231.69
364.109	255.69
364.335	232.69
364.562	238.69
364.788	235.69
365.015	310.69
365.241	288.69
365.468	238.69
365.694	223.69
365.92	214.69
366.147	198.69
366.373	196.69
366.599	216.69
366.826	215.69
367.052	208.69
367.278	207.69
367.505	214.69
367.731	210.69
367.957	234.69
368.184	246.69
368.41	231.69
368.636	241.69
368.862	242.69
369.089	243.69
369.315	223.69
369.541	238.69
369.767	222.69
369.993	203.69
370.219	212.69
370.445	219.69
370.672	241.69
370.898	261.69
371.124	269.69
371.35	238.69
371.576	223.69
371.802	225.69
372.028	284.69
372.254	325.69
372.48	267.69
372.706	262.69
372.932	276.69
373.158	270.69
373.384	316.69
373.61	378.69
373.835	411.69
374.061	296.69
374.287	291.69
374.513	329.69
374.739	386.69
374.965	387.69
375.191	376.69
375.416	276.69
375.642	263.69
375.868	278.69
376.094	323.69
376.319	272.69
376.545	282.69
376.771	311.69
376.997	296.69
377.222	210.69
377.448	206.69
377.674	195.69
377.899	198.69
378.125	191.69
378.35	193.69
378.576	198.69
378.802	214.69
379.027	240.69
379.253	229.69
379.478	233.69
379.704	242.69
379.929	257.69
380.155	269.69
380.38	237.69
380.606	249.69
380.831	265.69
381.057	266.69
381.282	252.69
381.507	292.69
381.733	313.69
381.958	347.69
382.184	353.69
382.409	373.69
382.634	357.69
382.86	397.69
383.085	329.69
383.31	270.69
383.535	320.69
383.761	282.69
383.986	280.69
384.211	302.69
384.436	320.69
384.662	257.69
384.887	243.69
385.112	255.69
385.337	263.69
385.562	263.69
385.787	284.69
386.013	320.69
386.238	321.69
386.463	241.69
386.688	241.69
386.913	243.69
387.138	231.69
387.363	231.69
387.588	245.69
387.813	251.69
388.038	291.69
388.263	247.69
388.488	233.69
388.713	306.69
388.938	294.69
389.163	240.69
389.387	235.69
389.612	220.69
389.837	232.69
390.062	245.69
390.287	232.69
390.512	258.69
390.736	245.69
390.961	226.69
391.186	226.69
391.411	218.69
391.636	224.69
391.86	243.69
392.085	254.69
392.31	246.69
392.534	256.69
392.759	254.69
392.984	238.69
393.208	235.69
393.433	225.69
393.658	218.69
393.882	219.69
394.107	226.69
394.331	199.69
394.556	212.69
394.78	207.69
395.005	212.69
395.229	233.69
395.454	244.69
395.678	222.69
395.903	226.69
396.127	217.69
396.352	204.69
396.576	238.69
396.801	237.69
397.025	262.69
397.249	274.69
397.474	253.69
397.698	238.69
397.922	246.69
398.147	224.69
398.371	241.69
398.595	230.69
398.82	243.69
399.044	258.69
399.268	261.69
399.492	282.69
399.717	299.69
399.941	312.69
400.165	261.69
400.389	242.69
400.613	264.69
400.837	245.69
401.062	234.69
401.286	217.69
401.51	239.69
401.734	234.69
401.958	242.69
402.182	230.69
402.406	245.69
402.63	256.69
402.854	270.69
403.078	305.69
403.302	379.69
403.526	414.69
403.75	368.69
403.974	303.69
404.198	274.69
404.422	307.69
404.645	362.69
404.869	372.69
405.093	297.69
405.317	270.69
405.541	248.69
405.765	278.69
405.988	272.69
406.212	284.69
406.436	324.69
406.66	342.69
406.883	288.69
407.107	298.69
407.331	344.69
407.555	326.69
407.778	284.69
408.002	264.69
408.226	278.69
408.449	271.69
408.673	263.69
408.896	245.69
409.12	249.69
409.344	247.69
409.567	251.69
409.791	262.69
410.014	243.69
410.238	256.69
410.461	242.69
410.685	222.69
410.908	250.69
411.132	247.69
411.355	249.69
411.578	261.69
411.802	261.69
412.025	243.69
412.249	261.69
412.472	240.69
412.695	250.69
412.919	232.69
413.142	239.69
413.365	249.69
413.589	265.69
413.812	249.69
414.035	231.69
414.258	248.69
414.482	244.69
414.705	251.69
414.928	240.69
415.151	225.69
415.374	252.69
415.597	245.69
415.821	234.69
416.044	219.69
416.267	235.69
416.49	220.69
416.713	224.69
416.936	236.69
417.159	224.69
417.382	232.69
417.605	242.69
417.828	256.69
418.051	240.69
418.274	235.69
418.497	234.69
418.72	240.69
418.943	274.69
419.166	267.69
419.389	278.69
419.611	259.69
419.834	267.69
420.057	286.69
420.28	296.69
420.503	261.69
420.726	250.69
420.948	243.69
421.171	254.69
421.394	234.69
421.617	234.69
421.839	255.69
422.062	228.69
422.285	254.69
422.507	240.69
422.73	247.69
422.953	236.69
423.175	243.69
423.398	233.69
423.621	268.69
423.843	276.69
424.066	263.69
424.288	261.69
424.511	241.69
424.733	235.69
424.956	242.69
425.178	274.69
425.401	332.69
425.623	387.69
425.846	311.69
426.068	274.69
426.291	291.69
426.513	274.69
426.735	244.69
426.958	261.69
427.18	293.69
427.402	356.69
427.625	384.69
427.847	328.69
428.069	230.69
428.292	244.69
428.514	238.69
428.736	228.69
428.958	265.69
429.181	316.69
429.403	252.69
429.625	245.69
429.847	227.69
430.069	243.69
430.292	240.69
430.514	216.69
430.736	219.69
430.958	283.69
431.18	254.69
431.402	229.69
431.624	224.69
431.846	233.69
432.068	216.69
432.29	227.69
432.512	242.69
432.734	298.69
432.956	286.69
433.178	231.69
433.4	208.69
433.622	214.69
433.844	244.69
434.066	274.69
434.287	252.69
434.509	233.69
434.731	276.69
434.953	237.69
435.175	248.69
435.397	269.69
435.618	255.69
435.84	209.69
436.062	226.69
436.284	225.69
436.505	227.69
436.727	232.69
436.949	206.69
437.17	223.69
437.392	228.69
437.614	221.69
437.835	232.69
438.057	238.69
438.278	257.69
438.5	329.69
438.721	308.69
438.943	250.69
439.165	211.69
439.386	215.69
439.608	227.69
439.829	218.69
440.05	217.69
440.272	224.69
440.493	250.69
440.715	320.69
440.936	258.69
441.158	229.69
441.379	233.69
441.6	246.69
441.822	261.69
442.043	237.69
442.264	235.69
442.486	217.69
442.707	261.69
442.928	240.69
443.149	249.69
443.371	233.69
443.592	247.69
443.813	248.69
444.034	264.69
444.255	260.69
444.476	239.69
444.698	244.69
444.919	273.69
445.14	338.69
445.361	305.69
445.582	249.69
445.803	244.69
446.024	248.69
446.245	226.69
446.466	237.69
446.687	242.69
446.908	226.69
447.129	217.69
447.35	214.69
447.571	203.69
447.792	215.69
448.013	216.69
448.234	206.69
448.455	226.69
448.675	203.69
448.896	217.69
449.117	232.69
449.338	202.69
449.559	218.69
449.779	233.69
450	243.69
450.221	233.69
450.442	239.69
450.662	213.69
450.883	223.69
451.104	229.69
451.324	229.69
451.545	241.69
451.766	224.69
451.986	219.69
452.207	205.69
452.428	229.69
452.648	227.69
452.869	226.69
453.089	224.69
453.31	226.69
453.53	222.69
453.751	202.69
453.971	206.69
454.192	227.69
454.412	222.69
454.633	211.69
454.853	219.69
455.073	204.69
455.294	204.69
455.514	211.69
455.734	197.69
455.955	208.69
456.175	235.69
456.395	216.69
456.616	189.69
456.836	197.69
457.056	195.69
457.276	205.69
457.497	208.69
457.717	197.69
457.937	199.69
458.157	202.69
458.377	211.69
458.598	201.69
458.818	227.69
459.038	213.69
459.258	242.69
459.478	224.69
459.698	244.69
459.918	242.69
460.138	229.69
460.358	249.69
460.578	258.69
460.798	244.69
461.018	242.69
461.238	229.69
461.458	237.69
461.678	247.69
461.898	258.69
462.118	242.69
462.338	250.69
462.558	258.69
462.777	253.69
462.997	288.69
463.217	293.69
463.437	289.69
463.657	276.69
463.876	252.69
464.096	243.69
464.316	274.69
464.536	276.69
464.755	272.69
464.975	283.69
465.195	256.69
465.414	282.69
465.634	259.69
465.854	230.69
466.073	230.69
466.293	219.69
466.512	260.69
466.732	243.69
466.951	263.69
467.171	252.69
467.391	232.69
467.61	234.69
467.829	256.69
468.049	234.69
468.268	226.69
468.488	241.69
468.707	229.69
468.927	261.69
469.146	283.69
469.365	279.69
469.585	254.69
469.804	249.69
470.023	278.69
470.243	262.69
470.462	240.69
470.681	238.69
470.901	242.69
471.12	263.69
471.339	243.69
471.558	251.69
471.777	251.69
471.997	248.69
472.216	276.69
472.435	272.69
472.654	240.69
472.873	224.69
473.092	265.69
473.311	264.69
473.53	256.69
473.749	252.69
473.968	256.69
474.187	259.69
474.406	262.69
474.625	239.69
474.844	248.69
475.063	254.69
475.282	239.69
475.501	274.69
475.72	298.69
475.939	260.69
476.158	278.69
476.377	323.69
476.596	338.69
476.814	377.69
477.033	319.69
477.252	262.69
477.471	240.69
477.69	262.69
477.908	288.69
478.127	293.69
478.346	290.69
478.564	311.69
478.783	274.69
479.002	280.69
479.22	317.69
479.439	357.69
479.658	307.69
479.876	298.69
480.095	310.69
480.313	313.69
480.532	294.69
480.751	279.69
480.969	287.69
481.188	314.69
481.406	306.69
481.624	285.69
481.843	266.69
482.061	251.69
482.28	278.69
482.498	358.69
482.717	343.69
482.935	305.69
483.153	284.69
483.372	246.69
483.59	253.69
483.808	275.69
484.027	266.69
484.245	258.69
484.463	249.69
484.681	241.69
484.9	281.69
485.118	285.69
485.336	280.69
485.554	272.69
485.772	284.69
485.99	285.69
486.209	289.69
486.427	310.69
486.645	283.69
486.863	314.69
487.081	311.69
487.299	323.69
487.517	303.69
487.735	271.69
487.953	298.69
488.171	298.69
488.389	282.69
488.607	268.69
488.825	280.69
489.043	290.69
489.261	338.69
489.479	347.69
489.696	309.69
489.914	293.69
490.132	260.69
490.35	273.69
490.568	281.69
490.786	274.69
491.003	282.69
491.221	281.69
491.439	270.69
491.657	279.69
491.874	280.69
492.092	335.69
492.31	382.69
492.527	378.69
492.745	336.69
492.963	303.69
493.18	295.69
493.398	297.69
493.615	312.69
493.833	281.69
494.05	274.69
494.268	324.69
494.485	292.69
494.703	300.69
494.92	299.69
495.138	299.69
495.355	303.69
495.573	283.69
495.79	335.69
496.008	390.69
496.225	339.69
496.442	312.69
496.66	332.69
496.877	324.69
497.094	318.69
497.312	320.69
497.529	291.69
497.746	320.69
497.963	322.69
498.181	342.69
498.398	351.69
498.615	373.69
498.832	390.69
499.049	405.69
499.267	390.69
499.484	397.69
499.701	411.69
499.918	465.69
500.135	490.69
500.352	527.69
500.569	544.69
500.786	543.69
501.003	545.69
501.22	490.69
501.437	450.69
501.654	414.69
501.871	384.69
502.088	378.69
502.305	360.69
