Data from NickelSpatula_HRD10591_16-35-48-126.txt Node
Date: Mon Jul 22 16:35:48 EDT 2019
User: cochatt
Spectrometer: HR+D1059
Trigger mode: 1
Integration Time (sec): 1.000000E-1
Scans to average: 1
Electric dark correction enabled: true
Nonlinearity correction enabled: false
Boxcar width: 0
XAxis mode: Wavelengths
Number of Pixels in Spectrum: 2048
>>>>>Begin Spectral Data<<<<<
223.165	1.94
223.4	1.94
223.635	1.94
223.869	-14.06
224.104	-27.06
224.338	-25.06
224.573	-27.06
224.808	-0.06
225.042	-9.06
225.277	-7.06
225.511	-2.06
225.746	6.94
225.98	20.94
226.215	17.94
226.449	1.94
226.683	19.94
226.918	20.94
227.152	20.94
227.387	32.94
227.621	36.94
227.856	30.94
228.09	51.94
228.324	45.94
228.559	66.94
228.793	67.94
229.027	57.94
229.262	65.94
229.496	65.94
229.73	76.94
229.964	90.94
230.199	88.94
230.433	94.94
230.667	99.94
230.901	84.94
231.136	93.94
231.37	90.94
231.604	102.94
231.838	92.94
232.072	95.94
232.306	100.94
232.541	97.94
232.775	94.94
233.009	95.94
233.243	108.94
233.477	107.94
233.711	108.94
233.945	121.94
234.179	109.94
234.413	112.94
234.647	112.94
234.881	119.94
235.115	125.94
235.349	110.94
235.583	116.94
235.817	100.94
236.051	113.94
236.285	116.94
236.519	118.94
236.753	112.94
236.987	131.94
237.221	112.94
237.455	112.94
237.689	116.94
237.922	110.94
238.156	134.94
238.39	130.94
238.624	142.94
238.858	149.94
239.091	129.94
239.325	129.94
239.559	129.94
239.793	122.94
240.027	147.94
240.26	150.94
240.494	125.94
240.728	131.94
240.961	148.94
241.195	142.94
241.429	153.94
241.662	138.94
241.896	130.94
242.13	127.94
242.363	108.94
242.597	107.94
242.83	129.94
243.064	127.94
243.298	137.94
243.531	153.94
243.765	157.94
243.998	137.94
244.232	151.94
244.465	145.94
244.699	136.94
244.932	138.94
245.166	139.94
245.399	128.94
245.633	125.94
245.866	143.94
246.099	157.94
246.333	141.94
246.566	163.94
246.8	161.94
247.033	150.94
247.266	152.94
247.5	163.94
247.733	155.94
247.966	150.94
248.2	142.94
248.433	140.94
248.666	169.94
248.899	162.94
249.133	167.94
249.366	182.94
249.599	194.94
249.832	179.94
250.066	165.94
250.299	171.94
250.532	159.94
250.765	167.94
250.998	163.94
251.231	149.94
251.465	158.94
251.698	170.94
251.931	169.94
252.164	148.94
252.397	178.94
252.63	187.94
252.863	199.94
253.096	221.94
253.329	211.94
253.562	206.94
253.795	224.94
254.028	235.94
254.261	253.94
254.494	215.94
254.727	209.94
254.96	194.94
255.193	199.94
255.426	188.94
255.659	167.94
255.892	163.94
256.124	190.94
256.357	193.94
256.59	210.94
256.823	198.94
257.056	194.94
257.289	178.94
257.521	196.94
257.754	205.94
257.987	233.94
258.22	205.94
258.452	197.94
258.685	228.94
258.918	227.94
259.151	217.94
259.383	220.94
259.616	260.94
259.849	257.94
260.081	265.94
260.314	277.94
260.547	240.94
260.779	264.94
261.012	278.94
261.244	275.94
261.477	276.94
261.71	247.94
261.942	222.94
262.175	240.94
262.407	201.94
262.64	198.94
262.872	232.94
263.105	236.94
263.337	278.94
263.57	248.94
263.802	196.94
264.035	184.94
264.267	177.94
264.499	161.94
264.732	137.94
264.964	156.94
265.197	149.94
265.429	157.94
265.661	161.94
265.894	165.94
266.126	190.94
266.358	196.94
266.591	198.94
266.823	238.94
267.055	238.94
267.287	211.94
267.52	232.94
267.752	235.94
267.984	260.94
268.216	249.94
268.448	215.94
268.681	209.94
268.913	219.94
269.145	234.94
269.377	228.94
269.609	239.94
269.841	220.94
270.073	220.94
270.306	236.94
270.538	229.94
270.77	253.94
271.002	240.94
271.234	253.94
271.466	257.94
271.698	244.94
271.93	243.94
272.162	235.94
272.394	237.94
272.626	241.94
272.858	242.94
273.09	259.94
273.322	234.94
273.553	205.94
273.785	243.94
274.017	304.94
274.249	362.94
274.481	361.94
274.713	371.94
274.945	425.94
275.176	448.94
275.408	395.94
275.64	364.94
275.872	378.94
276.104	346.94
276.335	296.94
276.567	293.94
276.799	312.94
277.031	317.94
277.262	265.94
277.494	229.94
277.726	211.94
277.957	222.94
278.189	249.94
278.421	249.94
278.652	235.94
278.884	226.94
279.115	215.94
279.347	213.94
279.579	222.94
279.81	221.94
280.042	241.94
280.273	227.94
280.505	225.94
280.736	207.94
280.968	186.94
281.199	198.94
281.431	220.94
281.662	215.94
281.894	206.94
282.125	215.94
282.356	238.94
282.588	227.94
282.819	229.94
283.051	236.94
283.282	279.94
283.513	291.94
283.745	325.94
283.976	336.94
284.207	308.94
284.439	320.94
284.67	323.94
284.901	282.94
285.132	296.94
285.364	319.94
285.595	281.94
285.826	330.94
286.057	321.94
286.288	308.94
286.52	303.94
286.751	343.94
286.982	324.94
287.213	287.94
287.444	290.94
287.675	296.94
287.906	298.94
288.138	268.94
288.369	231.94
288.6	231.94
288.831	230.94
289.062	284.94
289.293	301.94
289.524	271.94
289.755	282.94
289.986	261.94
290.217	249.94
290.448	201.94
290.679	166.94
290.91	177.94
291.141	170.94
291.371	178.94
291.602	176.94
291.833	180.94
292.064	181.94
292.295	200.94
292.526	233.94
292.757	245.94
292.987	272.94
293.218	260.94
293.449	259.94
293.68	280.94
293.91	261.94
294.141	280.94
294.372	260.94
294.603	233.94
294.833	268.94
295.064	296.94
295.295	286.94
295.525	227.94
295.756	196.94
295.987	188.94
296.217	187.94
296.448	174.94
296.679	173.94
296.909	207.94
297.14	213.94
297.37	220.94
297.601	221.94
297.831	192.94
298.062	204.94
298.292	248.94
298.523	255.94
298.753	277.94
298.984	231.94
299.214	218.94
299.445	196.94
299.675	174.94
299.905	181.94
300.136	179.94
300.366	196.94
300.597	184.94
300.827	170.94
301.057	187.94
301.288	185.94
301.518	190.94
301.748	203.94
301.979	221.94
302.209	224.94
302.439	232.94
302.669	216.94
302.9	225.94
303.13	204.94
303.36	182.94
303.59	199.94
303.82	194.94
304.051	219.94
304.281	232.94
304.511	223.94
304.741	205.94
304.971	219.94
305.201	205.94
305.431	199.94
305.661	185.94
305.891	187.94
306.121	189.94
306.352	149.94
306.582	164.94
306.812	161.94
307.042	149.94
307.272	143.94
307.502	142.94
307.731	163.94
307.961	170.94
308.191	143.94
308.421	148.94
308.651	132.94
308.881	141.94
309.111	160.94
309.341	156.94
309.571	176.94
309.8	154.94
310.03	169.94
310.26	162.94
310.49	159.94
310.72	157.94
310.949	151.94
311.179	151.94
311.409	158.94
311.639	189.94
311.868	232.94
312.098	296.94
312.328	312.94
312.557	300.94
312.787	301.94
313.017	281.94
313.246	295.94
313.476	313.94
313.706	278.94
313.935	213.94
314.165	186.94
314.394	180.94
314.624	162.94
314.853	172.94
315.083	184.94
315.312	173.94
315.542	177.94
315.771	171.94
316.001	156.94
316.23	154.94
316.46	153.94
316.689	144.94
316.919	139.94
317.148	165.94
317.377	169.94
317.607	137.94
317.836	163.94
318.065	184.94
318.295	187.94
318.524	197.94
318.753	178.94
318.983	161.94
319.212	160.94
319.441	176.94
319.67	169.94
319.9	188.94
320.129	199.94
320.358	168.94
320.587	171.94
320.816	173.94
321.046	197.94
321.275	223.94
321.504	215.94
321.733	188.94
321.962	194.94
322.191	189.94
322.42	176.94
322.649	189.94
322.878	203.94
323.108	198.94
323.337	175.94
323.566	192.94
323.795	168.94
324.024	177.94
324.253	176.94
324.482	167.94
324.71	182.94
324.939	188.94
325.168	169.94
325.397	156.94
325.626	154.94
325.855	161.94
326.084	172.94
326.313	166.94
326.542	153.94
326.77	145.94
326.999	141.94
327.228	166.94
327.457	164.94
327.686	154.94
327.914	143.94
328.143	147.94
328.372	146.94
328.6	147.94
328.829	164.94
329.058	132.94
329.287	155.94
329.515	165.94
329.744	173.94
329.972	161.94
330.201	152.94
330.43	150.94
330.658	155.94
330.887	163.94
331.115	176.94
331.344	176.94
331.572	162.94
331.801	152.94
332.03	162.94
332.258	156.94
332.486	160.94
332.715	166.94
332.943	154.94
333.172	154.94
333.4	149.94
333.629	154.94
333.857	187.94
334.085	190.94
334.314	183.94
334.542	196.94
334.771	148.94
334.999	169.94
335.227	160.94
335.455	156.94
335.684	176.94
335.912	194.94
336.14	208.94
336.369	202.94
336.597	208.94
336.825	225.94
337.053	252.94
337.281	189.94
337.51	163.94
337.738	166.94
337.966	182.94
338.194	175.94
338.422	164.94
338.65	163.94
338.878	145.94
339.106	163.94
339.334	185.94
339.562	182.94
339.79	179.94
340.018	163.94
340.246	168.94
340.474	169.94
340.702	205.94
340.93	209.94
341.158	214.94
341.386	181.94
341.614	181.94
341.842	174.94
342.07	184.94
342.298	227.94
342.526	218.94
342.754	200.94
342.981	182.94
343.209	181.94
343.437	217.94
343.665	205.94
343.893	200.94
344.12	217.94
344.348	230.94
344.576	222.94
344.804	197.94
345.031	164.94
345.259	162.94
345.487	157.94
345.714	185.94
345.942	194.94
346.17	201.94
346.397	171.94
346.625	172.94
346.853	146.94
347.08	160.94
347.308	173.94
347.535	188.94
347.763	189.94
347.99	185.94
348.218	169.94
348.445	158.94
348.673	165.94
348.9	171.94
349.128	180.94
349.355	181.94
349.583	183.94
349.81	173.94
350.037	158.94
350.265	158.94
350.492	164.94
350.72	143.94
350.947	137.94
351.174	161.94
351.402	170.94
351.629	172.94
351.856	161.94
352.083	143.94
352.311	154.94
352.538	182.94
352.765	180.94
352.992	172.94
353.22	182.94
353.447	171.94
353.674	171.94
353.901	174.94
354.128	166.94
354.355	182.94
354.583	174.94
354.81	191.94
355.037	195.94
355.264	173.94
355.491	196.94
355.718	194.94
355.945	194.94
356.172	183.94
356.399	178.94
356.626	214.94
356.853	251.94
357.08	284.94
357.307	286.94
357.534	243.94
357.761	233.94
357.988	276.94
358.215	305.94
358.441	274.94
358.668	269.94
358.895	237.94
359.122	198.94
359.349	223.94
359.576	225.94
359.802	199.94
360.029	165.94
360.256	196.94
360.483	231.94
360.709	256.94
360.936	276.94
361.163	228.94
361.39	196.94
361.616	180.94
361.843	192.94
362.07	229.94
362.296	206.94
362.523	194.94
362.749	152.94
362.976	189.94
363.203	183.94
363.429	205.94
363.656	179.94
363.882	161.94
364.109	176.94
364.335	198.94
364.562	179.94
364.788	185.94
365.015	209.94
365.241	182.94
365.468	180.94
365.694	155.94
365.92	160.94
366.147	143.94
366.373	128.94
366.599	150.94
366.826	155.94
367.052	145.94
367.278	148.94
367.505	145.94
367.731	162.94
367.957	169.94
368.184	173.94
368.41	171.94
368.636	179.94
368.862	188.94
369.089	172.94
369.315	154.94
369.541	170.94
369.767	166.94
369.993	156.94
370.219	151.94
370.445	173.94
370.672	196.94
370.898	170.94
371.124	166.94
371.35	163.94
371.576	163.94
371.802	167.94
372.028	176.94
372.254	204.94
372.48	179.94
372.706	163.94
372.932	189.94
373.158	194.94
373.384	216.94
373.61	270.94
373.835	266.94
374.061	227.94
374.287	205.94
374.513	222.94
374.739	256.94
374.965	267.94
375.191	241.94
375.416	190.94
375.642	179.94
375.868	209.94
376.094	207.94
376.319	183.94
376.545	202.94
376.771	216.94
376.997	194.94
377.222	143.94
377.448	151.94
377.674	140.94
377.899	146.94
378.125	128.94
378.35	146.94
378.576	161.94
378.802	151.94
379.027	162.94
379.253	163.94
379.478	168.94
379.704	178.94
379.929	184.94
380.155	189.94
380.38	166.94
380.606	173.94
380.831	190.94
381.057	183.94
381.282	173.94
381.507	206.94
381.733	224.94
381.958	240.94
382.184	258.94
382.409	264.94
382.634	277.94
382.86	257.94
383.085	233.94
383.31	200.94
383.535	230.94
383.761	203.94
383.986	207.94
384.211	237.94
384.436	216.94
384.662	168.94
384.887	159.94
385.112	174.94
385.337	184.94
385.562	164.94
385.787	182.94
386.013	206.94
386.238	196.94
386.463	176.94
386.688	166.94
386.913	172.94
387.138	170.94
387.363	170.94
387.588	181.94
387.813	173.94
388.038	189.94
388.263	181.94
388.488	168.94
388.713	189.94
388.938	207.94
389.163	176.94
389.387	184.94
389.612	153.94
389.837	168.94
390.062	164.94
390.287	159.94
390.512	162.94
390.736	177.94
390.961	152.94
391.186	139.94
391.411	153.94
391.636	150.94
391.86	163.94
392.085	170.94
392.31	184.94
392.534	158.94
392.759	152.94
392.984	164.94
393.208	178.94
393.433	158.94
393.658	144.94
393.882	153.94
394.107	143.94
394.331	139.94
394.556	157.94
394.78	136.94
395.005	147.94
395.229	162.94
395.454	149.94
395.678	152.94
395.903	164.94
396.127	157.94
396.352	156.94
396.576	168.94
396.801	166.94
397.025	192.94
397.249	194.94
397.474	166.94
397.698	164.94
397.922	173.94
398.147	176.94
398.371	159.94
398.595	167.94
398.82	169.94
399.044	172.94
399.268	168.94
399.492	170.94
399.717	169.94
399.941	160.94
400.165	185.94
400.389	171.94
400.613	179.94
400.837	169.94
401.062	154.94
401.286	159.94
401.51	163.94
401.734	151.94
401.958	162.94
402.182	160.94
402.406	160.94
402.63	152.94
402.854	149.94
403.078	177.94
403.302	241.94
403.526	236.94
403.75	209.94
403.974	184.94
404.198	182.94
404.422	205.94
404.645	221.94
404.869	238.94
405.093	194.94
405.317	169.94
405.541	160.94
405.765	170.94
405.988	185.94
406.212	178.94
406.436	212.94
406.66	225.94
406.883	190.94
407.107	189.94
407.331	206.94
407.555	195.94
407.778	171.94
408.002	185.94
408.226	192.94
408.449	167.94
408.673	150.94
408.896	161.94
409.12	143.94
409.344	157.94
409.567	148.94
409.791	159.94
410.014	139.94
410.238	161.94
410.461	132.94
410.685	160.94
410.908	160.94
411.132	169.94
411.355	156.94
411.578	166.94
411.802	159.94
412.025	152.94
412.249	168.94
412.472	163.94
412.695	155.94
412.919	148.94
413.142	172.94
413.365	170.94
413.589	175.94
413.812	180.94
414.035	176.94
414.258	161.94
414.482	168.94
414.705	172.94
414.928	157.94
415.151	151.94
415.374	152.94
415.597	178.94
415.821	168.94
416.044	155.94
416.267	171.94
416.49	153.94
416.713	159.94
416.936	150.94
417.159	152.94
417.382	149.94
417.605	154.94
417.828	160.94
418.051	155.94
418.274	168.94
418.497	178.94
418.72	162.94
418.943	171.94
419.166	168.94
419.389	181.94
419.611	180.94
419.834	167.94
420.057	197.94
420.28	184.94
420.503	180.94
420.726	160.94
420.948	164.94
421.171	160.94
421.394	148.94
421.617	157.94
421.839	161.94
422.062	149.94
422.285	151.94
422.507	158.94
422.73	169.94
422.953	159.94
423.175	158.94
423.398	178.94
423.621	172.94
423.843	180.94
424.066	169.94
424.288	161.94
424.511	172.94
424.733	143.94
424.956	167.94
425.178	185.94
425.401	201.94
425.623	234.94
425.846	213.94
426.068	171.94
426.291	201.94
426.513	177.94
426.735	162.94
426.958	192.94
427.18	205.94
427.402	240.94
427.625	244.94
427.847	206.94
428.069	160.94
428.292	156.94
428.514	164.94
428.736	134.94
428.958	176.94
429.181	197.94
429.403	193.94
429.625	168.94
429.847	161.94
430.069	180.94
430.292	159.94
430.514	172.94
430.736	164.94
430.958	210.94
431.18	183.94
431.402	154.94
431.624	134.94
431.846	137.94
432.068	146.94
432.29	158.94
432.512	173.94
432.734	195.94
432.956	198.94
433.178	165.94
433.4	158.94
433.622	149.94
433.844	160.94
434.066	181.94
434.287	166.94
434.509	169.94
434.731	163.94
434.953	160.94
435.175	177.94
435.397	182.94
435.618	151.94
435.84	148.94
436.062	145.94
436.284	164.94
436.505	145.94
436.727	144.94
436.949	140.94
437.17	171.94
437.392	149.94
437.614	154.94
437.835	141.94
438.057	152.94
438.278	149.94
438.5	228.94
438.721	250.94
438.943	148.94
439.165	164.94
439.386	155.94
439.608	153.94
439.829	132.94
440.05	148.94
440.272	134.94
440.493	159.94
440.715	191.94
440.936	170.94
441.158	170.94
441.379	154.94
441.6	170.94
441.822	166.94
442.043	162.94
442.264	136.94
442.486	155.94
442.707	141.94
442.928	152.94
443.149	156.94
443.371	160.94
443.592	161.94
443.813	160.94
444.034	153.94
444.255	154.94
444.476	160.94
444.698	161.94
444.919	152.94
445.14	291.94
445.361	229.94
445.582	168.94
445.803	161.94
446.024	165.94
446.245	183.94
446.466	174.94
446.687	158.94
446.908	167.94
447.129	173.94
447.35	144.94
447.571	149.94
447.792	149.94
448.013	132.94
448.234	138.94
448.455	131.94
448.675	146.94
448.896	148.94
449.117	144.94
449.338	173.94
449.559	158.94
449.779	162.94
450	168.94
450.221	173.94
450.442	158.94
450.662	150.94
450.883	154.94
451.104	150.94
451.324	139.94
451.545	144.94
451.766	141.94
451.986	150.94
452.207	146.94
452.428	146.94
452.648	148.94
452.869	141.94
453.089	155.94
453.31	167.94
453.53	136.94
453.751	146.94
453.971	141.94
454.192	173.94
454.412	152.94
454.633	146.94
454.853	152.94
455.073	155.94
455.294	151.94
455.514	142.94
455.734	136.94
455.955	147.94
456.175	128.94
456.395	148.94
456.616	154.94
456.836	135.94
457.056	142.94
457.276	136.94
457.497	134.94
457.717	149.94
457.937	141.94
458.157	136.94
458.377	132.94
458.598	133.94
458.818	152.94
459.038	150.94
459.258	147.94
459.478	154.94
459.698	148.94
459.918	166.94
460.138	157.94
460.358	148.94
460.578	155.94
460.798	146.94
461.018	148.94
461.238	180.94
461.458	162.94
461.678	169.94
461.898	182.94
462.118	173.94
462.338	179.94
462.558	168.94
462.777	190.94
462.997	158.94
463.217	178.94
463.437	181.94
463.657	178.94
463.876	168.94
464.096	178.94
464.316	169.94
464.536	192.94
464.755	187.94
464.975	173.94
465.195	158.94
465.414	177.94
465.634	165.94
465.854	170.94
466.073	151.94
466.293	147.94
466.512	168.94
466.732	185.94
466.951	189.94
467.171	176.94
467.391	173.94
467.61	151.94
467.829	168.94
468.049	166.94
468.268	157.94
468.488	166.94
468.707	152.94
468.927	189.94
469.146	191.94
469.365	179.94
469.585	167.94
469.804	185.94
470.023	176.94
470.243	168.94
470.462	166.94
470.681	171.94
470.901	173.94
471.12	195.94
471.339	172.94
471.558	153.94
471.777	140.94
471.997	191.94
472.216	192.94
472.435	182.94
472.654	179.94
472.873	166.94
473.092	173.94
473.311	180.94
473.53	172.94
473.749	164.94
473.968	163.94
474.187	177.94
474.406	184.94
474.625	156.94
474.844	177.94
475.063	176.94
475.282	175.94
475.501	185.94
475.72	226.94
475.939	198.94
476.158	193.94
476.377	223.94
476.596	243.94
476.814	258.94
477.033	193.94
477.252	185.94
477.471	168.94
477.69	170.94
477.908	185.94
478.127	183.94
478.346	185.94
478.564	225.94
478.783	183.94
479.002	194.94
479.22	206.94
479.439	225.94
479.658	196.94
479.876	181.94
480.095	198.94
480.313	200.94
480.532	183.94
480.751	171.94
480.969	176.94
481.188	209.94
481.406	181.94
481.624	203.94
481.843	192.94
482.061	172.94
482.28	201.94
482.498	257.94
482.717	230.94
482.935	202.94
483.153	200.94
483.372	189.94
483.59	179.94
483.808	192.94
484.027	180.94
484.245	185.94
484.463	152.94
484.681	196.94
484.9	193.94
485.118	190.94
485.336	189.94
485.554	180.94
485.772	171.94
485.99	186.94
486.209	204.94
486.427	195.94
486.645	196.94
486.863	206.94
487.081	213.94
487.299	214.94
487.517	228.94
487.735	198.94
487.953	201.94
488.171	189.94
488.389	197.94
488.607	183.94
488.825	205.94
489.043	211.94
489.261	237.94
489.479	249.94
489.696	200.94
489.914	194.94
490.132	174.94
490.35	195.94
490.568	188.94
490.786	177.94
491.003	171.94
491.221	202.94
491.439	187.94
491.657	189.94
491.874	206.94
492.092	242.94
492.31	319.94
492.527	294.94
492.745	242.94
492.963	207.94
493.18	201.94
493.398	212.94
493.615	203.94
493.833	198.94
494.05	189.94
494.268	204.94
494.485	195.94
494.703	196.94
494.92	190.94
495.138	180.94
495.355	196.94
495.573	201.94
495.79	216.94
496.008	311.94
496.225	248.94
496.442	214.94
496.66	211.94
496.877	214.94
497.094	213.94
497.312	208.94
497.529	201.94
497.746	196.94
497.963	192.94
498.181	227.94
498.398	236.94
498.615	252.94
498.832	249.94
499.049	244.94
499.267	219.94
499.484	247.94
499.701	236.94
499.918	256.94
500.135	277.94
500.352	283.94
500.569	286.94
500.786	306.94
501.003	292.94
501.22	270.94
501.437	266.94
501.654	257.94
501.871	228.94
502.088	230.94
502.305	226.94
502.522	232.94
502.739	235.94
