Data from NickelSpatula.Lamp.E5.5.P2_HRD10591_11-53-22-549.txt Node
Date: Tue Jul 23 11:53:22 EDT 2019
User: cochatt
Spectrometer: HR+D1059
Trigger mode: 1
Integration Time (sec): 1.000000E-1
Scans to average: 1
Electric dark correction enabled: true
Nonlinearity correction enabled: false
Boxcar width: 0
XAxis mode: Wavelengths
Number of Pixels in Spectrum: 2048
>>>>>Begin Spectral Data<<<<<
223.165	-1.19
223.4	-1.19
223.635	-1.19
223.869	-18.19
224.104	-22.19
224.338	-13.19
224.573	-16.19
224.808	-25.19
225.042	-12.19
225.277	4.81
225.511	-13.19
225.746	-0.19
225.98	17.81
226.215	11.81
226.449	5.81
226.683	31.81
226.918	21.81
227.152	27.81
227.387	51.81
227.621	33.81
227.856	46.81
228.09	38.81
228.324	53.81
228.559	47.81
228.793	50.81
229.027	81.81
229.262	74.81
229.496	92.81
229.73	87.81
229.964	89.81
230.199	100.81
230.433	100.81
230.667	96.81
230.901	92.81
231.136	95.81
231.37	87.81
231.604	107.81
231.838	116.81
232.072	111.81
232.306	104.81
232.541	102.81
232.775	90.81
233.009	119.81
233.243	112.81
233.477	129.81
233.711	122.81
233.945	124.81
234.179	105.81
234.413	134.81
234.647	127.81
234.881	154.81
235.115	141.81
235.349	139.81
235.583	120.81
235.817	119.81
236.051	118.81
236.285	130.81
236.519	146.81
236.753	143.81
236.987	146.81
237.221	125.81
237.455	144.81
237.689	130.81
237.922	138.81
238.156	144.81
238.39	168.81
238.624	188.81
238.858	156.81
239.091	133.81
239.325	160.81
239.559	153.81
239.793	157.81
240.027	172.81
240.26	165.81
240.494	151.81
240.728	159.81
240.961	169.81
241.195	159.81
241.429	183.81
241.662	170.81
241.896	142.81
242.13	131.81
242.363	139.81
242.597	133.81
242.83	156.81
243.064	160.81
243.298	163.81
243.531	174.81
243.765	180.81
243.998	173.81
244.232	161.81
244.465	186.81
244.699	178.81
244.932	197.81
245.166	169.81
245.399	158.81
245.633	133.81
245.866	160.81
246.099	151.81
246.333	182.81
246.566	212.81
246.8	198.81
247.033	182.81
247.266	187.81
247.5	177.81
247.733	176.81
247.966	178.81
248.2	169.81
248.433	197.81
248.666	192.81
248.899	208.81
249.133	208.81
249.366	220.81
249.599	234.81
249.832	204.81
250.066	208.81
250.299	198.81
250.532	184.81
250.765	208.81
250.998	195.81
251.231	177.81
251.465	193.81
251.698	204.81
251.931	214.81
252.164	212.81
252.397	221.81
252.63	239.81
252.863	263.81
253.096	280.81
253.329	242.81
253.562	256.81
253.795	284.81
254.028	298.81
254.261	317.81
254.494	285.81
254.727	257.81
254.96	254.81
255.193	276.81
255.426	270.81
255.659	216.81
255.892	196.81
256.124	222.81
256.357	247.81
256.59	269.81
256.823	282.81
257.056	226.81
257.289	210.81
257.521	243.81
257.754	284.81
257.987	313.81
258.22	255.81
258.452	241.81
258.685	267.81
258.918	300.81
259.151	290.81
259.383	316.81
259.616	347.81
259.849	346.81
260.081	360.81
260.314	407.81
260.547	340.81
260.779	341.81
261.012	394.81
261.244	372.81
261.477	369.81
261.71	330.81
261.942	308.81
262.175	309.81
262.407	266.81
262.64	291.81
262.872	337.81
263.105	349.81
263.337	384.81
263.57	341.81
263.802	258.81
264.035	212.81
264.267	240.81
264.499	202.81
264.732	181.81
264.964	182.81
265.197	179.81
265.429	182.81
265.661	222.81
265.894	227.81
266.126	225.81
266.358	239.81
266.591	290.81
266.823	341.81
267.055	331.81
267.287	306.81
267.52	296.81
267.752	309.81
267.984	332.81
268.216	320.81
268.448	284.81
268.681	267.81
268.913	296.81
269.145	303.81
269.377	297.81
269.609	302.81
269.841	274.81
270.073	293.81
270.306	330.81
270.538	305.81
270.77	325.81
271.002	336.81
271.234	348.81
271.466	338.81
271.698	325.81
271.93	324.81
272.162	323.81
272.394	314.81
272.626	282.81
272.858	340.81
273.09	310.81
273.322	280.81
273.553	266.81
273.785	320.81
274.017	390.81
274.249	474.81
274.481	496.81
274.713	572.81
274.945	625.81
275.176	644.81
275.408	574.81
275.64	539.81
275.872	534.81
276.104	439.81
276.335	409.81
276.567	395.81
276.799	417.81
277.031	461.81
277.262	370.81
277.494	300.81
277.726	266.81
277.957	286.81
278.189	303.81
278.421	335.81
278.652	330.81
278.884	303.81
279.115	296.81
279.347	263.81
279.579	287.81
279.81	266.81
280.042	287.81
280.273	272.81
280.505	258.81
280.736	237.81
280.968	250.81
281.199	269.81
281.431	291.81
281.662	289.81
281.894	289.81
282.125	277.81
282.356	302.81
282.588	294.81
282.819	279.81
283.051	313.81
283.282	361.81
283.513	422.81
283.745	476.81
283.976	456.81
284.207	418.81
284.439	441.81
284.67	414.81
284.901	377.81
285.132	393.81
285.364	423.81
285.595	382.81
285.826	416.81
286.057	430.81
286.288	411.81
286.52	410.81
286.751	426.81
286.982	456.81
287.213	389.81
287.444	368.81
287.675	408.81
287.906	383.81
288.138	344.81
288.369	310.81
288.6	292.81
288.831	308.81
289.062	349.81
289.293	388.81
289.524	349.81
289.755	363.81
289.986	341.81
290.217	320.81
290.448	266.81
290.679	221.81
290.91	218.81
291.141	227.81
291.371	233.81
291.602	243.81
291.833	220.81
292.064	234.81
292.295	286.81
292.526	304.81
292.757	325.81
292.987	345.81
293.218	355.81
293.449	358.81
293.68	391.81
293.91	353.81
294.141	384.81
294.372	368.81
294.603	319.81
294.833	343.81
295.064	407.81
295.295	404.81
295.525	318.81
295.756	280.81
295.987	220.81
296.217	217.81
296.448	228.81
296.679	256.81
296.909	263.81
297.14	277.81
297.37	303.81
297.601	305.81
297.831	286.81
298.062	291.81
298.292	309.81
298.523	345.81
298.753	387.81
298.984	336.81
299.214	295.81
299.445	256.81
299.675	256.81
299.905	219.81
300.136	238.81
300.366	255.81
300.597	267.81
300.827	238.81
301.057	252.81
301.288	264.81
301.518	255.81
301.748	282.81
301.979	314.81
302.209	314.81
302.439	322.81
302.669	283.81
302.9	287.81
303.13	256.81
303.36	252.81
303.59	272.81
303.82	259.81
304.051	280.81
304.281	304.81
304.511	303.81
304.741	294.81
304.971	265.81
305.201	290.81
305.431	282.81
305.661	248.81
305.891	241.81
306.121	257.81
306.352	234.81
306.582	211.81
306.812	214.81
307.042	202.81
307.272	196.81
307.502	196.81
307.731	194.81
307.961	228.81
308.191	207.81
308.421	213.81
308.651	204.81
308.881	210.81
309.111	200.81
309.341	174.81
309.571	212.81
309.8	209.81
310.03	206.81
310.26	216.81
310.49	235.81
310.72	214.81
310.949	227.81
311.179	211.81
311.409	229.81
311.639	233.81
311.868	296.81
312.098	371.81
312.328	420.81
312.557	409.81
312.787	397.81
313.017	343.81
313.246	370.81
313.476	428.81
313.706	370.81
313.935	285.81
314.165	239.81
314.394	226.81
314.624	230.81
314.853	214.81
315.083	213.81
315.312	231.81
315.542	221.81
315.771	211.81
316.001	222.81
316.23	225.81
316.46	197.81
316.689	196.81
316.919	214.81
317.148	228.81
317.377	224.81
317.607	199.81
317.836	219.81
318.065	245.81
318.295	276.81
318.524	245.81
318.753	227.81
318.983	218.81
319.212	209.81
319.441	217.81
319.67	247.81
319.9	259.81
320.129	260.81
320.358	234.81
320.587	223.81
320.816	239.81
321.046	256.81
321.275	276.81
321.504	268.81
321.733	259.81
321.962	257.81
322.191	245.81
322.42	242.81
322.649	256.81
322.878	253.81
323.108	272.81
323.337	245.81
323.566	239.81
323.795	247.81
324.024	244.81
324.253	245.81
324.482	217.81
324.71	243.81
324.939	273.81
325.168	245.81
325.397	224.81
325.626	220.81
325.855	202.81
326.084	229.81
326.313	220.81
326.542	204.81
326.77	224.81
326.999	227.81
327.228	229.81
327.457	232.81
327.686	232.81
327.914	201.81
328.143	188.81
328.372	198.81
328.6	193.81
328.829	218.81
329.058	192.81
329.287	213.81
329.515	199.81
329.744	196.81
329.972	185.81
330.201	195.81
330.43	204.81
330.658	233.81
330.887	260.81
331.115	234.81
331.344	236.81
331.572	224.81
331.801	216.81
332.03	209.81
332.258	212.81
332.486	237.81
332.715	228.81
332.943	208.81
333.172	207.81
333.4	230.81
333.629	253.81
333.857	254.81
334.085	250.81
334.314	260.81
334.542	258.81
334.771	231.81
334.999	252.81
335.227	217.81
335.455	211.81
335.684	251.81
335.912	271.81
336.14	288.81
336.369	264.81
336.597	276.81
336.825	289.81
337.053	329.81
337.281	274.81
337.51	232.81
337.738	219.81
337.966	253.81
338.194	256.81
338.422	258.81
338.65	225.81
338.878	214.81
339.106	205.81
339.334	243.81
339.562	234.81
339.79	221.81
340.018	217.81
340.246	236.81
340.474	266.81
340.702	271.81
340.93	283.81
341.158	298.81
341.386	242.81
341.614	267.81
341.842	239.81
342.07	249.81
342.298	292.81
342.526	294.81
342.754	263.81
342.981	245.81
343.209	236.81
343.437	240.81
343.665	281.81
343.893	278.81
344.12	314.81
344.348	367.81
344.576	320.81
344.804	271.81
345.031	239.81
345.259	230.81
345.487	226.81
345.714	215.81
345.942	244.81
346.17	270.81
346.397	277.81
346.625	214.81
346.853	226.81
347.08	229.81
347.308	238.81
347.535	264.81
347.763	257.81
347.99	227.81
348.218	216.81
348.445	228.81
348.673	238.81
348.9	228.81
349.128	254.81
349.355	256.81
349.583	246.81
349.81	222.81
350.037	229.81
350.265	196.81
350.492	177.81
350.72	208.81
350.947	193.81
351.174	215.81
351.402	223.81
351.629	200.81
351.856	208.81
352.083	204.81
352.311	215.81
352.538	247.81
352.765	285.81
352.992	213.81
353.22	233.81
353.447	234.81
353.674	201.81
353.901	211.81
354.128	228.81
354.355	226.81
354.583	223.81
354.81	228.81
355.037	252.81
355.264	221.81
355.491	252.81
355.718	254.81
355.945	249.81
356.172	242.81
356.399	260.81
356.626	279.81
356.853	325.81
357.08	364.81
357.307	348.81
357.534	290.81
357.761	295.81
357.988	374.81
358.215	417.81
358.441	392.81
358.668	329.81
358.895	302.81
359.122	266.81
359.349	263.81
359.576	302.81
359.802	245.81
360.029	217.81
360.256	226.81
360.483	287.81
360.709	352.81
360.936	348.81
361.163	286.81
361.39	245.81
361.616	248.81
361.843	270.81
362.07	311.81
362.296	276.81
362.523	252.81
362.749	230.81
362.976	215.81
363.203	262.81
363.429	306.81
363.656	236.81
363.882	226.81
364.109	231.81
364.335	238.81
364.562	229.81
364.788	236.81
365.015	273.81
365.241	255.81
365.468	211.81
365.694	211.81
365.92	197.81
366.147	194.81
366.373	202.81
366.599	187.81
366.826	201.81
367.052	223.81
367.278	197.81
367.505	212.81
367.731	199.81
367.957	220.81
368.184	236.81
368.41	233.81
368.636	231.81
368.862	237.81
369.089	238.81
369.315	236.81
369.541	204.81
369.767	215.81
369.993	197.81
370.219	213.81
370.445	217.81
370.672	247.81
370.898	249.81
371.124	245.81
371.35	235.81
371.576	221.81
371.802	226.81
372.028	256.81
372.254	305.81
372.48	284.81
372.706	233.81
372.932	245.81
373.158	249.81
373.384	296.81
373.61	370.81
373.835	390.81
374.061	302.81
374.287	282.81
374.513	304.81
374.739	358.81
374.965	362.81
375.191	350.81
375.416	285.81
375.642	229.81
375.868	276.81
376.094	297.81
376.319	268.81
376.545	277.81
376.771	292.81
376.997	257.81
377.222	206.81
377.448	191.81
377.674	194.81
377.899	189.81
378.125	178.81
378.35	199.81
378.576	198.81
378.802	207.81
379.027	225.81
379.253	229.81
379.478	221.81
379.704	238.81
379.929	255.81
380.155	251.81
380.38	221.81
380.606	239.81
380.831	272.81
381.057	230.81
381.282	245.81
381.507	260.81
381.733	302.81
381.958	328.81
382.184	350.81
382.409	367.81
382.634	361.81
382.86	361.81
383.085	330.81
383.31	245.81
383.535	285.81
383.761	287.81
383.986	267.81
384.211	306.81
384.436	289.81
384.662	247.81
384.887	254.81
385.112	260.81
385.337	244.81
385.562	224.81
385.787	257.81
386.013	300.81
386.238	288.81
386.463	256.81
386.688	243.81
386.913	240.81
387.138	237.81
387.363	213.81
387.588	229.81
387.813	243.81
388.038	262.81
388.263	211.81
388.488	206.81
388.713	265.81
388.938	258.81
389.163	236.81
389.387	219.81
389.612	204.81
389.837	229.81
390.062	236.81
390.287	242.81
390.512	253.81
390.736	236.81
390.961	244.81
391.186	208.81
391.411	215.81
391.636	215.81
391.86	239.81
392.085	265.81
392.31	244.81
392.534	240.81
392.759	227.81
392.984	274.81
393.208	240.81
393.433	231.81
393.658	208.81
393.882	214.81
394.107	199.81
394.331	192.81
394.556	202.81
394.78	201.81
395.005	205.81
395.229	194.81
395.454	208.81
395.678	221.81
395.903	214.81
396.127	213.81
396.352	224.81
396.576	232.81
396.801	225.81
397.025	232.81
397.249	265.81
397.474	205.81
397.698	229.81
397.922	233.81
398.147	242.81
398.371	231.81
398.595	253.81
398.82	234.81
399.044	231.81
399.268	272.81
399.492	280.81
399.717	265.81
399.941	284.81
400.165	283.81
400.389	273.81
400.613	256.81
400.837	237.81
401.062	237.81
401.286	223.81
401.51	220.81
401.734	233.81
401.958	232.81
402.182	217.81
402.406	228.81
402.63	249.81
402.854	243.81
403.078	287.81
403.302	351.81
403.526	382.81
403.75	329.81
403.974	272.81
404.198	287.81
404.422	309.81
404.645	316.81
404.869	331.81
405.093	296.81
405.317	256.81
405.541	244.81
405.765	252.81
405.988	259.81
406.212	260.81
406.436	295.81
406.66	319.81
406.883	274.81
407.107	266.81
407.331	327.81
407.555	273.81
407.778	282.81
408.002	268.81
408.226	272.81
408.449	265.81
408.673	245.81
408.896	238.81
409.12	226.81
409.344	246.81
409.567	230.81
409.791	238.81
410.014	256.81
410.238	244.81
410.461	225.81
410.685	228.81
410.908	241.81
411.132	239.81
411.355	239.81
411.578	240.81
411.802	238.81
412.025	253.81
412.249	237.81
412.472	227.81
412.695	245.81
412.919	240.81
413.142	229.81
413.365	254.81
413.589	260.81
413.812	240.81
414.035	224.81
414.258	233.81
414.482	263.81
414.705	272.81
414.928	229.81
415.151	217.81
415.374	239.81
415.597	229.81
415.821	233.81
416.044	224.81
416.267	223.81
416.49	216.81
416.713	217.81
416.936	227.81
417.159	226.81
417.382	238.81
417.605	236.81
417.828	235.81
418.051	241.81
418.274	233.81
418.497	238.81
418.72	223.81
418.943	254.81
419.166	244.81
419.389	254.81
419.611	239.81
419.834	264.81
420.057	268.81
420.28	255.81
420.503	240.81
420.726	240.81
420.948	234.81
421.171	245.81
421.394	220.81
421.617	221.81
421.839	227.81
422.062	241.81
422.285	230.81
422.507	225.81
422.73	244.81
422.953	260.81
423.175	240.81
423.398	242.81
423.621	249.81
423.843	264.81
424.066	257.81
424.288	244.81
424.511	241.81
424.733	230.81
424.956	261.81
425.178	264.81
425.401	305.81
425.623	344.81
425.846	300.81
426.068	263.81
426.291	270.81
426.513	254.81
426.735	241.81
426.958	242.81
427.18	272.81
427.402	326.81
427.625	343.81
427.847	297.81
428.069	234.81
428.292	227.81
428.514	222.81
428.736	230.81
428.958	250.81
429.181	304.81
429.403	288.81
429.625	239.81
429.847	227.81
430.069	258.81
430.292	237.81
430.514	216.81
430.736	229.81
430.958	272.81
431.18	268.81
431.402	225.81
431.624	216.81
431.846	213.81
432.068	223.81
432.29	220.81
432.512	237.81
432.734	278.81
432.956	283.81
433.178	234.81
433.4	223.81
433.622	212.81
433.844	231.81
434.066	258.81
434.287	248.81
434.509	231.81
434.731	243.81
434.953	236.81
435.175	276.81
435.397	271.81
435.618	245.81
435.84	222.81
436.062	249.81
436.284	217.81
436.505	223.81
436.727	216.81
436.949	212.81
437.17	209.81
437.392	208.81
437.614	215.81
437.835	204.81
438.057	216.81
438.278	244.81
438.5	306.81
438.721	329.81
438.943	229.81
439.165	212.81
439.386	204.81
439.608	201.81
439.829	220.81
440.05	205.81
440.272	217.81
440.493	246.81
440.715	286.81
440.936	249.81
441.158	212.81
441.379	231.81
441.6	257.81
441.822	256.81
442.043	214.81
442.264	250.81
442.486	215.81
442.707	227.81
442.928	220.81
443.149	237.81
443.371	230.81
443.592	241.81
443.813	244.81
444.034	228.81
444.255	243.81
444.476	266.81
444.698	257.81
444.919	247.81
445.14	361.81
445.361	308.81
445.582	244.81
445.803	245.81
446.024	264.81
446.245	256.81
446.466	231.81
446.687	231.81
446.908	236.81
447.129	218.81
447.35	213.81
447.571	221.81
447.792	205.81
448.013	205.81
448.234	202.81
448.455	214.81
448.675	200.81
448.896	205.81
449.117	208.81
449.338	208.81
449.559	214.81
449.779	220.81
450	217.81
450.221	207.81
450.442	222.81
450.662	217.81
450.883	223.81
451.104	229.81
451.324	217.81
451.545	211.81
451.766	216.81
451.986	203.81
452.207	218.81
452.428	211.81
452.648	202.81
452.869	202.81
453.089	217.81
453.31	206.81
453.53	198.81
453.751	199.81
453.971	211.81
454.192	201.81
454.412	206.81
454.633	217.81
454.853	202.81
455.073	202.81
455.294	194.81
455.514	198.81
455.734	199.81
455.955	198.81
456.175	221.81
456.395	199.81
456.616	187.81
456.836	194.81
457.056	197.81
457.276	189.81
457.497	185.81
457.717	203.81
457.937	198.81
458.157	193.81
458.377	217.81
458.598	183.81
458.818	210.81
459.038	205.81
459.258	201.81
459.478	216.81
459.698	236.81
459.918	233.81
460.138	234.81
460.358	250.81
460.578	246.81
460.798	245.81
461.018	258.81
461.238	224.81
461.458	230.81
461.678	241.81
461.898	276.81
462.118	265.81
462.338	250.81
462.558	246.81
462.777	266.81
462.997	273.81
463.217	272.81
463.437	311.81
463.657	292.81
463.876	256.81
464.096	273.81
464.316	287.81
464.536	273.81
464.755	255.81
464.975	280.81
465.195	251.81
465.414	257.81
465.634	240.81
465.854	236.81
466.073	224.81
466.293	198.81
466.512	217.81
466.732	256.81
466.951	258.81
467.171	229.81
467.391	222.81
467.61	217.81
467.829	254.81
468.049	233.81
468.268	202.81
468.488	203.81
468.707	212.81
468.927	242.81
469.146	274.81
469.365	244.81
469.585	233.81
469.804	245.81
470.023	261.81
470.243	241.81
470.462	230.81
470.681	209.81
470.901	230.81
471.12	259.81
471.339	256.81
471.558	238.81
471.777	225.81
471.997	237.81
472.216	283.81
472.435	275.81
472.654	223.81
472.873	240.81
473.092	252.81
473.311	263.81
473.53	250.81
473.749	226.81
473.968	236.81
474.187	236.81
474.406	210.81
474.625	244.81
474.844	221.81
475.063	247.81
475.282	234.81
475.501	262.81
475.72	297.81
475.939	267.81
476.158	269.81
476.377	295.81
476.596	311.81
476.814	343.81
477.033	296.81
477.252	277.81
477.471	233.81
477.69	221.81
477.908	253.81
478.127	283.81
478.346	276.81
478.564	287.81
478.783	262.81
479.002	281.81
479.22	309.81
479.439	322.81
479.658	286.81
479.876	269.81
480.095	292.81
480.313	293.81
480.532	272.81
480.751	268.81
480.969	266.81
481.188	305.81
481.406	303.81
481.624	300.81
481.843	261.81
482.061	247.81
482.28	302.81
482.498	327.81
482.717	346.81
482.935	278.81
483.153	257.81
483.372	268.81
483.59	266.81
483.808	259.81
484.027	255.81
484.245	240.81
484.463	223.81
484.681	253.81
484.9	265.81
485.118	291.81
485.336	269.81
485.554	255.81
485.772	257.81
485.99	278.81
486.209	283.81
486.427	290.81
486.645	288.81
486.863	289.81
487.081	287.81
487.299	301.81
487.517	310.81
487.735	278.81
487.953	288.81
488.171	274.81
488.389	276.81
488.607	252.81
488.825	254.81
489.043	297.81
489.261	317.81
489.479	354.81
489.696	293.81
489.914	281.81
490.132	256.81
490.35	272.81
490.568	261.81
490.786	270.81
491.003	285.81
491.221	253.81
491.439	242.81
491.657	267.81
491.874	278.81
492.092	308.81
492.31	372.81
492.527	391.81
492.745	333.81
492.963	311.81
493.18	304.81
493.398	294.81
493.615	290.81
493.833	272.81
494.05	275.81
494.268	280.81
494.485	287.81
494.703	274.81
494.92	282.81
495.138	243.81
495.355	279.81
495.573	289.81
495.79	305.81
496.008	369.81
496.225	340.81
496.442	283.81
496.66	325.81
496.877	318.81
497.094	312.81
497.312	307.81
497.529	293.81
497.746	300.81
497.963	306.81
498.181	331.81
498.398	368.81
498.615	374.81
498.832	375.81
499.049	365.81
499.267	360.81
499.484	389.81
499.701	406.81
499.918	461.81
500.135	513.81
500.352	518.81
500.569	559.81
500.786	553.81
501.003	512.81
501.22	483.81
501.437	425.81
501.654	417.81
501.871	389.81
502.088	382.81
502.305	336.81
502.522	357.81
