Data from NickelSpatula_HRD10591_16-36-29-127.txt Node
Date: Mon Jul 22 16:36:29 EDT 2019
User: cochatt
Spectrometer: HR+D1059
Trigger mode: 1
Integration Time (sec): 1.000000E-1
Scans to average: 1
Electric dark correction enabled: true
Nonlinearity correction enabled: false
Boxcar width: 0
XAxis mode: Wavelengths
Number of Pixels in Spectrum: 2048
>>>>>Begin Spectral Data<<<<<
223.165	-23.75
223.4	-23.75
223.635	-23.75
223.869	-12.75
224.104	-7.75
224.338	-9.75
224.573	-15.75
224.808	1.25
225.042	-11.75
225.277	-18.75
225.511	-6.75
225.746	7.25
225.98	3.25
226.215	14.25
226.449	18.25
226.683	13.25
226.918	24.25
227.152	25.25
227.387	28.25
227.621	39.25
227.856	48.25
228.09	37.25
228.324	60.25
228.559	61.25
228.793	60.25
229.027	67.25
229.262	67.25
229.496	72.25
229.73	73.25
229.964	78.25
230.199	92.25
230.433	80.25
230.667	90.25
230.901	75.25
231.136	87.25
231.37	88.25
231.604	99.25
231.838	100.25
232.072	112.25
232.306	87.25
232.541	81.25
232.775	87.25
233.009	87.25
233.243	91.25
233.477	89.25
233.711	88.25
233.945	97.25
234.179	98.25
234.413	100.25
234.647	96.25
234.881	84.25
235.115	97.25
235.349	89.25
235.583	91.25
235.817	103.25
236.051	89.25
236.285	77.25
236.519	113.25
236.753	103.25
236.987	97.25
237.221	87.25
237.455	91.25
237.689	93.25
237.922	98.25
238.156	98.25
238.39	101.25
238.624	104.25
238.858	100.25
239.091	98.25
239.325	93.25
239.559	108.25
239.793	112.25
240.027	111.25
240.26	107.25
240.494	99.25
240.728	103.25
240.961	116.25
241.195	121.25
241.429	124.25
241.662	106.25
241.896	103.25
242.13	105.25
242.363	100.25
242.597	105.25
242.83	87.25
243.064	107.25
243.298	111.25
243.531	114.25
243.765	112.25
243.998	98.25
244.232	101.25
244.465	84.25
244.699	108.25
244.932	116.25
245.166	114.25
245.399	106.25
245.633	100.25
245.866	97.25
246.099	108.25
246.333	91.25
246.566	107.25
246.8	108.25
247.033	129.25
247.266	119.25
247.5	105.25
247.733	109.25
247.966	97.25
248.2	95.25
248.433	115.25
248.666	133.25
248.899	123.25
249.133	120.25
249.366	121.25
249.599	127.25
249.832	115.25
250.066	135.25
250.299	121.25
250.532	114.25
250.765	112.25
250.998	115.25
251.231	118.25
251.465	136.25
251.698	113.25
251.931	116.25
252.164	121.25
252.397	129.25
252.63	124.25
252.863	137.25
253.096	159.25
253.329	142.25
253.562	136.25
253.795	164.25
254.028	161.25
254.261	147.25
254.494	154.25
254.727	124.25
254.96	125.25
255.193	129.25
255.426	133.25
255.659	128.25
255.892	120.25
256.124	127.25
256.357	140.25
256.59	151.25
256.823	137.25
257.056	136.25
257.289	116.25
257.521	131.25
257.754	139.25
257.987	156.25
258.22	123.25
258.452	127.25
258.685	142.25
258.918	140.25
259.151	153.25
259.383	147.25
259.616	159.25
259.849	155.25
260.081	169.25
260.314	169.25
260.547	155.25
260.779	176.25
261.012	181.25
261.244	167.25
261.477	165.25
261.71	156.25
261.942	140.25
262.175	143.25
262.407	123.25
262.64	158.25
262.872	147.25
263.105	150.25
263.337	161.25
263.57	169.25
263.802	125.25
264.035	112.25
264.267	109.25
264.499	123.25
264.732	115.25
264.964	91.25
265.197	118.25
265.429	116.25
265.661	128.25
265.894	122.25
266.126	123.25
266.358	134.25
266.591	141.25
266.823	154.25
267.055	154.25
267.287	158.25
267.52	164.25
267.752	149.25
267.984	163.25
268.216	161.25
268.448	139.25
268.681	139.25
268.913	142.25
269.145	140.25
269.377	159.25
269.609	145.25
269.841	136.25
270.073	149.25
270.306	157.25
270.538	161.25
270.77	150.25
271.002	160.25
271.234	172.25
271.466	149.25
271.698	160.25
271.93	156.25
272.162	151.25
272.394	154.25
272.626	161.25
272.858	146.25
273.09	143.25
273.322	155.25
273.553	127.25
273.785	154.25
274.017	189.25
274.249	225.25
274.481	195.25
274.713	222.25
274.945	252.25
275.176	261.25
275.408	231.25
275.64	229.25
275.872	228.25
276.104	204.25
276.335	164.25
276.567	172.25
276.799	164.25
277.031	177.25
277.262	166.25
277.494	133.25
277.726	159.25
277.957	147.25
278.189	179.25
278.421	151.25
278.652	157.25
278.884	154.25
279.115	143.25
279.347	132.25
279.579	144.25
279.81	143.25
280.042	155.25
280.273	128.25
280.505	145.25
280.736	123.25
280.968	133.25
281.199	132.25
281.431	146.25
281.662	147.25
281.894	144.25
282.125	158.25
282.356	148.25
282.588	153.25
282.819	145.25
283.051	151.25
283.282	167.25
283.513	183.25
283.745	204.25
283.976	213.25
284.207	191.25
284.439	199.25
284.67	180.25
284.901	150.25
285.132	187.25
285.364	161.25
285.595	167.25
285.826	185.25
286.057	190.25
286.288	182.25
286.52	189.25
286.751	192.25
286.982	197.25
287.213	183.25
287.444	183.25
287.675	190.25
287.906	181.25
288.138	164.25
288.369	159.25
288.6	157.25
288.831	162.25
289.062	165.25
289.293	179.25
289.524	170.25
289.755	155.25
289.986	153.25
290.217	153.25
290.448	125.25
290.679	124.25
290.91	114.25
291.141	120.25
291.371	131.25
291.602	127.25
291.833	132.25
292.064	146.25
292.295	145.25
292.526	153.25
292.757	137.25
292.987	151.25
293.218	167.25
293.449	177.25
293.68	173.25
293.91	170.25
294.141	172.25
294.372	161.25
294.603	155.25
294.833	162.25
295.064	180.25
295.295	176.25
295.525	133.25
295.756	135.25
295.987	133.25
296.217	121.25
296.448	124.25
296.679	126.25
296.909	124.25
297.14	127.25
297.37	156.25
297.601	148.25
297.831	130.25
298.062	156.25
298.292	151.25
298.523	160.25
298.753	153.25
298.984	162.25
299.214	133.25
299.445	120.25
299.675	131.25
299.905	129.25
300.136	132.25
300.366	130.25
300.597	116.25
300.827	120.25
301.057	116.25
301.288	116.25
301.518	121.25
301.748	116.25
301.979	139.25
302.209	149.25
302.439	143.25
302.669	137.25
302.9	148.25
303.13	141.25
303.36	143.25
303.59	123.25
303.82	137.25
304.051	139.25
304.281	143.25
304.511	147.25
304.741	143.25
304.971	142.25
305.201	138.25
305.431	130.25
305.661	141.25
305.891	126.25
306.121	131.25
306.352	111.25
306.582	131.25
306.812	113.25
307.042	123.25
307.272	120.25
307.502	100.25
307.731	107.25
307.961	111.25
308.191	138.25
308.421	125.25
308.651	109.25
308.881	117.25
309.111	119.25
309.341	120.25
309.571	119.25
309.8	132.25
310.03	114.25
310.26	139.25
310.49	129.25
310.72	110.25
310.949	127.25
311.179	113.25
311.409	125.25
311.639	130.25
311.868	149.25
312.098	185.25
312.328	180.25
312.557	177.25
312.787	170.25
313.017	146.25
313.246	180.25
313.476	162.25
313.706	150.25
313.935	136.25
314.165	127.25
314.394	125.25
314.624	117.25
314.853	118.25
315.083	108.25
315.312	127.25
315.542	122.25
315.771	108.25
316.001	121.25
316.23	120.25
316.46	116.25
316.689	104.25
316.919	120.25
317.148	126.25
317.377	120.25
317.607	103.25
317.836	95.25
318.065	135.25
318.295	142.25
318.524	129.25
318.753	123.25
318.983	115.25
319.212	134.25
319.441	113.25
319.67	124.25
319.9	121.25
320.129	115.25
320.358	124.25
320.587	128.25
320.816	134.25
321.046	131.25
321.275	127.25
321.504	124.25
321.733	129.25
321.962	127.25
322.191	121.25
322.42	121.25
322.649	112.25
322.878	138.25
323.108	136.25
323.337	124.25
323.566	141.25
323.795	117.25
324.024	121.25
324.253	120.25
324.482	130.25
324.71	124.25
324.939	130.25
325.168	131.25
325.397	118.25
325.626	123.25
325.855	109.25
326.084	125.25
326.313	129.25
326.542	117.25
326.77	124.25
326.999	130.25
327.228	132.25
327.457	122.25
327.686	111.25
327.914	105.25
328.143	116.25
328.372	111.25
328.6	105.25
328.829	98.25
329.058	119.25
329.287	95.25
329.515	114.25
329.744	110.25
329.972	121.25
330.201	130.25
330.43	124.25
330.658	118.25
330.887	113.25
331.115	115.25
331.344	129.25
331.572	127.25
331.801	120.25
332.03	121.25
332.258	127.25
332.486	127.25
332.715	132.25
332.943	128.25
333.172	115.25
333.4	112.25
333.629	120.25
333.857	124.25
334.085	134.25
334.314	137.25
334.542	121.25
334.771	131.25
334.999	111.25
335.227	123.25
335.455	122.25
335.684	129.25
335.912	124.25
336.14	129.25
336.369	131.25
336.597	144.25
336.825	150.25
337.053	163.25
337.281	138.25
337.51	104.25
337.738	119.25
337.966	141.25
338.194	121.25
338.422	133.25
338.65	122.25
338.878	123.25
339.106	128.25
339.334	126.25
339.562	124.25
339.79	123.25
340.018	115.25
340.246	128.25
340.474	129.25
340.702	136.25
340.93	141.25
341.158	129.25
341.386	134.25
341.614	134.25
341.842	121.25
342.07	128.25
342.298	137.25
342.526	144.25
342.754	136.25
342.981	128.25
343.209	129.25
343.437	137.25
343.665	128.25
343.893	132.25
344.12	134.25
344.348	155.25
344.576	158.25
344.804	145.25
345.031	120.25
345.259	133.25
345.487	129.25
345.714	118.25
345.942	116.25
346.17	136.25
346.397	133.25
346.625	120.25
346.853	121.25
347.08	125.25
347.308	141.25
347.535	132.25
347.763	124.25
347.99	115.25
348.218	114.25
348.445	129.25
348.673	123.25
348.9	119.25
349.128	105.25
349.355	135.25
349.583	120.25
349.81	131.25
350.037	117.25
350.265	98.25
350.492	113.25
350.72	99.25
350.947	113.25
351.174	116.25
351.402	117.25
351.629	119.25
351.856	113.25
352.083	105.25
352.311	111.25
352.538	112.25
352.765	125.25
352.992	109.25
353.22	125.25
353.447	122.25
353.674	119.25
353.901	130.25
354.128	116.25
354.355	108.25
354.583	107.25
354.81	127.25
355.037	123.25
355.264	115.25
355.491	121.25
355.718	128.25
355.945	131.25
356.172	117.25
356.399	130.25
356.626	130.25
356.853	144.25
357.08	151.25
357.307	159.25
357.534	148.25
357.761	145.25
357.988	155.25
358.215	165.25
358.441	161.25
358.668	161.25
358.895	147.25
359.122	141.25
359.349	127.25
359.576	133.25
359.802	122.25
360.029	122.25
360.256	123.25
360.483	120.25
360.709	144.25
360.936	155.25
361.163	146.25
361.39	124.25
361.616	138.25
361.843	129.25
362.07	145.25
362.296	139.25
362.523	121.25
362.749	113.25
362.976	147.25
363.203	125.25
363.429	138.25
363.656	123.25
363.882	113.25
364.109	126.25
364.335	141.25
364.562	111.25
364.788	123.25
365.015	122.25
365.241	126.25
365.468	119.25
365.694	106.25
365.92	123.25
366.147	103.25
366.373	119.25
366.599	102.25
366.826	127.25
367.052	111.25
367.278	119.25
367.505	109.25
367.731	125.25
367.957	117.25
368.184	132.25
368.41	128.25
368.636	120.25
368.862	121.25
369.089	137.25
369.315	111.25
369.541	111.25
369.767	126.25
369.993	113.25
370.219	104.25
370.445	114.25
370.672	129.25
370.898	114.25
371.124	123.25
371.35	119.25
371.576	115.25
371.802	117.25
372.028	137.25
372.254	137.25
372.48	117.25
372.706	119.25
372.932	130.25
373.158	123.25
373.384	132.25
373.61	155.25
373.835	137.25
374.061	131.25
374.287	129.25
374.513	157.25
374.739	144.25
374.965	154.25
375.191	154.25
375.416	131.25
375.642	126.25
375.868	128.25
376.094	132.25
376.319	140.25
376.545	126.25
376.771	138.25
376.997	132.25
377.222	121.25
377.448	105.25
377.674	124.25
377.899	104.25
378.125	121.25
378.35	108.25
378.576	108.25
378.802	125.25
379.027	125.25
379.253	123.25
379.478	121.25
379.704	128.25
379.929	117.25
380.155	118.25
380.38	128.25
380.606	134.25
380.831	123.25
381.057	125.25
381.282	132.25
381.507	136.25
381.733	148.25
381.958	152.25
382.184	136.25
382.409	152.25
382.634	155.25
382.86	149.25
383.085	128.25
383.31	140.25
383.535	140.25
383.761	128.25
383.986	137.25
384.211	129.25
384.436	145.25
384.662	116.25
384.887	118.25
385.112	124.25
385.337	124.25
385.562	120.25
385.787	128.25
386.013	131.25
386.238	135.25
386.463	138.25
386.688	129.25
386.913	134.25
387.138	106.25
387.363	125.25
387.588	139.25
387.813	136.25
388.038	120.25
388.263	123.25
388.488	121.25
388.713	134.25
388.938	152.25
389.163	127.25
389.387	118.25
389.612	103.25
389.837	129.25
390.062	128.25
390.287	119.25
390.512	115.25
390.736	138.25
390.961	108.25
391.186	113.25
391.411	121.25
391.636	119.25
391.86	118.25
392.085	120.25
392.31	142.25
392.534	126.25
392.759	128.25
392.984	125.25
393.208	124.25
393.433	140.25
393.658	129.25
393.882	119.25
394.107	100.25
394.331	107.25
394.556	107.25
394.78	120.25
395.005	122.25
395.229	114.25
395.454	130.25
395.678	106.25
395.903	123.25
396.127	125.25
396.352	132.25
396.576	125.25
396.801	111.25
397.025	131.25
397.249	132.25
397.474	131.25
397.698	115.25
397.922	122.25
398.147	122.25
398.371	120.25
398.595	132.25
398.82	133.25
399.044	121.25
399.268	126.25
399.492	140.25
399.717	127.25
399.941	131.25
400.165	128.25
400.389	128.25
400.613	115.25
400.837	131.25
401.062	121.25
401.286	117.25
401.51	138.25
401.734	123.25
401.958	112.25
402.182	124.25
402.406	116.25
402.63	117.25
402.854	140.25
403.078	141.25
403.302	153.25
403.526	150.25
403.75	144.25
403.974	131.25
404.198	145.25
404.422	146.25
404.645	145.25
404.869	139.25
405.093	147.25
405.317	130.25
405.541	145.25
405.765	135.25
405.988	122.25
406.212	121.25
406.436	133.25
406.66	124.25
406.883	145.25
407.107	135.25
407.331	133.25
407.555	142.25
407.778	127.25
408.002	133.25
408.226	127.25
408.449	127.25
408.673	129.25
408.896	133.25
409.12	127.25
409.344	119.25
409.567	120.25
409.791	133.25
410.014	103.25
410.238	129.25
410.461	119.25
410.685	121.25
410.908	130.25
411.132	127.25
411.355	128.25
411.578	141.25
411.802	135.25
412.025	123.25
412.249	131.25
412.472	130.25
412.695	124.25
412.919	140.25
413.142	131.25
413.365	123.25
413.589	134.25
413.812	130.25
414.035	131.25
414.258	125.25
414.482	139.25
414.705	123.25
414.928	125.25
415.151	126.25
415.374	123.25
415.597	113.25
415.821	116.25
416.044	127.25
416.267	125.25
416.49	116.25
416.713	118.25
416.936	121.25
417.159	116.25
417.382	113.25
417.605	124.25
417.828	112.25
418.051	123.25
418.274	123.25
418.497	122.25
418.72	117.25
418.943	129.25
419.166	121.25
419.389	129.25
419.611	124.25
419.834	111.25
420.057	129.25
420.28	136.25
420.503	130.25
420.726	117.25
420.948	126.25
421.171	111.25
421.394	120.25
421.617	123.25
421.839	107.25
422.062	124.25
422.285	121.25
422.507	124.25
422.73	124.25
422.953	136.25
423.175	139.25
423.398	128.25
423.621	127.25
423.843	142.25
424.066	120.25
424.288	114.25
424.511	120.25
424.733	116.25
424.956	125.25
425.178	133.25
425.401	136.25
425.623	151.25
425.846	133.25
426.068	134.25
426.291	144.25
426.513	156.25
426.735	129.25
426.958	133.25
427.18	135.25
427.402	153.25
427.625	140.25
427.847	136.25
428.069	113.25
428.292	131.25
428.514	120.25
428.736	131.25
428.958	113.25
429.181	153.25
429.403	122.25
429.625	131.25
429.847	126.25
430.069	129.25
430.292	112.25
430.514	127.25
430.736	124.25
430.958	147.25
431.18	127.25
431.402	115.25
431.624	108.25
431.846	119.25
432.068	108.25
432.29	127.25
432.512	116.25
432.734	142.25
432.956	141.25
433.178	123.25
433.4	122.25
433.622	123.25
433.844	114.25
434.066	133.25
434.287	128.25
434.509	137.25
434.731	138.25
434.953	122.25
435.175	115.25
435.397	142.25
435.618	112.25
435.84	111.25
436.062	119.25
436.284	116.25
436.505	117.25
436.727	116.25
436.949	115.25
437.17	116.25
437.392	139.25
437.614	113.25
437.835	129.25
438.057	120.25
438.278	125.25
438.5	156.25
438.721	139.25
438.943	116.25
439.165	111.25
439.386	115.25
439.608	113.25
439.829	115.25
440.05	126.25
440.272	128.25
440.493	134.25
440.715	138.25
440.936	119.25
441.158	123.25
441.379	125.25
441.6	133.25
441.822	127.25
442.043	136.25
442.264	115.25
442.486	126.25
442.707	131.25
442.928	118.25
443.149	121.25
443.371	129.25
443.592	108.25
443.813	131.25
444.034	122.25
444.255	136.25
444.476	133.25
444.698	126.25
444.919	119.25
445.14	245.25
445.361	191.25
445.582	124.25
445.803	121.25
446.024	129.25
446.245	129.25
446.466	117.25
446.687	133.25
446.908	127.25
447.129	124.25
447.35	113.25
447.571	126.25
447.792	117.25
448.013	115.25
448.234	118.25
448.455	122.25
448.675	126.25
448.896	106.25
449.117	120.25
449.338	127.25
449.559	136.25
449.779	123.25
450	115.25
450.221	118.25
450.442	112.25
450.662	126.25
450.883	124.25
451.104	109.25
451.324	113.25
451.545	129.25
451.766	124.25
451.986	126.25
452.207	127.25
452.428	121.25
452.648	136.25
452.869	127.25
453.089	119.25
453.31	104.25
453.53	109.25
453.751	96.25
453.971	118.25
454.192	106.25
454.412	113.25
454.633	116.25
454.853	121.25
455.073	108.25
455.294	116.25
455.514	108.25
455.734	126.25
455.955	118.25
456.175	119.25
456.395	119.25
456.616	114.25
456.836	111.25
457.056	101.25
457.276	121.25
457.497	117.25
457.717	115.25
457.937	120.25
458.157	89.25
458.377	105.25
458.598	119.25
458.818	118.25
459.038	107.25
459.258	119.25
459.478	111.25
459.698	123.25
459.918	123.25
460.138	125.25
460.358	116.25
460.578	127.25
460.798	123.25
461.018	103.25
461.238	127.25
461.458	112.25
461.678	125.25
461.898	124.25
462.118	131.25
462.338	145.25
462.558	129.25
462.777	124.25
462.997	137.25
463.217	131.25
463.437	132.25
463.657	127.25
463.876	120.25
464.096	137.25
464.316	125.25
464.536	133.25
464.755	137.25
464.975	130.25
465.195	137.25
465.414	125.25
465.634	132.25
465.854	135.25
466.073	117.25
466.293	123.25
466.512	135.25
466.732	140.25
466.951	140.25
467.171	135.25
467.391	115.25
467.61	121.25
467.829	119.25
468.049	134.25
468.268	128.25
468.488	133.25
468.707	131.25
468.927	121.25
469.146	141.25
469.365	124.25
469.585	131.25
469.804	129.25
470.023	134.25
470.243	121.25
470.462	121.25
470.681	128.25
470.901	122.25
471.12	126.25
471.339	126.25
471.558	134.25
471.777	132.25
471.997	135.25
472.216	137.25
472.435	127.25
472.654	132.25
472.873	111.25
473.092	132.25
473.311	141.25
473.53	124.25
473.749	131.25
473.968	139.25
474.187	142.25
474.406	129.25
474.625	131.25
474.844	129.25
475.063	136.25
475.282	127.25
475.501	131.25
475.72	155.25
475.939	136.25
476.158	120.25
476.377	133.25
476.596	161.25
476.814	162.25
477.033	153.25
477.252	133.25
477.471	129.25
477.69	129.25
477.908	134.25
478.127	136.25
478.346	134.25
478.564	159.25
478.783	122.25
479.002	138.25
479.22	151.25
479.439	145.25
479.658	150.25
479.876	143.25
480.095	127.25
480.313	147.25
480.532	147.25
480.751	134.25
480.969	142.25
481.188	143.25
481.406	148.25
481.624	157.25
481.843	131.25
482.061	133.25
482.28	133.25
482.498	159.25
482.717	153.25
482.935	149.25
483.153	137.25
483.372	140.25
483.59	122.25
483.808	120.25
484.027	119.25
484.245	134.25
484.463	127.25
484.681	133.25
484.9	121.25
485.118	133.25
485.336	137.25
485.554	133.25
485.772	122.25
485.99	145.25
486.209	144.25
486.427	147.25
486.645	137.25
486.863	144.25
487.081	131.25
487.299	143.25
487.517	132.25
487.735	135.25
487.953	155.25
488.171	150.25
488.389	140.25
488.607	134.25
488.825	128.25
489.043	125.25
489.261	162.25
489.479	145.25
489.696	143.25
489.914	152.25
490.132	145.25
490.35	140.25
490.568	131.25
490.786	148.25
491.003	142.25
491.221	132.25
491.439	145.25
491.657	135.25
491.874	140.25
492.092	155.25
492.31	173.25
492.527	172.25
492.745	135.25
492.963	157.25
493.18	137.25
493.398	152.25
493.615	137.25
493.833	146.25
494.05	139.25
494.268	147.25
494.485	141.25
494.703	123.25
494.92	139.25
495.138	148.25
495.355	137.25
495.573	145.25
495.79	160.25
496.008	173.25
496.225	154.25
496.442	133.25
496.66	140.25
496.877	156.25
497.094	148.25
497.312	151.25
497.529	159.25
497.746	156.25
497.963	143.25
498.181	148.25
498.398	154.25
498.615	152.25
498.832	166.25
499.049	171.25
499.267	156.25
499.484	163.25
499.701	151.25
499.918	180.25
500.135	197.25
500.352	189.25
500.569	200.25
500.786	189.25
501.003	195.25
501.22	170.25
501.437	179.25
501.654	171.25
501.871	166.25
502.088	159.25
502.305	162.25
502.522	144.25
502.739	161.25
502.956	149.25
503.172	141.25
