Data from NickelSpatula.Lamp.E10.P2_HRD10591_11-59-18-525.txt Node
Date: Tue Jul 23 11:59:18 EDT 2019
User: cochatt
Spectrometer: HR+D1059
Trigger mode: 1
Integration Time (sec): 1.000000E-1
Scans to average: 1
Electric dark correction enabled: true
Nonlinearity correction enabled: false
Boxcar width: 0
XAxis mode: Wavelengths
Number of Pixels in Spectrum: 2048
>>>>>Begin Spectral Data<<<<<
223.165	-23.12
223.4	-23.12
223.635	-23.12
223.869	-13.12
224.104	-10.12
224.338	-3.12
224.573	-19.12
224.808	-7.12
225.042	-6.12
225.277	2.88
225.511	0.88
225.746	9.88
225.98	-0.12
226.215	9.88
226.449	22.88
226.683	7.88
226.918	21.88
227.152	5.88
227.387	40.88
227.621	35.88
227.856	49.88
228.09	49.88
228.324	46.88
228.559	69.88
228.793	83.88
229.027	134.88
229.262	132.88
229.496	167.88
229.73	179.88
229.964	194.88
230.199	223.88
230.433	221.88
230.667	224.88
230.901	211.88
231.136	195.88
231.37	195.88
231.604	227.88
231.838	228.88
232.072	246.88
232.306	232.88
232.541	263.88
232.775	241.88
233.009	260.88
233.243	295.88
233.477	309.88
233.711	352.88
233.945	339.88
234.179	342.88
234.413	361.88
234.647	411.88
234.881	454.88
235.115	451.88
235.349	409.88
235.583	350.88
235.817	360.88
236.051	375.88
236.285	415.88
236.519	450.88
236.753	445.88
236.987	456.88
237.221	418.88
237.455	415.88
237.689	445.88
237.922	440.88
238.156	470.88
238.39	556.88
238.624	653.88
238.858	589.88
239.091	496.88
239.325	507.88
239.559	504.88
239.793	551.88
240.027	653.88
240.26	620.88
240.494	578.88
240.728	601.88
240.961	710.88
241.195	645.88
241.429	632.88
241.662	652.88
241.896	528.88
242.13	470.88
242.363	455.88
242.597	461.88
242.83	547.88
243.064	555.88
243.298	604.88
243.531	652.88
243.765	655.88
243.998	624.88
244.232	590.88
244.465	609.88
244.699	576.88
244.932	657.88
245.166	627.88
245.399	551.88
245.633	557.88
245.866	602.88
246.099	628.88
246.333	723.88
246.566	785.88
246.8	792.88
247.033	757.88
247.266	702.88
247.5	692.88
247.733	682.88
247.966	654.88
248.2	684.88
248.433	797.88
248.666	861.88
248.899	859.88
249.133	866.88
249.366	1015.88
249.599	1063.88
249.832	965.88
250.066	829.88
250.299	827.88
250.532	815.88
250.765	824.88
250.998	739.88
251.231	713.88
251.465	811.88
251.698	833.88
251.931	803.88
252.164	853.88
252.397	957.88
252.63	1065.88
252.863	1188.88
253.096	1189.88
253.329	1138.88
253.562	1111.88
253.795	1262.88
254.028	1368.88
254.261	1404.88
254.494	1237.88
254.727	1157.88
254.96	1117.88
255.193	1213.88
255.426	1165.88
255.659	857.88
255.892	790.88
256.124	857.88
256.357	1021.88
256.59	1198.88
256.823	1155.88
257.056	978.88
257.289	903.88
257.521	977.88
257.754	1139.88
257.987	1320.88
258.22	1115.88
258.452	1015.88
258.685	1143.88
258.918	1265.88
259.151	1259.88
259.383	1317.88
259.616	1505.88
259.849	1590.88
260.081	1746.88
260.314	1901.88
260.547	1495.88
260.779	1493.88
261.012	1729.88
261.244	1607.88
261.477	1653.88
261.71	1520.88
261.942	1301.88
262.175	1303.88
262.407	1223.88
262.64	1275.88
262.872	1541.88
263.105	1661.88
263.337	1745.88
263.57	1542.88
263.802	1067.88
264.035	907.88
264.267	882.88
264.499	798.88
264.732	708.88
264.964	679.88
265.197	727.88
265.429	775.88
265.661	820.88
265.894	875.88
266.126	937.88
266.358	1039.88
266.591	1263.88
266.823	1522.88
267.055	1406.88
267.287	1239.88
267.52	1240.88
267.752	1296.88
267.984	1453.88
268.216	1395.88
268.448	1121.88
268.681	1104.88
268.913	1209.88
269.145	1246.88
269.377	1311.88
269.609	1318.88
269.841	1240.88
270.073	1293.88
270.306	1411.88
270.538	1387.88
270.77	1396.88
271.002	1430.88
271.234	1450.88
271.466	1529.88
271.698	1479.88
271.93	1421.88
272.162	1441.88
272.394	1446.88
272.626	1390.88
272.858	1485.88
273.09	1509.88
273.322	1329.88
273.553	1271.88
273.785	1560.88
274.017	1977.88
274.249	2502.88
274.481	2541.88
274.713	2773.88
274.945	3205.88
275.176	3292.88
275.408	2965.88
275.64	2694.88
275.872	2650.88
276.104	2265.88
276.335	1940.88
276.567	1896.88
276.799	1971.88
277.031	2079.88
277.262	1656.88
277.494	1236.88
277.726	1211.88
277.957	1319.88
278.189	1503.88
278.421	1478.88
278.652	1443.88
278.884	1395.88
279.115	1255.88
279.347	1222.88
279.579	1222.88
279.81	1192.88
280.042	1220.88
280.273	1265.88
280.505	1154.88
280.736	1013.88
280.968	1010.88
281.199	1116.88
281.431	1279.88
281.662	1233.88
281.894	1160.88
282.125	1235.88
282.356	1347.88
282.588	1377.88
282.819	1245.88
283.051	1397.88
283.282	1681.88
283.513	1951.88
283.745	2200.88
283.976	2237.88
284.207	2034.88
284.439	2100.88
284.67	2037.88
284.901	1796.88
285.132	1978.88
285.364	2039.88
285.595	1881.88
285.826	1973.88
286.057	2036.88
286.288	1949.88
286.52	1995.88
286.751	2164.88
286.982	2020.88
287.213	1823.88
287.444	1791.88
287.675	1845.88
287.906	1832.88
288.138	1538.88
288.369	1367.88
288.6	1289.88
288.831	1320.88
289.062	1558.88
289.293	1700.88
289.524	1579.88
289.755	1639.88
289.986	1627.88
290.217	1440.88
290.448	1119.88
290.679	965.88
290.91	932.88
291.141	944.88
291.371	978.88
291.602	963.88
291.833	994.88
292.064	1059.88
292.295	1247.88
292.526	1369.88
292.757	1489.88
292.987	1557.88
293.218	1568.88
293.449	1594.88
293.68	1673.88
293.91	1553.88
294.141	1631.88
294.372	1515.88
294.603	1457.88
294.833	1614.88
295.064	1877.88
295.295	1702.88
295.525	1318.88
295.756	1148.88
295.987	984.88
296.217	1019.88
296.448	1071.88
296.679	1137.88
296.909	1234.88
297.14	1339.88
297.37	1438.88
297.601	1351.88
297.831	1179.88
298.062	1243.88
298.292	1440.88
298.523	1597.88
298.753	1796.88
298.984	1598.88
299.214	1277.88
299.445	1092.88
299.675	1044.88
299.905	1046.88
300.136	1074.88
300.366	1189.88
300.597	1185.88
300.827	1036.88
301.057	1015.88
301.288	1033.88
301.518	1116.88
301.748	1224.88
301.979	1333.88
302.209	1495.88
302.439	1506.88
302.669	1254.88
302.9	1245.88
303.13	1179.88
303.36	1142.88
303.59	1058.88
303.82	1091.88
304.051	1246.88
304.281	1351.88
304.511	1319.88
304.741	1159.88
304.971	1208.88
305.201	1280.88
305.431	1250.88
305.661	1071.88
305.891	1069.88
306.121	1079.88
306.352	983.88
306.582	889.88
306.812	858.88
307.042	887.88
307.272	806.88
307.502	841.88
307.731	879.88
307.961	916.88
308.191	850.88
308.421	809.88
308.651	821.88
308.881	757.88
309.111	781.88
309.341	785.88
309.571	889.88
309.8	926.88
310.03	940.88
310.26	1011.88
310.49	957.88
310.72	857.88
310.949	854.88
311.179	883.88
311.409	928.88
311.639	1077.88
311.868	1396.88
312.098	1780.88
312.328	1941.88
312.557	1858.88
312.787	1889.88
313.017	1678.88
313.246	1824.88
313.476	1955.88
313.706	1643.88
313.935	1301.88
314.165	1057.88
314.394	952.88
314.624	964.88
314.853	994.88
315.083	1056.88
315.312	994.88
315.542	997.88
315.771	953.88
316.001	864.88
316.23	834.88
316.46	844.88
316.689	848.88
316.919	900.88
317.148	897.88
317.377	885.88
317.607	854.88
317.836	951.88
318.065	1118.88
318.295	1248.88
318.524	1155.88
318.753	977.88
318.983	923.88
319.212	946.88
319.441	1011.88
319.67	1126.88
319.9	1231.88
320.129	1126.88
320.358	995.88
320.587	941.88
320.816	1051.88
321.046	1201.88
321.275	1339.88
321.504	1351.88
321.733	1333.88
321.962	1234.88
322.191	1179.88
322.42	1148.88
322.649	1138.88
322.878	1208.88
323.108	1243.88
323.337	1097.88
323.566	1076.88
323.795	1044.88
324.024	1018.88
324.253	992.88
324.482	984.88
324.71	1067.88
324.939	1207.88
325.168	1112.88
325.397	943.88
325.626	919.88
325.855	923.88
326.084	949.88
326.313	897.88
326.542	851.88
326.77	880.88
326.999	911.88
327.228	961.88
327.457	1024.88
327.686	982.88
327.914	868.88
328.143	846.88
328.372	842.88
328.6	839.88
328.829	882.88
329.058	901.88
329.287	909.88
329.515	910.88
329.744	883.88
329.972	822.88
330.201	806.88
330.43	829.88
330.658	954.88
330.887	1077.88
331.115	1036.88
331.344	986.88
331.572	996.88
331.801	919.88
332.03	836.88
332.258	870.88
332.486	966.88
332.715	982.88
332.943	923.88
333.172	935.88
333.4	927.88
333.629	1044.88
333.857	1091.88
334.085	1083.88
334.314	1111.88
334.542	1054.88
334.771	971.88
334.999	940.88
335.227	927.88
335.455	939.88
335.684	1025.88
335.912	1214.88
336.14	1320.88
336.369	1279.88
336.597	1244.88
336.825	1361.88
337.053	1520.88
337.281	1238.88
337.51	1005.88
337.738	991.88
337.966	1095.88
338.194	1175.88
338.422	1128.88
338.65	951.88
338.878	877.88
339.106	905.88
339.334	1016.88
339.562	1109.88
339.79	995.88
340.018	951.88
340.246	1098.88
340.474	1224.88
340.702	1264.88
340.93	1325.88
341.158	1329.88
341.386	1105.88
341.614	1129.88
341.842	1107.88
342.07	1160.88
342.298	1343.88
342.526	1399.88
342.754	1224.88
342.981	1111.88
343.209	1054.88
343.437	1149.88
343.665	1199.88
343.893	1202.88
344.12	1402.88
344.348	1627.88
344.576	1430.88
344.804	1186.88
345.031	1044.88
345.259	1000.88
345.487	996.88
345.714	1055.88
345.942	1091.88
346.17	1215.88
346.397	1142.88
346.625	989.88
346.853	957.88
347.08	944.88
347.308	1019.88
347.535	1123.88
347.763	1184.88
347.99	993.88
348.218	932.88
348.445	981.88
348.673	969.88
348.9	990.88
349.128	1050.88
349.355	1119.88
349.583	1060.88
349.81	1029.88
350.037	917.88
350.265	838.88
350.492	803.88
350.72	782.88
350.947	845.88
351.174	888.88
351.402	945.88
351.629	976.88
351.856	933.88
352.083	893.88
352.311	981.88
352.538	1080.88
352.765	1208.88
352.992	1070.88
353.22	1009.88
353.447	995.88
353.674	976.88
353.901	990.88
354.128	987.88
354.355	1012.88
354.583	1002.88
354.81	979.88
355.037	1003.88
355.264	1023.88
355.491	1094.88
355.718	1154.88
355.945	1195.88
356.172	1114.88
356.399	1120.88
356.626	1334.88
356.853	1659.88
357.08	1715.88
357.307	1779.88
357.534	1372.88
357.761	1402.88
357.988	1765.88
358.215	2098.88
358.441	1990.88
358.668	1657.88
358.895	1538.88
359.122	1219.88
359.349	1222.88
359.576	1349.88
359.802	1117.88
360.029	931.88
360.256	1008.88
360.483	1295.88
360.709	1672.88
360.936	1679.88
361.163	1508.88
361.39	1143.88
361.616	1069.88
361.843	1229.88
362.07	1510.88
362.296	1408.88
362.523	1105.88
362.749	952.88
362.976	1008.88
363.203	1218.88
363.429	1378.88
363.656	1120.88
363.882	994.88
364.109	1030.88
364.335	1015.88
364.562	989.88
364.788	1160.88
365.015	1336.88
365.241	1170.88
365.468	961.88
365.694	857.88
365.92	817.88
366.147	783.88
366.373	752.88
366.599	780.88
366.826	804.88
367.052	845.88
367.278	837.88
367.505	811.88
367.731	934.88
367.957	1027.88
368.184	1047.88
368.41	1023.88
368.636	1011.88
368.862	1090.88
369.089	1023.88
369.315	920.88
369.541	903.88
369.767	910.88
369.993	847.88
370.219	847.88
370.445	898.88
370.672	1031.88
370.898	1119.88
371.124	1118.88
371.35	949.88
371.576	898.88
371.802	971.88
372.028	1198.88
372.254	1387.88
372.48	1168.88
372.706	1057.88
372.932	1125.88
373.158	1152.88
373.384	1397.88
373.61	1907.88
373.835	1926.88
374.061	1424.88
374.287	1203.88
374.513	1403.88
374.739	1691.88
374.965	1757.88
375.191	1669.88
375.416	1175.88
375.642	1062.88
375.868	1224.88
376.094	1367.88
376.319	1179.88
376.545	1306.88
376.771	1375.88
376.997	1167.88
377.222	865.88
377.448	752.88
377.674	753.88
377.899	762.88
378.125	737.88
378.35	745.88
378.576	804.88
378.802	863.88
379.027	939.88
379.253	911.88
379.478	940.88
379.704	1062.88
379.929	1093.88
380.155	1093.88
380.38	930.88
380.606	1033.88
380.831	1133.88
381.057	1038.88
381.282	993.88
381.507	1169.88
381.733	1497.88
381.958	1565.88
382.184	1650.88
382.409	1772.88
382.634	1677.88
382.86	1778.88
383.085	1434.88
383.31	1132.88
383.535	1248.88
383.761	1245.88
383.986	1147.88
384.211	1446.88
384.436	1333.88
384.662	1036.88
384.887	1020.88
385.112	1029.88
385.337	1053.88
385.562	1011.88
385.787	1102.88
386.013	1249.88
386.238	1275.88
386.463	1027.88
386.688	1008.88
386.913	983.88
387.138	890.88
387.363	961.88
387.588	991.88
387.813	993.88
388.038	1120.88
388.263	988.88
388.488	982.88
388.713	1143.88
388.938	1221.88
389.163	1038.88
389.387	887.88
389.612	942.88
389.837	931.88
390.062	963.88
390.287	1036.88
390.512	1029.88
390.736	945.88
390.961	903.88
391.186	857.88
391.411	841.88
391.636	855.88
391.86	945.88
392.085	1034.88
392.31	1032.88
392.534	967.88
392.759	944.88
392.984	1013.88
393.208	963.88
393.433	893.88
393.658	805.88
393.882	767.88
394.107	791.88
394.331	813.88
394.556	812.88
394.78	811.88
395.005	858.88
395.229	866.88
395.454	920.88
395.678	907.88
395.903	920.88
396.127	870.88
396.352	884.88
396.576	989.88
396.801	1000.88
397.025	1083.88
397.249	1138.88
397.474	944.88
397.698	919.88
397.922	978.88
398.147	939.88
398.371	915.88
398.595	981.88
398.82	969.88
399.044	981.88
399.268	1023.88
399.492	1063.88
399.717	1080.88
399.941	1079.88
400.165	1047.88
400.389	1010.88
400.613	1062.88
400.837	1021.88
401.062	936.88
401.286	895.88
401.51	914.88
401.734	923.88
401.958	921.88
402.182	916.88
402.406	883.88
402.63	928.88
402.854	966.88
403.078	1056.88
403.302	1316.88
403.526	1339.88
403.75	1179.88
403.974	1041.88
404.198	1095.88
404.422	1207.88
404.645	1472.88
404.869	1625.88
405.093	1203.88
405.317	1001.88
405.541	981.88
405.765	1017.88
405.988	1032.88
406.212	1084.88
406.436	1328.88
406.66	1439.88
406.883	1171.88
407.107	1169.88
407.331	1395.88
407.555	1323.88
407.778	1103.88
408.002	1050.88
408.226	1053.88
408.449	1035.88
408.673	1030.88
408.896	958.88
409.12	931.88
409.344	937.88
409.567	878.88
409.791	909.88
410.014	888.88
410.238	922.88
410.461	890.88
410.685	942.88
410.908	885.88
411.132	921.88
411.355	941.88
411.578	922.88
411.802	936.88
412.025	1004.88
412.249	1017.88
412.472	972.88
412.695	949.88
412.919	951.88
413.142	981.88
413.365	1038.88
413.589	1075.88
413.812	948.88
414.035	919.88
414.258	938.88
414.482	1073.88
414.705	1071.88
414.928	919.88
415.151	889.88
415.374	879.88
415.597	923.88
415.821	928.88
416.044	895.88
416.267	889.88
416.49	865.88
416.713	860.88
416.936	862.88
417.159	871.88
417.382	880.88
417.605	923.88
417.828	922.88
418.051	920.88
418.274	933.88
418.497	903.88
418.72	904.88
418.943	962.88
419.166	1024.88
419.389	1022.88
419.611	1029.88
419.834	1040.88
420.057	1136.88
420.28	1120.88
420.503	1025.88
420.726	931.88
420.948	861.88
421.171	900.88
421.394	929.88
421.617	863.88
421.839	887.88
422.062	955.88
422.285	919.88
422.507	927.88
422.73	948.88
422.953	991.88
423.175	965.88
423.398	977.88
423.621	1017.88
423.843	1070.88
424.066	981.88
424.288	925.88
424.511	941.88
424.733	923.88
424.956	962.88
425.178	1075.88
425.401	1238.88
425.623	1439.88
425.846	1191.88
426.068	1023.88
426.291	1132.88
426.513	1049.88
426.735	942.88
426.958	975.88
427.18	1183.88
427.402	1521.88
427.625	1503.88
427.847	1225.88
428.069	935.88
428.292	901.88
428.514	916.88
428.736	870.88
428.958	983.88
429.181	1143.88
429.403	998.88
429.625	885.88
429.847	862.88
430.069	899.88
430.292	896.88
430.514	884.88
430.736	976.88
430.958	1234.88
431.18	1103.88
431.402	826.88
431.624	815.88
431.846	805.88
432.068	807.88
432.29	812.88
432.512	925.88
432.734	1257.88
432.956	1144.88
433.178	867.88
433.4	839.88
433.622	837.88
433.844	887.88
434.066	933.88
434.287	911.88
434.509	909.88
434.731	925.88
434.953	873.88
435.175	928.88
435.397	1047.88
435.618	921.88
435.84	816.88
436.062	847.88
436.284	838.88
436.505	795.88
436.727	793.88
436.949	829.88
437.17	861.88
437.392	857.88
437.614	847.88
437.835	827.88
438.057	853.88
438.278	999.88
438.5	1447.88
438.721	1449.88
438.943	958.88
439.165	824.88
439.386	807.88
439.608	782.88
439.829	773.88
440.05	766.88
440.272	841.88
440.493	1011.88
440.715	1246.88
440.936	1003.88
441.158	871.88
441.379	856.88
441.6	994.88
441.822	1047.88
442.043	907.88
442.264	871.88
442.486	860.88
442.707	888.88
442.928	856.88
443.149	900.88
443.371	881.88
443.592	923.88
443.813	911.88
444.034	893.88
444.255	903.88
444.476	964.88
444.698	930.88
444.919	989.88
445.14	1081.88
445.361	1031.88
445.582	979.88
445.803	919.88
446.024	928.88
446.245	967.88
446.466	919.88
446.687	880.88
446.908	876.88
447.129	838.88
447.35	813.88
447.571	813.88
447.792	789.88
448.013	816.88
448.234	785.88
448.455	775.88
448.675	807.88
448.896	804.88
449.117	803.88
449.338	797.88
449.559	832.88
449.779	870.88
450	882.88
450.221	832.88
450.442	844.88
450.662	822.88
450.883	792.88
451.104	795.88
451.324	822.88
451.545	814.88
451.766	808.88
451.986	773.88
452.207	771.88
452.428	752.88
452.648	787.88
452.869	822.88
453.089	869.88
453.31	841.88
453.53	755.88
453.751	776.88
453.971	754.88
454.192	784.88
454.412	795.88
454.633	751.88
454.853	745.88
455.073	730.88
455.294	731.88
455.514	721.88
455.734	777.88
455.955	815.88
456.175	829.88
456.395	752.88
456.616	708.88
456.836	716.88
457.056	702.88
457.276	717.88
457.497	719.88
457.717	704.88
457.937	710.88
458.157	721.88
458.377	727.88
458.598	732.88
458.818	784.88
459.038	830.88
459.258	797.88
459.478	840.88
459.698	920.88
459.918	923.88
460.138	879.88
460.358	886.88
460.578	849.88
460.798	889.88
461.018	911.88
461.238	865.88
461.458	850.88
461.678	911.88
461.898	918.88
462.118	923.88
462.338	920.88
462.558	956.88
462.777	992.88
462.997	1037.88
463.217	1009.88
463.437	1052.88
463.657	1016.88
463.876	992.88
464.096	960.88
464.316	965.88
464.536	970.88
464.755	1037.88
464.975	1025.88
465.195	949.88
465.414	1023.88
465.634	983.88
465.854	948.88
466.073	885.88
466.293	844.88
466.512	914.88
466.732	1024.88
466.951	1063.88
467.171	908.88
467.391	884.88
467.61	880.88
467.829	943.88
468.049	979.88
468.268	882.88
468.488	886.88
468.707	935.88
468.927	1070.88
469.146	1143.88
469.365	1054.88
469.585	930.88
469.804	1019.88
470.023	1113.88
470.243	961.88
470.462	919.88
470.681	947.88
470.901	926.88
471.12	1011.88
471.339	971.88
471.558	953.88
471.777	947.88
471.997	1049.88
472.216	1154.88
472.435	1085.88
472.654	974.88
472.873	941.88
473.092	1024.88
473.311	1037.88
473.53	940.88
473.749	941.88
473.968	986.88
474.187	990.88
474.406	969.88
474.625	905.88
474.844	940.88
475.063	1032.88
475.282	1003.88
475.501	1080.88
475.72	1147.88
475.939	1099.88
476.158	1119.88
476.377	1269.88
476.596	1447.88
476.814	1496.88
477.033	1259.88
477.252	1069.88
477.471	1015.88
477.69	1026.88
477.908	1127.88
478.127	1157.88
478.346	1067.88
478.564	1151.88
478.783	1077.88
479.002	1091.88
479.22	1296.88
479.439	1417.88
479.658	1224.88
479.876	1124.88
480.095	1213.88
480.313	1252.88
480.532	1153.88
480.751	1112.88
480.969	1144.88
481.188	1287.88
481.406	1271.88
481.624	1207.88
481.843	1145.88
482.061	1108.88
482.28	1221.88
482.498	1453.88
482.717	1399.88
482.935	1212.88
483.153	1126.88
483.372	1063.88
483.59	1059.88
483.808	1078.88
484.027	1045.88
484.245	1000.88
484.463	968.88
484.681	1049.88
484.9	1122.88
485.118	1207.88
485.336	1126.88
485.554	1044.88
485.772	1085.88
485.99	1181.88
486.209	1244.88
486.427	1231.88
486.645	1195.88
486.863	1212.88
487.081	1245.88
487.299	1390.88
487.517	1347.88
487.735	1225.88
487.953	1249.88
488.171	1259.88
488.389	1191.88
488.607	1129.88
488.825	1159.88
489.043	1284.88
489.261	1484.88
489.479	1592.88
489.696	1303.88
489.914	1187.88
490.132	1140.88
490.35	1111.88
490.568	1139.88
490.786	1128.88
491.003	1163.88
491.221	1171.88
491.439	1147.88
491.657	1198.88
491.874	1222.88
492.092	1551.88
492.31	1845.88
492.527	1765.88
492.745	1549.88
492.963	1353.88
493.18	1314.88
493.398	1307.88
493.615	1282.88
493.833	1249.88
494.05	1243.88
