Data from NickelSpatula.Lamp.E5.5.P2_HRD10591_11-52-23-564.txt Node
Date: Tue Jul 23 11:52:23 EDT 2019
User: cochatt
Spectrometer: HR+D1059
Trigger mode: 1
Integration Time (sec): 1.000000E-1
Scans to average: 1
Electric dark correction enabled: true
Nonlinearity correction enabled: false
Boxcar width: 0
XAxis mode: Wavelengths
Number of Pixels in Spectrum: 2048
>>>>>Begin Spectral Data<<<<<
223.165	-21.75
223.4	-21.75
223.635	-21.75
223.869	-22.75
224.104	-21.75
224.338	-25.75
224.573	-9.75
224.808	-9.75
225.042	-20.75
225.277	5.25
225.511	-6.75
225.746	-3.75
225.98	5.25
226.215	17.25
226.449	11.25
226.683	34.25
226.918	33.25
227.152	36.25
227.387	38.25
227.621	46.25
227.856	45.25
228.09	43.25
228.324	54.25
228.559	42.25
228.793	54.25
229.027	69.25
229.262	84.25
229.496	73.25
229.73	89.25
229.964	89.25
230.199	90.25
230.433	102.25
230.667	95.25
230.901	105.25
231.136	106.25
231.37	105.25
231.604	88.25
231.838	118.25
232.072	115.25
232.306	108.25
232.541	121.25
232.775	105.25
233.009	118.25
233.243	110.25
233.477	117.25
233.711	122.25
233.945	122.25
234.179	133.25
234.413	134.25
234.647	149.25
234.881	141.25
235.115	146.25
235.349	138.25
235.583	118.25
235.817	131.25
236.051	126.25
236.285	145.25
236.519	138.25
236.753	147.25
236.987	147.25
237.221	139.25
237.455	154.25
237.689	155.25
237.922	142.25
238.156	144.25
238.39	164.25
238.624	176.25
238.858	155.25
239.091	162.25
239.325	174.25
239.559	155.25
239.793	170.25
240.027	179.25
240.26	176.25
240.494	183.25
240.728	176.25
240.961	189.25
241.195	171.25
241.429	158.25
241.662	159.25
241.896	153.25
242.13	146.25
242.363	142.25
242.597	155.25
242.83	146.25
243.064	158.25
243.298	155.25
243.531	194.25
243.765	185.25
243.998	185.25
244.232	160.25
244.465	168.25
244.699	159.25
244.932	186.25
245.166	175.25
245.399	158.25
245.633	169.25
245.866	179.25
246.099	182.25
246.333	192.25
246.566	211.25
246.8	210.25
247.033	193.25
247.266	183.25
247.5	182.25
247.733	181.25
247.966	182.25
248.2	203.25
248.433	206.25
248.666	224.25
248.899	207.25
249.133	215.25
249.366	264.25
249.599	259.25
249.832	232.25
250.066	200.25
250.299	225.25
250.532	199.25
250.765	220.25
250.998	190.25
251.231	187.25
251.465	192.25
251.698	214.25
251.931	201.25
252.164	206.25
252.397	238.25
252.63	260.25
252.863	286.25
253.096	282.25
253.329	286.25
253.562	263.25
253.795	310.25
254.028	330.25
254.261	337.25
254.494	321.25
254.727	293.25
254.96	278.25
255.193	285.25
255.426	264.25
255.659	210.25
255.892	202.25
256.124	244.25
256.357	263.25
256.59	275.25
256.823	284.25
257.056	246.25
257.289	239.25
257.521	247.25
257.754	288.25
257.987	338.25
258.22	282.25
258.452	231.25
258.685	262.25
258.918	315.25
259.151	319.25
259.383	339.25
259.616	364.25
259.849	366.25
260.081	389.25
260.314	416.25
260.547	356.25
260.779	357.25
261.012	407.25
261.244	366.25
261.477	388.25
261.71	373.25
261.942	306.25
262.175	319.25
262.407	304.25
262.64	296.25
262.872	356.25
263.105	371.25
263.337	385.25
263.57	363.25
263.802	254.25
264.035	252.25
264.267	233.25
264.499	200.25
264.732	192.25
264.964	194.25
265.197	201.25
265.429	224.25
265.661	220.25
265.894	232.25
266.126	230.25
266.358	260.25
266.591	315.25
266.823	376.25
267.055	346.25
267.287	321.25
267.52	330.25
267.752	316.25
267.984	357.25
268.216	343.25
268.448	272.25
268.681	273.25
268.913	298.25
269.145	312.25
269.377	329.25
269.609	326.25
269.841	314.25
270.073	333.25
270.306	336.25
270.538	339.25
270.77	347.25
271.002	338.25
271.234	355.25
271.466	367.25
271.698	330.25
271.93	348.25
272.162	334.25
272.394	323.25
272.626	310.25
272.858	331.25
273.09	347.25
273.322	318.25
273.553	286.25
273.785	323.25
274.017	421.25
274.249	491.25
274.481	517.25
274.713	556.25
274.945	659.25
275.176	672.25
275.408	625.25
275.64	528.25
275.872	558.25
276.104	465.25
276.335	439.25
276.567	431.25
276.799	417.25
277.031	470.25
277.262	359.25
277.494	294.25
277.726	272.25
277.957	327.25
278.189	327.25
278.421	331.25
278.652	324.25
278.884	318.25
279.115	297.25
279.347	288.25
279.579	282.25
279.81	298.25
280.042	306.25
280.273	320.25
280.505	300.25
280.736	259.25
280.968	252.25
281.199	265.25
281.431	308.25
281.662	301.25
281.894	284.25
282.125	299.25
282.356	331.25
282.588	328.25
282.819	291.25
283.051	315.25
283.282	382.25
283.513	441.25
283.745	488.25
283.976	472.25
284.207	422.25
284.439	466.25
284.67	442.25
284.901	399.25
285.132	432.25
285.364	452.25
285.595	426.25
285.826	435.25
286.057	438.25
286.288	421.25
286.52	450.25
286.751	464.25
286.982	488.25
287.213	414.25
287.444	388.25
287.675	404.25
287.906	430.25
288.138	367.25
288.369	328.25
288.6	304.25
288.831	323.25
289.062	382.25
289.293	425.25
289.524	377.25
289.755	375.25
289.986	375.25
290.217	340.25
290.448	268.25
290.679	248.25
290.91	250.25
291.141	227.25
291.371	252.25
291.602	258.25
291.833	245.25
292.064	272.25
292.295	299.25
292.526	312.25
292.757	324.25
292.987	346.25
293.218	367.25
293.449	396.25
293.68	402.25
293.91	387.25
294.141	425.25
294.372	388.25
294.603	363.25
294.833	370.25
295.064	442.25
295.295	432.25
295.525	318.25
295.756	286.25
295.987	262.25
296.217	247.25
296.448	256.25
296.679	249.25
296.909	276.25
297.14	291.25
297.37	324.25
297.601	319.25
297.831	283.25
298.062	295.25
298.292	313.25
298.523	364.25
298.753	414.25
298.984	381.25
299.214	300.25
299.445	267.25
299.675	247.25
299.905	258.25
300.136	257.25
300.366	287.25
300.597	272.25
300.827	244.25
301.057	254.25
301.288	249.25
301.518	246.25
301.748	294.25
301.979	306.25
302.209	331.25
302.439	332.25
302.669	288.25
302.9	306.25
303.13	281.25
303.36	292.25
303.59	256.25
303.82	268.25
304.051	286.25
304.281	321.25
304.511	326.25
304.741	287.25
304.971	293.25
305.201	305.25
305.431	284.25
305.661	270.25
305.891	243.25
306.121	244.25
306.352	249.25
306.582	214.25
306.812	211.25
307.042	235.25
307.272	205.25
307.502	204.25
307.731	207.25
307.961	207.25
308.191	208.25
308.421	229.25
308.651	225.25
308.881	208.25
309.111	214.25
309.341	216.25
309.571	230.25
309.8	244.25
310.03	225.25
310.26	245.25
310.49	254.25
310.72	220.25
310.949	218.25
311.179	208.25
311.409	219.25
311.639	253.25
311.868	313.25
312.098	372.25
312.328	443.25
312.557	424.25
312.787	418.25
313.017	369.25
313.246	384.25
313.476	450.25
313.706	364.25
313.935	302.25
314.165	264.25
314.394	228.25
314.624	229.25
314.853	252.25
315.083	239.25
315.312	229.25
315.542	258.25
315.771	227.25
316.001	220.25
316.23	202.25
316.46	208.25
316.689	226.25
316.919	220.25
317.148	225.25
317.377	219.25
317.607	222.25
317.836	225.25
318.065	265.25
318.295	303.25
318.524	274.25
318.753	238.25
318.983	235.25
319.212	223.25
319.441	252.25
319.67	266.25
319.9	271.25
320.129	259.25
320.358	241.25
320.587	224.25
320.816	241.25
321.046	256.25
321.275	303.25
321.504	297.25
321.733	291.25
321.962	266.25
322.191	264.25
322.42	240.25
322.649	264.25
322.878	268.25
323.108	282.25
323.337	238.25
323.566	250.25
323.795	250.25
324.024	261.25
324.253	233.25
324.482	234.25
324.71	254.25
324.939	284.25
325.168	246.25
325.397	219.25
325.626	231.25
325.855	242.25
326.084	230.25
326.313	235.25
326.542	231.25
326.77	215.25
326.999	231.25
327.228	227.25
327.457	251.25
327.686	234.25
327.914	207.25
328.143	197.25
328.372	187.25
328.6	203.25
328.829	190.25
329.058	219.25
329.287	224.25
329.515	213.25
329.744	226.25
329.972	207.25
330.201	210.25
330.43	198.25
330.658	234.25
330.887	250.25
331.115	247.25
331.344	243.25
331.572	234.25
331.801	222.25
332.03	213.25
332.258	239.25
332.486	247.25
332.715	241.25
332.943	231.25
333.172	240.25
333.4	241.25
333.629	245.25
333.857	275.25
334.085	269.25
334.314	258.25
334.542	264.25
334.771	238.25
334.999	240.25
335.227	230.25
335.455	227.25
335.684	256.25
335.912	283.25
336.14	315.25
336.369	309.25
336.597	297.25
336.825	303.25
337.053	360.25
337.281	287.25
337.51	231.25
337.738	230.25
337.966	256.25
338.194	271.25
338.422	275.25
338.65	238.25
338.878	219.25
339.106	225.25
339.334	239.25
339.562	257.25
339.79	244.25
340.018	225.25
340.246	243.25
340.474	283.25
340.702	291.25
340.93	301.25
341.158	302.25
341.386	253.25
341.614	257.25
341.842	249.25
342.07	246.25
342.298	276.25
342.526	305.25
342.754	276.25
342.981	256.25
343.209	249.25
343.437	264.25
343.665	286.25
343.893	282.25
344.12	319.25
344.348	376.25
344.576	333.25
344.804	278.25
345.031	248.25
345.259	215.25
345.487	245.25
345.714	254.25
345.942	257.25
346.17	284.25
346.397	270.25
346.625	243.25
346.853	224.25
347.08	220.25
347.308	251.25
347.535	266.25
347.763	305.25
347.99	256.25
348.218	232.25
348.445	240.25
348.673	260.25
348.9	226.25
349.128	258.25
349.355	244.25
349.583	270.25
349.81	247.25
350.037	235.25
350.265	210.25
350.492	190.25
350.72	196.25
350.947	221.25
351.174	226.25
351.402	230.25
351.629	222.25
351.856	242.25
352.083	224.25
352.311	228.25
352.538	226.25
352.765	245.25
352.992	235.25
353.22	262.25
353.447	249.25
353.674	248.25
353.901	208.25
354.128	231.25
354.355	240.25
354.583	227.25
354.81	238.25
355.037	256.25
355.264	233.25
355.491	250.25
355.718	251.25
355.945	283.25
356.172	278.25
356.399	281.25
356.626	303.25
356.853	345.25
357.08	387.25
357.307	382.25
357.534	307.25
357.761	313.25
357.988	388.25
358.215	438.25
358.441	386.25
358.668	337.25
358.895	343.25
359.122	279.25
359.349	284.25
359.576	316.25
359.802	275.25
360.029	238.25
360.256	242.25
360.483	289.25
360.709	346.25
360.936	369.25
361.163	316.25
361.39	260.25
361.616	248.25
361.843	269.25
362.07	322.25
362.296	289.25
362.523	242.25
362.749	234.25
362.976	228.25
363.203	274.25
363.429	298.25
363.656	253.25
363.882	233.25
364.109	242.25
364.335	238.25
364.562	233.25
364.788	247.25
365.015	284.25
365.241	261.25
365.468	228.25
365.694	202.25
365.92	206.25
366.147	200.25
366.373	207.25
366.599	195.25
366.826	201.25
367.052	214.25
367.278	213.25
367.505	189.25
367.731	207.25
367.957	244.25
368.184	241.25
368.41	233.25
368.636	256.25
368.862	255.25
369.089	236.25
369.315	223.25
369.541	228.25
369.767	234.25
369.993	216.25
370.219	207.25
370.445	234.25
370.672	253.25
370.898	262.25
371.124	259.25
371.35	227.25
371.576	231.25
371.802	239.25
372.028	296.25
372.254	306.25
372.48	278.25
372.706	251.25
372.932	247.25
373.158	255.25
373.384	290.25
373.61	381.25
373.835	394.25
374.061	297.25
374.287	271.25
374.513	299.25
374.739	343.25
374.965	367.25
375.191	361.25
375.416	285.25
375.642	246.25
375.868	302.25
376.094	298.25
376.319	282.25
376.545	294.25
376.771	296.25
376.997	265.25
377.222	233.25
377.448	202.25
377.674	187.25
377.899	209.25
378.125	198.25
378.35	184.25
378.576	190.25
378.802	225.25
379.027	218.25
379.253	219.25
379.478	214.25
379.704	240.25
379.929	253.25
380.155	263.25
380.38	234.25
380.606	238.25
380.831	271.25
381.057	253.25
381.282	235.25
381.507	278.25
381.733	301.25
381.958	342.25
382.184	361.25
382.409	366.25
382.634	384.25
382.86	384.25
383.085	330.25
383.31	262.25
383.535	293.25
383.761	294.25
383.986	277.25
384.211	306.25
384.436	324.25
384.662	263.25
384.887	252.25
385.112	257.25
385.337	267.25
385.562	272.25
385.787	262.25
386.013	306.25
386.238	308.25
386.463	277.25
386.688	247.25
386.913	244.25
387.138	232.25
387.363	234.25
387.588	248.25
387.813	231.25
388.038	272.25
388.263	255.25
388.488	233.25
388.713	263.25
388.938	276.25
389.163	238.25
389.387	230.25
389.612	233.25
389.837	222.25
390.062	242.25
390.287	252.25
390.512	241.25
390.736	233.25
390.961	234.25
391.186	225.25
391.411	226.25
391.636	227.25
391.86	223.25
392.085	254.25
392.31	273.25
392.534	244.25
392.759	233.25
392.984	262.25
393.208	255.25
393.433	225.25
393.658	224.25
393.882	212.25
394.107	212.25
394.331	226.25
394.556	210.25
394.78	209.25
395.005	214.25
395.229	215.25
395.454	217.25
395.678	232.25
395.903	233.25
396.127	226.25
396.352	223.25
396.576	239.25
396.801	233.25
397.025	270.25
397.249	290.25
397.474	243.25
397.698	239.25
397.922	235.25
398.147	224.25
398.371	248.25
398.595	239.25
398.82	240.25
399.044	240.25
399.268	248.25
399.492	278.25
399.717	298.25
399.941	283.25
400.165	283.25
400.389	271.25
400.613	254.25
400.837	260.25
401.062	234.25
401.286	231.25
401.51	238.25
401.734	234.25
401.958	242.25
402.182	225.25
402.406	250.25
402.63	239.25
402.854	231.25
403.078	288.25
403.302	370.25
403.526	390.25
403.75	337.25
403.974	299.25
404.198	297.25
404.422	327.25
404.645	353.25
404.869	350.25
405.093	315.25
405.317	260.25
405.541	261.25
405.765	268.25
405.988	260.25
406.212	269.25
406.436	315.25
406.66	325.25
406.883	270.25
407.107	293.25
407.331	331.25
407.555	315.25
407.778	281.25
408.002	283.25
408.226	281.25
408.449	292.25
408.673	254.25
408.896	234.25
409.12	242.25
409.344	244.25
409.567	241.25
409.791	256.25
410.014	233.25
410.238	254.25
410.461	249.25
410.685	239.25
410.908	234.25
411.132	260.25
411.355	263.25
411.578	250.25
411.802	245.25
412.025	246.25
412.249	240.25
412.472	248.25
412.695	244.25
412.919	230.25
413.142	247.25
413.365	266.25
413.589	251.25
413.812	245.25
414.035	242.25
414.258	228.25
414.482	255.25
414.705	264.25
414.928	234.25
415.151	222.25
415.374	249.25
415.597	230.25
415.821	224.25
416.044	231.25
416.267	234.25
416.49	229.25
416.713	228.25
416.936	227.25
417.159	236.25
417.382	220.25
417.605	226.25
417.828	225.25
418.051	225.25
418.274	230.25
418.497	242.25
418.72	246.25
418.943	255.25
419.166	248.25
419.389	279.25
419.611	258.25
419.834	271.25
420.057	277.25
420.28	271.25
420.503	258.25
420.726	227.25
420.948	235.25
421.171	249.25
421.394	236.25
421.617	247.25
421.839	233.25
422.062	264.25
422.285	219.25
422.507	258.25
422.73	241.25
422.953	235.25
423.175	259.25
423.398	269.25
423.621	262.25
423.843	259.25
424.066	254.25
424.288	243.25
424.511	258.25
424.733	253.25
424.956	239.25
425.178	254.25
425.401	330.25
425.623	384.25
425.846	287.25
426.068	256.25
426.291	265.25
426.513	263.25
426.735	241.25
426.958	238.25
427.18	263.25
427.402	364.25
427.625	358.25
427.847	308.25
428.069	250.25
428.292	246.25
428.514	211.25
428.736	228.25
428.958	248.25
429.181	324.25
429.403	259.25
429.625	231.25
429.847	225.25
430.069	240.25
430.292	238.25
430.514	216.25
430.736	244.25
430.958	299.25
431.18	278.25
431.402	232.25
431.624	219.25
431.846	235.25
432.068	215.25
432.29	231.25
432.512	247.25
432.734	306.25
432.956	277.25
433.178	231.25
433.4	243.25
433.622	224.25
433.844	231.25
434.066	259.25
434.287	252.25
434.509	240.25
434.731	269.25
434.953	242.25
435.175	244.25
435.397	286.25
435.618	240.25
435.84	239.25
436.062	220.25
436.284	223.25
436.505	226.25
436.727	220.25
436.949	214.25
437.17	225.25
437.392	226.25
437.614	233.25
437.835	217.25
438.057	239.25
438.278	238.25
438.5	303.25
438.721	338.25
438.943	256.25
439.165	224.25
439.386	217.25
439.608	227.25
439.829	215.25
440.05	210.25
440.272	229.25
440.493	239.25
440.715	286.25
440.936	260.25
441.158	223.25
441.379	243.25
441.6	258.25
441.822	260.25
442.043	251.25
442.264	242.25
442.486	239.25
442.707	251.25
442.928	237.25
443.149	240.25
443.371	253.25
443.592	250.25
443.813	237.25
444.034	241.25
444.255	218.25
444.476	267.25
444.698	252.25
444.919	258.25
445.14	358.25
445.361	316.25
445.582	270.25
445.803	244.25
446.024	248.25
446.245	258.25
446.466	243.25
446.687	218.25
446.908	246.25
447.129	231.25
447.35	223.25
447.571	231.25
447.792	206.25
448.013	197.25
448.234	208.25
448.455	222.25
448.675	213.25
448.896	222.25
449.117	220.25
449.338	222.25
449.559	226.25
449.779	225.25
450	247.25
450.221	237.25
450.442	207.25
450.662	223.25
450.883	210.25
451.104	217.25
451.324	222.25
451.545	237.25
451.766	218.25
451.986	210.25
452.207	223.25
452.428	223.25
452.648	222.25
452.869	240.25
453.089	224.25
453.31	220.25
453.53	221.25
453.751	199.25
453.971	212.25
454.192	219.25
454.412	214.25
454.633	224.25
454.853	227.25
455.073	223.25
455.294	197.25
455.514	202.25
455.734	223.25
455.955	218.25
456.175	232.25
456.395	198.25
456.616	206.25
456.836	208.25
457.056	201.25
457.276	181.25
457.497	200.25
457.717	202.25
457.937	178.25
458.157	200.25
458.377	204.25
458.598	207.25
458.818	208.25
459.038	204.25
459.258	251.25
459.478	235.25
459.698	239.25
459.918	240.25
460.138	249.25
460.358	254.25
460.578	241.25
460.798	256.25
461.018	242.25
461.238	235.25
461.458	238.25
461.678	236.25
461.898	262.25
462.118	267.25
462.338	250.25
462.558	259.25
462.777	258.25
462.997	279.25
463.217	297.25
463.437	287.25
463.657	289.25
463.876	278.25
464.096	271.25
464.316	272.25
464.536	269.25
464.755	279.25
464.975	303.25
465.195	270.25
465.414	260.25
465.634	265.25
465.854	247.25
466.073	214.25
466.293	235.25
466.512	246.25
466.732	269.25
466.951	272.25
467.171	249.25
467.391	227.25
467.61	239.25
467.829	239.25
468.049	246.25
468.268	239.25
468.488	242.25
468.707	241.25
468.927	264.25
469.146	278.25
469.365	274.25
469.585	230.25
469.804	260.25
470.023	265.25
470.243	245.25
470.462	249.25
470.681	239.25
470.901	250.25
471.12	254.25
471.339	252.25
471.558	239.25
471.777	229.25
471.997	248.25
472.216	275.25
472.435	273.25
472.654	238.25
472.873	244.25
473.092	246.25
473.311	260.25
473.53	255.25
473.749	234.25
473.968	257.25
474.187	233.25
474.406	246.25
474.625	260.25
474.844	243.25
475.063	243.25
475.282	250.25
475.501	281.25
475.72	297.25
475.939	285.25
476.158	298.25
476.377	326.25
476.596	354.25
476.814	378.25
477.033	305.25
477.252	270.25
477.471	246.25
477.69	261.25
477.908	273.25
478.127	288.25
478.346	266.25
478.564	324.25
478.783	247.25
479.002	271.25
479.22	325.25
479.439	346.25
479.658	285.25
479.876	283.25
480.095	290.25
480.313	320.25
480.532	298.25
480.751	296.25
480.969	286.25
481.188	303.25
481.406	318.25
481.624	302.25
481.843	284.25
482.061	265.25
482.28	294.25
482.498	343.25
482.717	373.25
482.935	295.25
483.153	286.25
483.372	267.25
483.59	259.25
483.808	273.25
484.027	260.25
484.245	260.25
484.463	259.25
484.681	261.25
484.9	275.25
485.118	287.25
485.336	281.25
485.554	260.25
485.772	263.25
485.99	291.25
486.209	307.25
486.427	291.25
486.645	294.25
486.863	316.25
487.081	294.25
487.299	311.25
487.517	321.25
487.735	302.25
487.953	303.25
488.171	297.25
488.389	283.25
488.607	275.25
488.825	280.25
489.043	298.25
489.261	350.25
489.479	360.25
489.696	297.25
489.914	296.25
490.132	294.25
490.35	273.25
490.568	278.25
490.786	267.25
491.003	283.25
491.221	267.25
491.439	274.25
491.657	273.25
491.874	282.25
492.092	320.25
492.31	379.25
492.527	382.25
492.745	348.25
492.963	309.25
493.18	318.25
493.398	314.25
493.615	283.25
493.833	310.25
494.05	297.25
494.268	288.25
494.485	296.25
494.703	284.25
494.92	305.25
495.138	293.25
495.355	286.25
495.573	274.25
495.79	316.25
496.008	391.25
496.225	350.25
496.442	319.25
496.66	307.25
496.877	321.25
497.094	314.25
497.312	314.25
497.529	330.25
497.746	304.25
497.963	327.25
498.181	344.25
498.398	347.25
498.615	377.25
498.832	408.25
499.049	392.25
499.267	376.25
499.484	364.25
499.701	406.25
499.918	465.25
500.135	504.25
500.352	516.25
500.569	540.25
500.786	551.25
501.003	520.25
501.22	476.25
501.437	448.25
501.654	420.25
501.871	394.25
502.088	361.25
502.305	381.25
502.522	358.25
