Data from NickelSpatula_HRD10591_16-34-39-126.txt Node
Date: Mon Jul 22 16:34:39 EDT 2019
User: cochatt
Spectrometer: HR+D1059
Trigger mode: 1
Integration Time (sec): 1.000000E-1
Scans to average: 1
Electric dark correction enabled: true
Nonlinearity correction enabled: false
Boxcar width: 0
XAxis mode: Wavelengths
Number of Pixels in Spectrum: 2048
>>>>>Begin Spectral Data<<<<<
223.165	-16.94
223.4	-16.94
223.635	-16.94
223.869	-18.94
224.104	-27.94
224.338	-8.94
224.573	-6.94
224.808	-16.94
225.042	-13.94
225.277	-5.94
225.511	0.06
225.746	-15.94
225.98	17.06
226.215	23.06
226.449	19.06
226.683	20.06
226.918	31.06
227.152	22.06
227.387	42.06
227.621	40.06
227.856	37.06
228.09	53.06
228.324	55.06
228.559	54.06
228.793	58.06
229.027	62.06
229.262	72.06
229.496	88.06
229.73	83.06
229.964	88.06
230.199	85.06
230.433	93.06
230.667	87.06
230.901	91.06
231.136	81.06
231.37	85.06
231.604	83.06
231.838	93.06
232.072	101.06
232.306	103.06
232.541	110.06
232.775	95.06
233.009	102.06
233.243	112.06
233.477	123.06
233.711	116.06
233.945	117.06
234.179	116.06
234.413	121.06
234.647	107.06
234.881	136.06
235.115	131.06
235.349	137.06
235.583	114.06
235.817	125.06
236.051	107.06
236.285	129.06
236.519	135.06
236.753	133.06
236.987	128.06
237.221	121.06
237.455	125.06
237.689	132.06
237.922	139.06
238.156	131.06
238.39	150.06
238.624	150.06
238.858	152.06
239.091	134.06
239.325	143.06
239.559	128.06
239.793	153.06
240.027	170.06
240.26	167.06
240.494	146.06
240.728	158.06
240.961	183.06
241.195	175.06
241.429	160.06
241.662	143.06
241.896	150.06
242.13	125.06
242.363	124.06
242.597	131.06
242.83	158.06
243.064	133.06
243.298	154.06
243.531	161.06
243.765	169.06
243.998	169.06
244.232	177.06
244.465	166.06
244.699	151.06
244.932	179.06
245.166	181.06
245.399	158.06
245.633	151.06
245.866	153.06
246.099	151.06
246.333	178.06
246.566	193.06
246.8	194.06
247.033	193.06
247.266	181.06
247.5	181.06
247.733	180.06
247.966	169.06
248.2	160.06
248.433	183.06
248.666	203.06
248.899	165.06
249.133	188.06
249.366	230.06
249.599	234.06
249.832	221.06
250.066	209.06
250.299	199.06
250.532	194.06
250.765	208.06
250.998	183.06
251.231	179.06
251.465	199.06
251.698	197.06
251.931	209.06
252.164	214.06
252.397	220.06
252.63	241.06
252.863	260.06
253.096	262.06
253.329	263.06
253.562	249.06
253.795	279.06
254.028	305.06
254.261	289.06
254.494	254.06
254.727	267.06
254.96	260.06
255.193	260.06
255.426	248.06
255.659	199.06
255.892	196.06
256.124	197.06
256.357	234.06
256.59	266.06
256.823	246.06
257.056	237.06
257.289	214.06
257.521	220.06
257.754	269.06
257.987	288.06
258.22	251.06
258.452	216.06
258.685	253.06
258.918	263.06
259.151	282.06
259.383	292.06
259.616	323.06
259.849	329.06
260.081	321.06
260.314	367.06
260.547	298.06
260.779	311.06
261.012	361.06
261.244	326.06
261.477	347.06
261.71	316.06
261.942	268.06
262.175	277.06
262.407	271.06
262.64	275.06
262.872	328.06
263.105	344.06
263.337	375.06
263.57	311.06
263.802	219.06
264.035	202.06
264.267	214.06
264.499	196.06
264.732	192.06
264.964	174.06
265.197	192.06
265.429	194.06
265.661	201.06
265.894	207.06
266.126	223.06
266.358	229.06
266.591	253.06
266.823	329.06
267.055	296.06
267.287	271.06
267.52	273.06
267.752	297.06
267.984	306.06
268.216	305.06
268.448	277.06
268.681	245.06
268.913	255.06
269.145	274.06
269.377	297.06
269.609	304.06
269.841	266.06
270.073	265.06
270.306	309.06
270.538	305.06
270.77	306.06
271.002	307.06
271.234	310.06
271.466	325.06
271.698	299.06
271.93	295.06
272.162	319.06
272.394	301.06
272.626	282.06
272.858	315.06
273.09	309.06
273.322	265.06
273.553	261.06
273.785	296.06
274.017	376.06
274.249	454.06
274.481	481.06
274.713	499.06
274.945	551.06
275.176	601.06
275.408	545.06
275.64	505.06
275.872	497.06
276.104	437.06
276.335	378.06
276.567	383.06
276.799	387.06
277.031	437.06
277.262	372.06
277.494	278.06
277.726	247.06
277.957	277.06
278.189	306.06
278.421	310.06
278.652	314.06
278.884	293.06
279.115	277.06
279.347	257.06
279.579	260.06
279.81	268.06
280.042	265.06
280.273	283.06
280.505	265.06
280.736	229.06
280.968	249.06
281.199	235.06
281.431	257.06
281.662	261.06
281.894	268.06
282.125	257.06
282.356	300.06
282.588	302.06
282.819	250.06
283.051	271.06
283.282	348.06
283.513	381.06
283.745	413.06
283.976	424.06
284.207	377.06
284.439	400.06
284.67	394.06
284.901	350.06
285.132	383.06
285.364	398.06
285.595	354.06
285.826	362.06
286.057	398.06
286.288	393.06
286.52	385.06
286.751	403.06
286.982	434.06
287.213	362.06
287.444	346.06
287.675	369.06
287.906	381.06
288.138	335.06
288.369	298.06
288.6	262.06
288.831	257.06
289.062	318.06
289.293	342.06
289.524	340.06
289.755	319.06
289.986	332.06
290.217	309.06
290.448	253.06
290.679	215.06
290.91	199.06
291.141	201.06
291.371	232.06
291.602	205.06
291.833	210.06
292.064	230.06
292.295	233.06
292.526	287.06
292.757	279.06
292.987	297.06
293.218	314.06
293.449	345.06
293.68	334.06
293.91	317.06
294.141	346.06
294.372	330.06
294.603	292.06
294.833	314.06
295.064	375.06
295.295	362.06
295.525	272.06
295.756	246.06
295.987	222.06
296.217	228.06
296.448	234.06
296.679	224.06
296.909	246.06
297.14	269.06
297.37	283.06
297.601	277.06
297.831	235.06
298.062	255.06
298.292	296.06
298.523	323.06
298.753	337.06
298.984	327.06
299.214	257.06
299.445	219.06
299.675	219.06
299.905	221.06
300.136	216.06
300.366	247.06
300.597	241.06
300.827	216.06
301.057	193.06
301.288	214.06
301.518	218.06
301.748	260.06
301.979	267.06
302.209	280.06
302.439	288.06
302.669	270.06
302.9	271.06
303.13	235.06
303.36	245.06
303.59	218.06
303.82	237.06
304.051	275.06
304.281	268.06
304.511	261.06
304.741	270.06
304.971	250.06
305.201	260.06
305.431	275.06
305.661	221.06
305.891	225.06
306.121	227.06
306.352	216.06
306.582	180.06
306.812	208.06
307.042	208.06
307.272	186.06
307.502	183.06
307.731	195.06
307.961	182.06
308.191	181.06
308.421	191.06
308.651	186.06
308.881	173.06
309.111	177.06
309.341	191.06
309.571	177.06
309.8	202.06
310.03	210.06
310.26	203.06
310.49	202.06
310.72	184.06
310.949	181.06
311.179	185.06
311.409	203.06
311.639	227.06
311.868	275.06
312.098	350.06
312.328	381.06
312.557	349.06
312.787	357.06
313.017	310.06
313.246	352.06
313.476	362.06
313.706	325.06
313.935	265.06
314.165	207.06
314.394	207.06
314.624	211.06
314.853	226.06
315.083	224.06
315.312	208.06
315.542	209.06
315.771	181.06
316.001	186.06
316.23	180.06
316.46	181.06
316.689	205.06
316.919	181.06
317.148	177.06
317.377	195.06
317.607	185.06
317.836	205.06
318.065	221.06
318.295	253.06
318.524	249.06
318.753	208.06
318.983	200.06
319.212	194.06
319.441	202.06
319.67	229.06
319.9	224.06
320.129	232.06
320.358	214.06
320.587	213.06
320.816	204.06
321.046	231.06
321.275	283.06
321.504	249.06
321.733	231.06
321.962	241.06
322.191	230.06
322.42	227.06
322.649	218.06
322.878	253.06
323.108	239.06
323.337	238.06
323.566	232.06
323.795	230.06
324.024	203.06
324.253	190.06
324.482	189.06
324.71	218.06
324.939	227.06
325.168	224.06
325.397	191.06
325.626	192.06
325.855	191.06
326.084	202.06
326.313	199.06
326.542	184.06
326.77	186.06
326.999	190.06
327.228	200.06
327.457	188.06
327.686	208.06
327.914	186.06
328.143	189.06
328.372	175.06
328.6	181.06
328.829	176.06
329.058	187.06
329.287	180.06
329.515	201.06
329.744	198.06
329.972	189.06
330.201	169.06
330.43	193.06
330.658	190.06
330.887	209.06
331.115	208.06
331.344	197.06
331.572	189.06
331.801	183.06
332.03	181.06
332.258	180.06
332.486	203.06
332.715	207.06
332.943	201.06
333.172	199.06
333.4	189.06
333.629	214.06
333.857	231.06
334.085	226.06
334.314	220.06
334.542	217.06
334.771	201.06
334.999	203.06
335.227	188.06
335.455	199.06
335.684	224.06
335.912	240.06
336.14	244.06
336.369	258.06
336.597	236.06
336.825	272.06
337.053	276.06
337.281	242.06
337.51	212.06
337.738	201.06
337.966	233.06
338.194	254.06
338.422	225.06
338.65	206.06
338.878	176.06
339.106	169.06
339.334	209.06
339.562	233.06
339.79	208.06
340.018	190.06
340.246	217.06
340.474	234.06
340.702	242.06
340.93	266.06
341.158	267.06
341.386	229.06
341.614	222.06
341.842	214.06
342.07	239.06
342.298	253.06
342.526	274.06
342.754	249.06
342.981	215.06
343.209	212.06
343.437	232.06
343.665	239.06
343.893	246.06
344.12	263.06
344.348	304.06
344.576	280.06
344.804	244.06
345.031	192.06
345.259	202.06
345.487	210.06
345.714	190.06
345.942	218.06
346.17	233.06
346.397	218.06
346.625	191.06
346.853	197.06
347.08	192.06
347.308	209.06
347.535	223.06
347.763	244.06
347.99	197.06
348.218	187.06
348.445	188.06
348.673	182.06
348.9	193.06
349.128	223.06
349.355	208.06
349.583	218.06
349.81	212.06
350.037	209.06
350.265	181.06
350.492	160.06
350.72	164.06
350.947	171.06
351.174	183.06
351.402	185.06
351.629	195.06
351.856	197.06
352.083	179.06
352.311	206.06
352.538	213.06
352.765	222.06
352.992	212.06
353.22	197.06
353.447	222.06
353.674	204.06
353.901	209.06
354.128	202.06
354.355	202.06
354.583	207.06
354.81	197.06
355.037	227.06
355.264	232.06
355.491	222.06
355.718	219.06
355.945	238.06
356.172	227.06
356.399	211.06
356.626	234.06
356.853	303.06
357.08	329.06
357.307	346.06
357.534	267.06
357.761	263.06
357.988	300.06
358.215	341.06
358.441	356.06
358.668	303.06
358.895	288.06
359.122	231.06
359.349	237.06
359.576	260.06
359.802	216.06
360.029	189.06
360.256	222.06
360.483	241.06
360.709	301.06
360.936	325.06
361.163	273.06
361.39	212.06
361.616	211.06
361.843	217.06
362.07	265.06
362.296	248.06
362.523	213.06
362.749	181.06
362.976	191.06
363.203	217.06
363.429	224.06
363.656	202.06
363.882	202.06
364.109	206.06
364.335	194.06
364.562	186.06
364.788	210.06
365.015	234.06
365.241	229.06
365.468	210.06
365.694	183.06
365.92	178.06
366.147	165.06
366.373	169.06
366.599	168.06
366.826	165.06
367.052	181.06
367.278	176.06
367.505	146.06
367.731	186.06
367.957	195.06
368.184	200.06
368.41	184.06
368.636	194.06
368.862	193.06
369.089	212.06
369.315	191.06
369.541	192.06
369.767	184.06
369.993	169.06
370.219	178.06
370.445	193.06
370.672	207.06
370.898	215.06
371.124	225.06
371.35	195.06
371.576	185.06
371.802	187.06
372.028	209.06
372.254	226.06
372.48	208.06
372.706	212.06
372.932	208.06
373.158	214.06
373.384	253.06
373.61	304.06
373.835	316.06
374.061	269.06
374.287	208.06
374.513	262.06
374.739	282.06
374.965	309.06
375.191	301.06
375.416	219.06
375.642	207.06
375.868	218.06
376.094	245.06
376.319	203.06
376.545	239.06
376.771	235.06
376.997	223.06
377.222	157.06
377.448	158.06
377.674	161.06
377.899	150.06
378.125	161.06
378.35	165.06
378.576	166.06
378.802	179.06
379.027	197.06
379.253	189.06
379.478	187.06
379.704	195.06
379.929	207.06
380.155	207.06
380.38	172.06
380.606	197.06
380.831	233.06
381.057	215.06
381.282	183.06
381.507	222.06
381.733	250.06
381.958	271.06
382.184	278.06
382.409	316.06
382.634	315.06
382.86	313.06
383.085	264.06
383.31	213.06
383.535	237.06
383.761	240.06
383.986	224.06
384.211	261.06
384.436	269.06
384.662	204.06
384.887	208.06
385.112	213.06
385.337	200.06
385.562	202.06
385.787	209.06
386.013	244.06
386.238	229.06
386.463	209.06
386.688	201.06
386.913	192.06
387.138	199.06
387.363	197.06
387.588	204.06
387.813	203.06
388.038	206.06
388.263	208.06
388.488	195.06
388.713	217.06
388.938	243.06
389.163	219.06
389.387	175.06
389.612	186.06
389.837	181.06
390.062	194.06
390.287	192.06
390.512	187.06
390.736	190.06
390.961	191.06
391.186	179.06
391.411	177.06
391.636	184.06
391.86	199.06
392.085	215.06
392.31	198.06
392.534	214.06
392.759	207.06
392.984	196.06
393.208	213.06
393.433	180.06
393.658	170.06
393.882	152.06
394.107	162.06
394.331	166.06
394.556	169.06
394.78	148.06
395.005	175.06
395.229	164.06
395.454	183.06
395.678	177.06
395.903	179.06
396.127	184.06
396.352	185.06
396.576	198.06
396.801	193.06
397.025	216.06
397.249	239.06
397.474	197.06
397.698	191.06
397.922	222.06
398.147	195.06
398.371	194.06
398.595	206.06
398.82	201.06
399.044	198.06
399.268	202.06
399.492	221.06
399.717	225.06
399.941	221.06
400.165	206.06
400.389	216.06
400.613	198.06
400.837	216.06
401.062	185.06
401.286	198.06
401.51	182.06
401.734	181.06
401.958	186.06
402.182	186.06
402.406	188.06
402.63	206.06
402.854	219.06
403.078	200.06
403.302	275.06
403.526	304.06
403.75	251.06
403.974	229.06
404.198	226.06
404.422	241.06
404.645	266.06
404.869	294.06
405.093	233.06
405.317	195.06
405.541	204.06
405.765	210.06
405.988	220.06
406.212	217.06
406.436	238.06
406.66	277.06
406.883	245.06
407.107	222.06
407.331	260.06
407.555	272.06
407.778	209.06
408.002	231.06
408.226	261.06
408.449	222.06
408.673	216.06
408.896	194.06
409.12	210.06
409.344	202.06
409.567	193.06
409.791	191.06
410.014	180.06
410.238	185.06
410.461	191.06
410.685	186.06
410.908	191.06
411.132	201.06
411.355	213.06
411.578	203.06
411.802	198.06
412.025	186.06
412.249	210.06
412.472	203.06
412.695	191.06
412.919	191.06
413.142	191.06
413.365	215.06
413.589	212.06
413.812	199.06
414.035	193.06
414.258	193.06
414.482	193.06
414.705	227.06
414.928	215.06
415.151	185.06
415.374	181.06
415.597	194.06
415.821	181.06
416.044	202.06
416.267	193.06
416.49	170.06
416.713	194.06
416.936	192.06
417.159	188.06
417.382	192.06
417.605	197.06
417.828	193.06
418.051	201.06
418.274	184.06
418.497	190.06
418.72	186.06
418.943	201.06
419.166	210.06
419.389	214.06
419.611	203.06
419.834	205.06
420.057	220.06
420.28	231.06
420.503	217.06
420.726	207.06
420.948	202.06
421.171	203.06
421.394	183.06
421.617	179.06
421.839	199.06
422.062	194.06
422.285	184.06
422.507	209.06
422.73	191.06
422.953	195.06
423.175	177.06
423.398	201.06
423.621	218.06
423.843	229.06
424.066	198.06
424.288	206.06
424.511	210.06
424.733	201.06
424.956	196.06
425.178	223.06
425.401	232.06
425.623	270.06
425.846	246.06
426.068	203.06
426.291	214.06
426.513	222.06
426.735	187.06
426.958	223.06
427.18	224.06
427.402	295.06
427.625	296.06
427.847	260.06
428.069	197.06
428.292	188.06
428.514	186.06
428.736	196.06
428.958	195.06
429.181	232.06
429.403	190.06
429.625	195.06
429.847	193.06
430.069	176.06
430.292	204.06
430.514	183.06
430.736	199.06
430.958	218.06
431.18	205.06
431.402	170.06
431.624	157.06
431.846	167.06
432.068	187.06
432.29	170.06
432.512	189.06
432.734	253.06
432.956	211.06
433.178	200.06
433.4	189.06
433.622	198.06
433.844	183.06
434.066	217.06
434.287	206.06
434.509	187.06
434.731	208.06
434.953	201.06
435.175	189.06
435.397	222.06
435.618	192.06
435.84	177.06
436.062	167.06
436.284	183.06
436.505	168.06
436.727	187.06
436.949	165.06
437.17	186.06
437.392	185.06
437.614	185.06
437.835	158.06
438.057	191.06
438.278	206.06
438.5	255.06
438.721	263.06
438.943	206.06
439.165	180.06
439.386	176.06
439.608	166.06
439.829	155.06
440.05	175.06
440.272	179.06
440.493	201.06
440.715	246.06
440.936	194.06
441.158	190.06
441.379	195.06
441.6	201.06
441.822	225.06
442.043	182.06
442.264	197.06
442.486	191.06
442.707	177.06
442.928	187.06
443.149	182.06
443.371	202.06
443.592	173.06
443.813	181.06
444.034	192.06
444.255	191.06
444.476	209.06
444.698	219.06
444.919	207.06
445.14	330.06
445.361	265.06
445.582	206.06
445.803	199.06
446.024	198.06
446.245	201.06
446.466	205.06
446.687	189.06
446.908	179.06
447.129	173.06
447.35	158.06
447.571	177.06
447.792	180.06
448.013	163.06
448.234	165.06
448.455	185.06
448.675	179.06
448.896	176.06
449.117	179.06
449.338	179.06
449.559	178.06
449.779	194.06
450	195.06
450.221	183.06
450.442	187.06
450.662	177.06
450.883	174.06
451.104	166.06
451.324	177.06
451.545	175.06
451.766	158.06
451.986	164.06
452.207	174.06
452.428	166.06
452.648	181.06
452.869	194.06
453.089	182.06
453.31	184.06
453.53	177.06
453.751	176.06
453.971	192.06
454.192	183.06
454.412	171.06
454.633	146.06
454.853	160.06
455.073	153.06
455.294	165.06
455.514	148.06
455.734	161.06
455.955	169.06
456.175	168.06
456.395	176.06
456.616	164.06
456.836	170.06
457.056	169.06
457.276	159.06
457.497	186.06
457.717	161.06
457.937	170.06
458.157	161.06
458.377	181.06
458.598	166.06
458.818	162.06
459.038	178.06
459.258	181.06
459.478	183.06
459.698	183.06
459.918	193.06
460.138	174.06
460.358	196.06
460.578	199.06
460.798	188.06
461.018	182.06
461.238	179.06
461.458	187.06
461.678	196.06
461.898	194.06
462.118	202.06
462.338	200.06
462.558	219.06
462.777	206.06
462.997	213.06
463.217	209.06
463.437	228.06
463.657	217.06
463.876	215.06
464.096	216.06
464.316	223.06
464.536	208.06
464.755	230.06
464.975	245.06
465.195	209.06
465.414	224.06
465.634	198.06
465.854	209.06
466.073	185.06
466.293	186.06
466.512	183.06
466.732	209.06
466.951	197.06
467.171	193.06
467.391	187.06
467.61	199.06
467.829	190.06
468.049	177.06
468.268	175.06
468.488	188.06
468.707	191.06
468.927	207.06
469.146	234.06
469.365	207.06
469.585	204.06
469.804	203.06
470.023	226.06
470.243	194.06
470.462	187.06
470.681	201.06
470.901	190.06
471.12	200.06
471.339	209.06
471.558	193.06
471.777	185.06
471.997	207.06
472.216	238.06
472.435	213.06
472.654	214.06
472.873	182.06
473.092	219.06
473.311	191.06
473.53	182.06
473.749	204.06
473.968	194.06
474.187	200.06
474.406	185.06
474.625	183.06
474.844	205.06
475.063	208.06
475.282	198.06
475.501	237.06
475.72	262.06
475.939	228.06
476.158	210.06
476.377	260.06
476.596	294.06
476.814	290.06
477.033	257.06
477.252	231.06
477.471	201.06
477.69	193.06
477.908	217.06
478.127	238.06
478.346	203.06
478.564	248.06
478.783	241.06
479.002	210.06
479.22	263.06
479.439	268.06
479.658	256.06
479.876	221.06
480.095	237.06
480.313	244.06
480.532	228.06
480.751	230.06
480.969	225.06
481.188	233.06
481.406	250.06
481.624	213.06
481.843	217.06
482.061	216.06
482.28	228.06
482.498	282.06
482.717	302.06
482.935	230.06
483.153	213.06
483.372	213.06
483.59	208.06
483.808	217.06
484.027	216.06
484.245	220.06
484.463	187.06
484.681	195.06
484.9	237.06
485.118	227.06
485.336	228.06
485.554	207.06
485.772	214.06
485.99	231.06
486.209	242.06
486.427	229.06
486.645	224.06
486.863	240.06
487.081	222.06
487.299	279.06
487.517	285.06
487.735	244.06
487.953	221.06
488.171	239.06
488.389	237.06
488.607	212.06
488.825	230.06
489.043	251.06
489.261	292.06
489.479	310.06
489.696	264.06
489.914	239.06
490.132	219.06
490.35	213.06
490.568	229.06
490.786	227.06
491.003	217.06
491.221	225.06
491.439	206.06
491.657	230.06
491.874	241.06
492.092	297.06
492.31	349.06
492.527	321.06
492.745	284.06
492.963	262.06
493.18	253.06
493.398	256.06
493.615	258.06
493.833	238.06
494.05	227.06
494.268	242.06
494.485	234.06
494.703	230.06
494.92	226.06
495.138	226.06
495.355	226.06
495.573	246.06
495.79	273.06
496.008	350.06
496.225	293.06
496.442	262.06
496.66	255.06
496.877	255.06
497.094	259.06
497.312	258.06
497.529	248.06
497.746	245.06
497.963	263.06
498.181	287.06
498.398	295.06
498.615	298.06
498.832	323.06
499.049	322.06
499.267	302.06
499.484	324.06
499.701	333.06
499.918	348.06
500.135	380.06
500.352	388.06
500.569	414.06
500.786	418.06
501.003	380.06
501.22	366.06
501.437	338.06
501.654	322.06
501.871	301.06
502.088	304.06
502.305	291.06
502.522	275.06
502.739	282.06
