Data from NickelSpatula.Lamp.E5.5.P2_HRD10591_11-53-57-546.txt Node
Date: Tue Jul 23 11:53:57 EDT 2019
User: cochatt
Spectrometer: HR+D1059
Trigger mode: 1
Integration Time (sec): 1.000000E-1
Scans to average: 1
Electric dark correction enabled: true
Nonlinearity correction enabled: false
Boxcar width: 0
XAxis mode: Wavelengths
Number of Pixels in Spectrum: 2048
>>>>>Begin Spectral Data<<<<<
223.165	-11.94
223.4	-11.94
223.635	-11.94
223.869	-22.94
224.104	-11.94
224.338	-6.94
224.573	-15.94
224.808	-16.94
225.042	-17.94
225.277	4.06
225.511	-7.94
225.746	5.06
225.98	12.06
226.215	9.06
226.449	6.06
226.683	19.06
226.918	24.06
227.152	33.06
227.387	48.06
227.621	33.06
227.856	32.06
228.09	46.06
228.324	47.06
228.559	65.06
228.793	62.06
229.027	73.06
229.262	84.06
229.496	65.06
229.73	73.06
229.964	91.06
230.199	90.06
230.433	94.06
230.667	104.06
230.901	83.06
231.136	88.06
231.37	101.06
231.604	111.06
231.838	106.06
232.072	117.06
232.306	106.06
232.541	123.06
232.775	104.06
233.009	99.06
233.243	107.06
233.477	107.06
233.711	123.06
233.945	123.06
234.179	121.06
234.413	133.06
234.647	143.06
234.881	140.06
235.115	124.06
235.349	115.06
235.583	119.06
235.817	133.06
236.051	126.06
236.285	130.06
236.519	135.06
236.753	139.06
236.987	149.06
237.221	125.06
237.455	131.06
237.689	132.06
237.922	142.06
238.156	140.06
238.39	161.06
238.624	167.06
238.858	174.06
239.091	153.06
239.325	135.06
239.559	154.06
239.793	160.06
240.027	183.06
240.26	168.06
240.494	160.06
240.728	149.06
240.961	184.06
241.195	162.06
241.429	160.06
241.662	162.06
241.896	151.06
242.13	131.06
242.363	123.06
242.597	124.06
242.83	158.06
243.064	162.06
243.298	145.06
243.531	169.06
243.765	173.06
243.998	147.06
244.232	155.06
244.465	158.06
244.699	174.06
244.932	184.06
245.166	163.06
245.399	154.06
245.633	142.06
245.866	157.06
246.099	166.06
246.333	187.06
246.566	197.06
246.8	196.06
247.033	210.06
247.266	179.06
247.5	181.06
247.733	170.06
247.966	178.06
248.2	173.06
248.433	183.06
248.666	193.06
248.899	199.06
249.133	207.06
249.366	222.06
249.599	237.06
249.832	214.06
250.066	207.06
250.299	217.06
250.532	206.06
250.765	193.06
250.998	191.06
251.231	181.06
251.465	196.06
251.698	192.06
251.931	201.06
252.164	203.06
252.397	225.06
252.63	237.06
252.863	271.06
253.096	295.06
253.329	236.06
253.562	243.06
253.795	285.06
254.028	308.06
254.261	294.06
254.494	277.06
254.727	261.06
254.96	246.06
255.193	269.06
255.426	277.06
255.659	214.06
255.892	209.06
256.124	213.06
256.357	245.06
256.59	274.06
256.823	258.06
257.056	227.06
257.289	225.06
257.521	225.06
257.754	276.06
257.987	289.06
258.22	254.06
258.452	233.06
258.685	263.06
258.918	290.06
259.151	296.06
259.383	291.06
259.616	344.06
259.849	339.06
260.081	366.06
260.314	394.06
260.547	309.06
260.779	328.06
261.012	367.06
261.244	347.06
261.477	359.06
261.71	331.06
261.942	287.06
262.175	298.06
262.407	275.06
262.64	282.06
262.872	322.06
263.105	349.06
263.337	348.06
263.57	341.06
263.802	240.06
264.035	211.06
264.267	219.06
264.499	204.06
264.732	183.06
264.964	198.06
265.197	181.06
265.429	183.06
265.661	218.06
265.894	219.06
266.126	219.06
266.358	245.06
266.591	290.06
266.823	341.06
267.055	330.06
267.287	291.06
267.52	297.06
267.752	301.06
267.984	320.06
268.216	318.06
268.448	250.06
268.681	234.06
268.913	276.06
269.145	290.06
269.377	307.06
269.609	306.06
269.841	282.06
270.073	292.06
270.306	309.06
270.538	322.06
270.77	320.06
271.002	301.06
271.234	344.06
271.466	338.06
271.698	313.06
271.93	309.06
272.162	295.06
272.394	309.06
272.626	314.06
272.858	301.06
273.09	292.06
273.322	283.06
273.553	284.06
273.785	328.06
274.017	389.06
274.249	448.06
274.481	498.06
274.713	522.06
274.945	606.06
275.176	645.06
275.408	565.06
275.64	503.06
275.872	513.06
276.104	441.06
276.335	387.06
276.567	419.06
276.799	407.06
277.031	436.06
277.262	349.06
277.494	277.06
277.726	272.06
277.957	283.06
278.189	310.06
278.421	323.06
278.652	297.06
278.884	290.06
279.115	267.06
279.347	275.06
279.579	276.06
279.81	287.06
280.042	283.06
280.273	296.06
280.505	258.06
280.736	242.06
280.968	238.06
281.199	245.06
281.431	296.06
281.662	296.06
281.894	260.06
282.125	282.06
282.356	281.06
282.588	295.06
282.819	274.06
283.051	283.06
283.282	335.06
283.513	398.06
283.745	433.06
283.976	437.06
284.207	405.06
284.439	421.06
284.67	436.06
284.901	352.06
285.132	402.06
285.364	424.06
285.595	384.06
285.826	395.06
286.057	417.06
286.288	387.06
286.52	395.06
286.751	444.06
286.982	441.06
287.213	384.06
287.444	371.06
287.675	390.06
287.906	381.06
288.138	341.06
288.369	289.06
288.6	302.06
288.831	311.06
289.062	344.06
289.293	375.06
289.524	349.06
289.755	339.06
289.986	355.06
290.217	325.06
290.448	263.06
290.679	227.06
290.91	230.06
291.141	235.06
291.371	225.06
291.602	229.06
291.833	226.06
292.064	234.06
292.295	275.06
292.526	304.06
292.757	314.06
292.987	325.06
293.218	337.06
293.449	356.06
293.68	376.06
293.91	350.06
294.141	395.06
294.372	357.06
294.603	314.06
294.833	332.06
295.064	396.06
295.295	385.06
295.525	310.06
295.756	273.06
295.987	245.06
296.217	248.06
296.448	235.06
296.679	257.06
296.909	269.06
297.14	287.06
297.37	318.06
297.601	292.06
297.831	267.06
298.062	285.06
298.292	309.06
298.523	343.06
298.753	364.06
298.984	349.06
299.214	295.06
299.445	234.06
299.675	250.06
299.905	228.06
300.136	230.06
300.366	258.06
300.597	256.06
300.827	237.06
301.057	240.06
301.288	240.06
301.518	246.06
301.748	265.06
301.979	297.06
302.209	321.06
302.439	326.06
302.669	277.06
302.9	275.06
303.13	256.06
303.36	245.06
303.59	254.06
303.82	253.06
304.051	282.06
304.281	303.06
304.511	286.06
304.741	281.06
304.971	273.06
305.201	297.06
305.431	270.06
305.661	242.06
305.891	243.06
306.121	241.06
306.352	221.06
306.582	209.06
306.812	213.06
307.042	201.06
307.272	193.06
307.502	180.06
307.731	194.06
307.961	218.06
308.191	208.06
308.421	219.06
308.651	207.06
308.881	167.06
309.111	207.06
309.341	206.06
309.571	204.06
309.8	219.06
310.03	222.06
310.26	217.06
310.49	216.06
310.72	223.06
310.949	206.06
311.179	205.06
311.409	212.06
311.639	243.06
311.868	311.06
312.098	373.06
312.328	407.06
312.557	373.06
312.787	377.06
313.017	329.06
313.246	353.06
313.476	406.06
313.706	349.06
313.935	293.06
314.165	250.06
314.394	241.06
314.624	210.06
314.853	209.06
315.083	229.06
315.312	233.06
315.542	232.06
315.771	215.06
316.001	221.06
316.23	207.06
316.46	194.06
316.689	209.06
316.919	209.06
317.148	190.06
317.377	195.06
317.607	204.06
317.836	210.06
318.065	234.06
318.295	267.06
318.524	257.06
318.753	226.06
318.983	221.06
319.212	198.06
319.441	210.06
319.67	257.06
319.9	264.06
320.129	259.06
320.358	224.06
320.587	225.06
320.816	216.06
321.046	238.06
321.275	259.06
321.504	275.06
321.733	271.06
321.962	277.06
322.191	259.06
322.42	223.06
322.649	255.06
322.878	259.06
323.108	255.06
323.337	222.06
323.566	232.06
323.795	240.06
324.024	234.06
324.253	221.06
324.482	230.06
324.71	231.06
324.939	262.06
325.168	247.06
325.397	202.06
325.626	203.06
325.855	221.06
326.084	223.06
326.313	205.06
326.542	214.06
326.77	201.06
326.999	213.06
327.228	228.06
327.457	234.06
327.686	234.06
327.914	210.06
328.143	203.06
328.372	193.06
328.6	204.06
328.829	211.06
329.058	218.06
329.287	205.06
329.515	206.06
329.744	221.06
329.972	197.06
330.201	191.06
330.43	190.06
330.658	213.06
330.887	237.06
331.115	245.06
331.344	226.06
331.572	227.06
331.801	209.06
332.03	206.06
332.258	209.06
332.486	231.06
332.715	230.06
332.943	217.06
333.172	211.06
333.4	222.06
333.629	252.06
333.857	283.06
334.085	237.06
334.314	246.06
334.542	237.06
334.771	241.06
334.999	233.06
335.227	225.06
335.455	240.06
335.684	213.06
335.912	246.06
336.14	284.06
336.369	275.06
336.597	259.06
336.825	293.06
337.053	340.06
337.281	271.06
337.51	229.06
337.738	227.06
337.966	237.06
338.194	261.06
338.422	254.06
338.65	213.06
338.878	216.06
339.106	217.06
339.334	210.06
339.562	265.06
339.79	225.06
340.018	221.06
340.246	234.06
340.474	260.06
340.702	287.06
340.93	282.06
341.158	285.06
341.386	239.06
341.614	248.06
341.842	229.06
342.07	266.06
342.298	287.06
342.526	279.06
342.754	254.06
342.981	238.06
343.209	226.06
343.437	278.06
343.665	271.06
343.893	281.06
344.12	321.06
344.348	364.06
344.576	332.06
344.804	256.06
345.031	259.06
345.259	229.06
345.487	219.06
345.714	227.06
345.942	270.06
346.17	281.06
346.397	260.06
346.625	255.06
346.853	246.06
347.08	232.06
347.308	228.06
347.535	254.06
347.763	261.06
347.99	211.06
348.218	219.06
348.445	242.06
348.673	237.06
348.9	232.06
349.128	253.06
349.355	242.06
349.583	241.06
349.81	234.06
350.037	248.06
350.265	211.06
350.492	200.06
350.72	191.06
350.947	203.06
351.174	213.06
351.402	224.06
351.629	216.06
351.856	223.06
352.083	220.06
352.311	228.06
352.538	227.06
352.765	255.06
352.992	255.06
353.22	228.06
353.447	237.06
353.674	221.06
353.901	226.06
354.128	216.06
354.355	229.06
354.583	219.06
354.81	237.06
355.037	239.06
355.264	225.06
355.491	228.06
355.718	237.06
355.945	266.06
356.172	242.06
356.399	245.06
356.626	287.06
356.853	336.06
357.08	371.06
357.307	366.06
357.534	307.06
357.761	296.06
357.988	383.06
358.215	439.06
358.441	383.06
358.668	345.06
358.895	325.06
359.122	263.06
359.349	299.06
359.576	305.06
359.802	261.06
360.029	219.06
360.256	228.06
360.483	288.06
360.709	352.06
360.936	343.06
361.163	333.06
361.39	255.06
361.616	239.06
361.843	264.06
362.07	316.06
362.296	286.06
362.523	238.06
362.749	222.06
362.976	210.06
363.203	268.06
363.429	294.06
363.656	246.06
363.882	217.06
364.109	231.06
364.335	226.06
364.562	227.06
364.788	260.06
365.015	281.06
365.241	257.06
365.468	234.06
365.694	199.06
365.92	198.06
366.147	194.06
366.373	190.06
366.599	200.06
366.826	200.06
367.052	198.06
367.278	199.06
367.505	196.06
367.731	214.06
367.957	225.06
368.184	246.06
368.41	240.06
368.636	238.06
368.862	229.06
369.089	225.06
369.315	207.06
369.541	217.06
369.767	209.06
369.993	204.06
370.219	191.06
370.445	222.06
370.672	226.06
370.898	261.06
371.124	269.06
371.35	240.06
371.576	206.06
371.802	242.06
372.028	270.06
372.254	310.06
372.48	273.06
372.706	239.06
372.932	262.06
373.158	242.06
373.384	281.06
373.61	401.06
373.835	383.06
374.061	295.06
374.287	257.06
374.513	308.06
374.739	351.06
374.965	360.06
375.191	373.06
375.416	267.06
375.642	253.06
375.868	290.06
376.094	305.06
376.319	285.06
376.545	301.06
376.771	305.06
376.997	273.06
377.222	232.06
377.448	206.06
377.674	199.06
377.899	193.06
378.125	210.06
378.35	187.06
378.576	199.06
378.802	203.06
379.027	214.06
379.253	219.06
379.478	229.06
379.704	232.06
379.929	250.06
380.155	238.06
380.38	237.06
380.606	225.06
380.831	241.06
381.057	246.06
381.282	233.06
381.507	251.06
381.733	294.06
381.958	330.06
382.184	349.06
382.409	371.06
382.634	367.06
382.86	375.06
383.085	316.06
383.31	283.06
383.535	293.06
383.761	290.06
383.986	273.06
384.211	306.06
384.436	298.06
384.662	233.06
384.887	259.06
385.112	265.06
385.337	264.06
385.562	250.06
385.787	279.06
386.013	293.06
386.238	293.06
386.463	230.06
386.688	241.06
386.913	239.06
387.138	218.06
387.363	216.06
387.588	237.06
387.813	242.06
388.038	254.06
388.263	249.06
388.488	218.06
388.713	264.06
388.938	270.06
389.163	231.06
389.387	222.06
389.612	209.06
389.837	224.06
390.062	229.06
390.287	261.06
390.512	232.06
390.736	231.06
390.961	215.06
391.186	215.06
391.411	225.06
391.636	215.06
391.86	237.06
392.085	258.06
392.31	252.06
392.534	224.06
392.759	226.06
392.984	256.06
393.208	251.06
393.433	230.06
393.658	183.06
393.882	201.06
394.107	214.06
394.331	194.06
394.556	214.06
394.78	192.06
395.005	240.06
395.229	216.06
395.454	213.06
395.678	199.06
395.903	211.06
396.127	217.06
396.352	230.06
396.576	233.06
396.801	242.06
397.025	265.06
397.249	253.06
397.474	225.06
397.698	224.06
397.922	223.06
398.147	228.06
398.371	222.06
398.595	241.06
398.82	234.06
399.044	246.06
399.268	270.06
399.492	269.06
399.717	287.06
399.941	287.06
400.165	267.06
400.389	251.06
400.613	240.06
400.837	241.06
401.062	222.06
401.286	226.06
401.51	220.06
401.734	243.06
401.958	216.06
402.182	230.06
402.406	237.06
402.63	246.06
402.854	244.06
403.078	285.06
403.302	387.06
403.526	395.06
403.75	344.06
403.974	287.06
404.198	265.06
404.422	298.06
404.645	333.06
404.869	342.06
405.093	301.06
405.317	238.06
405.541	268.06
405.765	259.06
405.988	266.06
406.212	286.06
406.436	304.06
406.66	315.06
406.883	279.06
407.107	284.06
407.331	309.06
407.555	305.06
407.778	265.06
408.002	277.06
408.226	291.06
408.449	268.06
408.673	266.06
408.896	241.06
409.12	255.06
409.344	241.06
409.567	234.06
409.791	230.06
410.014	237.06
410.238	246.06
410.461	239.06
410.685	227.06
410.908	248.06
411.132	240.06
411.355	228.06
411.578	234.06
411.802	246.06
412.025	224.06
412.249	231.06
412.472	265.06
412.695	264.06
412.919	233.06
413.142	242.06
413.365	261.06
413.589	249.06
413.812	230.06
414.035	228.06
414.258	240.06
414.482	255.06
414.705	261.06
414.928	240.06
415.151	209.06
415.374	232.06
415.597	240.06
415.821	241.06
416.044	219.06
416.267	225.06
416.49	228.06
416.713	217.06
416.936	223.06
417.159	218.06
417.382	228.06
417.605	226.06
417.828	222.06
418.051	244.06
418.274	243.06
418.497	231.06
418.72	251.06
418.943	256.06
419.166	262.06
419.389	257.06
419.611	257.06
419.834	262.06
420.057	273.06
420.28	265.06
420.503	248.06
420.726	226.06
420.948	230.06
421.171	240.06
421.394	226.06
421.617	205.06
421.839	231.06
422.062	219.06
422.285	237.06
422.507	231.06
422.73	230.06
422.953	238.06
423.175	233.06
423.398	225.06
423.621	270.06
423.843	275.06
424.066	258.06
424.288	259.06
424.511	249.06
424.733	233.06
424.956	239.06
425.178	269.06
425.401	309.06
425.623	363.06
425.846	307.06
426.068	262.06
426.291	268.06
426.513	261.06
426.735	242.06
426.958	246.06
427.18	278.06
427.402	350.06
427.625	381.06
427.847	319.06
428.069	228.06
428.292	224.06
428.514	233.06
428.736	230.06
428.958	241.06
429.181	314.06
429.403	260.06
429.625	230.06
429.847	220.06
430.069	225.06
430.292	231.06
430.514	237.06
430.736	232.06
430.958	282.06
431.18	259.06
431.402	217.06
431.624	216.06
431.846	210.06
432.068	199.06
432.29	215.06
432.512	233.06
432.734	287.06
432.956	266.06
433.178	228.06
433.4	225.06
433.622	216.06
433.844	226.06
434.066	248.06
434.287	243.06
434.509	228.06
434.731	236.06
434.953	216.06
435.175	246.06
435.397	264.06
435.618	261.06
435.84	216.06
436.062	244.06
436.284	232.06
436.505	220.06
436.727	223.06
436.949	207.06
437.17	212.06
437.392	226.06
437.614	211.06
437.835	216.06
438.057	216.06
438.278	238.06
438.5	301.06
438.721	339.06
438.943	229.06
439.165	201.06
439.386	217.06
439.608	212.06
439.829	195.06
440.05	227.06
440.272	223.06
440.493	238.06
440.715	279.06
440.936	250.06
441.158	213.06
441.379	242.06
441.6	259.06
441.822	268.06
442.043	226.06
442.264	227.06
442.486	219.06
442.707	228.06
442.928	221.06
443.149	222.06
443.371	233.06
443.592	246.06
443.813	228.06
444.034	229.06
444.255	251.06
444.476	247.06
444.698	237.06
444.919	265.06
445.14	344.06
445.361	291.06
445.582	249.06
445.803	232.06
446.024	234.06
446.245	243.06
446.466	238.06
446.687	232.06
446.908	239.06
447.129	232.06
447.35	221.06
447.571	225.06
447.792	206.06
448.013	208.06
448.234	202.06
448.455	209.06
448.675	197.06
448.896	221.06
449.117	222.06
449.338	215.06
449.559	221.06
449.779	241.06
450	228.06
450.221	216.06
450.442	206.06
450.662	210.06
450.883	204.06
451.104	216.06
451.324	215.06
451.545	225.06
451.766	239.06
451.986	223.06
452.207	203.06
452.428	202.06
452.648	216.06
452.869	213.06
453.089	218.06
453.31	226.06
453.53	210.06
453.751	206.06
453.971	211.06
454.192	222.06
454.412	212.06
454.633	213.06
454.853	220.06
455.073	201.06
455.294	183.06
455.514	198.06
455.734	203.06
455.955	213.06
456.175	205.06
456.395	196.06
456.616	186.06
456.836	198.06
457.056	197.06
457.276	187.06
457.497	189.06
457.717	189.06
457.937	208.06
458.157	202.06
458.377	224.06
458.598	187.06
458.818	199.06
459.038	214.06
459.258	222.06
459.478	232.06
459.698	219.06
459.918	248.06
460.138	226.06
460.358	223.06
460.578	238.06
460.798	230.06
461.018	234.06
461.238	238.06
461.458	231.06
461.678	243.06
461.898	249.06
462.118	242.06
462.338	248.06
462.558	246.06
462.777	263.06
462.997	274.06
463.217	282.06
463.437	286.06
463.657	274.06
463.876	278.06
464.096	268.06
464.316	259.06
464.536	270.06
464.755	269.06
464.975	264.06
465.195	266.06
465.414	264.06
465.634	247.06
465.854	243.06
466.073	216.06
466.293	196.06
466.512	232.06
466.732	247.06
466.951	239.06
467.171	222.06
467.391	206.06
467.61	212.06
467.829	241.06
468.049	230.06
468.268	229.06
468.488	216.06
468.707	232.06
468.927	247.06
469.146	272.06
469.365	247.06
469.585	242.06
469.804	252.06
470.023	269.06
470.243	233.06
470.462	221.06
470.681	229.06
470.901	221.06
471.12	239.06
471.339	247.06
471.558	220.06
471.777	224.06
471.997	239.06
472.216	257.06
472.435	252.06
472.654	248.06
472.873	256.06
473.092	261.06
473.311	262.06
473.53	231.06
473.749	232.06
473.968	232.06
474.187	241.06
474.406	228.06
474.625	224.06
474.844	223.06
475.063	241.06
475.282	245.06
475.501	264.06
475.72	266.06
475.939	266.06
476.158	277.06
476.377	286.06
476.596	344.06
476.814	361.06
477.033	293.06
477.252	274.06
477.471	240.06
477.69	250.06
477.908	267.06
478.127	282.06
478.346	259.06
478.564	294.06
478.783	290.06
479.002	292.06
479.22	292.06
479.439	325.06
479.658	293.06
479.876	265.06
480.095	283.06
480.313	290.06
480.532	276.06
480.751	271.06
480.969	274.06
481.188	287.06
481.406	305.06
481.624	277.06
481.843	282.06
482.061	259.06
482.28	292.06
482.498	335.06
482.717	345.06
482.935	282.06
483.153	282.06
483.372	241.06
483.59	244.06
483.808	266.06
484.027	270.06
484.245	233.06
484.463	242.06
484.681	245.06
484.9	285.06
485.118	277.06
485.336	251.06
485.554	238.06
485.772	253.06
485.99	285.06
486.209	307.06
486.427	290.06
486.645	273.06
486.863	293.06
487.081	284.06
487.299	289.06
487.517	315.06
487.735	274.06
487.953	288.06
488.171	298.06
488.389	275.06
488.607	259.06
488.825	273.06
489.043	285.06
489.261	316.06
489.479	323.06
489.696	297.06
489.914	285.06
490.132	261.06
490.35	254.06
490.568	244.06
490.786	266.06
491.003	253.06
491.221	253.06
491.439	252.06
491.657	240.06
491.874	265.06
492.092	315.06
492.31	355.06
492.527	357.06
492.745	323.06
492.963	296.06
493.18	311.06
493.398	297.06
493.615	265.06
493.833	298.06
494.05	284.06
494.268	281.06
494.485	293.06
494.703	291.06
494.92	283.06
495.138	274.06
495.355	271.06
495.573	279.06
495.79	310.06
496.008	389.06
496.225	319.06
496.442	298.06
496.66	300.06
496.877	328.06
497.094	298.06
497.312	283.06
497.529	289.06
497.746	317.06
497.963	319.06
498.181	338.06
498.398	358.06
498.615	353.06
498.832	375.06
499.049	383.06
499.267	361.06
499.484	364.06
499.701	395.06
499.918	447.06
500.135	489.06
500.352	527.06
500.569	515.06
500.786	542.06
501.003	500.06
501.22	439.06
501.437	408.06
501.654	391.06
501.871	379.06
502.088	386.06
502.305	348.06
502.522	351.06
