Data from NickelSpatula.Lamp.E10.P2_HRD10591_11-58-27-528.txt Node
Date: Tue Jul 23 11:58:27 EDT 2019
User: cochatt
Spectrometer: HR+D1059
Trigger mode: 1
Integration Time (sec): 1.000000E-1
Scans to average: 1
Electric dark correction enabled: true
Nonlinearity correction enabled: false
Boxcar width: 0
XAxis mode: Wavelengths
Number of Pixels in Spectrum: 2048
>>>>>Begin Spectral Data<<<<<
223.165	-5.38
223.4	-5.38
223.635	-5.38
223.869	-8.38
224.104	-13.38
224.338	-8.38
224.573	-23.38
224.808	-12.38
225.042	-5.38
225.277	-0.38
225.511	-2.38
225.746	-0.38
225.98	2.62
226.215	10.62
226.449	15.62
226.683	11.62
226.918	19.62
227.152	19.62
227.387	37.62
227.621	36.62
227.856	42.62
228.09	50.62
228.324	51.62
228.559	46.62
228.793	83.62
229.027	135.62
229.262	170.62
229.496	159.62
229.73	162.62
229.964	178.62
230.199	219.62
230.433	216.62
230.667	211.62
230.901	197.62
231.136	198.62
231.37	212.62
231.604	217.62
231.838	238.62
232.072	248.62
232.306	246.62
232.541	221.62
232.775	231.62
233.009	264.62
233.243	293.62
233.477	292.62
233.711	347.62
233.945	310.62
234.179	314.62
234.413	346.62
234.647	390.62
234.881	453.62
235.115	418.62
235.349	401.62
235.583	330.62
235.817	334.62
236.051	382.62
236.285	415.62
236.519	460.62
236.753	442.62
236.987	424.62
237.221	401.62
237.455	414.62
237.689	422.62
237.922	464.62
238.156	476.62
238.39	533.62
238.624	648.62
238.858	571.62
239.091	482.62
239.325	498.62
239.559	466.62
239.793	522.62
240.027	634.62
240.26	601.62
240.494	595.62
240.728	603.62
240.961	686.62
241.195	632.62
241.429	640.62
241.662	623.62
241.896	511.62
242.13	470.62
242.363	429.62
242.597	479.62
242.83	534.62
243.064	528.62
243.298	581.62
243.531	620.62
243.765	644.62
243.998	606.62
244.232	600.62
244.465	573.62
244.699	568.62
244.932	632.62
245.166	623.62
245.399	544.62
245.633	534.62
245.866	551.62
246.099	618.62
246.333	689.62
246.566	734.62
246.8	754.62
247.033	745.62
247.266	692.62
247.5	686.62
247.733	667.62
247.966	670.62
248.2	689.62
248.433	741.62
248.666	840.62
248.899	866.62
249.133	853.62
249.366	955.62
249.599	1040.62
249.832	928.62
250.066	822.62
250.299	826.62
250.532	792.62
250.765	784.62
250.998	730.62
251.231	724.62
251.465	767.62
251.698	834.62
251.931	774.62
252.164	820.62
252.397	915.62
252.63	1032.62
252.863	1161.62
253.096	1187.62
253.329	1143.62
253.562	1094.62
253.795	1212.62
254.028	1354.62
254.261	1398.62
254.494	1238.62
254.727	1119.62
254.96	1095.62
255.193	1166.62
255.426	1090.62
255.659	834.62
255.892	754.62
256.124	858.62
256.357	1013.62
256.59	1153.62
256.823	1172.62
257.056	966.62
257.289	880.62
257.521	961.62
257.754	1110.62
257.987	1237.62
258.22	1077.62
258.452	995.62
258.685	1146.62
258.918	1258.62
259.151	1224.62
259.383	1283.62
259.616	1470.62
259.849	1520.62
260.081	1716.62
260.314	1852.62
260.547	1458.62
260.779	1470.62
261.012	1711.62
261.244	1578.62
261.477	1630.62
261.71	1507.62
261.942	1247.62
262.175	1268.62
262.407	1225.62
262.64	1266.62
262.872	1452.62
263.105	1626.62
263.337	1695.62
263.57	1543.62
263.802	1023.62
264.035	876.62
264.267	855.62
264.499	746.62
264.732	686.62
264.964	691.62
265.197	694.62
265.429	765.62
265.661	806.62
265.894	840.62
266.126	885.62
266.358	999.62
266.591	1245.62
266.823	1480.62
267.055	1407.62
267.287	1208.62
267.52	1260.62
267.752	1300.62
267.984	1462.62
268.216	1325.62
268.448	1101.62
268.681	1084.62
268.913	1182.62
269.145	1236.62
269.377	1300.62
269.609	1259.62
269.841	1208.62
270.073	1271.62
270.306	1304.62
270.538	1355.62
270.77	1374.62
271.002	1390.62
271.234	1460.62
271.466	1472.62
271.698	1423.62
271.93	1420.62
272.162	1436.62
272.394	1427.62
272.626	1372.62
272.858	1431.62
273.09	1484.62
273.322	1294.62
273.553	1231.62
273.785	1464.62
274.017	1962.62
274.249	2394.62
274.481	2444.62
274.713	2742.62
274.945	3070.62
275.176	3210.62
275.408	2857.62
275.64	2557.62
275.872	2588.62
276.104	2147.62
276.335	1886.62
276.567	1887.62
276.799	1938.62
277.031	2057.62
277.262	1551.62
277.494	1230.62
277.726	1164.62
277.957	1284.62
278.189	1458.62
278.421	1410.62
278.652	1420.62
278.884	1337.62
279.115	1245.62
279.347	1154.62
279.579	1172.62
279.81	1174.62
280.042	1199.62
280.273	1198.62
280.505	1081.62
280.736	980.62
280.968	984.62
281.199	1097.62
281.431	1206.62
281.662	1160.62
281.894	1153.62
282.125	1212.62
282.356	1335.62
282.588	1348.62
282.819	1228.62
283.051	1328.62
283.282	1671.62
283.513	1934.62
283.745	2119.62
283.976	2118.62
284.207	1947.62
284.439	2066.62
284.67	1962.62
284.901	1767.62
285.132	1890.62
285.364	1988.62
285.595	1857.62
285.826	1924.62
286.057	1994.62
286.288	1942.62
286.52	1987.62
286.751	2051.62
286.982	2028.62
287.213	1794.62
287.444	1723.62
287.675	1820.62
287.906	1803.62
288.138	1527.62
288.369	1331.62
288.6	1262.62
288.831	1316.62
289.062	1502.62
289.293	1669.62
289.524	1576.62
289.755	1591.62
289.986	1580.62
290.217	1431.62
290.448	1090.62
290.679	933.62
290.91	898.62
291.141	934.62
291.371	938.62
291.602	956.62
291.833	972.62
292.064	1021.62
292.295	1172.62
292.526	1372.62
292.757	1395.62
292.987	1522.62
293.218	1536.62
293.449	1567.62
293.68	1646.62
293.91	1586.62
294.141	1620.62
294.372	1476.62
294.603	1395.62
294.833	1493.62
295.064	1816.62
295.295	1698.62
295.525	1292.62
295.756	1133.62
295.987	975.62
296.217	974.62
296.448	1026.62
296.679	1060.62
296.909	1198.62
297.14	1300.62
297.37	1416.62
297.601	1321.62
297.831	1125.62
298.062	1239.62
298.292	1411.62
298.523	1530.62
298.753	1754.62
298.984	1539.62
299.214	1278.62
299.445	1062.62
299.675	1031.62
299.905	1022.62
300.136	1031.62
300.366	1180.62
300.597	1103.62
300.827	1031.62
301.057	956.62
301.288	1029.62
301.518	1046.62
301.748	1204.62
301.979	1280.62
302.209	1398.62
302.439	1390.62
302.669	1181.62
302.9	1208.62
303.13	1122.62
303.36	1064.62
303.59	1012.62
303.82	1067.62
304.051	1207.62
304.281	1282.62
304.511	1288.62
304.741	1120.62
304.971	1165.62
305.201	1264.62
305.431	1198.62
305.661	1048.62
305.891	1046.62
306.121	1047.62
306.352	958.62
306.582	876.62
306.812	806.62
307.042	852.62
307.272	776.62
307.502	768.62
307.731	846.62
307.961	882.62
308.191	867.62
308.421	772.62
308.651	790.62
308.881	756.62
309.111	746.62
309.341	824.62
309.571	862.62
309.8	891.62
310.03	911.62
310.26	948.62
310.49	954.62
310.72	838.62
310.949	832.62
311.179	875.62
311.409	933.62
311.639	1094.62
311.868	1395.62
312.098	1724.62
312.328	1876.62
312.557	1783.62
312.787	1850.62
313.017	1654.62
313.246	1788.62
313.476	1930.62
313.706	1569.62
313.935	1255.62
314.165	1046.62
314.394	950.62
314.624	920.62
314.853	978.62
315.083	1020.62
315.312	980.62
315.542	997.62
315.771	926.62
316.001	847.62
316.23	810.62
316.46	837.62
316.689	834.62
316.919	863.62
317.148	875.62
317.377	861.62
317.607	871.62
317.836	935.62
318.065	1096.62
318.295	1210.62
318.524	1097.62
318.753	972.62
318.983	887.62
319.212	911.62
319.441	967.62
319.67	1085.62
319.9	1177.62
320.129	1124.62
320.358	952.62
320.587	909.62
320.816	982.62
321.046	1170.62
321.275	1258.62
321.504	1298.62
321.733	1229.62
321.962	1178.62
322.191	1129.62
322.42	1079.62
322.649	1111.62
322.878	1183.62
323.108	1172.62
323.337	1104.62
323.566	1029.62
323.795	1022.62
324.024	1006.62
324.253	931.62
324.482	936.62
324.71	1052.62
324.939	1152.62
325.168	1092.62
325.397	900.62
325.626	915.62
325.855	899.62
326.084	920.62
326.313	874.62
326.542	830.62
326.77	854.62
326.999	894.62
327.228	941.62
327.457	974.62
327.686	981.62
327.914	838.62
328.143	826.62
328.372	810.62
328.6	827.62
328.829	866.62
329.058	869.62
329.287	878.62
329.515	879.62
329.744	867.62
329.972	822.62
330.201	780.62
330.43	782.62
330.658	904.62
330.887	1055.62
331.115	1018.62
331.344	974.62
331.572	944.62
331.801	874.62
332.03	832.62
332.258	854.62
332.486	951.62
332.715	948.62
332.943	883.62
333.172	899.62
333.4	894.62
333.629	988.62
333.857	1115.62
334.085	1093.62
334.314	1061.62
334.542	991.62
334.771	955.62
334.999	920.62
335.227	883.62
335.455	921.62
335.684	1011.62
335.912	1168.62
336.14	1304.62
336.369	1213.62
336.597	1178.62
336.825	1330.62
337.053	1506.62
337.281	1202.62
337.51	984.62
337.738	912.62
337.966	1030.62
338.194	1166.62
338.422	1072.62
338.65	940.62
338.878	854.62
339.106	902.62
339.334	967.62
339.562	1037.62
339.79	992.62
340.018	978.62
340.246	1040.62
340.474	1141.62
340.702	1233.62
340.93	1286.62
341.158	1283.62
341.386	1079.62
341.614	1064.62
341.842	1102.62
342.07	1115.62
342.298	1282.62
342.526	1337.62
342.754	1125.62
342.981	1080.62
343.209	1045.62
343.437	1109.62
343.665	1164.62
343.893	1184.62
344.12	1334.62
344.348	1563.62
344.576	1370.62
344.804	1150.62
345.031	1015.62
345.259	976.62
345.487	950.62
345.714	1018.62
345.942	1072.62
346.17	1182.62
346.397	1078.62
346.625	987.62
346.853	932.62
347.08	894.62
347.308	966.62
347.535	1102.62
347.763	1119.62
347.99	984.62
348.218	888.62
348.445	920.62
348.673	933.62
348.9	957.62
349.128	1042.62
349.355	1070.62
349.583	1049.62
349.81	967.62
350.037	908.62
350.265	797.62
350.492	795.62
350.72	782.62
350.947	792.62
351.174	835.62
351.402	903.62
351.629	951.62
351.856	939.62
352.083	842.62
352.311	928.62
352.538	1038.62
352.765	1095.62
352.992	990.62
353.22	922.62
353.447	958.62
353.674	922.62
353.901	931.62
354.128	950.62
354.355	926.62
354.583	946.62
354.81	925.62
355.037	986.62
355.264	957.62
355.491	1044.62
355.718	1135.62
355.945	1084.62
356.172	1073.62
356.399	1080.62
356.626	1294.62
356.853	1550.62
357.08	1679.62
357.307	1661.62
357.534	1290.62
357.761	1338.62
357.988	1698.62
358.215	1978.62
358.441	1864.62
358.668	1576.62
358.895	1422.62
359.122	1188.62
359.349	1174.62
359.576	1253.62
359.802	1042.62
360.029	919.62
360.256	1008.62
360.483	1242.62
360.709	1512.62
360.936	1556.62
361.163	1391.62
361.39	1087.62
361.616	1043.62
361.843	1161.62
362.07	1456.62
362.296	1320.62
362.523	1028.62
362.749	883.62
362.976	960.62
363.203	1174.62
363.429	1237.62
363.656	1039.62
363.882	939.62
364.109	969.62
364.335	962.62
364.562	974.62
364.788	1076.62
365.015	1260.62
365.241	1126.62
365.468	922.62
365.694	846.62
365.92	796.62
366.147	739.62
366.373	764.62
366.599	774.62
366.826	787.62
367.052	804.62
367.278	818.62
367.505	793.62
367.731	858.62
367.957	979.62
368.184	1022.62
368.41	999.62
368.636	995.62
368.862	1020.62
369.089	956.62
369.315	887.62
369.541	857.62
369.767	864.62
369.993	836.62
370.219	819.62
370.445	902.62
370.672	988.62
370.898	1045.62
371.124	1042.62
371.35	916.62
371.576	878.62
371.802	946.62
372.028	1107.62
372.254	1289.62
372.48	1078.62
372.706	979.62
372.932	1060.62
373.158	1125.62
373.384	1336.62
373.61	1762.62
373.835	1808.62
374.061	1309.62
374.287	1151.62
374.513	1360.62
374.739	1590.62
374.965	1642.62
375.191	1603.62
375.416	1138.62
375.642	971.62
375.868	1181.62
376.094	1328.62
376.319	1132.62
376.545	1250.62
376.771	1314.62
376.997	1111.62
377.222	824.62
377.448	743.62
377.674	732.62
377.899	742.62
378.125	758.62
378.35	745.62
378.576	761.62
378.802	821.62
379.027	895.62
379.253	850.62
379.478	892.62
379.704	1002.62
379.929	1057.62
380.155	1059.62
380.38	963.62
380.606	970.62
380.831	1100.62
381.057	995.62
381.282	948.62
381.507	1160.62
381.733	1382.62
381.958	1429.62
382.184	1548.62
382.409	1601.62
382.634	1611.62
382.86	1669.62
383.085	1378.62
383.31	1100.62
383.535	1194.62
383.761	1198.62
383.986	1098.62
384.211	1379.62
384.436	1307.62
384.662	1001.62
384.887	990.62
385.112	1003.62
385.337	989.62
385.562	966.62
385.787	1060.62
386.013	1168.62
386.238	1223.62
386.463	983.62
386.688	963.62
386.913	919.62
387.138	856.62
387.363	924.62
387.588	953.62
387.813	953.62
388.038	1043.62
388.263	950.62
388.488	926.62
388.713	1072.62
388.938	1164.62
389.163	1004.62
389.387	881.62
389.612	879.62
389.837	934.62
390.062	914.62
390.287	961.62
390.512	980.62
390.736	911.62
390.961	851.62
391.186	816.62
391.411	823.62
391.636	821.62
391.86	923.62
392.085	981.62
392.31	974.62
392.534	916.62
392.759	930.62
392.984	936.62
393.208	908.62
393.433	835.62
393.658	794.62
393.882	770.62
394.107	747.62
394.331	790.62
394.556	772.62
394.78	787.62
395.005	814.62
395.229	858.62
395.454	838.62
395.678	885.62
395.903	882.62
396.127	852.62
396.352	855.62
396.576	954.62
396.801	959.62
397.025	1106.62
397.249	1114.62
397.474	910.62
397.698	898.62
397.922	936.62
398.147	883.62
398.371	905.62
398.595	930.62
398.82	913.62
399.044	898.62
399.268	987.62
399.492	1020.62
399.717	1075.62
399.941	1076.62
400.165	1015.62
400.389	1015.62
400.613	1036.62
400.837	1000.62
401.062	899.62
401.286	886.62
401.51	902.62
401.734	884.62
401.958	871.62
402.182	888.62
402.406	876.62
402.63	891.62
402.854	946.62
403.078	1053.62
403.302	1262.62
403.526	1311.62
403.75	1159.62
403.974	1024.62
404.198	1083.62
404.422	1209.62
404.645	1423.62
404.869	1544.62
405.093	1157.62
405.317	952.62
405.541	958.62
405.765	989.62
405.988	998.62
406.212	1058.62
406.436	1264.62
406.66	1392.62
406.883	1081.62
407.107	1139.62
407.331	1334.62
407.555	1237.62
407.778	1045.62
408.002	1053.62
408.226	1023.62
408.449	1010.62
408.673	1008.62
408.896	948.62
409.12	905.62
409.344	892.62
409.567	886.62
409.791	907.62
410.014	870.62
410.238	842.62
410.461	857.62
410.685	882.62
410.908	886.62
411.132	903.62
411.355	908.62
411.578	941.62
411.802	939.62
412.025	959.62
412.249	959.62
412.472	942.62
412.695	917.62
412.919	940.62
413.142	952.62
413.365	1028.62
413.589	1030.62
413.812	912.62
414.035	892.62
414.258	899.62
414.482	1028.62
414.705	1048.62
414.928	895.62
415.151	860.62
415.374	864.62
415.597	896.62
415.821	892.62
416.044	887.62
416.267	847.62
416.49	848.62
416.713	842.62
416.936	847.62
417.159	862.62
417.382	864.62
417.605	869.62
417.828	900.62
418.051	896.62
418.274	926.62
418.497	949.62
418.72	912.62
418.943	935.62
419.166	949.62
419.389	986.62
419.611	968.62
419.834	1019.62
420.057	1092.62
420.28	1091.62
420.503	1007.62
420.726	902.62
420.948	897.62
421.171	868.62
421.394	846.62
421.617	820.62
421.839	887.62
422.062	924.62
422.285	911.62
422.507	921.62
422.73	933.62
422.953	954.62
423.175	932.62
423.398	930.62
423.621	1005.62
423.843	1005.62
424.066	959.62
424.288	915.62
424.511	894.62
424.733	910.62
424.956	925.62
425.178	1040.62
425.401	1188.62
425.623	1335.62
425.846	1140.62
426.068	978.62
426.291	1127.62
426.513	1007.62
426.735	921.62
426.958	971.62
427.18	1103.62
427.402	1460.62
427.625	1383.62
427.847	1187.62
428.069	912.62
428.292	878.62
428.514	892.62
428.736	847.62
428.958	942.62
429.181	1104.62
429.403	947.62
429.625	876.62
429.847	834.62
430.069	842.62
430.292	881.62
430.514	853.62
430.736	957.62
430.958	1162.62
431.18	1084.62
431.402	844.62
431.624	830.62
431.846	794.62
432.068	795.62
432.29	801.62
432.512	884.62
432.734	1194.62
432.956	1100.62
433.178	869.62
433.4	837.62
433.622	849.62
433.844	880.62
434.066	924.62
434.287	898.62
434.509	870.62
434.731	914.62
434.953	848.62
435.175	903.62
435.397	996.62
435.618	869.62
435.84	836.62
436.062	815.62
436.284	839.62
436.505	796.62
436.727	775.62
436.949	778.62
437.17	822.62
437.392	840.62
437.614	806.62
437.835	811.62
438.057	823.62
438.278	965.62
438.5	1332.62
438.721	1359.62
438.943	938.62
439.165	791.62
439.386	773.62
439.608	817.62
439.829	775.62
440.05	779.62
440.272	853.62
440.493	974.62
440.715	1184.62
440.936	967.62
441.158	854.62
441.379	834.62
441.6	982.62
441.822	1009.62
442.043	874.62
442.264	860.62
442.486	856.62
442.707	839.62
442.928	853.62
443.149	882.62
443.371	873.62
443.592	900.62
443.813	900.62
444.034	897.62
444.255	887.62
444.476	910.62
444.698	904.62
444.919	887.62
445.14	1030.62
445.361	995.62
445.582	940.62
445.803	924.62
446.024	912.62
446.245	894.62
446.466	882.62
446.687	856.62
446.908	883.62
447.129	797.62
447.35	813.62
447.571	777.62
447.792	806.62
448.013	809.62
448.234	756.62
448.455	756.62
448.675	784.62
448.896	806.62
449.117	779.62
449.338	832.62
449.559	823.62
449.779	839.62
450	843.62
450.221	834.62
450.442	822.62
450.662	787.62
450.883	812.62
451.104	795.62
451.324	772.62
451.545	817.62
451.766	799.62
451.986	762.62
452.207	754.62
452.428	744.62
452.648	753.62
452.869	790.62
453.089	829.62
453.31	835.62
453.53	741.62
453.751	746.62
453.971	730.62
454.192	742.62
454.412	776.62
454.633	735.62
454.853	742.62
455.073	702.62
455.294	720.62
455.514	727.62
455.734	755.62
455.955	802.62
456.175	806.62
456.395	721.62
456.616	708.62
456.836	696.62
457.056	706.62
457.276	684.62
457.497	715.62
457.717	705.62
457.937	726.62
458.157	709.62
458.377	717.62
458.598	737.62
458.818	753.62
459.038	820.62
459.258	831.62
459.478	826.62
459.698	886.62
459.918	886.62
460.138	866.62
460.358	871.62
460.578	850.62
460.798	868.62
461.018	879.62
461.238	848.62
461.458	848.62
461.678	870.62
461.898	918.62
462.118	917.62
462.338	902.62
462.558	954.62
462.777	972.62
462.997	997.62
463.217	999.62
463.437	1035.62
463.657	992.62
463.876	949.62
464.096	955.62
464.316	944.62
464.536	974.62
464.755	987.62
464.975	977.62
465.195	945.62
465.414	995.62
465.634	960.62
465.854	936.62
466.073	863.62
466.293	841.62
466.512	924.62
466.732	999.62
466.951	1024.62
467.171	947.62
467.391	883.62
467.61	868.62
467.829	924.62
468.049	924.62
468.268	895.62
468.488	875.62
468.707	891.62
468.927	1063.62
469.146	1146.62
469.365	999.62
469.585	944.62
469.804	1003.62
470.023	1074.62
470.243	965.62
470.462	895.62
470.681	890.62
470.901	906.62
471.12	965.62
471.339	926.62
471.558	894.62
471.777	899.62
471.997	966.62
472.216	1122.62
472.435	1055.62
472.654	967.62
472.873	920.62
473.092	964.62
473.311	1046.62
473.53	934.62
473.749	905.62
473.968	979.62
474.187	976.62
474.406	941.62
474.625	926.62
474.844	933.62
475.063	995.62
475.282	997.62
475.501	1026.62
475.72	1106.62
475.939	1063.62
476.158	1046.62
476.377	1195.62
476.596	1418.62
476.814	1473.62
477.033	1231.62
477.252	1022.62
477.471	972.62
477.69	984.62
477.908	1078.62
478.127	1095.62
478.346	1046.62
478.564	1103.62
478.783	1083.62
479.002	1115.62
479.22	1261.62
479.439	1386.62
479.658	1197.62
479.876	1112.62
480.095	1180.62
480.313	1214.62
480.532	1113.62
480.751	1069.62
480.969	1100.62
481.188	1228.62
481.406	1253.62
481.624	1240.62
481.843	1093.62
482.061	1079.62
482.28	1202.62
482.498	1402.62
482.717	1379.62
482.935	1185.62
483.153	1111.62
483.372	1055.62
483.59	1069.62
483.808	1023.62
484.027	994.62
484.245	1002.62
484.463	979.62
484.681	1002.62
484.9	1117.62
485.118	1148.62
485.336	1084.62
485.554	1011.62
485.772	1069.62
485.99	1156.62
486.209	1231.62
486.427	1200.62
486.645	1183.62
486.863	1210.62
487.081	1191.62
487.299	1299.62
487.517	1282.62
487.735	1183.62
487.953	1224.62
488.171	1253.62
488.389	1174.62
488.607	1099.62
488.825	1150.62
489.043	1210.62
489.261	1409.62
489.479	1518.62
489.696	1274.62
489.914	1184.62
490.132	1074.62
490.35	1109.62
490.568	1092.62
490.786	1087.62
491.003	1109.62
491.221	1149.62
491.439	1104.62
491.657	1139.62
491.874	1194.62
492.092	1495.62
492.31	1710.62
492.527	1748.62
492.745	1510.62
492.963	1280.62
493.18	1281.62
493.398	1280.62
493.615	1270.62
493.833	1249.62
494.05	1252.62
494.268	1241.62
494.485	1232.62
494.703	1162.62
494.92	1210.62
495.138	1184.62
