Data from NickelSpatula.Lamp.E5.5.P2_HRD10591_11-52-14-555.txt Node
Date: Tue Jul 23 11:52:14 EDT 2019
User: cochatt
Spectrometer: HR+D1059
Trigger mode: 1
Integration Time (sec): 1.000000E-1
Scans to average: 1
Electric dark correction enabled: true
Nonlinearity correction enabled: false
Boxcar width: 0
XAxis mode: Wavelengths
Number of Pixels in Spectrum: 2048
>>>>>Begin Spectral Data<<<<<
223.165	-16.88
223.4	-16.88
223.635	-16.88
223.869	-22.88
224.104	-15.88
224.338	-8.88
224.573	-20.88
224.808	-15.88
225.042	-10.88
225.277	0.12
225.511	2.12
225.746	7.12
225.98	7.12
226.215	12.12
226.449	11.12
226.683	20.12
226.918	18.12
227.152	34.12
227.387	39.12
227.621	46.12
227.856	41.12
228.09	52.12
228.324	42.12
228.559	57.12
228.793	55.12
229.027	67.12
229.262	77.12
229.496	73.12
229.73	78.12
229.964	94.12
230.199	101.12
230.433	90.12
230.667	90.12
230.901	93.12
231.136	99.12
231.37	105.12
231.604	111.12
231.838	93.12
232.072	107.12
232.306	106.12
232.541	100.12
232.775	103.12
233.009	107.12
233.243	121.12
233.477	112.12
233.711	134.12
233.945	121.12
234.179	107.12
234.413	125.12
234.647	125.12
234.881	151.12
235.115	133.12
235.349	143.12
235.583	122.12
235.817	122.12
236.051	114.12
236.285	128.12
236.519	145.12
236.753	135.12
236.987	123.12
237.221	129.12
237.455	143.12
237.689	140.12
237.922	136.12
238.156	149.12
238.39	165.12
238.624	171.12
238.858	141.12
239.091	142.12
239.325	148.12
239.559	135.12
239.793	146.12
240.027	171.12
240.26	167.12
240.494	158.12
240.728	151.12
240.961	190.12
241.195	186.12
241.429	161.12
241.662	169.12
241.896	127.12
242.13	128.12
242.363	130.12
242.597	128.12
242.83	146.12
243.064	166.12
243.298	153.12
243.531	176.12
243.765	172.12
243.998	183.12
244.232	178.12
244.465	172.12
244.699	157.12
244.932	157.12
245.166	161.12
245.399	169.12
245.633	153.12
245.866	151.12
246.099	170.12
246.333	198.12
246.566	199.12
246.8	197.12
247.033	192.12
247.266	190.12
247.5	176.12
247.733	173.12
247.966	183.12
248.2	185.12
248.433	184.12
248.666	194.12
248.899	201.12
249.133	215.12
249.366	240.12
249.599	231.12
249.832	232.12
250.066	209.12
250.299	214.12
250.532	207.12
250.765	182.12
250.998	197.12
251.231	192.12
251.465	201.12
251.698	198.12
251.931	199.12
252.164	210.12
252.397	228.12
252.63	251.12
252.863	267.12
253.096	262.12
253.329	275.12
253.562	282.12
253.795	294.12
254.028	307.12
254.261	324.12
254.494	281.12
254.727	270.12
254.96	260.12
255.193	259.12
255.426	239.12
255.659	213.12
255.892	202.12
256.124	239.12
256.357	257.12
256.59	291.12
256.823	270.12
257.056	237.12
257.289	206.12
257.521	229.12
257.754	268.12
257.987	318.12
258.22	281.12
258.452	234.12
258.685	267.12
258.918	308.12
259.151	279.12
259.383	308.12
259.616	342.12
259.849	348.12
260.081	359.12
260.314	407.12
260.547	329.12
260.779	344.12
261.012	388.12
261.244	347.12
261.477	354.12
261.71	319.12
261.942	287.12
262.175	303.12
262.407	290.12
262.64	290.12
262.872	349.12
263.105	367.12
263.337	378.12
263.57	351.12
263.802	255.12
264.035	233.12
264.267	214.12
264.499	205.12
264.732	202.12
264.964	187.12
265.197	181.12
265.429	190.12
265.661	201.12
265.894	216.12
266.126	215.12
266.358	246.12
266.591	276.12
266.823	339.12
267.055	312.12
267.287	295.12
267.52	286.12
267.752	311.12
267.984	332.12
268.216	313.12
268.448	280.12
268.681	258.12
268.913	294.12
269.145	298.12
269.377	306.12
269.609	303.12
269.841	297.12
270.073	303.12
270.306	317.12
270.538	326.12
270.77	330.12
271.002	339.12
271.234	354.12
271.466	347.12
271.698	319.12
271.93	314.12
272.162	301.12
272.394	319.12
272.626	295.12
272.858	319.12
273.09	325.12
273.322	290.12
273.553	271.12
273.785	320.12
274.017	394.12
274.249	487.12
274.481	482.12
274.713	533.12
274.945	597.12
275.176	641.12
275.408	570.12
275.64	542.12
275.872	534.12
276.104	462.12
276.335	413.12
276.567	415.12
276.799	402.12
277.031	443.12
277.262	346.12
277.494	286.12
277.726	280.12
277.957	275.12
278.189	328.12
278.421	318.12
278.652	319.12
278.884	314.12
279.115	280.12
279.347	270.12
279.579	284.12
279.81	269.12
280.042	284.12
280.273	294.12
280.505	272.12
280.736	245.12
280.968	255.12
281.199	261.12
281.431	303.12
281.662	285.12
281.894	272.12
282.125	287.12
282.356	318.12
282.588	312.12
282.819	282.12
283.051	311.12
283.282	359.12
283.513	407.12
283.745	431.12
283.976	451.12
284.207	406.12
284.439	435.12
284.67	437.12
284.901	372.12
285.132	416.12
285.364	445.12
285.595	398.12
285.826	433.12
286.057	434.12
286.288	437.12
286.52	415.12
286.751	434.12
286.982	439.12
287.213	402.12
287.444	394.12
287.675	406.12
287.906	407.12
288.138	337.12
288.369	337.12
288.6	293.12
288.831	303.12
289.062	373.12
289.293	385.12
289.524	356.12
289.755	341.12
289.986	371.12
290.217	333.12
290.448	269.12
290.679	238.12
290.91	230.12
291.141	243.12
291.371	226.12
291.602	241.12
291.833	235.12
292.064	249.12
292.295	259.12
292.526	322.12
292.757	313.12
292.987	346.12
293.218	339.12
293.449	358.12
293.68	381.12
293.91	357.12
294.141	385.12
294.372	353.12
294.603	326.12
294.833	361.12
295.064	424.12
295.295	413.12
295.525	322.12
295.756	261.12
295.987	239.12
296.217	239.12
296.448	237.12
296.679	257.12
296.909	269.12
297.14	296.12
297.37	325.12
297.601	323.12
297.831	274.12
298.062	278.12
298.292	313.12
298.523	335.12
298.753	371.12
298.984	343.12
299.214	297.12
299.445	255.12
299.675	253.12
299.905	232.12
300.136	259.12
300.366	258.12
300.597	261.12
300.827	231.12
301.057	235.12
301.288	246.12
301.518	268.12
301.748	295.12
301.979	307.12
302.209	298.12
302.439	321.12
302.669	283.12
302.9	297.12
303.13	266.12
303.36	274.12
303.59	267.12
303.82	266.12
304.051	281.12
304.281	298.12
304.511	317.12
304.741	273.12
304.971	291.12
305.201	302.12
305.431	285.12
305.661	235.12
305.891	230.12
306.121	253.12
306.352	238.12
306.582	219.12
306.812	216.12
307.042	203.12
307.272	212.12
307.502	197.12
307.731	213.12
307.961	211.12
308.191	203.12
308.421	204.12
308.651	199.12
308.881	189.12
309.111	191.12
309.341	197.12
309.571	206.12
309.8	216.12
310.03	198.12
310.26	226.12
310.49	217.12
310.72	206.12
310.949	187.12
311.179	228.12
311.409	223.12
311.639	248.12
311.868	285.12
312.098	376.12
312.328	401.12
312.557	380.12
312.787	417.12
313.017	355.12
313.246	399.12
313.476	450.12
313.706	349.12
313.935	293.12
314.165	253.12
314.394	231.12
314.624	225.12
314.853	251.12
315.083	245.12
315.312	231.12
315.542	234.12
315.771	232.12
316.001	213.12
316.23	197.12
316.46	202.12
316.689	206.12
316.919	207.12
317.148	210.12
317.377	219.12
317.607	201.12
317.836	242.12
318.065	251.12
318.295	283.12
318.524	258.12
318.753	234.12
318.983	225.12
319.212	221.12
319.441	253.12
319.67	261.12
319.9	256.12
320.129	242.12
320.358	225.12
320.587	203.12
320.816	232.12
321.046	256.12
321.275	290.12
321.504	259.12
321.733	272.12
321.962	253.12
322.191	246.12
322.42	254.12
322.649	260.12
322.878	262.12
323.108	246.12
323.337	237.12
323.566	231.12
323.795	241.12
324.024	241.12
324.253	215.12
324.482	216.12
324.71	231.12
324.939	265.12
325.168	264.12
325.397	233.12
325.626	217.12
325.855	221.12
326.084	216.12
326.313	230.12
326.542	224.12
326.77	213.12
326.999	197.12
327.228	210.12
327.457	228.12
327.686	232.12
327.914	208.12
328.143	208.12
328.372	194.12
328.6	208.12
328.829	220.12
329.058	207.12
329.287	194.12
329.515	236.12
329.744	216.12
329.972	218.12
330.201	206.12
330.43	215.12
330.658	233.12
330.887	243.12
331.115	232.12
331.344	237.12
331.572	239.12
331.801	220.12
332.03	218.12
332.258	216.12
332.486	227.12
332.715	225.12
332.943	211.12
333.172	217.12
333.4	240.12
333.629	255.12
333.857	249.12
334.085	255.12
334.314	285.12
334.542	253.12
334.771	234.12
334.999	235.12
335.227	214.12
335.455	224.12
335.684	243.12
335.912	273.12
336.14	293.12
336.369	275.12
336.597	264.12
336.825	299.12
337.053	337.12
337.281	287.12
337.51	219.12
337.738	224.12
337.966	257.12
338.194	267.12
338.422	251.12
338.65	226.12
338.878	206.12
339.106	213.12
339.334	223.12
339.562	254.12
339.79	228.12
340.018	217.12
340.246	247.12
340.474	264.12
340.702	267.12
340.93	290.12
341.158	293.12
341.386	259.12
341.614	222.12
341.842	234.12
342.07	244.12
342.298	290.12
342.526	307.12
342.754	256.12
342.981	231.12
343.209	223.12
343.437	257.12
343.665	255.12
343.893	277.12
344.12	302.12
344.348	359.12
344.576	344.12
344.804	271.12
345.031	232.12
345.259	216.12
345.487	231.12
345.714	244.12
345.942	257.12
346.17	290.12
346.397	273.12
346.625	233.12
346.853	231.12
347.08	234.12
347.308	239.12
347.535	237.12
347.763	273.12
347.99	257.12
348.218	223.12
348.445	231.12
348.673	247.12
348.9	238.12
349.128	237.12
349.355	249.12
349.583	254.12
349.81	247.12
350.037	253.12
350.265	210.12
350.492	205.12
350.72	202.12
350.947	208.12
351.174	217.12
351.402	223.12
351.629	231.12
351.856	217.12
352.083	211.12
352.311	216.12
352.538	248.12
352.765	240.12
352.992	233.12
353.22	228.12
353.447	232.12
353.674	239.12
353.901	234.12
354.128	230.12
354.355	232.12
354.583	214.12
354.81	234.12
355.037	266.12
355.264	242.12
355.491	245.12
355.718	250.12
355.945	250.12
356.172	266.12
356.399	257.12
356.626	293.12
356.853	333.12
357.08	345.12
357.307	360.12
357.534	296.12
357.761	306.12
357.988	384.12
358.215	423.12
358.441	405.12
358.668	334.12
358.895	323.12
359.122	269.12
359.349	268.12
359.576	326.12
359.802	280.12
360.029	230.12
360.256	243.12
360.483	284.12
360.709	351.12
360.936	345.12
361.163	328.12
361.39	246.12
361.616	221.12
361.843	273.12
362.07	328.12
362.296	313.12
362.523	239.12
362.749	214.12
362.976	228.12
363.203	265.12
363.429	295.12
363.656	257.12
363.882	209.12
364.109	224.12
364.335	230.12
364.562	229.12
364.788	234.12
365.015	280.12
365.241	269.12
365.468	231.12
365.694	215.12
365.92	217.12
366.147	207.12
366.373	198.12
366.599	217.12
366.826	194.12
367.052	185.12
367.278	194.12
367.505	204.12
367.731	237.12
367.957	237.12
368.184	253.12
368.41	217.12
368.636	250.12
368.862	255.12
369.089	239.12
369.315	215.12
369.541	210.12
369.767	213.12
369.993	205.12
370.219	215.12
370.445	227.12
370.672	232.12
370.898	251.12
371.124	230.12
371.35	236.12
371.576	205.12
371.802	239.12
372.028	259.12
372.254	292.12
372.48	276.12
372.706	245.12
372.932	265.12
373.158	253.12
373.384	281.12
373.61	375.12
373.835	387.12
374.061	310.12
374.287	291.12
374.513	301.12
374.739	377.12
374.965	370.12
375.191	373.12
375.416	267.12
375.642	237.12
375.868	279.12
376.094	309.12
376.319	254.12
376.545	295.12
376.771	291.12
376.997	256.12
377.222	219.12
377.448	211.12
377.674	192.12
377.899	209.12
378.125	203.12
378.35	201.12
378.576	202.12
378.802	218.12
379.027	226.12
379.253	205.12
379.478	225.12
379.704	225.12
379.929	261.12
380.155	256.12
380.38	217.12
380.606	222.12
380.831	254.12
381.057	258.12
381.282	242.12
381.507	270.12
381.733	281.12
381.958	325.12
382.184	352.12
382.409	369.12
382.634	377.12
382.86	369.12
383.085	330.12
383.31	261.12
383.535	286.12
383.761	288.12
383.986	280.12
384.211	305.12
384.436	312.12
384.662	245.12
384.887	242.12
385.112	261.12
385.337	271.12
385.562	245.12
385.787	270.12
386.013	289.12
386.238	303.12
386.463	248.12
386.688	256.12
386.913	246.12
387.138	207.12
387.363	227.12
387.588	230.12
387.813	256.12
388.038	267.12
388.263	243.12
388.488	231.12
388.713	258.12
388.938	287.12
389.163	238.12
389.387	231.12
389.612	231.12
389.837	227.12
390.062	221.12
390.287	237.12
390.512	251.12
390.736	224.12
390.961	226.12
391.186	229.12
391.411	199.12
391.636	211.12
391.86	242.12
392.085	240.12
392.31	256.12
392.534	241.12
392.759	232.12
392.984	221.12
393.208	248.12
393.433	212.12
393.658	198.12
393.882	209.12
394.107	192.12
394.331	196.12
394.556	211.12
394.78	222.12
395.005	229.12
395.229	225.12
395.454	237.12
395.678	209.12
395.903	207.12
396.127	216.12
396.352	214.12
396.576	237.12
396.801	231.12
397.025	252.12
397.249	268.12
397.474	228.12
397.698	230.12
397.922	237.12
398.147	237.12
398.371	230.12
398.595	241.12
398.82	223.12
399.044	246.12
399.268	252.12
399.492	271.12
399.717	273.12
399.941	287.12
400.165	268.12
400.389	262.12
400.613	264.12
400.837	249.12
401.062	217.12
401.286	237.12
401.51	230.12
401.734	223.12
401.958	226.12
402.182	247.12
402.406	222.12
402.63	244.12
402.854	249.12
403.078	285.12
403.302	366.12
403.526	389.12
403.75	350.12
403.974	281.12
404.198	293.12
404.422	325.12
404.645	350.12
404.869	366.12
405.093	286.12
405.317	268.12
405.541	254.12
405.765	263.12
405.988	273.12
406.212	274.12
406.436	308.12
406.66	318.12
406.883	267.12
407.107	273.12
407.331	325.12
407.555	323.12
407.778	299.12
408.002	282.12
408.226	278.12
408.449	266.12
408.673	256.12
408.896	241.12
409.12	237.12
409.344	253.12
409.567	234.12
409.791	242.12
410.014	252.12
410.238	240.12
410.461	235.12
410.685	243.12
410.908	247.12
411.132	238.12
411.355	246.12
411.578	241.12
411.802	229.12
412.025	230.12
412.249	250.12
412.472	233.12
412.695	234.12
412.919	248.12
413.142	247.12
413.365	256.12
413.589	253.12
413.812	229.12
414.035	227.12
414.258	239.12
414.482	273.12
414.705	248.12
414.928	222.12
415.151	225.12
415.374	231.12
415.597	217.12
415.821	231.12
416.044	225.12
416.267	227.12
416.49	216.12
416.713	232.12
416.936	239.12
417.159	206.12
417.382	241.12
417.605	238.12
417.828	228.12
418.051	230.12
418.274	222.12
418.497	221.12
418.72	235.12
418.943	241.12
419.166	246.12
419.389	243.12
419.611	265.12
419.834	245.12
420.057	263.12
420.28	277.12
420.503	259.12
420.726	231.12
420.948	225.12
421.171	229.12
421.394	233.12
421.617	228.12
421.839	224.12
422.062	243.12
422.285	227.12
422.507	230.12
422.73	230.12
422.953	239.12
423.175	229.12
423.398	253.12
423.621	271.12
423.843	263.12
424.066	252.12
424.288	246.12
424.511	244.12
424.733	245.12
424.956	256.12
425.178	279.12
425.401	306.12
425.623	375.12
425.846	297.12
426.068	258.12
426.291	274.12
426.513	256.12
426.735	244.12
426.958	237.12
427.18	275.12
427.402	347.12
427.625	366.12
427.847	304.12
428.069	248.12
428.292	239.12
428.514	233.12
428.736	243.12
428.958	253.12
429.181	310.12
429.403	265.12
429.625	241.12
429.847	244.12
430.069	229.12
430.292	241.12
430.514	227.12
430.736	244.12
430.958	281.12
431.18	269.12
431.402	216.12
431.624	215.12
431.846	222.12
432.068	215.12
432.29	226.12
432.512	244.12
432.734	295.12
432.956	265.12
433.178	254.12
433.4	239.12
433.622	220.12
433.844	229.12
434.066	246.12
434.287	255.12
434.509	246.12
434.731	245.12
434.953	243.12
435.175	241.12
435.397	265.12
435.618	237.12
435.84	209.12
436.062	209.12
436.284	222.12
436.505	215.12
436.727	219.12
436.949	215.12
437.17	221.12
437.392	246.12
437.614	239.12
437.835	217.12
438.057	215.12
438.278	243.12
438.5	319.12
438.721	313.12
438.943	225.12
439.165	197.12
439.386	222.12
439.608	234.12
439.829	202.12
440.05	194.12
440.272	220.12
440.493	240.12
440.715	302.12
440.936	237.12
441.158	239.12
441.379	224.12
441.6	251.12
441.822	275.12
442.043	243.12
442.264	226.12
442.486	237.12
442.707	228.12
442.928	232.12
443.149	231.12
443.371	229.12
443.592	257.12
443.813	247.12
444.034	247.12
444.255	242.12
444.476	227.12
444.698	257.12
444.919	274.12
445.14	368.12
445.361	301.12
445.582	241.12
445.803	240.12
446.024	244.12
446.245	243.12
446.466	241.12
446.687	235.12
446.908	231.12
447.129	218.12
447.35	216.12
447.571	226.12
447.792	219.12
448.013	189.12
448.234	209.12
448.455	208.12
448.675	214.12
448.896	212.12
449.117	203.12
449.338	202.12
449.559	223.12
449.779	227.12
450	226.12
450.221	216.12
450.442	194.12
450.662	209.12
450.883	207.12
451.104	219.12
451.324	203.12
451.545	213.12
451.766	208.12
451.986	215.12
452.207	216.12
452.428	200.12
452.648	205.12
452.869	225.12
453.089	227.12
453.31	220.12
453.53	190.12
453.751	202.12
453.971	225.12
454.192	220.12
454.412	221.12
454.633	205.12
454.853	206.12
455.073	193.12
455.294	207.12
455.514	206.12
455.734	206.12
455.955	191.12
456.175	216.12
456.395	197.12
456.616	183.12
456.836	190.12
457.056	189.12
457.276	192.12
457.497	198.12
457.717	195.12
457.937	205.12
458.157	206.12
458.377	209.12
458.598	191.12
458.818	210.12
459.038	199.12
459.258	217.12
459.478	227.12
459.698	243.12
459.918	232.12
460.138	243.12
460.358	234.12
460.578	231.12
460.798	252.12
461.018	224.12
461.238	234.12
461.458	227.12
461.678	223.12
461.898	251.12
462.118	247.12
462.338	255.12
462.558	247.12
462.777	261.12
462.997	278.12
463.217	291.12
463.437	297.12
463.657	271.12
463.876	263.12
464.096	264.12
464.316	271.12
464.536	263.12
464.755	281.12
464.975	281.12
465.195	258.12
465.414	267.12
465.634	253.12
465.854	245.12
466.073	235.12
466.293	226.12
466.512	223.12
466.732	257.12
466.951	264.12
467.171	225.12
467.391	222.12
467.61	225.12
467.829	242.12
468.049	241.12
468.268	222.12
468.488	223.12
468.707	232.12
468.927	273.12
469.146	283.12
469.365	252.12
469.585	225.12
469.804	257.12
470.023	258.12
470.243	234.12
470.462	233.12
470.681	216.12
470.901	248.12
471.12	234.12
471.339	239.12
471.558	227.12
471.777	229.12
471.997	219.12
472.216	280.12
472.435	253.12
472.654	239.12
472.873	250.12
473.092	255.12
473.311	257.12
473.53	241.12
473.749	236.12
473.968	246.12
474.187	249.12
474.406	246.12
474.625	233.12
474.844	229.12
475.063	255.12
475.282	245.12
475.501	265.12
475.72	281.12
475.939	263.12
476.158	275.12
476.377	281.12
476.596	326.12
476.814	356.12
477.033	312.12
477.252	253.12
477.471	254.12
477.69	247.12
477.908	265.12
478.127	304.12
478.346	261.12
478.564	273.12
478.783	288.12
479.002	263.12
479.22	312.12
479.439	317.12
479.658	290.12
479.876	271.12
480.095	272.12
480.313	290.12
480.532	284.12
480.751	298.12
480.969	301.12
481.188	295.12
481.406	311.12
481.624	280.12
481.843	251.12
482.061	268.12
482.28	291.12
482.498	352.12
482.717	342.12
482.935	286.12
483.153	274.12
483.372	273.12
483.59	250.12
483.808	251.12
484.027	252.12
484.245	263.12
484.463	240.12
484.681	260.12
484.9	265.12
485.118	298.12
485.336	273.12
485.554	267.12
485.772	274.12
485.99	289.12
486.209	302.12
486.427	281.12
486.645	288.12
486.863	301.12
487.081	283.12
487.299	304.12
487.517	296.12
487.735	285.12
487.953	299.12
488.171	305.12
488.389	294.12
488.607	262.12
488.825	252.12
489.043	311.12
489.261	329.12
489.479	328.12
489.696	278.12
489.914	264.12
490.132	255.12
490.35	270.12
490.568	274.12
490.786	267.12
491.003	279.12
491.221	294.12
491.439	284.12
491.657	274.12
491.874	275.12
492.092	313.12
492.31	376.12
492.527	358.12
492.745	309.12
492.963	287.12
493.18	277.12
493.398	298.12
493.615	297.12
493.833	291.12
494.05	305.12
494.268	292.12
494.485	290.12
494.703	277.12
494.92	285.12
495.138	262.12
495.355	280.12
495.573	285.12
495.79	312.12
496.008	374.12
496.225	336.12
496.442	308.12
496.66	304.12
496.877	330.12
497.094	303.12
497.312	298.12
497.529	279.12
497.746	316.12
497.963	298.12
498.181	325.12
498.398	365.12
498.615	351.12
498.832	395.12
499.049	406.12
499.267	359.12
499.484	396.12
499.701	418.12
499.918	447.12
500.135	509.12
500.352	527.12
500.569	531.12
500.786	516.12
501.003	505.12
501.22	472.12
501.437	415.12
501.654	403.12
501.871	386.12
502.088	385.12
502.305	357.12
502.522	345.12
