Data from NickelSpatula.Lamp.E10.P2_HRD10591_11-59-37-525.txt Node
Date: Tue Jul 23 11:59:37 EDT 2019
User: cochatt
Spectrometer: HR+D1059
Trigger mode: 1
Integration Time (sec): 1.000000E-1
Scans to average: 1
Electric dark correction enabled: true
Nonlinearity correction enabled: false
Boxcar width: 0
XAxis mode: Wavelengths
Number of Pixels in Spectrum: 2048
>>>>>Begin Spectral Data<<<<<
223.165	0.56
223.4	0.56
223.635	0.56
223.869	-8.44
224.104	-30.44
224.338	-20.44
224.573	-21.44
224.808	-13.44
225.042	-8.44
225.277	-11.44
225.511	-2.44
225.746	-7.44
225.98	9.56
226.215	14.56
226.449	14.56
226.683	23.56
226.918	31.56
227.152	29.56
227.387	27.56
227.621	34.56
227.856	46.56
228.09	42.56
228.324	58.56
228.559	67.56
228.793	83.56
229.027	148.56
229.262	165.56
229.496	160.56
229.73	158.56
229.964	205.56
230.199	215.56
230.433	220.56
230.667	211.56
230.901	215.56
231.136	179.56
231.37	230.56
231.604	212.56
231.838	236.56
232.072	226.56
232.306	254.56
232.541	251.56
232.775	238.56
233.009	271.56
233.243	291.56
233.477	299.56
233.711	336.56
233.945	354.56
234.179	332.56
234.413	362.56
234.647	398.56
234.881	472.56
235.115	404.56
235.349	389.56
235.583	347.56
235.817	367.56
236.051	382.56
236.285	433.56
236.519	465.56
236.753	442.56
236.987	430.56
237.221	410.56
237.455	414.56
237.689	428.56
237.922	462.56
238.156	485.56
238.39	550.56
238.624	682.56
238.858	596.56
239.091	498.56
239.325	545.56
239.559	493.56
239.793	540.56
240.027	654.56
240.26	595.56
240.494	590.56
240.728	607.56
240.961	709.56
241.195	674.56
241.429	643.56
241.662	631.56
241.896	504.56
242.13	484.56
242.363	476.56
242.597	490.56
242.83	546.56
243.064	549.56
243.298	595.56
243.531	620.56
243.765	657.56
243.998	637.56
244.232	593.56
244.465	602.56
244.699	598.56
244.932	666.56
245.166	638.56
245.399	552.56
245.633	552.56
245.866	572.56
246.099	604.56
246.333	748.56
246.566	780.56
246.8	780.56
247.033	754.56
247.266	702.56
247.5	709.56
247.733	692.56
247.966	650.56
248.2	686.56
248.433	786.56
248.666	847.56
248.899	845.56
249.133	888.56
249.366	1032.56
249.599	1054.56
249.832	971.56
250.066	817.56
250.299	854.56
250.532	817.56
250.765	834.56
250.998	757.56
251.231	721.56
251.465	791.56
251.698	840.56
251.931	807.56
252.164	853.56
252.397	949.56
252.63	1056.56
252.863	1145.56
253.096	1219.56
253.329	1181.56
253.562	1136.56
253.795	1251.56
254.028	1388.56
254.261	1413.56
254.494	1294.56
254.727	1168.56
254.96	1148.56
255.193	1190.56
255.426	1150.56
255.659	885.56
255.892	813.56
256.124	881.56
256.357	1047.56
256.59	1224.56
256.823	1144.56
257.056	982.56
257.289	944.56
257.521	986.56
257.754	1172.56
257.987	1320.56
258.22	1131.56
258.452	1027.56
258.685	1143.56
258.918	1308.56
259.151	1230.56
259.383	1317.56
259.616	1500.56
259.849	1562.56
260.081	1752.56
260.314	1934.56
260.547	1480.56
260.779	1503.56
261.012	1727.56
261.244	1656.56
261.477	1696.56
261.71	1575.56
261.942	1308.56
262.175	1288.56
262.407	1262.56
262.64	1306.56
262.872	1515.56
263.105	1636.56
263.337	1745.56
263.57	1537.56
263.802	1027.56
264.035	902.56
264.267	890.56
264.499	771.56
264.732	687.56
264.964	694.56
265.197	711.56
265.429	785.56
265.661	814.56
265.894	858.56
266.126	913.56
266.358	1054.56
266.591	1251.56
266.823	1506.56
267.055	1433.56
267.287	1258.56
267.52	1262.56
267.752	1340.56
267.984	1482.56
268.216	1359.56
268.448	1135.56
268.681	1123.56
268.913	1218.56
269.145	1293.56
269.377	1292.56
269.609	1339.56
269.841	1238.56
270.073	1311.56
270.306	1389.56
270.538	1408.56
270.77	1411.56
271.002	1421.56
271.234	1474.56
271.466	1529.56
271.698	1509.56
271.93	1462.56
272.162	1481.56
272.394	1451.56
272.626	1425.56
272.858	1482.56
273.09	1528.56
273.322	1333.56
273.553	1288.56
273.785	1526.56
274.017	2021.56
274.249	2480.56
274.481	2612.56
274.713	2847.56
274.945	3244.56
275.176	3362.56
275.408	2945.56
275.64	2697.56
275.872	2716.56
276.104	2243.56
276.335	2001.56
276.567	1913.56
276.799	1979.56
277.031	2124.56
277.262	1630.56
277.494	1251.56
277.726	1202.56
277.957	1329.56
278.189	1534.56
278.421	1481.56
278.652	1454.56
278.884	1380.56
279.115	1276.56
279.347	1204.56
279.579	1196.56
279.81	1206.56
280.042	1241.56
280.273	1244.56
280.505	1163.56
280.736	1033.56
280.968	1023.56
281.199	1124.56
281.431	1236.56
281.662	1225.56
281.894	1164.56
282.125	1258.56
282.356	1355.56
282.588	1399.56
282.819	1271.56
283.051	1396.56
283.282	1708.56
283.513	1986.56
283.745	2202.56
283.976	2160.56
284.207	2054.56
284.439	2102.56
284.67	2068.56
284.901	1801.56
285.132	1950.56
285.364	2066.56
285.595	1918.56
285.826	1995.56
286.057	2107.56
286.288	1952.56
286.52	2071.56
286.751	2162.56
286.982	2115.56
287.213	1837.56
287.444	1808.56
287.675	1877.56
287.906	1842.56
288.138	1551.56
288.369	1405.56
288.6	1294.56
288.831	1349.56
289.062	1585.56
289.293	1735.56
289.524	1644.56
289.755	1643.56
289.986	1677.56
290.217	1450.56
290.448	1094.56
290.679	982.56
290.91	904.56
291.141	942.56
291.371	953.56
291.602	995.56
291.833	988.56
292.064	1059.56
292.295	1232.56
292.526	1394.56
292.757	1460.56
292.987	1584.56
293.218	1549.56
293.449	1586.56
293.68	1708.56
293.91	1630.56
294.141	1662.56
294.372	1528.56
294.603	1436.56
294.833	1599.56
295.064	1845.56
295.295	1753.56
295.525	1358.56
295.756	1166.56
295.987	1016.56
296.217	1020.56
296.448	1084.56
296.679	1102.56
296.909	1220.56
297.14	1354.56
297.37	1448.56
297.601	1403.56
297.831	1202.56
298.062	1232.56
298.292	1451.56
298.523	1614.56
298.753	1812.56
298.984	1612.56
299.214	1300.56
299.445	1111.56
299.675	1060.56
299.905	1079.56
300.136	1095.56
300.366	1188.56
300.597	1164.56
300.827	1037.56
301.057	1030.56
301.288	1030.56
301.518	1122.56
301.748	1274.56
301.979	1343.56
302.209	1529.56
302.439	1472.56
302.669	1262.56
302.9	1258.56
303.13	1178.56
303.36	1107.56
303.59	1066.56
303.82	1104.56
304.051	1267.56
304.281	1341.56
304.511	1307.56
304.741	1166.56
304.971	1222.56
305.201	1306.56
305.431	1240.56
305.661	1092.56
305.891	1090.56
306.121	1117.56
306.352	995.56
306.582	865.56
306.812	888.56
307.042	892.56
307.272	838.56
307.502	849.56
307.731	883.56
307.961	908.56
308.191	896.56
308.421	830.56
308.651	814.56
308.881	781.56
309.111	810.56
309.341	830.56
309.571	911.56
309.8	919.56
310.03	956.56
310.26	1030.56
310.49	963.56
310.72	872.56
310.949	855.56
311.179	897.56
311.409	921.56
311.639	1095.56
311.868	1417.56
312.098	1819.56
312.328	1982.56
312.557	1890.56
312.787	1944.56
313.017	1725.56
313.246	1845.56
313.476	2006.56
313.706	1628.56
313.935	1324.56
314.165	1059.56
314.394	944.56
314.624	955.56
314.853	1030.56
315.083	1052.56
315.312	1030.56
315.542	993.56
315.771	950.56
316.001	856.56
316.23	849.56
316.46	851.56
316.689	858.56
316.919	906.56
317.148	896.56
317.377	875.56
317.607	880.56
317.836	964.56
318.065	1121.56
318.295	1268.56
318.524	1158.56
318.753	960.56
318.983	946.56
319.212	911.56
319.441	1010.56
319.67	1140.56
319.9	1234.56
320.129	1159.56
320.358	989.56
320.587	979.56
320.816	1039.56
321.046	1214.56
321.275	1347.56
321.504	1398.56
321.733	1300.56
321.962	1256.56
322.191	1127.56
322.42	1141.56
322.649	1159.56
322.878	1250.56
323.108	1226.56
323.337	1107.56
323.566	1107.56
323.795	1114.56
324.024	1025.56
324.253	1005.56
324.482	996.56
324.71	1101.56
324.939	1215.56
325.168	1141.56
325.397	921.56
325.626	928.56
325.855	914.56
326.084	922.56
326.313	883.56
326.542	856.56
326.77	869.56
326.999	897.56
327.228	958.56
327.457	1025.56
327.686	1006.56
327.914	904.56
328.143	810.56
328.372	840.56
328.6	872.56
328.829	888.56
329.058	877.56
329.287	903.56
329.515	910.56
329.744	897.56
329.972	820.56
330.201	792.56
330.43	832.56
330.658	933.56
330.887	1088.56
331.115	1034.56
331.344	981.56
331.572	972.56
331.801	917.56
332.03	834.56
332.258	891.56
332.486	970.56
332.715	1015.56
332.943	920.56
333.172	941.56
333.4	938.56
333.629	1078.56
333.857	1117.56
334.085	1119.56
334.314	1103.56
334.542	1051.56
334.771	960.56
334.999	964.56
335.227	948.56
335.455	952.56
335.684	1044.56
335.912	1200.56
336.14	1354.56
336.369	1250.56
336.597	1212.56
336.825	1393.56
337.053	1533.56
337.281	1252.56
337.51	1020.56
337.738	982.56
337.966	1076.56
338.194	1200.56
338.422	1128.56
338.65	959.56
338.878	880.56
339.106	895.56
339.334	1011.56
339.562	1096.56
339.79	986.56
340.018	952.56
340.246	1075.56
340.474	1208.56
340.702	1260.56
340.93	1316.56
341.158	1334.56
341.386	1163.56
341.614	1168.56
341.842	1124.56
342.07	1159.56
342.298	1342.56
342.526	1409.56
342.754	1194.56
342.981	1118.56
343.209	1060.56
343.437	1129.56
343.665	1229.56
343.893	1209.56
344.12	1419.56
344.348	1672.56
344.576	1467.56
344.804	1205.56
345.031	1043.56
345.259	994.56
345.487	1033.56
345.714	1066.56
345.942	1126.56
346.17	1207.56
346.397	1142.56
346.625	1007.56
346.853	980.56
347.08	943.56
347.308	1038.56
347.535	1139.56
347.763	1167.56
347.99	981.56
348.218	916.56
348.445	973.56
348.673	994.56
348.9	1004.56
349.128	1080.56
349.355	1130.56
349.583	1077.56
349.81	1044.56
350.037	968.56
350.265	850.56
350.492	812.56
350.72	804.56
350.947	868.56
351.174	907.56
351.402	967.56
351.629	1008.56
351.856	959.56
352.083	911.56
352.311	987.56
352.538	1121.56
352.765	1188.56
352.992	1080.56
353.22	982.56
353.447	1042.56
353.674	972.56
353.901	987.56
354.128	1024.56
354.355	1021.56
354.583	1011.56
354.81	982.56
355.037	1049.56
355.264	1012.56
355.491	1111.56
355.718	1256.56
355.945	1127.56
356.172	1121.56
356.399	1133.56
356.626	1358.56
356.853	1662.56
357.08	1760.56
357.307	1817.56
357.534	1414.56
357.761	1450.56
357.988	1813.56
358.215	2124.56
358.441	2017.56
358.668	1741.56
358.895	1548.56
359.122	1232.56
359.349	1198.56
359.576	1349.56
359.802	1154.56
360.029	964.56
360.256	1047.56
360.483	1322.56
360.709	1624.56
360.936	1718.56
361.163	1470.56
361.39	1155.56
361.616	1072.56
361.843	1274.56
362.07	1572.56
362.296	1403.56
362.523	1112.56
362.749	965.56
362.976	1010.56
363.203	1251.56
363.429	1402.56
363.656	1103.56
363.882	1008.56
364.109	1033.56
364.335	1014.56
364.562	987.56
364.788	1156.56
365.015	1374.56
365.241	1199.56
365.468	994.56
365.694	850.56
365.92	828.56
366.147	775.56
366.373	783.56
366.599	792.56
366.826	804.56
367.052	839.56
367.278	863.56
367.505	821.56
367.731	899.56
367.957	1045.56
368.184	1059.56
368.41	1042.56
368.636	1044.56
368.862	1115.56
369.089	1024.56
369.315	930.56
369.541	920.56
369.767	881.56
369.993	852.56
370.219	886.56
370.445	908.56
370.672	1023.56
370.898	1148.56
371.124	1077.56
371.35	990.56
371.576	926.56
371.802	996.56
372.028	1183.56
372.254	1376.56
372.48	1177.56
372.706	1063.56
372.932	1119.56
373.158	1146.56
373.384	1420.56
373.61	1918.56
373.835	1931.56
374.061	1408.56
374.287	1208.56
374.513	1414.56
374.739	1700.56
374.965	1755.56
375.191	1693.56
375.416	1191.56
375.642	1036.56
375.868	1254.56
376.094	1374.56
376.319	1217.56
376.545	1351.56
376.771	1360.56
376.997	1200.56
377.222	836.56
377.448	758.56
377.674	771.56
377.899	751.56
378.125	741.56
378.35	754.56
378.576	781.56
378.802	851.56
379.027	946.56
379.253	894.56
379.478	929.56
379.704	1090.56
379.929	1143.56
380.155	1089.56
380.38	981.56
380.606	1036.56
380.831	1145.56
381.057	1022.56
381.282	983.56
381.507	1202.56
381.733	1466.56
381.958	1598.56
382.184	1639.56
382.409	1738.56
382.634	1696.56
382.86	1844.56
383.085	1491.56
383.31	1160.56
383.535	1247.56
383.761	1247.56
383.986	1203.56
384.211	1469.56
384.436	1399.56
384.662	1058.56
384.887	1007.56
385.112	1034.56
385.337	1067.56
385.562	1023.56
385.787	1102.56
386.013	1282.56
386.238	1293.56
386.463	1040.56
386.688	1006.56
386.913	968.56
387.138	888.56
387.363	964.56
387.588	1029.56
387.813	995.56
388.038	1139.56
388.263	995.56
388.488	995.56
388.713	1139.56
388.938	1282.56
389.163	1058.56
389.387	967.56
389.612	927.56
389.837	979.56
390.062	987.56
390.287	1035.56
390.512	1053.56
390.736	942.56
390.961	911.56
391.186	853.56
391.411	837.56
391.636	869.56
391.86	929.56
392.085	1052.56
392.31	1047.56
392.534	992.56
392.759	975.56
392.984	1020.56
393.208	989.56
393.433	878.56
393.658	815.56
393.882	793.56
394.107	810.56
394.331	818.56
394.556	801.56
394.78	802.56
395.005	848.56
395.229	893.56
395.454	884.56
395.678	898.56
395.903	913.56
396.127	874.56
396.352	899.56
396.576	950.56
396.801	1031.56
397.025	1119.56
397.249	1131.56
397.474	944.56
397.698	950.56
397.922	1012.56
398.147	878.56
398.371	906.56
398.595	950.56
398.82	949.56
399.044	976.56
399.268	1040.56
399.492	1060.56
399.717	1092.56
399.941	1107.56
400.165	1042.56
400.389	1020.56
400.613	1100.56
400.837	1051.56
401.062	927.56
401.286	903.56
401.51	903.56
401.734	928.56
401.958	947.56
402.182	930.56
402.406	908.56
402.63	914.56
402.854	958.56
403.078	1086.56
403.302	1339.56
403.526	1373.56
403.75	1191.56
403.974	1059.56
404.198	1083.56
404.422	1229.56
404.645	1481.56
404.869	1615.56
405.093	1197.56
405.317	1011.56
405.541	958.56
405.765	1035.56
405.988	1024.56
406.212	1111.56
406.436	1324.56
406.66	1441.56
406.883	1122.56
407.107	1194.56
407.331	1404.56
407.555	1334.56
407.778	1120.56
408.002	1073.56
408.226	1047.56
408.449	1078.56
408.673	1028.56
408.896	975.56
409.12	942.56
409.344	897.56
409.567	874.56
409.791	918.56
410.014	900.56
410.238	907.56
410.461	916.56
410.685	902.56
410.908	920.56
411.132	935.56
411.355	954.56
411.578	960.56
411.802	910.56
412.025	994.56
412.249	1023.56
412.472	968.56
412.695	968.56
412.919	995.56
413.142	997.56
413.365	1056.56
413.589	1059.56
413.812	974.56
414.035	914.56
414.258	911.56
414.482	1076.56
414.705	1090.56
414.928	951.56
415.151	916.56
415.374	885.56
415.597	935.56
415.821	925.56
416.044	915.56
416.267	899.56
416.49	874.56
416.713	847.56
416.936	864.56
417.159	857.56
417.382	888.56
417.605	904.56
417.828	935.56
418.051	902.56
418.274	951.56
418.497	928.56
418.72	956.56
418.943	970.56
419.166	1003.56
419.389	1060.56
419.611	1064.56
419.834	1064.56
420.057	1152.56
420.28	1125.56
420.503	1031.56
420.726	922.56
420.948	878.56
421.171	876.56
421.394	889.56
421.617	853.56
421.839	892.56
422.062	918.56
422.285	929.56
422.507	958.56
422.73	971.56
422.953	986.56
423.175	988.56
423.398	946.56
423.621	1021.56
423.843	1051.56
424.066	996.56
424.288	943.56
424.511	909.56
424.733	911.56
424.956	981.56
425.178	1117.56
425.401	1242.56
425.623	1422.56
425.846	1171.56
426.068	1040.56
426.291	1136.56
426.513	1031.56
426.735	974.56
426.958	1005.56
427.18	1184.56
427.402	1543.56
427.625	1534.56
427.847	1210.56
428.069	890.56
428.292	908.56
428.514	891.56
428.736	852.56
428.958	959.56
429.181	1164.56
429.403	997.56
429.625	886.56
429.847	915.56
430.069	916.56
430.292	924.56
430.514	870.56
430.736	987.56
430.958	1243.56
431.18	1103.56
431.402	858.56
431.624	814.56
431.846	823.56
432.068	780.56
432.29	834.56
432.512	946.56
432.734	1262.56
432.956	1166.56
433.178	879.56
433.4	853.56
433.622	851.56
433.844	867.56
434.066	948.56
434.287	940.56
434.509	910.56
434.731	931.56
434.953	884.56
435.175	911.56
435.397	1055.56
435.618	917.56
435.84	837.56
436.062	839.56
436.284	822.56
436.505	804.56
436.727	813.56
436.949	846.56
437.17	874.56
437.392	885.56
437.614	855.56
437.835	819.56
438.057	860.56
438.278	1000.56
438.5	1439.56
438.721	1426.56
438.943	951.56
439.165	812.56
439.386	830.56
439.608	775.56
439.829	776.56
440.05	830.56
440.272	875.56
440.493	1009.56
440.715	1262.56
440.936	1017.56
441.158	874.56
441.379	869.56
441.6	1000.56
441.822	1052.56
442.043	924.56
442.264	896.56
442.486	895.56
442.707	905.56
442.928	900.56
443.149	898.56
443.371	892.56
443.592	954.56
443.813	925.56
444.034	909.56
444.255	888.56
444.476	946.56
444.698	969.56
444.919	966.56
445.14	1010.56
445.361	1017.56
445.582	938.56
445.803	919.56
446.024	941.56
446.245	954.56
446.466	913.56
446.687	866.56
446.908	916.56
447.129	848.56
447.35	822.56
447.571	812.56
447.792	796.56
448.013	789.56
448.234	791.56
448.455	790.56
448.675	794.56
448.896	821.56
449.117	819.56
449.338	798.56
449.559	818.56
449.779	867.56
450	891.56
450.221	852.56
450.442	839.56
450.662	796.56
450.883	813.56
451.104	822.56
451.324	794.56
451.545	824.56
451.766	823.56
451.986	799.56
452.207	780.56
452.428	781.56
452.648	818.56
452.869	846.56
453.089	866.56
453.31	829.56
453.53	765.56
453.751	754.56
453.971	739.56
454.192	775.56
454.412	788.56
454.633	788.56
454.853	750.56
455.073	741.56
455.294	732.56
455.514	736.56
455.734	790.56
455.955	811.56
456.175	818.56
456.395	757.56
456.616	734.56
456.836	704.56
457.056	695.56
457.276	704.56
457.497	725.56
457.717	730.56
457.937	739.56
458.157	725.56
458.377	737.56
458.598	760.56
458.818	794.56
459.038	832.56
459.258	835.56
459.478	869.56
459.698	921.56
459.918	891.56
460.138	895.56
460.358	944.56
460.578	863.56
460.798	881.56
461.018	912.56
461.238	861.56
461.458	848.56
461.678	882.56
461.898	945.56
462.118	915.56
462.338	958.56
462.558	965.56
462.777	1020.56
462.997	1035.56
463.217	1019.56
463.437	1055.56
463.657	1003.56
463.876	966.56
464.096	970.56
464.316	955.56
464.536	989.56
464.755	1036.56
464.975	1042.56
465.195	959.56
465.414	1028.56
465.634	970.56
465.854	934.56
466.073	862.56
466.293	888.56
466.512	954.56
466.732	1048.56
466.951	1058.56
467.171	930.56
467.391	876.56
467.61	855.56
467.829	976.56
468.049	946.56
468.268	908.56
468.488	898.56
468.707	944.56
468.927	1112.56
469.146	1154.56
469.365	1054.56
469.585	944.56
469.804	1009.56
470.023	1119.56
470.243	1002.56
470.462	924.56
470.681	954.56
470.901	923.56
471.12	978.56
471.339	995.56
471.558	927.56
471.777	950.56
471.997	987.56
472.216	1138.56
472.435	1100.56
472.654	1037.56
472.873	952.56
473.092	1026.56
473.311	1079.56
473.53	968.56
473.749	928.56
473.968	988.56
474.187	969.56
474.406	946.56
474.625	942.56
474.844	972.56
475.063	1010.56
475.282	1023.56
475.501	1082.56
475.72	1149.56
475.939	1122.56
476.158	1117.56
476.377	1244.56
476.596	1466.56
476.814	1516.56
477.033	1260.56
477.252	1027.56
477.471	999.56
477.69	999.56
477.908	1151.56
478.127	1166.56
478.346	1041.56
478.564	1148.56
478.783	1101.56
479.002	1096.56
479.22	1295.56
479.439	1405.56
479.658	1218.56
479.876	1130.56
480.095	1232.56
480.313	1253.56
480.532	1122.56
480.751	1143.56
480.969	1148.56
481.188	1285.56
481.406	1314.56
481.624	1221.56
481.843	1106.56
482.061	1099.56
482.28	1211.56
482.498	1484.56
482.717	1441.56
482.935	1219.56
483.153	1164.56
483.372	1064.56
483.59	1048.56
483.808	1063.56
484.027	1061.56
484.245	1019.56
484.463	977.56
484.681	1054.56
484.9	1125.56
485.118	1184.56
485.336	1133.56
485.554	1050.56
485.772	1106.56
485.99	1206.56
486.209	1233.56
486.427	1248.56
486.645	1174.56
486.863	1266.56
487.081	1255.56
487.299	1408.56
487.517	1400.56
487.735	1235.56
487.953	1248.56
488.171	1295.56
488.389	1193.56
488.607	1134.56
488.825	1161.56
489.043	1335.56
489.261	1501.56
489.479	1563.56
489.696	1295.56
489.914	1179.56
490.132	1107.56
490.35	1142.56
490.568	1147.56
490.786	1133.56
491.003	1137.56
491.221	1187.56
491.439	1155.56
491.657	1162.56
491.874	1235.56
492.092	1501.56
492.31	1843.56
492.527	1786.56
492.745	1516.56
492.963	1332.56
493.18	1313.56
493.398	1324.56
493.615	1288.56
493.833	1264.56
