Data from NickelSpatula.Lamp.E10.P2_HRD10591_11-59-58-524.txt Node
Date: Tue Jul 23 11:59:58 EDT 2019
User: cochatt
Spectrometer: HR+D1059
Trigger mode: 1
Integration Time (sec): 1.000000E-1
Scans to average: 1
Electric dark correction enabled: true
Nonlinearity correction enabled: false
Boxcar width: 0
XAxis mode: Wavelengths
Number of Pixels in Spectrum: 2048
>>>>>Begin Spectral Data<<<<<
223.165	-8.56
223.4	-8.56
223.635	-8.56
223.869	-15.56
224.104	-9.56
224.338	-13.56
224.573	-23.56
224.808	-26.56
225.042	-16.56
225.277	7.44
225.511	-8.56
225.746	-16.56
225.98	14.44
226.215	20.44
226.449	13.44
226.683	24.44
226.918	28.44
227.152	30.44
227.387	37.44
227.621	40.44
227.856	41.44
228.09	42.44
228.324	66.44
228.559	53.44
228.793	73.44
229.027	127.44
229.262	166.44
229.496	163.44
229.73	164.44
229.964	189.44
230.199	222.44
230.433	208.44
230.667	211.44
230.901	202.44
231.136	204.44
231.37	194.44
231.604	214.44
231.838	239.44
232.072	256.44
232.306	252.44
232.541	239.44
232.775	234.44
233.009	278.44
233.243	303.44
233.477	320.44
233.711	351.44
233.945	343.44
234.179	326.44
234.413	355.44
234.647	400.44
234.881	480.44
235.115	434.44
235.349	419.44
235.583	365.44
235.817	361.44
236.051	372.44
236.285	437.44
236.519	484.44
236.753	443.44
236.987	430.44
237.221	420.44
237.455	429.44
237.689	441.44
237.922	476.44
238.156	481.44
238.39	566.44
238.624	702.44
238.858	615.44
239.091	497.44
239.325	530.44
239.559	501.44
239.793	542.44
240.027	671.44
240.26	613.44
240.494	607.44
240.728	596.44
240.961	700.44
241.195	646.44
241.429	671.44
241.662	640.44
241.896	547.44
242.13	483.44
242.363	447.44
242.597	487.44
242.83	562.44
243.064	573.44
243.298	601.44
243.531	612.44
243.765	651.44
243.998	666.44
244.232	652.44
244.465	622.44
244.699	592.44
244.932	679.44
245.166	644.44
245.399	556.44
245.633	534.44
245.866	584.44
246.099	637.44
246.333	739.44
246.566	791.44
246.8	798.44
247.033	757.44
247.266	718.44
247.5	696.44
247.733	698.44
247.966	673.44
248.2	696.44
248.433	803.44
248.666	857.44
248.899	867.44
249.133	889.44
249.366	1031.44
249.599	1097.44
249.832	953.44
250.066	831.44
250.299	844.44
250.532	831.44
250.765	842.44
250.998	735.44
251.231	735.44
251.465	814.44
251.698	848.44
251.931	807.44
252.164	863.44
252.397	949.44
252.63	1080.44
252.863	1198.44
253.096	1239.44
253.329	1200.44
253.562	1119.44
253.795	1276.44
254.028	1414.44
254.261	1430.44
254.494	1288.44
254.727	1210.44
254.96	1176.44
255.193	1242.44
255.426	1166.44
255.659	861.44
255.892	806.44
256.124	866.44
256.357	1016.44
256.59	1227.44
256.823	1172.44
257.056	1010.44
257.289	914.44
257.521	998.44
257.754	1146.44
257.987	1285.44
258.22	1161.44
258.452	999.44
258.685	1170.44
258.918	1298.44
259.151	1284.44
259.383	1314.44
259.616	1536.44
259.849	1622.44
260.081	1776.44
260.314	1945.44
260.547	1486.44
260.779	1508.44
261.012	1775.44
261.244	1640.44
261.477	1712.44
261.71	1564.44
261.942	1297.44
262.175	1313.44
262.407	1276.44
262.64	1322.44
262.872	1529.44
263.105	1686.44
263.337	1773.44
263.57	1609.44
263.802	1057.44
264.035	898.44
264.267	894.44
264.499	781.44
264.732	703.44
264.964	697.44
265.197	743.44
265.429	774.44
265.661	826.44
265.894	864.44
266.126	926.44
266.358	1056.44
266.591	1296.44
266.823	1528.44
267.055	1431.44
267.287	1264.44
267.52	1269.44
267.752	1348.44
267.984	1441.44
268.216	1398.44
268.448	1151.44
268.681	1117.44
268.913	1204.44
269.145	1304.44
269.377	1333.44
269.609	1312.44
269.841	1243.44
270.073	1317.44
270.306	1383.44
270.538	1415.44
270.77	1428.44
271.002	1423.44
271.234	1489.44
271.466	1546.44
271.698	1474.44
271.93	1458.44
272.162	1454.44
272.394	1446.44
272.626	1430.44
272.858	1494.44
273.09	1548.44
273.322	1349.44
273.553	1310.44
273.785	1537.44
274.017	2027.44
274.249	2518.44
274.481	2627.44
274.713	2862.44
274.945	3239.44
275.176	3383.44
275.408	2958.44
275.64	2690.44
275.872	2728.44
276.104	2257.44
276.335	1938.44
276.567	1946.44
276.799	2018.44
277.031	2142.44
277.262	1627.44
277.494	1250.44
277.726	1226.44
277.957	1341.44
278.189	1532.44
278.421	1494.44
278.652	1424.44
278.884	1395.44
279.115	1275.44
279.347	1196.44
279.579	1173.44
279.81	1228.44
280.042	1222.44
280.273	1284.44
280.505	1153.44
280.736	1027.44
280.968	1023.44
281.199	1080.44
281.431	1284.44
281.662	1247.44
281.894	1190.44
282.125	1290.44
282.356	1344.44
282.588	1423.44
282.819	1278.44
283.051	1389.44
283.282	1700.44
283.513	1980.44
283.745	2220.44
283.976	2223.44
284.207	2040.44
284.439	2113.44
284.67	2018.44
284.901	1809.44
285.132	1944.44
285.364	2073.44
285.595	1903.44
285.826	1993.44
286.057	2097.44
286.288	2042.44
286.52	2065.44
286.751	2132.44
286.982	2152.44
287.213	1837.44
287.444	1790.44
287.675	1896.44
287.906	1896.44
288.138	1569.44
288.369	1393.44
288.6	1303.44
288.831	1342.44
289.062	1575.44
289.293	1740.44
289.524	1605.44
289.755	1591.44
289.986	1654.44
290.217	1438.44
290.448	1128.44
290.679	976.44
290.91	928.44
291.141	953.44
291.371	1002.44
291.602	971.44
291.833	980.44
292.064	1086.44
292.295	1224.44
292.526	1415.44
292.757	1490.44
292.987	1580.44
293.218	1563.44
293.449	1620.44
293.68	1699.44
293.91	1584.44
294.141	1670.44
294.372	1533.44
294.603	1452.44
294.833	1616.44
295.064	1859.44
295.295	1719.44
295.525	1372.44
295.756	1212.44
295.987	1029.44
296.217	1011.44
296.448	1033.44
296.679	1140.44
296.909	1254.44
297.14	1314.44
297.37	1459.44
297.601	1406.44
297.831	1187.44
298.062	1289.44
298.292	1463.44
298.523	1614.44
298.753	1820.44
298.984	1625.44
299.214	1311.44
299.445	1098.44
299.675	1045.44
299.905	1032.44
300.136	1088.44
300.366	1202.44
300.597	1196.44
300.827	1042.44
301.057	1029.44
301.288	1013.44
301.518	1112.44
301.748	1252.44
301.979	1375.44
302.209	1485.44
302.439	1471.44
302.669	1245.44
302.9	1288.44
303.13	1157.44
303.36	1118.44
303.59	1084.44
303.82	1109.44
304.051	1264.44
304.281	1353.44
304.511	1286.44
304.741	1158.44
304.971	1227.44
305.201	1312.44
305.431	1222.44
305.661	1087.44
305.891	1080.44
306.121	1088.44
306.352	962.44
306.582	877.44
306.812	880.44
307.042	869.44
307.272	822.44
307.502	825.44
307.731	889.44
307.961	930.44
308.191	886.44
308.421	834.44
308.651	796.44
308.881	793.44
309.111	789.44
309.341	823.44
309.571	910.44
309.8	928.44
310.03	929.44
310.26	1014.44
310.49	984.44
310.72	887.44
310.949	866.44
311.179	880.44
311.409	951.44
311.639	1126.44
311.868	1428.44
312.098	1857.44
312.328	1991.44
312.557	1912.44
312.787	1918.44
313.017	1664.44
313.246	1830.44
313.476	2002.44
313.706	1644.44
313.935	1294.44
314.165	1053.44
314.394	971.44
314.624	980.44
314.853	1045.44
315.083	1084.44
315.312	1019.44
315.542	1056.44
315.771	953.44
316.001	853.44
316.23	848.44
316.46	858.44
316.689	870.44
316.919	886.44
317.148	896.44
317.377	877.44
317.607	885.44
317.836	966.44
318.065	1131.44
318.295	1268.44
318.524	1164.44
318.753	978.44
318.983	965.44
319.212	965.44
319.441	1028.44
319.67	1117.44
319.9	1196.44
320.129	1156.44
320.358	988.44
320.587	963.44
320.816	1018.44
321.046	1188.44
321.275	1349.44
321.504	1364.44
321.733	1314.44
321.962	1264.44
322.191	1173.44
322.42	1088.44
322.649	1156.44
322.878	1245.44
323.108	1262.44
323.337	1122.44
323.566	1104.44
323.795	1072.44
324.024	1059.44
324.253	982.44
324.482	1002.44
324.71	1097.44
324.939	1231.44
325.168	1140.44
325.397	899.44
325.626	904.44
325.855	890.44
326.084	936.44
326.313	890.44
326.542	837.44
326.77	872.44
326.999	896.44
327.228	1005.44
327.457	1028.44
327.686	1047.44
327.914	899.44
328.143	826.44
328.372	853.44
328.6	866.44
328.829	898.44
329.058	904.44
329.287	912.44
329.515	914.44
329.744	879.44
329.972	832.44
330.201	779.44
330.43	844.44
330.658	912.44
330.887	1095.44
331.115	1045.44
331.344	1018.44
331.572	965.44
331.801	903.44
332.03	858.44
332.258	906.44
332.486	956.44
332.715	995.44
332.943	893.44
333.172	931.44
333.4	930.44
333.629	1008.44
333.857	1112.44
334.085	1106.44
334.314	1092.44
334.542	1038.44
334.771	978.44
334.999	934.44
335.227	938.44
335.455	975.44
335.684	1043.44
335.912	1210.44
336.14	1367.44
336.369	1241.44
336.597	1221.44
336.825	1397.44
337.053	1537.44
337.281	1247.44
337.51	1004.44
337.738	992.44
337.966	1077.44
338.194	1236.44
338.422	1097.44
338.65	942.44
338.878	902.44
339.106	930.44
339.334	1039.44
339.562	1080.44
339.79	1020.44
340.018	997.44
340.246	1063.44
340.474	1200.44
340.702	1253.44
340.93	1342.44
341.158	1351.44
341.386	1162.44
341.614	1146.44
341.842	1121.44
342.07	1210.44
342.298	1341.44
342.526	1443.44
342.754	1234.44
342.981	1131.44
343.209	1062.44
343.437	1142.44
343.665	1225.44
343.893	1203.44
344.12	1431.44
344.348	1654.44
344.576	1406.44
344.804	1212.44
345.031	1050.44
345.259	973.44
345.487	999.44
345.714	1044.44
345.942	1133.44
346.17	1200.44
346.397	1155.44
346.625	993.44
346.853	997.44
347.08	974.44
347.308	1025.44
347.535	1131.44
347.763	1170.44
347.99	1022.44
348.218	907.44
348.445	958.44
348.673	988.44
348.9	999.44
349.128	1063.44
349.355	1106.44
349.583	1054.44
349.81	1004.44
350.037	937.44
350.265	827.44
350.492	764.44
350.72	807.44
350.947	830.44
351.174	918.44
351.402	972.44
351.629	986.44
351.856	959.44
352.083	925.44
352.311	983.44
352.538	1116.44
352.765	1177.44
352.992	1073.44
353.22	1026.44
353.447	1011.44
353.674	981.44
353.901	972.44
354.128	980.44
354.355	1010.44
354.583	1025.44
354.81	984.44
355.037	999.44
355.264	1003.44
355.491	1076.44
355.718	1171.44
355.945	1143.44
356.172	1129.44
356.399	1109.44
356.626	1351.44
356.853	1656.44
357.08	1772.44
357.307	1751.44
357.534	1396.44
357.761	1418.44
357.988	1775.44
358.215	2118.44
358.441	1992.44
358.668	1670.44
358.895	1532.44
359.122	1243.44
359.349	1209.44
359.576	1373.44
359.802	1104.44
360.029	980.44
360.256	1054.44
360.483	1332.44
360.709	1667.44
360.936	1725.44
361.163	1438.44
361.39	1180.44
361.616	1082.44
361.843	1247.44
362.07	1542.44
362.296	1397.44
362.523	1094.44
362.749	944.44
362.976	1020.44
363.203	1268.44
363.429	1408.44
363.656	1097.44
363.882	1014.44
364.109	1012.44
364.335	1000.44
364.562	958.44
364.788	1109.44
365.015	1348.44
365.241	1176.44
365.468	985.44
365.694	857.44
365.92	813.44
366.147	786.44
366.373	774.44
366.599	793.44
366.826	815.44
367.052	839.44
367.278	857.44
367.505	850.44
367.731	919.44
367.957	1036.44
368.184	1056.44
368.41	1010.44
368.636	1017.44
368.862	1094.44
369.089	1053.44
369.315	946.44
369.541	892.44
369.767	902.44
369.993	868.44
370.219	877.44
370.445	912.44
370.672	1055.44
370.898	1142.44
371.124	1154.44
371.35	970.44
371.576	909.44
371.802	1013.44
372.028	1196.44
372.254	1364.44
372.48	1157.44
372.706	1080.44
372.932	1080.44
373.158	1176.44
373.384	1396.44
373.61	1905.44
373.835	1908.44
374.061	1424.44
374.287	1183.44
374.513	1432.44
374.739	1701.44
374.965	1741.44
375.191	1671.44
375.416	1193.44
375.642	1017.44
375.868	1240.44
376.094	1354.44
376.319	1189.44
376.545	1366.44
376.771	1396.44
376.997	1194.44
377.222	873.44
377.448	772.44
377.674	764.44
377.899	763.44
378.125	762.44
378.35	747.44
378.576	796.44
378.802	884.44
379.027	943.44
379.253	916.44
379.478	921.44
379.704	1069.44
379.929	1138.44
380.155	1100.44
380.38	972.44
380.606	988.44
380.831	1145.44
381.057	1042.44
381.282	1002.44
381.507	1217.44
381.733	1467.44
381.958	1583.44
382.184	1674.44
382.409	1769.44
382.634	1714.44
382.86	1835.44
383.085	1474.44
383.31	1158.44
383.535	1223.44
383.761	1257.44
383.986	1214.44
384.211	1456.44
384.436	1389.44
384.662	1033.44
384.887	1036.44
385.112	1064.44
385.337	1056.44
385.562	990.44
385.787	1137.44
386.013	1221.44
386.238	1296.44
386.463	1017.44
386.688	1018.44
386.913	982.44
387.138	926.44
387.363	970.44
387.588	1021.44
387.813	1005.44
388.038	1132.44
388.263	1008.44
388.488	986.44
388.713	1164.44
388.938	1234.44
389.163	1060.44
389.387	904.44
389.612	898.44
389.837	962.44
390.062	974.44
390.287	1029.44
390.512	1022.44
390.736	939.44
390.961	890.44
391.186	864.44
391.411	838.44
391.636	872.44
391.86	948.44
392.085	1042.44
392.31	1044.44
392.534	966.44
392.759	917.44
392.984	1014.44
393.208	1000.44
393.433	868.44
393.658	825.44
393.882	758.44
394.107	793.44
394.331	828.44
394.556	807.44
394.78	854.44
395.005	850.44
395.229	840.44
395.454	891.44
395.678	896.44
395.903	928.44
396.127	881.44
396.352	907.44
396.576	984.44
396.801	1014.44
397.025	1125.44
397.249	1155.44
397.474	948.44
397.698	920.44
397.922	990.44
398.147	935.44
398.371	929.44
398.595	952.44
398.82	949.44
399.044	951.44
399.268	1027.44
399.492	1041.44
399.717	1063.44
399.941	1120.44
400.165	1086.44
400.389	1083.44
400.613	1078.44
400.837	1062.44
401.062	960.44
401.286	895.44
401.51	940.44
401.734	905.44
401.958	931.44
402.182	922.44
402.406	902.44
402.63	925.44
402.854	988.44
403.078	1076.44
403.302	1324.44
403.526	1331.44
403.75	1178.44
403.974	1073.44
404.198	1106.44
404.422	1243.44
404.645	1481.44
404.869	1630.44
405.093	1174.44
405.317	988.44
405.541	1002.44
405.765	1000.44
405.988	994.44
406.212	1116.44
406.436	1333.44
406.66	1443.44
406.883	1130.44
407.107	1189.44
407.331	1388.44
407.555	1321.44
407.778	1125.44
408.002	1060.44
408.226	1065.44
408.449	1041.44
408.673	1021.44
408.896	948.44
409.12	901.44
409.344	912.44
409.567	904.44
409.791	911.44
410.014	903.44
410.238	901.44
410.461	886.44
410.685	911.44
410.908	927.44
411.132	918.44
411.355	902.44
411.578	951.44
411.802	954.44
412.025	992.44
412.249	980.44
412.472	941.44
412.695	966.44
412.919	932.44
413.142	983.44
413.365	1051.44
413.589	1072.44
413.812	947.44
414.035	922.44
414.258	945.44
414.482	1048.44
414.705	1086.44
414.928	914.44
415.151	888.44
415.374	886.44
415.597	896.44
415.821	912.44
416.044	894.44
416.267	873.44
416.49	850.44
416.713	850.44
416.936	833.44
417.159	865.44
417.382	907.44
417.605	914.44
417.828	913.44
418.051	918.44
418.274	946.44
418.497	932.44
418.72	955.44
418.943	974.44
419.166	981.44
419.389	1049.44
419.611	1029.44
419.834	1047.44
420.057	1142.44
420.28	1141.44
420.503	1044.44
420.726	917.44
420.948	910.44
421.171	895.44
421.394	890.44
421.617	858.44
421.839	894.44
422.062	932.44
422.285	904.44
422.507	949.44
422.73	947.44
422.953	975.44
423.175	924.44
423.398	950.44
423.621	1020.44
423.843	1098.44
424.066	1007.44
424.288	941.44
424.511	925.44
424.733	907.44
424.956	976.44
425.178	1126.44
425.401	1224.44
425.623	1416.44
425.846	1156.44
426.068	1020.44
426.291	1134.44
426.513	1051.44
426.735	961.44
426.958	1008.44
427.18	1186.44
427.402	1546.44
427.625	1497.44
427.847	1219.44
428.069	915.44
428.292	900.44
428.514	884.44
428.736	860.44
428.958	954.44
429.181	1164.44
429.403	1047.44
429.625	897.44
429.847	868.44
430.069	898.44
430.292	898.44
430.514	862.44
430.736	957.44
430.958	1220.44
431.18	1108.44
431.402	866.44
431.624	809.44
431.846	810.44
432.068	782.44
432.29	845.44
432.512	941.44
432.734	1251.44
432.956	1132.44
433.178	871.44
433.4	874.44
433.622	871.44
433.844	884.44
434.066	928.44
434.287	902.44
434.509	890.44
434.731	938.44
434.953	882.44
435.175	912.44
435.397	1049.44
435.618	896.44
435.84	833.44
436.062	848.44
436.284	800.44
436.505	808.44
436.727	812.44
436.949	798.44
437.17	836.44
437.392	856.44
437.614	833.44
437.835	825.44
438.057	863.44
438.278	1010.44
438.5	1452.44
438.721	1432.44
438.943	967.44
439.165	807.44
439.386	782.44
439.608	772.44
439.829	786.44
440.05	784.44
440.272	864.44
440.493	1031.44
440.715	1230.44
440.936	1026.44
441.158	882.44
441.379	868.44
441.6	985.44
441.822	1077.44
442.043	895.44
442.264	876.44
442.486	899.44
442.707	882.44
442.928	877.44
443.149	874.44
443.371	915.44
443.592	928.44
443.813	925.44
444.034	927.44
444.255	907.44
444.476	936.44
444.698	952.44
444.919	954.44
445.14	1040.44
445.361	997.44
445.582	938.44
445.803	912.44
446.024	937.44
446.245	917.44
446.466	916.44
446.687	878.44
446.908	914.44
447.129	848.44
447.35	818.44
447.571	800.44
447.792	758.44
448.013	814.44
448.234	761.44
448.455	793.44
448.675	776.44
448.896	822.44
449.117	839.44
449.338	822.44
449.559	825.44
449.779	850.44
450	867.44
450.221	834.44
450.442	808.44
450.662	799.44
450.883	807.44
451.104	828.44
451.324	803.44
451.545	796.44
451.766	803.44
451.986	790.44
452.207	776.44
452.428	782.44
452.648	797.44
452.869	839.44
453.089	884.44
453.31	831.44
453.53	773.44
453.751	778.44
453.971	725.44
454.192	781.44
454.412	783.44
454.633	746.44
454.853	764.44
455.073	777.44
455.294	737.44
455.514	721.44
455.734	765.44
455.955	830.44
456.175	835.44
456.395	761.44
456.616	718.44
456.836	740.44
457.056	698.44
457.276	704.44
457.497	725.44
457.717	726.44
457.937	734.44
458.157	729.44
458.377	744.44
458.598	761.44
458.818	753.44
459.038	812.44
459.258	840.44
459.478	861.44
459.698	904.44
459.918	910.44
460.138	890.44
460.358	888.44
460.578	874.44
460.798	859.44
461.018	883.44
461.238	864.44
461.458	885.44
461.678	876.44
461.898	945.44
462.118	925.44
462.338	929.44
462.558	958.44
462.777	987.44
462.997	999.44
463.217	988.44
463.437	1028.44
463.657	1022.44
463.876	991.44
464.096	961.44
464.316	1005.44
464.536	950.44
464.755	1009.44
464.975	1018.44
465.195	954.44
465.414	997.44
465.634	999.44
465.854	947.44
466.073	874.44
466.293	853.44
466.512	937.44
466.732	1033.44
466.951	1092.44
467.171	936.44
467.391	912.44
467.61	870.44
467.829	912.44
468.049	969.44
468.268	879.44
468.488	876.44
468.707	937.44
468.927	1062.44
469.146	1182.44
469.365	1039.44
469.585	955.44
469.804	1002.44
470.023	1149.44
470.243	987.44
470.462	923.44
470.681	929.44
470.901	930.44
471.12	999.44
471.339	974.44
471.558	919.44
471.777	930.44
471.997	1025.44
472.216	1142.44
472.435	1095.44
472.654	978.44
472.873	947.44
473.092	1014.44
473.311	1048.44
473.53	984.44
473.749	950.44
473.968	1012.44
474.187	971.44
474.406	920.44
474.625	953.44
474.844	961.44
475.063	1046.44
475.282	1027.44
475.501	1100.44
475.72	1147.44
475.939	1106.44
476.158	1104.44
476.377	1255.44
476.596	1480.44
476.814	1518.44
477.033	1231.44
477.252	1068.44
477.471	1028.44
477.69	1012.44
477.908	1132.44
478.127	1156.44
478.346	1057.44
478.564	1126.44
478.783	1090.44
479.002	1144.44
479.22	1288.44
479.439	1416.44
479.658	1234.44
479.876	1144.44
480.095	1206.44
480.313	1224.44
480.532	1141.44
480.751	1111.44
480.969	1114.44
481.188	1284.44
481.406	1325.44
481.624	1231.44
481.843	1136.44
482.061	1087.44
482.28	1240.44
482.498	1503.44
482.717	1401.44
482.935	1194.44
483.153	1152.44
483.372	1060.44
483.59	1078.44
483.808	1064.44
484.027	1020.44
484.245	1029.44
484.463	1005.44
484.681	1044.44
484.9	1140.44
485.118	1208.44
485.336	1115.44
485.554	1066.44
485.772	1111.44
485.99	1186.44
486.209	1234.44
486.427	1228.44
486.645	1209.44
486.863	1285.44
487.081	1273.44
487.299	1412.44
487.517	1368.44
487.735	1246.44
487.953	1263.44
488.171	1313.44
488.389	1222.44
488.607	1137.44
488.825	1145.44
489.043	1255.44
489.261	1457.44
489.479	1599.44
489.696	1335.44
489.914	1175.44
490.132	1127.44
490.35	1146.44
490.568	1184.44
490.786	1090.44
491.003	1154.44
491.221	1184.44
491.439	1142.44
491.657	1166.44
491.874	1242.44
492.092	1533.44
492.31	1766.44
492.527	1775.44
492.745	1583.44
492.963	1320.44
493.18	1296.44
493.398	1326.44
493.615	1336.44
493.833	1264.44
