Data from NickelSpatula.Lamp.E10.P2_HRD10591_11-59-30-525.txt Node
Date: Tue Jul 23 11:59:30 EDT 2019
User: cochatt
Spectrometer: HR+D1059
Trigger mode: 1
Integration Time (sec): 1.000000E-1
Scans to average: 1
Electric dark correction enabled: true
Nonlinearity correction enabled: false
Boxcar width: 0
XAxis mode: Wavelengths
Number of Pixels in Spectrum: 2048
>>>>>Begin Spectral Data<<<<<
223.165	0.19
223.4	0.19
223.635	0.19
223.869	-18.81
224.104	-8.81
224.338	-14.81
224.573	-11.81
224.808	-5.81
225.042	-7.81
225.277	-2.81
225.511	-16.81
225.746	-10.81
225.98	3.19
226.215	10.19
226.449	12.19
226.683	25.19
226.918	25.19
227.152	22.19
227.387	27.19
227.621	50.19
227.856	60.19
228.09	43.19
228.324	51.19
228.559	48.19
228.793	83.19
229.027	134.19
229.262	158.19
229.496	149.19
229.73	166.19
229.964	187.19
230.199	219.19
230.433	208.19
230.667	225.19
230.901	200.19
231.136	200.19
231.37	194.19
231.604	214.19
231.838	254.19
232.072	254.19
232.306	244.19
232.541	272.19
232.775	236.19
233.009	260.19
233.243	281.19
233.477	322.19
233.711	352.19
233.945	332.19
234.179	333.19
234.413	352.19
234.647	376.19
234.881	456.19
235.115	421.19
235.349	392.19
235.583	359.19
235.817	354.19
236.051	384.19
236.285	436.19
236.519	464.19
236.753	430.19
236.987	414.19
237.221	392.19
237.455	416.19
237.689	434.19
237.922	460.19
238.156	471.19
238.39	573.19
238.624	668.19
238.858	598.19
239.091	493.19
239.325	522.19
239.559	489.19
239.793	539.19
240.027	665.19
240.26	626.19
240.494	573.19
240.728	587.19
240.961	694.19
241.195	634.19
241.429	633.19
241.662	634.19
241.896	539.19
242.13	479.19
242.363	454.19
242.597	476.19
242.83	557.19
243.064	566.19
243.298	591.19
243.531	630.19
243.765	644.19
243.998	626.19
244.232	596.19
244.465	609.19
244.699	577.19
244.932	663.19
245.166	625.19
245.399	553.19
245.633	542.19
245.866	584.19
246.099	623.19
246.333	721.19
246.566	784.19
246.8	776.19
247.033	740.19
247.266	686.19
247.5	665.19
247.733	664.19
247.966	666.19
248.2	717.19
248.433	760.19
248.666	841.19
248.899	842.19
249.133	852.19
249.366	1012.19
249.599	1082.19
249.832	956.19
250.066	822.19
250.299	820.19
250.532	834.19
250.765	800.19
250.998	736.19
251.231	719.19
251.465	812.19
251.698	816.19
251.931	814.19
252.164	825.19
252.397	936.19
252.63	1072.19
252.863	1145.19
253.096	1188.19
253.329	1144.19
253.562	1098.19
253.795	1233.19
254.028	1352.19
254.261	1389.19
254.494	1257.19
254.727	1170.19
254.96	1138.19
255.193	1192.19
255.426	1132.19
255.659	889.19
255.892	806.19
256.124	867.19
256.357	1010.19
256.59	1220.19
256.823	1154.19
257.056	1020.19
257.289	909.19
257.521	973.19
257.754	1149.19
257.987	1299.19
258.22	1104.19
258.452	1013.19
258.685	1172.19
258.918	1292.19
259.151	1241.19
259.383	1321.19
259.616	1494.19
259.849	1564.19
260.081	1730.19
260.314	1942.19
260.547	1454.19
260.779	1535.19
261.012	1705.19
261.244	1607.19
261.477	1646.19
261.71	1556.19
261.942	1269.19
262.175	1288.19
262.407	1226.19
262.64	1283.19
262.872	1518.19
263.105	1682.19
263.337	1736.19
263.57	1549.19
263.802	1048.19
264.035	902.19
264.267	853.19
264.499	770.19
264.732	727.19
264.964	680.19
265.197	721.19
265.429	773.19
265.661	830.19
265.894	855.19
266.126	903.19
266.358	1038.19
266.591	1260.19
266.823	1491.19
267.055	1379.19
267.287	1246.19
267.52	1272.19
267.752	1302.19
267.984	1457.19
268.216	1388.19
268.448	1167.19
268.681	1100.19
268.913	1196.19
269.145	1299.19
269.377	1321.19
269.609	1282.19
269.841	1208.19
270.073	1340.19
270.306	1362.19
270.538	1396.19
270.77	1382.19
271.002	1404.19
271.234	1442.19
271.466	1537.19
271.698	1464.19
271.93	1438.19
272.162	1418.19
272.394	1385.19
272.626	1410.19
272.858	1457.19
273.09	1501.19
273.322	1342.19
273.553	1285.19
273.785	1494.19
274.017	2016.19
274.249	2468.19
274.481	2559.19
274.713	2727.19
274.945	3238.19
275.176	3230.19
275.408	2902.19
275.64	2643.19
275.872	2641.19
276.104	2206.19
276.335	1942.19
276.567	1907.19
276.799	1990.19
277.031	2102.19
277.262	1614.19
277.494	1246.19
277.726	1214.19
277.957	1340.19
278.189	1464.19
278.421	1472.19
278.652	1430.19
278.884	1372.19
279.115	1243.19
279.347	1204.19
279.579	1183.19
279.81	1193.19
280.042	1209.19
280.273	1245.19
280.505	1129.19
280.736	972.19
280.968	1022.19
281.199	1088.19
281.431	1231.19
281.662	1200.19
281.894	1188.19
282.125	1252.19
282.356	1356.19
282.588	1401.19
282.819	1246.19
283.051	1374.19
283.282	1657.19
283.513	1975.19
283.745	2173.19
283.976	2149.19
284.207	1984.19
284.439	2054.19
284.67	1988.19
284.901	1776.19
285.132	1936.19
285.364	2048.19
285.595	1844.19
285.826	1978.19
286.057	2082.19
286.288	1988.19
286.52	2017.19
286.751	2108.19
286.982	2118.19
287.213	1830.19
287.444	1735.19
287.675	1838.19
287.906	1813.19
288.138	1532.19
288.369	1351.19
288.6	1289.19
288.831	1355.19
289.062	1542.19
289.293	1676.19
289.524	1564.19
289.755	1578.19
289.986	1653.19
290.217	1462.19
290.448	1123.19
290.679	960.19
290.91	932.19
291.141	929.19
291.371	976.19
291.602	988.19
291.833	982.19
292.064	1066.19
292.295	1222.19
292.526	1381.19
292.757	1419.19
292.987	1544.19
293.218	1555.19
293.449	1592.19
293.68	1678.19
293.91	1589.19
294.141	1636.19
294.372	1495.19
294.603	1407.19
294.833	1583.19
295.064	1838.19
295.295	1715.19
295.525	1306.19
295.756	1152.19
295.987	1006.19
296.217	1022.19
296.448	1018.19
296.679	1096.19
296.909	1212.19
297.14	1303.19
297.37	1434.19
297.601	1333.19
297.831	1166.19
298.062	1246.19
298.292	1435.19
298.523	1546.19
298.753	1765.19
298.984	1601.19
299.214	1242.19
299.445	1042.19
299.675	1042.19
299.905	1031.19
300.136	1052.19
300.366	1198.19
300.597	1149.19
300.827	990.19
301.057	973.19
301.288	1001.19
301.518	1076.19
301.748	1194.19
301.979	1294.19
302.209	1436.19
302.439	1410.19
302.669	1235.19
302.9	1255.19
303.13	1154.19
303.36	1080.19
303.59	1039.19
303.82	1098.19
304.051	1213.19
304.281	1291.19
304.511	1253.19
304.741	1126.19
304.971	1202.19
305.201	1260.19
305.431	1180.19
305.661	1012.19
305.891	1040.19
306.121	1056.19
306.352	955.19
306.582	894.19
306.812	848.19
307.042	870.19
307.272	789.19
307.502	792.19
307.731	858.19
307.961	912.19
308.191	849.19
308.421	805.19
308.651	795.19
308.881	764.19
309.111	738.19
309.341	797.19
309.571	862.19
309.8	900.19
310.03	954.19
310.26	1000.19
310.49	937.19
310.72	854.19
310.949	860.19
311.179	871.19
311.409	918.19
311.639	1108.19
311.868	1374.19
312.098	1758.19
312.328	1949.19
312.557	1856.19
312.787	1905.19
313.017	1672.19
313.246	1801.19
313.476	2002.19
313.706	1633.19
313.935	1268.19
314.165	1048.19
314.394	952.19
314.624	950.19
314.853	1029.19
315.083	1050.19
315.312	1020.19
315.542	1001.19
315.771	933.19
316.001	862.19
316.23	815.19
316.46	840.19
316.689	845.19
316.919	864.19
317.148	912.19
317.377	882.19
317.607	859.19
317.836	928.19
318.065	1112.19
318.295	1250.19
318.524	1125.19
318.753	965.19
318.983	944.19
319.212	934.19
319.441	1009.19
319.67	1116.19
319.9	1216.19
320.129	1108.19
320.358	944.19
320.587	907.19
320.816	1009.19
321.046	1161.19
321.275	1318.19
321.504	1303.19
321.733	1241.19
321.962	1196.19
322.191	1117.19
322.42	1102.19
322.649	1102.19
322.878	1188.19
323.108	1192.19
323.337	1074.19
323.566	1085.19
323.795	1045.19
324.024	1000.19
324.253	994.19
324.482	948.19
324.71	1052.19
324.939	1175.19
325.168	1098.19
325.397	892.19
325.626	934.19
325.855	897.19
326.084	899.19
326.313	859.19
326.542	822.19
326.77	856.19
326.999	884.19
327.228	929.19
327.457	994.19
327.686	989.19
327.914	874.19
328.143	841.19
328.372	837.19
328.6	852.19
328.829	862.19
329.058	884.19
329.287	902.19
329.515	898.19
329.744	878.19
329.972	831.19
330.201	803.19
330.43	824.19
330.658	929.19
330.887	1052.19
331.115	997.19
331.344	975.19
331.572	938.19
331.801	889.19
332.03	819.19
332.258	856.19
332.486	937.19
332.715	986.19
332.943	902.19
333.172	921.19
333.4	948.19
333.629	988.19
333.857	1077.19
334.085	1086.19
334.314	1107.19
334.542	1025.19
334.771	948.19
334.999	950.19
335.227	900.19
335.455	926.19
335.684	999.19
335.912	1161.19
336.14	1278.19
336.369	1264.19
336.597	1208.19
336.825	1377.19
337.053	1516.19
337.281	1239.19
337.51	993.19
337.738	970.19
337.966	1070.19
338.194	1168.19
338.422	1091.19
338.65	917.19
338.878	857.19
339.106	907.19
339.334	1002.19
339.562	1060.19
339.79	995.19
340.018	983.19
340.246	1038.19
340.474	1166.19
340.702	1230.19
340.93	1275.19
341.158	1280.19
341.386	1076.19
341.614	1107.19
341.842	1085.19
342.07	1158.19
342.298	1330.19
342.526	1394.19
342.754	1193.19
342.981	1109.19
343.209	1062.19
343.437	1104.19
343.665	1194.19
343.893	1171.19
344.12	1348.19
344.348	1551.19
344.576	1416.19
344.804	1191.19
345.031	1043.19
345.259	948.19
345.487	957.19
345.714	1007.19
345.942	1095.19
346.17	1157.19
346.397	1120.19
346.625	974.19
346.853	985.19
347.08	932.19
347.308	983.19
347.535	1118.19
347.763	1128.19
347.99	991.19
348.218	922.19
348.445	948.19
348.673	981.19
348.9	949.19
349.128	1028.19
349.355	1091.19
349.583	1024.19
349.81	993.19
350.037	924.19
350.265	830.19
350.492	764.19
350.72	792.19
350.947	855.19
351.174	886.19
351.402	917.19
351.629	975.19
351.856	929.19
352.083	903.19
352.311	956.19
352.538	1074.19
352.765	1141.19
352.992	986.19
353.22	950.19
353.447	975.19
353.674	962.19
353.901	935.19
354.128	951.19
354.355	989.19
354.583	953.19
354.81	977.19
355.037	984.19
355.264	985.19
355.491	1048.19
355.718	1133.19
355.945	1111.19
356.172	1073.19
356.399	1095.19
356.626	1312.19
356.853	1593.19
357.08	1708.19
357.307	1720.19
357.534	1299.19
357.761	1378.19
357.988	1718.19
358.215	1995.19
358.441	1905.19
358.668	1539.19
358.895	1461.19
359.122	1216.19
359.349	1181.19
359.576	1290.19
359.802	1078.19
360.029	935.19
360.256	1028.19
360.483	1267.19
360.709	1567.19
360.936	1631.19
361.163	1414.19
361.39	1096.19
361.616	1030.19
361.843	1211.19
362.07	1471.19
362.296	1358.19
362.523	1047.19
362.749	912.19
362.976	975.19
363.203	1188.19
363.429	1292.19
363.656	1078.19
363.882	964.19
364.109	1005.19
364.335	966.19
364.562	956.19
364.788	1092.19
365.015	1280.19
365.241	1168.19
365.468	931.19
365.694	837.19
365.92	795.19
366.147	772.19
366.373	757.19
366.599	774.19
366.826	792.19
367.052	829.19
367.278	831.19
367.505	813.19
367.731	898.19
367.957	1019.19
368.184	1033.19
368.41	964.19
368.636	1015.19
368.862	1038.19
369.089	972.19
369.315	919.19
369.541	872.19
369.767	873.19
369.993	838.19
370.219	817.19
370.445	903.19
370.672	998.19
370.898	1062.19
371.124	1048.19
371.35	916.19
371.576	884.19
371.802	993.19
372.028	1160.19
372.254	1318.19
372.48	1119.19
372.706	1007.19
372.932	1054.19
373.158	1102.19
373.384	1379.19
373.61	1786.19
373.835	1797.19
374.061	1354.19
374.287	1157.19
374.513	1328.19
374.739	1613.19
374.965	1687.19
375.191	1641.19
375.416	1156.19
375.642	1029.19
375.868	1180.19
376.094	1317.19
376.319	1150.19
376.545	1275.19
376.771	1370.19
376.997	1148.19
377.222	854.19
377.448	762.19
377.674	756.19
377.899	759.19
378.125	756.19
378.35	755.19
378.576	751.19
378.802	849.19
379.027	902.19
379.253	900.19
379.478	913.19
379.704	1040.19
379.929	1106.19
380.155	1067.19
380.38	945.19
380.606	988.19
380.831	1074.19
381.057	996.19
381.282	992.19
381.507	1171.19
381.733	1430.19
381.958	1516.19
382.184	1607.19
382.409	1690.19
382.634	1642.19
382.86	1706.19
383.085	1414.19
383.31	1120.19
383.535	1209.19
383.761	1230.19
383.986	1134.19
384.211	1366.19
384.436	1310.19
384.662	1037.19
384.887	979.19
385.112	1017.19
385.337	1031.19
385.562	988.19
385.787	1075.19
386.013	1192.19
386.238	1202.19
386.463	989.19
386.688	976.19
386.913	931.19
387.138	898.19
387.363	952.19
387.588	961.19
387.813	969.19
388.038	1080.19
388.263	977.19
388.488	934.19
388.713	1107.19
388.938	1184.19
389.163	1032.19
389.387	892.19
389.612	909.19
389.837	954.19
390.062	925.19
390.287	952.19
390.512	997.19
390.736	939.19
390.961	873.19
391.186	854.19
391.411	821.19
391.636	839.19
391.86	893.19
392.085	960.19
392.31	982.19
392.534	904.19
392.759	926.19
392.984	975.19
393.208	948.19
393.433	836.19
393.658	826.19
393.882	784.19
394.107	780.19
394.331	805.19
394.556	806.19
394.78	798.19
395.005	818.19
395.229	836.19
395.454	859.19
395.678	875.19
395.903	902.19
396.127	880.19
396.352	880.19
396.576	935.19
396.801	962.19
397.025	1073.19
397.249	1106.19
397.474	942.19
397.698	908.19
397.922	937.19
398.147	913.19
398.371	911.19
398.595	959.19
398.82	923.19
399.044	949.19
399.268	980.19
399.492	1027.19
399.717	1024.19
399.941	1072.19
400.165	1051.19
400.389	1040.19
400.613	1039.19
400.837	1015.19
401.062	894.19
401.286	892.19
401.51	884.19
401.734	886.19
401.958	929.19
402.182	913.19
402.406	896.19
402.63	946.19
402.854	935.19
403.078	1044.19
403.302	1253.19
403.526	1298.19
403.75	1155.19
403.974	1050.19
404.198	1070.19
404.422	1164.19
404.645	1415.19
404.869	1574.19
405.093	1148.19
405.317	986.19
405.541	990.19
405.765	976.19
405.988	992.19
406.212	1056.19
406.436	1262.19
406.66	1392.19
406.883	1111.19
407.107	1166.19
407.331	1328.19
407.555	1305.19
407.778	1049.19
408.002	1040.19
408.226	1026.19
408.449	1016.19
408.673	1008.19
408.896	936.19
409.12	905.19
409.344	892.19
409.567	896.19
409.791	919.19
410.014	887.19
410.238	878.19
410.461	845.19
410.685	894.19
410.908	879.19
411.132	937.19
411.355	951.19
411.578	936.19
411.802	937.19
412.025	981.19
412.249	966.19
412.472	944.19
412.695	934.19
412.919	942.19
413.142	956.19
413.365	1040.19
413.589	1042.19
413.812	942.19
414.035	877.19
414.258	922.19
414.482	1015.19
414.705	1076.19
414.928	892.19
415.151	876.19
415.374	878.19
415.597	906.19
415.821	878.19
416.044	860.19
416.267	862.19
416.49	857.19
416.713	849.19
416.936	861.19
417.159	842.19
417.382	881.19
417.605	870.19
417.828	904.19
418.051	925.19
418.274	940.19
418.497	894.19
418.72	923.19
418.943	912.19
419.166	992.19
419.389	989.19
419.611	977.19
419.834	975.19
420.057	1125.19
420.28	1071.19
420.503	993.19
420.726	915.19
420.948	871.19
421.171	873.19
421.394	882.19
421.617	854.19
421.839	862.19
422.062	926.19
422.285	929.19
422.507	924.19
422.73	932.19
422.953	960.19
423.175	951.19
423.398	934.19
423.621	1009.19
423.843	1032.19
424.066	961.19
424.288	896.19
424.511	889.19
424.733	909.19
424.956	966.19
425.178	1058.19
425.401	1197.19
425.623	1350.19
425.846	1119.19
426.068	1003.19
426.291	1100.19
426.513	1004.19
426.735	918.19
426.958	1001.19
427.18	1133.19
427.402	1476.19
427.625	1444.19
427.847	1168.19
428.069	893.19
428.292	904.19
428.514	877.19
428.736	854.19
428.958	948.19
429.181	1104.19
429.403	972.19
429.625	876.19
429.847	866.19
430.069	898.19
430.292	894.19
430.514	865.19
430.736	946.19
430.958	1138.19
431.18	1060.19
431.402	832.19
431.624	818.19
431.846	798.19
432.068	786.19
432.29	802.19
432.512	913.19
432.734	1186.19
432.956	1107.19
433.178	858.19
433.4	877.19
433.622	841.19
433.844	876.19
434.066	926.19
434.287	894.19
434.509	883.19
434.731	906.19
434.953	867.19
435.175	891.19
435.397	1017.19
435.618	873.19
435.84	812.19
436.062	800.19
436.284	820.19
436.505	788.19
436.727	770.19
436.949	796.19
437.17	842.19
437.392	857.19
437.614	835.19
437.835	817.19
438.057	855.19
438.278	965.19
438.5	1383.19
438.721	1338.19
438.943	938.19
439.165	791.19
439.386	793.19
439.608	777.19
439.829	779.19
440.05	780.19
440.272	864.19
440.493	988.19
440.715	1198.19
440.936	969.19
441.158	824.19
441.379	872.19
441.6	972.19
441.822	1008.19
442.043	878.19
442.264	850.19
442.486	897.19
442.707	880.19
442.928	854.19
443.149	866.19
443.371	881.19
443.592	896.19
443.813	898.19
444.034	880.19
444.255	885.19
444.476	963.19
444.698	941.19
444.919	925.19
445.14	1037.19
445.361	993.19
445.582	969.19
445.803	933.19
446.024	922.19
446.245	919.19
446.466	874.19
446.687	869.19
446.908	845.19
447.129	831.19
447.35	783.19
447.571	766.19
447.792	786.19
448.013	775.19
448.234	766.19
448.455	777.19
448.675	794.19
448.896	798.19
449.117	792.19
449.338	813.19
449.559	819.19
449.779	874.19
450	850.19
450.221	835.19
450.442	802.19
450.662	774.19
450.883	785.19
451.104	796.19
451.324	807.19
451.545	792.19
451.766	813.19
451.986	785.19
452.207	759.19
452.428	769.19
452.648	774.19
452.869	805.19
453.089	846.19
453.31	814.19
453.53	734.19
453.751	726.19
453.971	731.19
454.192	778.19
454.412	772.19
454.633	741.19
454.853	741.19
455.073	740.19
455.294	754.19
455.514	719.19
455.734	786.19
455.955	798.19
456.175	808.19
456.395	772.19
456.616	695.19
456.836	685.19
457.056	694.19
457.276	703.19
457.497	714.19
457.717	722.19
457.937	728.19
458.157	701.19
458.377	721.19
458.598	749.19
458.818	755.19
459.038	814.19
459.258	832.19
459.478	855.19
459.698	884.19
459.918	885.19
460.138	862.19
460.358	893.19
460.578	864.19
460.798	871.19
461.018	885.19
461.238	837.19
461.458	857.19
461.678	869.19
461.898	926.19
462.118	901.19
462.338	924.19
462.558	936.19
462.777	989.19
462.997	989.19
463.217	992.19
463.437	1059.19
463.657	1004.19
463.876	975.19
464.096	963.19
464.316	962.19
464.536	965.19
464.755	1020.19
464.975	990.19
465.195	962.19
465.414	978.19
465.634	955.19
465.854	940.19
466.073	884.19
466.293	856.19
466.512	918.19
466.732	1009.19
466.951	1035.19
467.171	918.19
467.391	886.19
467.61	901.19
467.829	941.19
468.049	899.19
468.268	863.19
468.488	844.19
468.707	894.19
468.927	1070.19
469.146	1142.19
469.365	997.19
469.585	949.19
469.804	1018.19
470.023	1112.19
470.243	982.19
470.462	921.19
470.681	920.19
470.901	912.19
471.12	959.19
471.339	957.19
471.558	899.19
471.777	920.19
471.997	1021.19
472.216	1137.19
472.435	1050.19
472.654	977.19
472.873	924.19
473.092	1022.19
473.311	1030.19
473.53	952.19
473.749	939.19
473.968	985.19
474.187	966.19
474.406	914.19
474.625	905.19
474.844	974.19
475.063	1034.19
475.282	1021.19
475.501	1101.19
475.72	1128.19
475.939	1107.19
476.158	1061.19
476.377	1227.19
476.596	1441.19
476.814	1478.19
477.033	1217.19
477.252	1051.19
477.471	1011.19
477.69	1018.19
477.908	1099.19
478.127	1143.19
478.346	1037.19
478.564	1104.19
478.783	1074.19
479.002	1094.19
479.22	1288.19
479.439	1416.19
479.658	1258.19
479.876	1105.19
480.095	1186.19
480.313	1263.19
480.532	1125.19
480.751	1093.19
480.969	1100.19
481.188	1283.19
481.406	1335.19
481.624	1220.19
481.843	1117.19
482.061	1062.19
482.28	1225.19
482.498	1459.19
482.717	1390.19
482.935	1219.19
483.153	1119.19
483.372	1080.19
483.59	1064.19
483.808	1060.19
484.027	1051.19
484.245	998.19
484.463	973.19
484.681	1038.19
484.9	1092.19
485.118	1185.19
485.336	1099.19
485.554	1043.19
485.772	1048.19
485.99	1169.19
486.209	1223.19
486.427	1240.19
486.645	1189.19
486.863	1242.19
487.081	1219.19
487.299	1352.19
487.517	1313.19
487.735	1210.19
487.953	1224.19
488.171	1258.19
488.389	1188.19
488.607	1104.19
488.825	1144.19
489.043	1225.19
489.261	1441.19
489.479	1521.19
489.696	1262.19
489.914	1159.19
490.132	1100.19
490.35	1124.19
490.568	1147.19
490.786	1086.19
491.003	1130.19
491.221	1171.19
491.439	1121.19
491.657	1124.19
491.874	1247.19
492.092	1504.19
492.31	1751.19
492.527	1700.19
492.745	1507.19
492.963	1272.19
493.18	1294.19
493.398	1287.19
493.615	1296.19
493.833	1253.19
494.05	1222.19
494.268	1241.19
494.485	1218.19
494.703	1183.19
