Data from NickelSpatula_HRD10591_16-36-10-126.txt Node
Date: Mon Jul 22 16:36:10 EDT 2019
User: cochatt
Spectrometer: HR+D1059
Trigger mode: 1
Integration Time (sec): 1.000000E-1
Scans to average: 1
Electric dark correction enabled: true
Nonlinearity correction enabled: false
Boxcar width: 0
XAxis mode: Wavelengths
Number of Pixels in Spectrum: 2048
>>>>>Begin Spectral Data<<<<<
223.165	-8.44
223.4	-8.44
223.635	-8.44
223.869	-16.44
224.104	-22.44
224.338	-24.44
224.573	-23.44
224.808	-6.44
225.042	-6.44
225.277	-7.44
225.511	14.56
225.746	10.56
225.98	18.56
226.215	7.56
226.449	4.56
226.683	19.56
226.918	15.56
227.152	24.56
227.387	27.56
227.621	37.56
227.856	51.56
228.09	36.56
228.324	64.56
228.559	31.56
228.793	60.56
229.027	64.56
229.262	63.56
229.496	77.56
229.73	72.56
229.964	84.56
230.199	84.56
230.433	76.56
230.667	85.56
230.901	87.56
231.136	86.56
231.37	83.56
231.604	84.56
231.838	102.56
232.072	91.56
232.306	83.56
232.541	109.56
232.775	98.56
233.009	97.56
233.243	94.56
233.477	108.56
233.711	117.56
233.945	115.56
234.179	108.56
234.413	95.56
234.647	120.56
234.881	103.56
235.115	104.56
235.349	121.56
235.583	98.56
235.817	106.56
236.051	110.56
236.285	113.56
236.519	95.56
236.753	124.56
236.987	119.56
237.221	103.56
237.455	108.56
237.689	111.56
237.922	111.56
238.156	113.56
238.39	112.56
238.624	134.56
238.858	137.56
239.091	107.56
239.325	105.56
239.559	115.56
239.793	111.56
240.027	115.56
240.26	119.56
240.494	118.56
240.728	128.56
240.961	145.56
241.195	130.56
241.429	124.56
241.662	117.56
241.896	123.56
242.13	108.56
242.363	117.56
242.597	115.56
242.83	128.56
243.064	116.56
243.298	120.56
243.531	126.56
243.765	145.56
243.998	135.56
244.232	131.56
244.465	138.56
244.699	140.56
244.932	138.56
245.166	127.56
245.399	120.56
245.633	109.56
245.866	127.56
246.099	121.56
246.333	144.56
246.566	156.56
246.8	132.56
247.033	168.56
247.266	136.56
247.5	130.56
247.733	122.56
247.966	131.56
248.2	139.56
248.433	140.56
248.666	135.56
248.899	143.56
249.133	164.56
249.366	161.56
249.599	154.56
249.832	162.56
250.066	124.56
250.299	133.56
250.532	127.56
250.765	131.56
250.998	136.56
251.231	134.56
251.465	127.56
251.698	138.56
251.931	145.56
252.164	153.56
252.397	160.56
252.63	172.56
252.863	182.56
253.096	173.56
253.329	172.56
253.562	173.56
253.795	189.56
254.028	202.56
254.261	204.56
254.494	183.56
254.727	173.56
254.96	180.56
255.193	203.56
255.426	179.56
255.659	148.56
255.892	157.56
256.124	159.56
256.357	159.56
256.59	185.56
256.823	175.56
257.056	159.56
257.289	161.56
257.521	163.56
257.754	171.56
257.987	205.56
258.22	167.56
258.452	156.56
258.685	202.56
258.918	215.56
259.151	191.56
259.383	192.56
259.616	232.56
259.849	227.56
260.081	242.56
260.314	259.56
260.547	215.56
260.779	208.56
261.012	239.56
261.244	236.56
261.477	226.56
261.71	220.56
261.942	185.56
262.175	179.56
262.407	176.56
262.64	196.56
262.872	226.56
263.105	231.56
263.337	234.56
263.57	228.56
263.802	173.56
264.035	167.56
264.267	162.56
264.499	125.56
264.732	134.56
264.964	145.56
265.197	133.56
265.429	130.56
265.661	125.56
265.894	140.56
266.126	154.56
266.358	173.56
266.591	172.56
266.823	222.56
267.055	212.56
267.287	199.56
267.52	199.56
267.752	201.56
267.984	204.56
268.216	201.56
268.448	181.56
268.681	187.56
268.913	194.56
269.145	203.56
269.377	220.56
269.609	195.56
269.841	191.56
270.073	212.56
270.306	200.56
270.538	204.56
270.77	210.56
271.002	219.56
271.234	220.56
271.466	228.56
271.698	210.56
271.93	216.56
272.162	190.56
272.394	198.56
272.626	219.56
272.858	204.56
273.09	200.56
273.322	180.56
273.553	176.56
273.785	203.56
274.017	255.56
274.249	303.56
274.481	292.56
274.713	334.56
274.945	359.56
275.176	357.56
275.408	344.56
275.64	309.56
275.872	313.56
276.104	285.56
276.335	275.56
276.567	267.56
276.799	257.56
277.031	254.56
277.262	218.56
277.494	181.56
277.726	175.56
277.957	195.56
278.189	217.56
278.421	215.56
278.652	212.56
278.884	202.56
279.115	175.56
279.347	175.56
279.579	177.56
279.81	199.56
280.042	184.56
280.273	211.56
280.505	181.56
280.736	168.56
280.968	173.56
281.199	179.56
281.431	191.56
281.662	193.56
281.894	193.56
282.125	187.56
282.356	202.56
282.588	210.56
282.819	183.56
283.051	197.56
283.282	236.56
283.513	247.56
283.745	261.56
283.976	256.56
284.207	255.56
284.439	275.56
284.67	267.56
284.901	244.56
285.132	259.56
285.364	273.56
285.595	257.56
285.826	252.56
286.057	259.56
286.288	250.56
286.52	262.56
286.751	281.56
286.982	265.56
287.213	247.56
287.444	241.56
287.675	263.56
287.906	240.56
288.138	224.56
288.369	195.56
288.6	194.56
288.831	200.56
289.062	245.56
289.293	239.56
289.524	225.56
289.755	218.56
289.986	224.56
290.217	205.56
290.448	184.56
290.679	161.56
290.91	139.56
291.141	160.56
291.371	149.56
291.602	142.56
291.833	160.56
292.064	183.56
292.295	183.56
292.526	202.56
292.757	208.56
292.987	221.56
293.218	245.56
293.449	248.56
293.68	247.56
293.91	258.56
294.141	258.56
294.372	234.56
294.603	209.56
294.833	237.56
295.064	277.56
295.295	250.56
295.525	203.56
295.756	170.56
295.987	153.56
296.217	156.56
296.448	167.56
296.679	177.56
296.909	166.56
297.14	195.56
297.37	210.56
297.601	189.56
297.831	172.56
298.062	187.56
298.292	203.56
298.523	208.56
298.753	228.56
298.984	204.56
299.214	187.56
299.445	167.56
299.675	153.56
299.905	173.56
300.136	166.56
300.366	185.56
300.597	174.56
300.827	167.56
301.057	159.56
301.288	168.56
301.518	179.56
301.748	222.56
301.979	210.56
302.209	219.56
302.439	212.56
302.669	179.56
302.9	191.56
303.13	194.56
303.36	178.56
303.59	187.56
303.82	187.56
304.051	185.56
304.281	208.56
304.511	193.56
304.741	189.56
304.971	183.56
305.201	189.56
305.431	188.56
305.661	190.56
305.891	175.56
306.121	172.56
306.352	148.56
306.582	140.56
306.812	150.56
307.042	151.56
307.272	147.56
307.502	142.56
307.731	137.56
307.961	145.56
308.191	141.56
308.421	142.56
308.651	120.56
308.881	140.56
309.111	136.56
309.341	146.56
309.571	156.56
309.8	152.56
310.03	149.56
310.26	168.56
310.49	173.56
310.72	145.56
310.949	139.56
311.179	176.56
311.409	152.56
311.639	168.56
311.868	186.56
312.098	234.56
312.328	262.56
312.557	261.56
312.787	239.56
313.017	212.56
313.246	245.56
313.476	250.56
313.706	226.56
313.935	195.56
314.165	172.56
314.394	155.56
314.624	160.56
314.853	154.56
315.083	172.56
315.312	163.56
315.542	139.56
315.771	151.56
316.001	147.56
316.23	134.56
316.46	131.56
316.689	149.56
316.919	142.56
317.148	139.56
317.377	151.56
317.607	156.56
317.836	156.56
318.065	179.56
318.295	180.56
318.524	162.56
318.753	159.56
318.983	145.56
319.212	148.56
319.441	164.56
319.67	172.56
319.9	157.56
320.129	172.56
320.358	177.56
320.587	155.56
320.816	165.56
321.046	176.56
321.275	187.56
321.504	203.56
321.733	202.56
321.962	196.56
322.191	183.56
322.42	154.56
322.649	175.56
322.878	198.56
323.108	183.56
323.337	175.56
323.566	169.56
323.795	172.56
324.024	165.56
324.253	153.56
324.482	172.56
324.71	177.56
324.939	203.56
325.168	189.56
325.397	147.56
325.626	153.56
325.855	144.56
326.084	156.56
326.313	159.56
326.542	130.56
326.77	156.56
326.999	142.56
327.228	172.56
327.457	155.56
327.686	145.56
327.914	143.56
328.143	141.56
328.372	141.56
328.6	149.56
328.829	148.56
329.058	157.56
329.287	134.56
329.515	135.56
329.744	139.56
329.972	144.56
330.201	141.56
330.43	139.56
330.658	148.56
330.887	149.56
331.115	162.56
331.344	157.56
331.572	131.56
331.801	145.56
332.03	133.56
332.258	141.56
332.486	150.56
332.715	156.56
332.943	131.56
333.172	142.56
333.4	151.56
333.629	164.56
333.857	160.56
334.085	181.56
334.314	165.56
334.542	159.56
334.771	152.56
334.999	168.56
335.227	131.56
335.455	149.56
335.684	154.56
335.912	178.56
336.14	195.56
336.369	180.56
336.597	192.56
336.825	201.56
337.053	209.56
337.281	178.56
337.51	156.56
337.738	159.56
337.966	165.56
338.194	178.56
338.422	186.56
338.65	154.56
338.878	142.56
339.106	144.56
339.334	165.56
339.562	154.56
339.79	156.56
340.018	162.56
340.246	164.56
340.474	170.56
340.702	194.56
340.93	216.56
341.158	178.56
341.386	180.56
341.614	171.56
341.842	172.56
342.07	177.56
342.298	199.56
342.526	201.56
342.754	181.56
342.981	162.56
343.209	159.56
343.437	194.56
343.665	183.56
343.893	187.56
344.12	192.56
344.348	234.56
344.576	225.56
344.804	187.56
345.031	164.56
345.259	158.56
345.487	155.56
345.714	155.56
345.942	168.56
346.17	199.56
346.397	197.56
346.625	168.56
346.853	162.56
347.08	173.56
347.308	157.56
347.535	179.56
347.763	181.56
347.99	172.56
348.218	161.56
348.445	174.56
348.673	171.56
348.9	169.56
349.128	174.56
349.355	176.56
349.583	157.56
349.81	160.56
350.037	160.56
350.265	152.56
350.492	126.56
350.72	139.56
350.947	124.56
351.174	157.56
351.402	170.56
351.629	169.56
351.856	141.56
352.083	146.56
352.311	174.56
352.538	186.56
352.765	189.56
352.992	181.56
353.22	166.56
353.447	193.56
353.674	161.56
353.901	163.56
354.128	189.56
354.355	191.56
354.583	184.56
354.81	195.56
355.037	198.56
355.264	176.56
355.491	168.56
355.718	192.56
355.945	192.56
356.172	186.56
356.399	181.56
356.626	205.56
356.853	271.56
357.08	287.56
357.307	276.56
357.534	228.56
357.761	244.56
357.988	306.56
358.215	329.56
358.441	293.56
358.668	260.56
358.895	241.56
359.122	210.56
359.349	213.56
359.576	219.56
359.802	196.56
360.029	168.56
360.256	179.56
360.483	204.56
360.709	252.56
360.936	280.56
361.163	224.56
361.39	172.56
361.616	170.56
361.843	193.56
362.07	234.56
362.296	213.56
362.523	175.56
362.749	159.56
362.976	169.56
363.203	209.56
363.429	208.56
363.656	176.56
363.882	164.56
364.109	186.56
364.335	175.56
364.562	159.56
364.788	179.56
365.015	210.56
365.241	194.56
365.468	175.56
365.694	157.56
365.92	139.56
366.147	142.56
366.373	143.56
366.599	159.56
366.826	139.56
367.052	162.56
367.278	139.56
367.505	139.56
367.731	144.56
367.957	164.56
368.184	172.56
368.41	168.56
368.636	197.56
368.862	200.56
369.089	177.56
369.315	172.56
369.541	164.56
369.767	169.56
369.993	155.56
370.219	153.56
370.445	162.56
370.672	184.56
370.898	177.56
371.124	184.56
371.35	161.56
371.576	153.56
371.802	177.56
372.028	196.56
372.254	207.56
372.48	191.56
372.706	179.56
372.932	193.56
373.158	177.56
373.384	232.56
373.61	264.56
373.835	267.56
374.061	207.56
374.287	198.56
374.513	218.56
374.739	253.56
374.965	267.56
375.191	255.56
375.416	183.56
375.642	171.56
375.868	211.56
376.094	212.56
376.319	192.56
376.545	211.56
376.771	208.56
376.997	188.56
377.222	146.56
377.448	129.56
377.674	135.56
377.899	136.56
378.125	125.56
378.35	135.56
378.576	139.56
378.802	147.56
379.027	160.56
379.253	170.56
379.478	151.56
379.704	163.56
379.929	188.56
380.155	199.56
380.38	167.56
380.606	183.56
380.831	209.56
381.057	194.56
381.282	166.56
381.507	195.56
381.733	220.56
381.958	232.56
382.184	267.56
382.409	271.56
382.634	280.56
382.86	274.56
383.085	217.56
383.31	195.56
383.535	220.56
383.761	208.56
383.986	184.56
384.211	219.56
384.436	207.56
384.662	199.56
384.887	162.56
385.112	176.56
385.337	176.56
385.562	163.56
385.787	187.56
386.013	199.56
386.238	210.56
386.463	169.56
386.688	159.56
386.913	164.56
387.138	145.56
387.363	160.56
387.588	161.56
387.813	153.56
388.038	166.56
388.263	164.56
388.488	183.56
388.713	202.56
388.938	213.56
389.163	168.56
389.387	172.56
389.612	158.56
389.837	182.56
390.062	162.56
390.287	177.56
390.512	169.56
390.736	131.56
390.961	151.56
391.186	142.56
391.411	157.56
391.636	151.56
391.86	169.56
392.085	178.56
392.31	169.56
392.534	163.56
392.759	157.56
392.984	165.56
393.208	173.56
393.433	178.56
393.658	156.56
393.882	132.56
394.107	144.56
394.331	141.56
394.556	159.56
394.78	144.56
395.005	154.56
395.229	155.56
395.454	153.56
395.678	138.56
395.903	144.56
396.127	153.56
396.352	158.56
396.576	163.56
396.801	194.56
397.025	192.56
397.249	193.56
397.474	171.56
397.698	144.56
397.922	171.56
398.147	163.56
398.371	158.56
398.595	171.56
398.82	163.56
399.044	152.56
399.268	163.56
399.492	172.56
399.717	152.56
399.941	183.56
400.165	165.56
400.389	153.56
400.613	163.56
400.837	168.56
401.062	151.56
401.286	158.56
401.51	142.56
401.734	142.56
401.958	166.56
402.182	152.56
402.406	149.56
402.63	149.56
402.854	155.56
403.078	190.56
403.302	229.56
403.526	253.56
403.75	213.56
403.974	184.56
404.198	185.56
404.422	223.56
404.645	230.56
404.869	237.56
405.093	214.56
405.317	156.56
405.541	176.56
405.765	187.56
405.988	156.56
406.212	176.56
406.436	205.56
406.66	237.56
406.883	194.56
407.107	189.56
407.331	217.56
407.555	175.56
407.778	180.56
408.002	175.56
408.226	176.56
408.449	167.56
408.673	177.56
408.896	147.56
409.12	152.56
409.344	151.56
409.567	132.56
409.791	134.56
410.014	131.56
410.238	164.56
410.461	131.56
410.685	166.56
410.908	135.56
411.132	148.56
411.355	144.56
411.578	161.56
411.802	146.56
412.025	147.56
412.249	164.56
412.472	165.56
412.695	147.56
412.919	139.56
413.142	168.56
413.365	171.56
413.589	160.56
413.812	171.56
414.035	152.56
414.258	141.56
414.482	175.56
414.705	168.56
414.928	149.56
415.151	134.56
415.374	133.56
415.597	159.56
415.821	147.56
416.044	140.56
416.267	143.56
416.49	158.56
416.713	148.56
416.936	136.56
417.159	149.56
417.382	141.56
417.605	140.56
417.828	159.56
418.051	153.56
418.274	158.56
418.497	155.56
418.72	149.56
418.943	161.56
419.166	157.56
419.389	152.56
419.611	164.56
419.834	168.56
420.057	192.56
420.28	188.56
420.503	177.56
420.726	161.56
420.948	153.56
421.171	154.56
421.394	145.56
421.617	129.56
421.839	143.56
422.062	157.56
422.285	150.56
422.507	147.56
422.73	165.56
422.953	166.56
423.175	150.56
423.398	155.56
423.621	190.56
423.843	179.56
424.066	151.56
424.288	164.56
424.511	163.56
424.733	144.56
424.956	165.56
425.178	187.56
425.401	209.56
425.623	237.56
425.846	192.56
426.068	171.56
426.291	184.56
426.513	166.56
426.735	153.56
426.958	157.56
427.18	188.56
427.402	255.56
427.625	259.56
427.847	209.56
428.069	151.56
428.292	160.56
428.514	157.56
428.736	155.56
428.958	174.56
429.181	201.56
429.403	173.56
429.625	149.56
429.847	166.56
430.069	154.56
430.292	161.56
430.514	148.56
430.736	172.56
430.958	195.56
431.18	188.56
431.402	144.56
431.624	142.56
431.846	139.56
432.068	141.56
432.29	132.56
432.512	160.56
432.734	187.56
432.956	179.56
433.178	140.56
433.4	135.56
433.622	150.56
433.844	153.56
434.066	169.56
434.287	163.56
434.509	168.56
434.731	168.56
434.953	147.56
435.175	141.56
435.397	184.56
435.618	151.56
435.84	129.56
436.062	143.56
436.284	137.56
436.505	141.56
436.727	148.56
436.949	151.56
437.17	143.56
437.392	149.56
437.614	141.56
437.835	135.56
438.057	147.56
438.278	175.56
438.5	229.56
438.721	226.56
438.943	153.56
439.165	151.56
439.386	138.56
439.608	139.56
439.829	133.56
440.05	128.56
440.272	159.56
440.493	167.56
440.715	206.56
440.936	164.56
441.158	148.56
441.379	140.56
441.6	154.56
441.822	181.56
442.043	156.56
442.264	138.56
442.486	147.56
442.707	148.56
442.928	149.56
443.149	162.56
443.371	141.56
443.592	155.56
443.813	159.56
444.034	145.56
444.255	139.56
444.476	149.56
444.698	158.56
444.919	177.56
445.14	292.56
445.361	240.56
445.582	177.56
445.803	170.56
446.024	194.56
446.245	181.56
446.466	167.56
446.687	170.56
446.908	160.56
447.129	148.56
447.35	135.56
447.571	135.56
447.792	142.56
448.013	151.56
448.234	125.56
448.455	131.56
448.675	147.56
448.896	126.56
449.117	142.56
449.338	165.56
449.559	156.56
449.779	142.56
450	158.56
450.221	137.56
450.442	153.56
450.662	141.56
450.883	133.56
451.104	142.56
451.324	145.56
451.545	137.56
451.766	137.56
451.986	153.56
452.207	129.56
452.428	144.56
452.648	141.56
452.869	149.56
453.089	170.56
453.31	155.56
453.53	154.56
453.751	156.56
453.971	124.56
454.192	148.56
454.412	153.56
454.633	151.56
454.853	145.56
455.073	125.56
455.294	127.56
455.514	127.56
455.734	142.56
455.955	149.56
456.175	141.56
456.395	131.56
456.616	127.56
456.836	125.56
457.056	103.56
457.276	127.56
457.497	122.56
457.717	127.56
457.937	125.56
458.157	131.56
458.377	129.56
458.598	115.56
458.818	121.56
459.038	115.56
459.258	146.56
459.478	152.56
459.698	142.56
459.918	153.56
460.138	163.56
460.358	153.56
460.578	138.56
460.798	157.56
461.018	133.56
461.238	151.56
461.458	155.56
461.678	149.56
461.898	161.56
462.118	142.56
462.338	149.56
462.558	161.56
462.777	159.56
462.997	147.56
463.217	178.56
463.437	163.56
463.657	161.56
463.876	154.56
464.096	169.56
464.316	152.56
464.536	162.56
464.755	183.56
464.975	178.56
465.195	157.56
465.414	161.56
465.634	155.56
465.854	153.56
466.073	146.56
466.293	148.56
466.512	141.56
466.732	187.56
466.951	182.56
467.171	154.56
467.391	141.56
467.61	136.56
467.829	169.56
468.049	140.56
468.268	148.56
468.488	139.56
468.707	151.56
468.927	159.56
469.146	155.56
469.365	164.56
469.585	169.56
469.804	168.56
470.023	163.56
470.243	155.56
470.462	144.56
470.681	151.56
470.901	157.56
471.12	165.56
471.339	162.56
471.558	162.56
471.777	158.56
471.997	170.56
472.216	178.56
472.435	165.56
472.654	161.56
472.873	163.56
473.092	167.56
473.311	161.56
473.53	149.56
473.749	160.56
473.968	177.56
474.187	168.56
474.406	158.56
474.625	156.56
474.844	160.56
475.063	163.56
475.282	177.56
475.501	173.56
475.72	208.56
475.939	199.56
476.158	181.56
476.377	212.56
476.596	241.56
476.814	247.56
477.033	219.56
477.252	169.56
477.471	166.56
477.69	165.56
477.908	166.56
478.127	180.56
478.346	175.56
478.564	197.56
478.783	187.56
479.002	171.56
479.22	197.56
479.439	199.56
479.658	174.56
479.876	170.56
480.095	185.56
480.313	187.56
480.532	172.56
480.751	166.56
480.969	154.56
481.188	179.56
481.406	193.56
481.624	168.56
481.843	172.56
482.061	173.56
482.28	183.56
482.498	225.56
482.717	247.56
482.935	199.56
483.153	168.56
483.372	159.56
483.59	168.56
483.808	159.56
484.027	178.56
484.245	159.56
484.463	136.56
484.681	173.56
484.9	163.56
485.118	174.56
485.336	159.56
485.554	156.56
485.772	169.56
485.99	187.56
486.209	179.56
486.427	191.56
486.645	170.56
486.863	193.56
487.081	175.56
487.299	222.56
487.517	199.56
487.735	173.56
487.953	190.56
488.171	177.56
488.389	187.56
488.607	161.56
488.825	173.56
489.043	218.56
489.261	219.56
489.479	222.56
489.696	178.56
489.914	172.56
490.132	165.56
490.35	172.56
490.568	172.56
490.786	180.56
491.003	179.56
491.221	171.56
491.439	171.56
491.657	167.56
491.874	163.56
492.092	213.56
492.31	281.56
492.527	241.56
492.745	208.56
492.963	189.56
493.18	185.56
493.398	185.56
493.615	178.56
493.833	183.56
494.05	187.56
494.268	191.56
494.485	187.56
494.703	192.56
494.92	171.56
495.138	178.56
495.355	169.56
495.573	188.56
495.79	223.56
496.008	305.56
496.225	229.56
496.442	198.56
496.66	208.56
496.877	197.56
497.094	201.56
497.312	176.56
497.529	193.56
497.746	183.56
497.963	180.56
498.181	213.56
498.398	219.56
498.615	220.56
498.832	219.56
499.049	244.56
499.267	197.56
499.484	198.56
499.701	215.56
499.918	232.56
500.135	253.56
500.352	236.56
500.569	251.56
500.786	256.56
501.003	267.56
501.22	254.56
501.437	234.56
501.654	220.56
501.871	215.56
502.088	207.56
502.305	202.56
502.522	193.56
502.739	202.56
