Data from NickelSpatula.Lamp.E5.5.P2_HRD10591_11-51-05-562.txt Node
Date: Tue Jul 23 11:51:05 EDT 2019
User: cochatt
Spectrometer: HR+D1059
Trigger mode: 1
Integration Time (sec): 1.000000E-1
Scans to average: 1
Electric dark correction enabled: true
Nonlinearity correction enabled: false
Boxcar width: 0
XAxis mode: Wavelengths
Number of Pixels in Spectrum: 2048
>>>>>Begin Spectral Data<<<<<
223.165	-30.44
223.4	-30.44
223.635	-30.44
223.869	-11.44
224.104	-12.44
224.338	-16.44
224.573	-7.44
224.808	-16.44
225.042	-19.44
225.277	-4.44
225.511	3.56
225.746	2.56
225.98	16.56
226.215	24.56
226.449	17.56
226.683	18.56
226.918	14.56
227.152	20.56
227.387	26.56
227.621	32.56
227.856	41.56
228.09	45.56
228.324	40.56
228.559	57.56
228.793	50.56
229.027	67.56
229.262	76.56
229.496	69.56
229.73	64.56
229.964	79.56
230.199	88.56
230.433	92.56
230.667	83.56
230.901	88.56
231.136	108.56
231.37	96.56
231.604	111.56
231.838	94.56
232.072	104.56
232.306	102.56
232.541	94.56
232.775	108.56
233.009	100.56
233.243	109.56
233.477	112.56
233.711	109.56
233.945	101.56
234.179	111.56
234.413	112.56
234.647	108.56
234.881	130.56
235.115	109.56
235.349	117.56
235.583	123.56
235.817	112.56
236.051	117.56
236.285	116.56
236.519	119.56
236.753	123.56
236.987	120.56
237.221	125.56
237.455	113.56
237.689	128.56
237.922	144.56
238.156	137.56
238.39	136.56
238.624	146.56
238.858	144.56
239.091	124.56
239.325	133.56
239.559	119.56
239.793	130.56
240.027	126.56
240.26	145.56
240.494	148.56
240.728	140.56
240.961	163.56
241.195	145.56
241.429	147.56
241.662	141.56
241.896	138.56
242.13	120.56
242.363	125.56
242.597	123.56
242.83	125.56
243.064	142.56
243.298	158.56
243.531	151.56
243.765	131.56
243.998	160.56
244.232	135.56
244.465	145.56
244.699	140.56
244.932	151.56
245.166	154.56
245.399	140.56
245.633	131.56
245.866	149.56
246.099	140.56
246.333	141.56
246.566	163.56
246.8	164.56
247.033	160.56
247.266	164.56
247.5	145.56
247.733	152.56
247.966	145.56
248.2	155.56
248.433	151.56
248.666	163.56
248.899	174.56
249.133	183.56
249.366	190.56
249.599	201.56
249.832	191.56
250.066	168.56
250.299	177.56
250.532	181.56
250.765	180.56
250.998	160.56
251.231	181.56
251.465	162.56
251.698	184.56
251.931	166.56
252.164	156.56
252.397	182.56
252.63	190.56
252.863	218.56
253.096	216.56
253.329	205.56
253.562	220.56
253.795	240.56
254.028	253.56
254.261	249.56
254.494	232.56
254.727	225.56
254.96	217.56
255.193	230.56
255.426	231.56
255.659	193.56
255.892	173.56
256.124	204.56
256.357	206.56
256.59	223.56
256.823	236.56
257.056	187.56
257.289	190.56
257.521	196.56
257.754	230.56
257.987	275.56
258.22	219.56
258.452	196.56
258.685	219.56
258.918	255.56
259.151	255.56
259.383	267.56
259.616	255.56
259.849	285.56
260.081	292.56
260.314	306.56
260.547	254.56
260.779	281.56
261.012	312.56
261.244	289.56
261.477	295.56
261.71	261.56
261.942	239.56
262.175	251.56
262.407	236.56
262.64	229.56
262.872	283.56
263.105	287.56
263.337	289.56
263.57	280.56
263.802	218.56
264.035	185.56
264.267	201.56
264.499	176.56
264.732	159.56
264.964	167.56
265.197	183.56
265.429	177.56
265.661	213.56
265.894	197.56
266.126	200.56
266.358	219.56
266.591	242.56
266.823	276.56
267.055	265.56
267.287	262.56
267.52	245.56
267.752	255.56
267.984	275.56
268.216	245.56
268.448	230.56
268.681	215.56
268.913	221.56
269.145	265.56
269.377	244.56
269.609	263.56
269.841	257.56
270.073	261.56
270.306	271.56
270.538	278.56
270.77	275.56
271.002	263.56
271.234	271.56
271.466	279.56
271.698	277.56
271.93	268.56
272.162	255.56
272.394	268.56
272.626	271.56
272.858	254.56
273.09	275.56
273.322	265.56
273.553	239.56
273.785	277.56
274.017	328.56
274.249	387.56
274.481	417.56
274.713	429.56
274.945	452.56
275.176	489.56
275.408	437.56
275.64	433.56
275.872	406.56
276.104	375.56
276.335	322.56
276.567	330.56
276.799	341.56
277.031	367.56
277.262	279.56
277.494	237.56
277.726	235.56
277.957	254.56
278.189	281.56
278.421	271.56
278.652	253.56
278.884	259.56
279.115	246.56
279.347	230.56
279.579	237.56
279.81	245.56
280.042	270.56
280.273	257.56
280.505	245.56
280.736	206.56
280.968	218.56
281.199	228.56
281.431	236.56
281.662	255.56
281.894	236.56
282.125	248.56
282.356	259.56
282.588	275.56
282.819	232.56
283.051	286.56
283.282	315.56
283.513	307.56
283.745	372.56
283.976	366.56
284.207	349.56
284.439	384.56
284.67	338.56
284.901	329.56
285.132	324.56
285.364	356.56
285.595	317.56
285.826	347.56
286.057	380.56
286.288	360.56
286.52	355.56
286.751	357.56
286.982	354.56
287.213	339.56
287.444	324.56
287.675	347.56
287.906	332.56
288.138	299.56
288.369	292.56
288.6	259.56
288.831	281.56
289.062	318.56
289.293	318.56
289.524	323.56
289.755	312.56
289.986	321.56
290.217	297.56
290.448	228.56
290.679	224.56
290.91	208.56
291.141	199.56
291.371	215.56
291.602	208.56
291.833	220.56
292.064	221.56
292.295	229.56
292.526	272.56
292.757	282.56
292.987	298.56
293.218	304.56
293.449	323.56
293.68	337.56
293.91	319.56
294.141	323.56
294.372	313.56
294.603	278.56
294.833	303.56
295.064	353.56
295.295	336.56
295.525	263.56
295.756	241.56
295.987	207.56
296.217	215.56
296.448	226.56
296.679	257.56
296.909	263.56
297.14	277.56
297.37	273.56
297.601	266.56
297.831	231.56
298.062	245.56
298.292	283.56
298.523	283.56
298.753	316.56
298.984	306.56
299.214	261.56
299.445	234.56
299.675	222.56
299.905	217.56
300.136	211.56
300.366	239.56
300.597	231.56
300.827	215.56
301.057	216.56
301.288	223.56
301.518	244.56
301.748	258.56
301.979	269.56
302.209	272.56
302.439	278.56
302.669	243.56
302.9	256.56
303.13	265.56
303.36	229.56
303.59	228.56
303.82	212.56
304.051	241.56
304.281	261.56
304.511	280.56
304.741	252.56
304.971	247.56
305.201	266.56
305.431	259.56
305.661	215.56
305.891	219.56
306.121	225.56
306.352	221.56
306.582	177.56
306.812	189.56
307.042	198.56
307.272	199.56
307.502	184.56
307.731	196.56
307.961	214.56
308.191	199.56
308.421	188.56
308.651	202.56
308.881	192.56
309.111	193.56
309.341	190.56
309.571	201.56
309.8	213.56
310.03	196.56
310.26	216.56
310.49	210.56
310.72	203.56
310.949	186.56
311.179	204.56
311.409	199.56
311.639	222.56
311.868	274.56
312.098	315.56
312.328	340.56
312.557	339.56
312.787	334.56
313.017	297.56
313.246	312.56
313.476	347.56
313.706	299.56
313.935	260.56
314.165	236.56
314.394	215.56
314.624	197.56
314.853	229.56
315.083	219.56
315.312	225.56
315.542	221.56
315.771	196.56
316.001	194.56
316.23	197.56
316.46	169.56
316.689	192.56
316.919	199.56
317.148	190.56
317.377	201.56
317.607	205.56
317.836	196.56
318.065	246.56
318.295	251.56
318.524	231.56
318.753	216.56
318.983	207.56
319.212	191.56
319.441	198.56
319.67	211.56
319.9	225.56
320.129	222.56
320.358	207.56
320.587	187.56
320.816	213.56
321.046	241.56
321.275	265.56
321.504	252.56
321.733	245.56
321.962	248.56
322.191	232.56
322.42	203.56
322.649	220.56
322.878	225.56
323.108	245.56
323.337	232.56
323.566	250.56
323.795	229.56
324.024	214.56
324.253	214.56
324.482	208.56
324.71	233.56
324.939	242.56
325.168	234.56
325.397	194.56
325.626	222.56
325.855	204.56
326.084	192.56
326.313	203.56
326.542	196.56
326.77	211.56
326.999	197.56
327.228	216.56
327.457	209.56
327.686	221.56
327.914	200.56
328.143	188.56
328.372	187.56
328.6	193.56
328.829	187.56
329.058	201.56
329.287	202.56
329.515	198.56
329.744	207.56
329.972	187.56
330.201	179.56
330.43	182.56
330.658	203.56
330.887	216.56
331.115	219.56
331.344	210.56
331.572	207.56
331.801	200.56
332.03	189.56
332.258	205.56
332.486	230.56
332.715	228.56
332.943	209.56
333.172	226.56
333.4	227.56
333.629	212.56
333.857	232.56
334.085	231.56
334.314	246.56
334.542	244.56
334.771	237.56
334.999	224.56
335.227	210.56
335.455	220.56
335.684	219.56
335.912	253.56
336.14	265.56
336.369	270.56
336.597	250.56
336.825	251.56
337.053	308.56
337.281	240.56
337.51	227.56
337.738	207.56
337.966	206.56
338.194	228.56
338.422	228.56
338.65	211.56
338.878	209.56
339.106	198.56
339.334	223.56
339.562	235.56
339.79	201.56
340.018	205.56
340.246	213.56
340.474	240.56
340.702	239.56
340.93	255.56
341.158	260.56
341.386	236.56
341.614	220.56
341.842	213.56
342.07	215.56
342.298	255.56
342.526	275.56
342.754	241.56
342.981	230.56
343.209	229.56
343.437	241.56
343.665	248.56
343.893	254.56
344.12	289.56
344.348	330.56
344.576	293.56
344.804	246.56
345.031	212.56
345.259	212.56
345.487	216.56
345.714	207.56
345.942	235.56
346.17	226.56
346.397	246.56
346.625	221.56
346.853	211.56
347.08	219.56
347.308	218.56
347.535	255.56
347.763	247.56
347.99	213.56
348.218	206.56
348.445	233.56
348.673	216.56
348.9	198.56
349.128	228.56
349.355	224.56
349.583	208.56
349.81	211.56
350.037	206.56
350.265	187.56
350.492	197.56
350.72	188.56
350.947	180.56
351.174	199.56
351.402	186.56
351.629	203.56
351.856	201.56
352.083	209.56
352.311	203.56
352.538	213.56
352.765	255.56
352.992	219.56
353.22	215.56
353.447	216.56
353.674	210.56
353.901	214.56
354.128	209.56
354.355	201.56
354.583	210.56
354.81	205.56
355.037	239.56
355.264	202.56
355.491	223.56
355.718	238.56
355.945	229.56
356.172	215.56
356.399	227.56
356.626	262.56
356.853	271.56
357.08	300.56
357.307	339.56
357.534	283.56
357.761	258.56
357.988	330.56
358.215	374.56
358.441	335.56
358.668	296.56
358.895	283.56
359.122	264.56
359.349	251.56
359.576	289.56
359.802	224.56
360.029	218.56
360.256	225.56
360.483	253.56
360.709	296.56
360.936	293.56
361.163	279.56
361.39	237.56
361.616	243.56
361.843	243.56
362.07	281.56
362.296	251.56
362.523	223.56
362.749	206.56
362.976	208.56
363.203	239.56
363.429	259.56
363.656	231.56
363.882	208.56
364.109	230.56
364.335	232.56
364.562	208.56
364.788	240.56
365.015	247.56
365.241	224.56
365.468	209.56
365.694	180.56
365.92	187.56
366.147	176.56
366.373	188.56
366.599	201.56
366.826	182.56
367.052	181.56
367.278	196.56
367.505	197.56
367.731	211.56
367.957	229.56
368.184	221.56
368.41	220.56
368.636	214.56
368.862	200.56
369.089	226.56
369.315	200.56
369.541	210.56
369.767	194.56
369.993	193.56
370.219	192.56
370.445	211.56
370.672	207.56
370.898	235.56
371.124	234.56
371.35	212.56
371.576	217.56
371.802	217.56
372.028	263.56
372.254	271.56
372.48	251.56
372.706	217.56
372.932	219.56
373.158	252.56
373.384	266.56
373.61	317.56
373.835	336.56
374.061	286.56
374.287	241.56
374.513	269.56
374.739	336.56
374.965	359.56
375.191	319.56
375.416	258.56
375.642	238.56
375.868	261.56
376.094	275.56
376.319	238.56
376.545	263.56
376.771	267.56
376.997	256.56
377.222	210.56
377.448	197.56
377.674	182.56
377.899	190.56
378.125	197.56
378.35	169.56
378.576	187.56
378.802	199.56
379.027	221.56
379.253	224.56
379.478	205.56
379.704	241.56
379.929	214.56
380.155	235.56
380.38	215.56
380.606	219.56
380.831	244.56
381.057	244.56
381.282	210.56
381.507	259.56
381.733	273.56
381.958	284.56
382.184	309.56
382.409	316.56
382.634	316.56
382.86	337.56
383.085	296.56
383.31	235.56
383.535	252.56
383.761	255.56
383.986	231.56
384.211	285.56
384.436	277.56
384.662	224.56
384.887	242.56
385.112	249.56
385.337	231.56
385.562	227.56
385.787	240.56
386.013	283.56
386.238	263.56
386.463	230.56
386.688	220.56
386.913	213.56
387.138	206.56
387.363	218.56
387.588	222.56
387.813	214.56
388.038	245.56
388.263	240.56
388.488	226.56
388.713	248.56
388.938	267.56
389.163	225.56
389.387	208.56
389.612	227.56
389.837	214.56
390.062	212.56
390.287	222.56
390.512	213.56
390.736	223.56
390.961	191.56
391.186	198.56
391.411	216.56
391.636	224.56
391.86	216.56
392.085	238.56
392.31	253.56
392.534	240.56
392.759	223.56
392.984	243.56
393.208	214.56
393.433	225.56
393.658	203.56
393.882	204.56
394.107	208.56
394.331	220.56
394.556	194.56
394.78	194.56
395.005	198.56
395.229	205.56
395.454	203.56
395.678	220.56
395.903	240.56
396.127	209.56
396.352	201.56
396.576	236.56
396.801	231.56
397.025	253.56
397.249	255.56
397.474	244.56
397.698	227.56
397.922	233.56
398.147	216.56
398.371	214.56
398.595	227.56
398.82	240.56
399.044	231.56
399.268	261.56
399.492	286.56
399.717	307.56
399.941	292.56
400.165	267.56
400.389	247.56
400.613	237.56
400.837	239.56
401.062	214.56
401.286	234.56
401.51	226.56
401.734	226.56
401.958	230.56
402.182	230.56
402.406	229.56
402.63	238.56
402.854	243.56
403.078	271.56
403.302	331.56
403.526	347.56
403.75	327.56
403.974	301.56
404.198	260.56
404.422	309.56
404.645	322.56
404.869	338.56
405.093	278.56
405.317	264.56
405.541	246.56
405.765	269.56
405.988	248.56
406.212	265.56
406.436	284.56
406.66	313.56
406.883	262.56
407.107	273.56
407.331	307.56
407.555	310.56
407.778	281.56
408.002	276.56
408.226	263.56
408.449	287.56
408.673	271.56
408.896	240.56
409.12	251.56
409.344	255.56
409.567	237.56
409.791	267.56
410.014	259.56
410.238	229.56
410.461	238.56
410.685	234.56
410.908	227.56
411.132	218.56
411.355	221.56
411.578	226.56
411.802	235.56
412.025	263.56
412.249	253.56
412.472	232.56
412.695	233.56
412.919	226.56
413.142	236.56
413.365	238.56
413.589	232.56
413.812	251.56
414.035	223.56
414.258	229.56
414.482	247.56
414.705	240.56
414.928	235.56
415.151	224.56
415.374	219.56
415.597	237.56
415.821	216.56
416.044	223.56
416.267	233.56
416.49	226.56
416.713	205.56
416.936	212.56
417.159	224.56
417.382	236.56
417.605	221.56
417.828	239.56
418.051	232.56
418.274	239.56
418.497	235.56
418.72	245.56
418.943	237.56
419.166	247.56
419.389	280.56
419.611	244.56
419.834	253.56
420.057	256.56
420.28	255.56
420.503	259.56
420.726	224.56
420.948	213.56
421.171	211.56
421.394	220.56
421.617	221.56
421.839	239.56
422.062	228.56
422.285	228.56
422.507	236.56
422.73	238.56
422.953	253.56
423.175	233.56
423.398	241.56
423.621	245.56
423.843	268.56
424.066	253.56
424.288	242.56
424.511	243.56
424.733	228.56
424.956	229.56
425.178	239.56
425.401	278.56
425.623	351.56
425.846	295.56
426.068	247.56
426.291	251.56
426.513	246.56
426.735	227.56
426.958	254.56
427.18	263.56
427.402	326.56
427.625	329.56
427.847	303.56
428.069	237.56
428.292	237.56
428.514	227.56
428.736	207.56
428.958	237.56
429.181	289.56
429.403	253.56
429.625	209.56
429.847	217.56
430.069	218.56
430.292	230.56
430.514	218.56
430.736	212.56
430.958	260.56
431.18	225.56
431.402	208.56
431.624	212.56
431.846	229.56
432.068	208.56
432.29	233.56
432.512	227.56
432.734	269.56
432.956	263.56
433.178	211.56
433.4	213.56
433.622	216.56
433.844	241.56
434.066	232.56
434.287	229.56
434.509	236.56
434.731	251.56
434.953	241.56
435.175	253.56
435.397	263.56
435.618	229.56
435.84	212.56
436.062	216.56
436.284	210.56
436.505	202.56
436.727	198.56
436.949	205.56
437.17	216.56
437.392	222.56
437.614	216.56
437.835	211.56
438.057	210.56
438.278	224.56
438.5	283.56
438.721	290.56
438.943	229.56
439.165	207.56
439.386	211.56
439.608	208.56
439.829	223.56
440.05	212.56
440.272	222.56
440.493	229.56
440.715	275.56
440.936	250.56
441.158	232.56
441.379	224.56
441.6	251.56
441.822	257.56
442.043	214.56
442.264	209.56
442.486	220.56
442.707	238.56
442.928	227.56
443.149	221.56
443.371	239.56
443.592	235.56
443.813	242.56
444.034	219.56
444.255	254.56
444.476	239.56
444.698	256.56
444.919	254.56
445.14	398.56
445.361	328.56
445.582	257.56
445.803	229.56
446.024	242.56
446.245	251.56
446.466	230.56
446.687	211.56
446.908	230.56
447.129	207.56
447.35	207.56
447.571	208.56
447.792	219.56
448.013	207.56
448.234	205.56
448.455	206.56
448.675	199.56
448.896	223.56
449.117	219.56
449.338	204.56
449.559	214.56
449.779	203.56
450	230.56
450.221	213.56
450.442	207.56
450.662	212.56
450.883	208.56
451.104	217.56
451.324	202.56
451.545	224.56
451.766	201.56
451.986	218.56
452.207	208.56
452.428	188.56
452.648	200.56
452.869	233.56
453.089	210.56
453.31	204.56
453.53	197.56
453.751	200.56
453.971	205.56
454.192	192.56
454.412	212.56
454.633	206.56
454.853	199.56
455.073	201.56
455.294	189.56
455.514	215.56
455.734	207.56
455.955	218.56
456.175	202.56
456.395	185.56
456.616	176.56
456.836	195.56
457.056	183.56
457.276	192.56
457.497	185.56
457.717	189.56
457.937	180.56
458.157	194.56
458.377	196.56
458.598	204.56
458.818	194.56
459.038	212.56
459.258	226.56
459.478	235.56
459.698	213.56
459.918	210.56
460.138	237.56
460.358	243.56
460.578	228.56
460.798	245.56
461.018	237.56
461.238	211.56
461.458	229.56
461.678	238.56
461.898	243.56
462.118	246.56
462.338	260.56
462.558	262.56
462.777	251.56
462.997	299.56
463.217	291.56
463.437	306.56
463.657	271.56
463.876	258.56
464.096	272.56
464.316	274.56
464.536	270.56
464.755	271.56
464.975	275.56
465.195	246.56
465.414	273.56
465.634	240.56
465.854	224.56
466.073	233.56
466.293	226.56
466.512	248.56
466.732	254.56
466.951	227.56
467.171	195.56
467.391	225.56
467.61	211.56
467.829	215.56
468.049	221.56
468.268	222.56
468.488	200.56
468.707	220.56
468.927	251.56
469.146	245.56
469.365	233.56
469.585	240.56
469.804	223.56
470.023	258.56
470.243	233.56
470.462	228.56
470.681	232.56
470.901	227.56
471.12	224.56
471.339	229.56
471.558	229.56
471.777	216.56
471.997	249.56
472.216	263.56
472.435	256.56
472.654	228.56
472.873	235.56
473.092	234.56
473.311	251.56
473.53	225.56
473.749	229.56
473.968	240.56
474.187	245.56
474.406	212.56
474.625	220.56
474.844	231.56
475.063	216.56
475.282	228.56
475.501	237.56
475.72	272.56
475.939	249.56
476.158	254.56
476.377	271.56
476.596	312.56
476.814	308.56
477.033	256.56
477.252	250.56
477.471	239.56
477.69	245.56
477.908	270.56
478.127	259.56
478.346	257.56
478.564	286.56
478.783	273.56
479.002	262.56
479.22	281.56
479.439	300.56
479.658	286.56
479.876	264.56
480.095	281.56
480.313	282.56
480.532	269.56
480.751	281.56
480.969	269.56
481.188	272.56
481.406	283.56
481.624	266.56
481.843	239.56
482.061	258.56
482.28	275.56
482.498	304.56
482.717	321.56
482.935	271.56
483.153	259.56
483.372	243.56
483.59	240.56
483.808	235.56
484.027	250.56
484.245	229.56
484.463	237.56
484.681	245.56
484.9	247.56
485.118	279.56
485.336	237.56
485.554	263.56
485.772	256.56
485.99	279.56
486.209	263.56
486.427	291.56
486.645	269.56
486.863	277.56
487.081	256.56
487.299	293.56
487.517	287.56
487.735	280.56
487.953	279.56
488.171	287.56
488.389	259.56
488.607	252.56
488.825	253.56
489.043	286.56
489.261	300.56
489.479	323.56
489.696	277.56
489.914	270.56
490.132	254.56
490.35	250.56
490.568	261.56
490.786	268.56
491.003	263.56
491.221	283.56
491.439	252.56
491.657	235.56
491.874	270.56
492.092	304.56
492.31	322.56
492.527	317.56
492.745	289.56
492.963	271.56
493.18	300.56
493.398	292.56
493.615	301.56
493.833	274.56
494.05	277.56
494.268	273.56
494.485	267.56
494.703	285.56
494.92	284.56
495.138	274.56
495.355	271.56
495.573	279.56
495.79	277.56
496.008	348.56
496.225	296.56
496.442	259.56
496.66	294.56
496.877	295.56
497.094	280.56
497.312	288.56
497.529	285.56
497.746	289.56
497.963	288.56
498.181	307.56
498.398	340.56
498.615	349.56
498.832	364.56
499.049	357.56
499.267	362.56
499.484	397.56
499.701	415.56
499.918	434.56
500.135	493.56
500.352	526.56
500.569	554.56
500.786	571.56
501.003	544.56
501.22	473.56
501.437	446.56
501.654	393.56
501.871	371.56
502.088	361.56
502.305	328.56
502.522	329.56
