Data from NickelSpatula.Lamp.E5.5.P2_HRD10591_11-52-45-552.txt Node
Date: Tue Jul 23 11:52:45 EDT 2019
User: cochatt
Spectrometer: HR+D1059
Trigger mode: 1
Integration Time (sec): 1.000000E-1
Scans to average: 1
Electric dark correction enabled: true
Nonlinearity correction enabled: false
Boxcar width: 0
XAxis mode: Wavelengths
Number of Pixels in Spectrum: 2048
>>>>>Begin Spectral Data<<<<<
223.165	-15.25
223.4	-15.25
223.635	-15.25
223.869	-27.25
224.104	-14.25
224.338	-15.25
224.573	-19.25
224.808	-21.25
225.042	-6.25
225.277	-8.25
225.511	9.75
225.746	7.75
225.98	27.75
226.215	0.75
226.449	6.75
226.683	16.75
226.918	33.75
227.152	23.75
227.387	31.75
227.621	38.75
227.856	44.75
228.09	52.75
228.324	53.75
228.559	55.75
228.793	65.75
229.027	67.75
229.262	74.75
229.496	78.75
229.73	80.75
229.964	81.75
230.199	106.75
230.433	87.75
230.667	88.75
230.901	88.75
231.136	84.75
231.37	95.75
231.604	93.75
231.838	99.75
232.072	102.75
232.306	94.75
232.541	111.75
232.775	106.75
233.009	92.75
233.243	108.75
233.477	120.75
233.711	121.75
233.945	134.75
234.179	120.75
234.413	127.75
234.647	146.75
234.881	147.75
235.115	141.75
235.349	114.75
235.583	122.75
235.817	130.75
236.051	124.75
236.285	128.75
236.519	136.75
236.753	135.75
236.987	135.75
237.221	126.75
237.455	135.75
237.689	126.75
237.922	143.75
238.156	138.75
238.39	144.75
238.624	174.75
238.858	169.75
239.091	156.75
239.325	149.75
239.559	140.75
239.793	149.75
240.027	182.75
240.26	168.75
240.494	169.75
240.728	156.75
240.961	170.75
241.195	158.75
241.429	163.75
241.662	168.75
241.896	150.75
242.13	144.75
242.363	138.75
242.597	137.75
242.83	148.75
243.064	146.75
243.298	167.75
243.531	168.75
243.765	173.75
243.998	156.75
244.232	157.75
244.465	174.75
244.699	155.75
244.932	188.75
245.166	162.75
245.399	148.75
245.633	140.75
245.866	165.75
246.099	174.75
246.333	180.75
246.566	184.75
246.8	165.75
247.033	172.75
247.266	182.75
247.5	177.75
247.733	169.75
247.966	173.75
248.2	167.75
248.433	180.75
248.666	200.75
248.899	208.75
249.133	196.75
249.366	203.75
249.599	224.75
249.832	222.75
250.066	188.75
250.299	193.75
250.532	191.75
250.765	182.75
250.998	188.75
251.231	162.75
251.465	201.75
251.698	200.75
251.931	199.75
252.164	189.75
252.397	222.75
252.63	231.75
252.863	248.75
253.096	268.75
253.329	245.75
253.562	241.75
253.795	266.75
254.028	287.75
254.261	296.75
254.494	273.75
254.727	244.75
254.96	244.75
255.193	261.75
255.426	263.75
255.659	215.75
255.892	189.75
256.124	208.75
256.357	242.75
256.59	275.75
256.823	264.75
257.056	243.75
257.289	213.75
257.521	233.75
257.754	256.75
257.987	288.75
258.22	266.75
258.452	236.75
258.685	264.75
258.918	268.75
259.151	292.75
259.383	303.75
259.616	320.75
259.849	349.75
260.081	334.75
260.314	368.75
260.547	300.75
260.779	329.75
261.012	366.75
261.244	328.75
261.477	356.75
261.71	331.75
261.942	278.75
262.175	283.75
262.407	249.75
262.64	282.75
262.872	302.75
263.105	337.75
263.337	349.75
263.57	323.75
263.802	244.75
264.035	217.75
264.267	205.75
264.499	203.75
264.732	176.75
264.964	182.75
265.197	176.75
265.429	191.75
265.661	205.75
265.894	204.75
266.126	213.75
266.358	236.75
266.591	285.75
266.823	331.75
267.055	321.75
267.287	293.75
267.52	277.75
267.752	287.75
267.984	321.75
268.216	289.75
268.448	273.75
268.681	238.75
268.913	279.75
269.145	286.75
269.377	283.75
269.609	325.75
269.841	273.75
270.073	294.75
270.306	300.75
270.538	304.75
270.77	322.75
271.002	311.75
271.234	330.75
271.466	342.75
271.698	297.75
271.93	291.75
272.162	294.75
272.394	300.75
272.626	286.75
272.858	323.75
273.09	321.75
273.322	278.75
273.553	248.75
273.785	302.75
274.017	382.75
274.249	466.75
274.481	473.75
274.713	537.75
274.945	593.75
275.176	589.75
275.408	534.75
275.64	510.75
275.872	496.75
276.104	445.75
276.335	386.75
276.567	380.75
276.799	399.75
277.031	409.75
277.262	338.75
277.494	272.75
277.726	254.75
277.957	280.75
278.189	277.75
278.421	308.75
278.652	302.75
278.884	278.75
279.115	267.75
279.347	264.75
279.579	282.75
279.81	272.75
280.042	308.75
280.273	271.75
280.505	271.75
280.736	255.75
280.968	236.75
281.199	253.75
281.431	271.75
281.662	276.75
281.894	269.75
282.125	281.75
282.356	296.75
282.588	304.75
282.819	269.75
283.051	300.75
283.282	361.75
283.513	376.75
283.745	446.75
283.976	424.75
284.207	391.75
284.439	428.75
284.67	402.75
284.901	359.75
285.132	386.75
285.364	410.75
285.595	370.75
285.826	390.75
286.057	402.75
286.288	389.75
286.52	407.75
286.751	421.75
286.982	424.75
287.213	380.75
287.444	341.75
287.675	357.75
287.906	360.75
288.138	332.75
288.369	313.75
288.6	269.75
288.831	295.75
289.062	337.75
289.293	361.75
289.524	350.75
289.755	351.75
289.986	343.75
290.217	311.75
290.448	262.75
290.679	221.75
290.91	225.75
291.141	220.75
291.371	228.75
291.602	236.75
291.833	231.75
292.064	243.75
292.295	272.75
292.526	288.75
292.757	296.75
292.987	320.75
293.218	337.75
293.449	336.75
293.68	370.75
293.91	356.75
294.141	369.75
294.372	335.75
294.603	308.75
294.833	335.75
295.064	403.75
295.295	395.75
295.525	294.75
295.756	257.75
295.987	226.75
296.217	220.75
296.448	230.75
296.679	234.75
296.909	278.75
297.14	259.75
297.37	304.75
297.601	293.75
297.831	261.75
298.062	275.75
298.292	310.75
298.523	319.75
298.753	372.75
298.984	333.75
299.214	286.75
299.445	238.75
299.675	237.75
299.905	239.75
300.136	253.75
300.366	258.75
300.597	256.75
300.827	241.75
301.057	241.75
301.288	212.75
301.518	257.75
301.748	264.75
301.979	290.75
302.209	303.75
302.439	293.75
302.669	269.75
302.9	265.75
303.13	274.75
303.36	256.75
303.59	241.75
303.82	246.75
304.051	257.75
304.281	297.75
304.511	281.75
304.741	256.75
304.971	262.75
305.201	293.75
305.431	274.75
305.661	241.75
305.891	224.75
306.121	249.75
306.352	213.75
306.582	225.75
306.812	207.75
307.042	202.75
307.272	187.75
307.502	200.75
307.731	199.75
307.961	210.75
308.191	203.75
308.421	192.75
308.651	198.75
308.881	177.75
309.111	185.75
309.341	205.75
309.571	208.75
309.8	202.75
310.03	198.75
310.26	228.75
310.49	214.75
310.72	189.75
310.949	195.75
311.179	226.75
311.409	214.75
311.639	249.75
311.868	294.75
312.098	368.75
312.328	406.75
312.557	368.75
312.787	384.75
313.017	344.75
313.246	364.75
313.476	397.75
313.706	324.75
313.935	289.75
314.165	232.75
314.394	225.75
314.624	221.75
314.853	212.75
315.083	238.75
315.312	231.75
315.542	227.75
315.771	224.75
316.001	190.75
316.23	198.75
316.46	201.75
316.689	191.75
316.919	194.75
317.148	207.75
317.377	216.75
317.607	214.75
317.836	222.75
318.065	236.75
318.295	260.75
318.524	238.75
318.753	217.75
318.983	212.75
319.212	214.75
319.441	217.75
319.67	238.75
319.9	243.75
320.129	229.75
320.358	211.75
320.587	204.75
320.816	224.75
321.046	250.75
321.275	273.75
321.504	272.75
321.733	265.75
321.962	238.75
322.191	249.75
322.42	231.75
322.649	227.75
322.878	269.75
323.108	258.75
323.337	227.75
323.566	241.75
323.795	230.75
324.024	206.75
324.253	220.75
324.482	217.75
324.71	224.75
324.939	256.75
325.168	249.75
325.397	212.75
325.626	216.75
325.855	219.75
326.084	212.75
326.313	195.75
326.542	195.75
326.77	208.75
326.999	212.75
327.228	217.75
327.457	228.75
327.686	226.75
327.914	221.75
328.143	209.75
328.372	199.75
328.6	209.75
328.829	206.75
329.058	200.75
329.287	205.75
329.515	210.75
329.744	202.75
329.972	190.75
330.201	185.75
330.43	211.75
330.658	199.75
330.887	244.75
331.115	222.75
331.344	233.75
331.572	227.75
331.801	200.75
332.03	185.75
332.258	214.75
332.486	231.75
332.715	223.75
332.943	223.75
333.172	213.75
333.4	228.75
333.629	234.75
333.857	257.75
334.085	250.75
334.314	260.75
334.542	252.75
334.771	224.75
334.999	220.75
335.227	227.75
335.455	216.75
335.684	234.75
335.912	256.75
336.14	275.75
336.369	276.75
336.597	268.75
336.825	275.75
337.053	319.75
337.281	269.75
337.51	240.75
337.738	221.75
337.966	227.75
338.194	258.75
338.422	234.75
338.65	221.75
338.878	209.75
339.106	211.75
339.334	240.75
339.562	224.75
339.79	248.75
340.018	205.75
340.246	220.75
340.474	261.75
340.702	267.75
340.93	272.75
341.158	281.75
341.386	247.75
341.614	229.75
341.842	231.75
342.07	229.75
342.298	280.75
342.526	276.75
342.754	233.75
342.981	232.75
343.209	224.75
343.437	252.75
343.665	268.75
343.893	271.75
344.12	313.75
344.348	327.75
344.576	301.75
344.804	250.75
345.031	248.75
345.259	237.75
345.487	228.75
345.714	241.75
345.942	251.75
346.17	257.75
346.397	237.75
346.625	220.75
346.853	220.75
347.08	236.75
347.308	225.75
347.535	258.75
347.763	266.75
347.99	244.75
348.218	233.75
348.445	234.75
348.673	224.75
348.9	234.75
349.128	238.75
349.355	244.75
349.583	237.75
349.81	231.75
350.037	212.75
350.265	184.75
350.492	188.75
350.72	182.75
350.947	195.75
351.174	210.75
351.402	192.75
351.629	212.75
351.856	205.75
352.083	203.75
352.311	224.75
352.538	230.75
352.765	279.75
352.992	246.75
353.22	228.75
353.447	218.75
353.674	200.75
353.901	210.75
354.128	193.75
354.355	221.75
354.583	234.75
354.81	229.75
355.037	228.75
355.264	218.75
355.491	249.75
355.718	239.75
355.945	238.75
356.172	229.75
356.399	250.75
356.626	276.75
356.853	329.75
357.08	333.75
357.307	336.75
357.534	281.75
357.761	270.75
357.988	368.75
358.215	407.75
358.441	375.75
358.668	315.75
358.895	302.75
359.122	258.75
359.349	267.75
359.576	302.75
359.802	262.75
360.029	227.75
360.256	230.75
360.483	257.75
360.709	321.75
360.936	353.75
361.163	305.75
361.39	252.75
361.616	234.75
361.843	248.75
362.07	296.75
362.296	286.75
362.523	237.75
362.749	205.75
362.976	213.75
363.203	248.75
363.429	287.75
363.656	241.75
363.882	224.75
364.109	241.75
364.335	236.75
364.562	212.75
364.788	230.75
365.015	265.75
365.241	245.75
365.468	231.75
365.694	214.75
365.92	208.75
366.147	197.75
366.373	193.75
366.599	187.75
366.826	189.75
367.052	183.75
367.278	207.75
367.505	197.75
367.731	215.75
367.957	219.75
368.184	219.75
368.41	223.75
368.636	233.75
368.862	228.75
369.089	234.75
369.315	215.75
369.541	216.75
369.767	213.75
369.993	200.75
370.219	181.75
370.445	217.75
370.672	221.75
370.898	234.75
371.124	243.75
371.35	219.75
371.576	207.75
371.802	221.75
372.028	262.75
372.254	280.75
372.48	258.75
372.706	244.75
372.932	242.75
373.158	242.75
373.384	286.75
373.61	356.75
373.835	376.75
374.061	278.75
374.287	268.75
374.513	290.75
374.739	345.75
374.965	368.75
375.191	341.75
375.416	268.75
375.642	224.75
375.868	267.75
376.094	290.75
376.319	249.75
376.545	276.75
376.771	290.75
376.997	262.75
377.222	211.75
377.448	194.75
377.674	189.75
377.899	194.75
378.125	198.75
378.35	186.75
378.576	201.75
378.802	202.75
379.027	225.75
379.253	202.75
379.478	210.75
379.704	232.75
379.929	229.75
380.155	237.75
380.38	214.75
380.606	227.75
380.831	247.75
381.057	240.75
381.282	212.75
381.507	252.75
381.733	291.75
381.958	302.75
382.184	316.75
382.409	340.75
382.634	334.75
382.86	343.75
383.085	290.75
383.31	277.75
383.535	261.75
383.761	265.75
383.986	263.75
384.211	292.75
384.436	297.75
384.662	243.75
384.887	232.75
385.112	233.75
385.337	234.75
385.562	240.75
385.787	236.75
386.013	279.75
386.238	279.75
386.463	228.75
386.688	234.75
386.913	210.75
387.138	201.75
387.363	233.75
387.588	237.75
387.813	240.75
388.038	262.75
388.263	236.75
388.488	220.75
388.713	254.75
388.938	271.75
389.163	240.75
389.387	218.75
389.612	231.75
389.837	213.75
390.062	213.75
390.287	231.75
390.512	241.75
390.736	217.75
390.961	192.75
391.186	203.75
391.411	210.75
391.636	234.75
391.86	225.75
392.085	248.75
392.31	244.75
392.534	240.75
392.759	256.75
392.984	243.75
393.208	247.75
393.433	196.75
393.658	194.75
393.882	199.75
394.107	204.75
394.331	206.75
394.556	226.75
394.78	214.75
395.005	208.75
395.229	208.75
395.454	202.75
395.678	209.75
395.903	212.75
396.127	224.75
396.352	230.75
396.576	236.75
396.801	231.75
397.025	256.75
397.249	248.75
397.474	230.75
397.698	231.75
397.922	220.75
398.147	224.75
398.371	217.75
398.595	218.75
398.82	236.75
399.044	237.75
399.268	252.75
399.492	290.75
399.717	283.75
399.941	287.75
400.165	271.75
400.389	253.75
400.613	245.75
400.837	248.75
401.062	215.75
401.286	237.75
401.51	220.75
401.734	220.75
401.958	224.75
402.182	232.75
402.406	235.75
402.63	238.75
402.854	244.75
403.078	288.75
403.302	356.75
403.526	356.75
403.75	330.75
403.974	265.75
404.198	259.75
404.422	302.75
404.645	320.75
404.869	341.75
405.093	288.75
405.317	232.75
405.541	250.75
405.765	248.75
405.988	234.75
406.212	265.75
406.436	290.75
406.66	314.75
406.883	263.75
407.107	280.75
407.331	318.75
407.555	311.75
407.778	282.75
408.002	281.75
408.226	256.75
408.449	247.75
408.673	246.75
408.896	228.75
409.12	240.75
409.344	215.75
409.567	250.75
409.791	259.75
410.014	245.75
410.238	222.75
410.461	229.75
410.685	245.75
410.908	236.75
411.132	250.75
411.355	224.75
411.578	246.75
411.802	230.75
412.025	237.75
412.249	237.75
412.472	237.75
412.695	232.75
412.919	221.75
413.142	232.75
413.365	248.75
413.589	244.75
413.812	215.75
414.035	223.75
414.258	230.75
414.482	243.75
414.705	253.75
414.928	232.75
415.151	217.75
415.374	231.75
415.597	225.75
415.821	229.75
416.044	197.75
416.267	221.75
416.49	208.75
416.713	212.75
416.936	221.75
417.159	227.75
417.382	233.75
417.605	231.75
417.828	240.75
418.051	223.75
418.274	221.75
418.497	232.75
418.72	237.75
418.943	236.75
419.166	240.75
419.389	257.75
419.611	259.75
419.834	254.75
420.057	279.75
420.28	250.75
420.503	239.75
420.726	229.75
420.948	229.75
421.171	226.75
421.394	217.75
421.617	205.75
421.839	210.75
422.062	208.75
422.285	221.75
422.507	231.75
422.73	232.75
422.953	224.75
423.175	241.75
423.398	246.75
423.621	252.75
423.843	260.75
424.066	241.75
424.288	216.75
424.511	253.75
424.733	224.75
424.956	240.75
425.178	260.75
425.401	287.75
425.623	349.75
425.846	290.75
426.068	250.75
426.291	257.75
426.513	241.75
426.735	214.75
426.958	232.75
427.18	252.75
427.402	339.75
427.625	342.75
427.847	313.75
428.069	229.75
428.292	199.75
428.514	228.75
428.736	235.75
428.958	240.75
429.181	296.75
429.403	261.75
429.625	218.75
429.847	199.75
430.069	208.75
430.292	206.75
430.514	205.75
430.736	256.75
430.958	286.75
431.18	238.75
431.402	214.75
431.624	197.75
431.846	221.75
432.068	230.75
432.29	218.75
432.512	224.75
432.734	269.75
432.956	260.75
433.178	223.75
433.4	212.75
433.622	204.75
433.844	215.75
434.066	244.75
434.287	240.75
434.509	234.75
434.731	257.75
434.953	222.75
435.175	222.75
435.397	264.75
435.618	225.75
435.84	206.75
436.062	233.75
436.284	209.75
436.505	205.75
436.727	190.75
436.949	218.75
437.17	215.75
437.392	213.75
437.614	212.75
437.835	200.75
438.057	208.75
438.278	238.75
438.5	301.75
438.721	307.75
438.943	222.75
439.165	200.75
439.386	211.75
439.608	203.75
439.829	212.75
440.05	198.75
440.272	219.75
440.493	236.75
440.715	277.75
440.936	245.75
441.158	237.75
441.379	222.75
441.6	241.75
441.822	233.75
442.043	223.75
442.264	221.75
442.486	228.75
442.707	209.75
442.928	221.75
443.149	232.75
443.371	229.75
443.592	229.75
443.813	222.75
444.034	230.75
444.255	242.75
444.476	239.75
444.698	229.75
444.919	256.75
445.14	338.75
445.361	296.75
445.582	235.75
445.803	239.75
446.024	240.75
446.245	237.75
446.466	233.75
446.687	243.75
446.908	229.75
447.129	219.75
447.35	217.75
447.571	210.75
447.792	229.75
448.013	206.75
448.234	204.75
448.455	207.75
448.675	201.75
448.896	208.75
449.117	216.75
449.338	211.75
449.559	214.75
449.779	207.75
450	208.75
450.221	206.75
450.442	207.75
450.662	208.75
450.883	213.75
451.104	203.75
451.324	207.75
451.545	221.75
451.766	200.75
451.986	211.75
452.207	200.75
452.428	199.75
452.648	215.75
452.869	207.75
453.089	211.75
453.31	208.75
453.53	194.75
453.751	196.75
453.971	206.75
454.192	204.75
454.412	209.75
454.633	176.75
454.853	204.75
455.073	201.75
455.294	192.75
455.514	198.75
455.734	199.75
455.955	215.75
456.175	202.75
456.395	190.75
456.616	208.75
456.836	197.75
457.056	194.75
457.276	198.75
457.497	172.75
457.717	184.75
457.937	180.75
458.157	182.75
458.377	193.75
458.598	200.75
458.818	206.75
459.038	206.75
459.258	202.75
459.478	212.75
459.698	218.75
459.918	224.75
460.138	215.75
460.358	221.75
460.578	229.75
460.798	224.75
461.018	225.75
461.238	231.75
461.458	232.75
461.678	230.75
461.898	255.75
462.118	241.75
462.338	246.75
462.558	249.75
462.777	257.75
462.997	277.75
463.217	281.75
463.437	281.75
463.657	272.75
463.876	262.75
464.096	258.75
464.316	272.75
464.536	266.75
464.755	268.75
464.975	273.75
465.195	238.75
465.414	246.75
465.634	244.75
465.854	230.75
466.073	192.75
466.293	224.75
466.512	240.75
466.732	238.75
466.951	246.75
467.171	212.75
467.391	207.75
467.61	210.75
467.829	216.75
468.049	221.75
468.268	214.75
468.488	191.75
468.707	218.75
468.927	237.75
469.146	271.75
469.365	242.75
469.585	236.75
469.804	227.75
470.023	259.75
470.243	231.75
470.462	227.75
470.681	230.75
470.901	232.75
471.12	219.75
471.339	244.75
471.558	215.75
471.777	227.75
471.997	245.75
472.216	256.75
472.435	239.75
472.654	241.75
472.873	233.75
473.092	232.75
473.311	241.75
473.53	239.75
473.749	232.75
473.968	236.75
474.187	238.75
474.406	214.75
474.625	233.75
474.844	225.75
475.063	241.75
475.282	237.75
475.501	250.75
475.72	276.75
475.939	270.75
476.158	245.75
476.377	282.75
476.596	311.75
476.814	325.75
477.033	283.75
477.252	244.75
477.471	228.75
477.69	249.75
477.908	256.75
478.127	261.75
478.346	249.75
478.564	294.75
478.783	265.75
479.002	269.75
479.22	285.75
479.439	289.75
479.658	291.75
479.876	277.75
480.095	296.75
480.313	300.75
480.532	274.75
480.751	264.75
480.969	264.75
481.188	295.75
481.406	282.75
481.624	283.75
481.843	266.75
482.061	248.75
482.28	258.75
482.498	316.75
482.717	332.75
482.935	276.75
483.153	269.75
483.372	232.75
483.59	254.75
483.808	232.75
484.027	246.75
484.245	229.75
484.463	243.75
484.681	239.75
484.9	260.75
485.118	291.75
485.336	263.75
485.554	253.75
485.772	266.75
485.99	274.75
486.209	266.75
486.427	287.75
486.645	274.75
486.863	282.75
487.081	287.75
487.299	311.75
487.517	296.75
487.735	264.75
487.953	287.75
488.171	281.75
488.389	263.75
488.607	266.75
488.825	274.75
489.043	281.75
489.261	323.75
489.479	303.75
489.696	286.75
489.914	264.75
490.132	256.75
490.35	264.75
490.568	270.75
490.786	257.75
491.003	280.75
491.221	294.75
491.439	274.75
491.657	273.75
491.874	274.75
492.092	312.75
492.31	374.75
492.527	366.75
492.745	319.75
492.963	304.75
493.18	286.75
493.398	290.75
493.615	277.75
493.833	292.75
494.05	284.75
494.268	280.75
494.485	285.75
494.703	271.75
494.92	272.75
495.138	268.75
495.355	283.75
495.573	298.75
495.79	314.75
496.008	364.75
496.225	310.75
496.442	302.75
496.66	305.75
496.877	309.75
497.094	309.75
497.312	294.75
497.529	290.75
497.746	270.75
497.963	308.75
498.181	312.75
498.398	358.75
498.615	352.75
498.832	375.75
499.049	379.75
499.267	357.75
499.484	380.75
499.701	399.75
499.918	431.75
500.135	500.75
500.352	523.75
500.569	522.75
500.786	542.75
501.003	512.75
501.22	463.75
501.437	421.75
501.654	410.75
501.871	361.75
502.088	329.75
502.305	358.75
502.522	358.75
