Data from NickelSpatula.Lamp.E5.5.P2_HRD10591_11-51-31-560.txt Node
Date: Tue Jul 23 11:51:31 EDT 2019
User: cochatt
Spectrometer: HR+D1059
Trigger mode: 1
Integration Time (sec): 1.000000E-1
Scans to average: 1
Electric dark correction enabled: true
Nonlinearity correction enabled: false
Boxcar width: 0
XAxis mode: Wavelengths
Number of Pixels in Spectrum: 2048
>>>>>Begin Spectral Data<<<<<
223.165	-20.25
223.4	-20.25
223.635	-20.25
223.869	-14.25
224.104	-12.25
224.338	-9.25
224.573	4.75
224.808	-37.25
225.042	-14.25
225.277	-14.25
225.511	-2.25
225.746	9.75
225.98	10.75
226.215	14.75
226.449	16.75
226.683	12.75
226.918	25.75
227.152	28.75
227.387	43.75
227.621	28.75
227.856	36.75
228.09	56.75
228.324	62.75
228.559	59.75
228.793	66.75
229.027	83.75
229.262	90.75
229.496	73.75
229.73	89.75
229.964	97.75
230.199	100.75
230.433	92.75
230.667	82.75
230.901	87.75
231.136	106.75
231.37	101.75
231.604	119.75
231.838	117.75
232.072	116.75
232.306	103.75
232.541	104.75
232.775	117.75
233.009	117.75
233.243	115.75
233.477	137.75
233.711	119.75
233.945	118.75
234.179	121.75
234.413	142.75
234.647	134.75
234.881	167.75
235.115	135.75
235.349	134.75
235.583	138.75
235.817	116.75
236.051	129.75
236.285	133.75
236.519	153.75
236.753	137.75
236.987	148.75
237.221	113.75
237.455	134.75
237.689	132.75
237.922	141.75
238.156	151.75
238.39	162.75
238.624	172.75
238.858	136.75
239.091	137.75
239.325	134.75
239.559	164.75
239.793	150.75
240.027	176.75
240.26	186.75
240.494	156.75
240.728	162.75
240.961	187.75
241.195	175.75
241.429	178.75
241.662	161.75
241.896	147.75
242.13	140.75
242.363	157.75
242.597	125.75
242.83	150.75
243.064	158.75
243.298	167.75
243.531	186.75
243.765	169.75
243.998	166.75
244.232	173.75
244.465	152.75
244.699	149.75
244.932	187.75
245.166	186.75
245.399	168.75
245.633	156.75
245.866	160.75
246.099	176.75
246.333	192.75
246.566	196.75
246.8	186.75
247.033	192.75
247.266	188.75
247.5	175.75
247.733	179.75
247.966	170.75
248.2	158.75
248.433	213.75
248.666	201.75
248.899	185.75
249.133	210.75
249.366	227.75
249.599	246.75
249.832	230.75
250.066	232.75
250.299	196.75
250.532	217.75
250.765	198.75
250.998	185.75
251.231	187.75
251.465	185.75
251.698	201.75
251.931	203.75
252.164	195.75
252.397	218.75
252.63	251.75
252.863	277.75
253.096	287.75
253.329	265.75
253.562	260.75
253.795	281.75
254.028	301.75
254.261	312.75
254.494	277.75
254.727	264.75
254.96	252.75
255.193	275.75
255.426	245.75
255.659	224.75
255.892	193.75
256.124	219.75
256.357	251.75
256.59	260.75
256.823	282.75
257.056	219.75
257.289	227.75
257.521	233.75
257.754	279.75
257.987	315.75
258.22	251.75
258.452	251.75
258.685	244.75
258.918	296.75
259.151	303.75
259.383	319.75
259.616	342.75
259.849	347.75
260.081	361.75
260.314	388.75
260.547	331.75
260.779	332.75
261.012	379.75
261.244	351.75
261.477	357.75
261.71	358.75
261.942	287.75
262.175	269.75
262.407	278.75
262.64	288.75
262.872	323.75
263.105	344.75
263.337	389.75
263.57	351.75
263.802	244.75
264.035	229.75
264.267	208.75
264.499	227.75
264.732	197.75
264.964	188.75
265.197	194.75
265.429	205.75
265.661	216.75
265.894	225.75
266.126	220.75
266.358	258.75
266.591	299.75
266.823	340.75
267.055	296.75
267.287	288.75
267.52	303.75
267.752	326.75
267.984	319.75
268.216	331.75
268.448	255.75
268.681	264.75
268.913	270.75
269.145	315.75
269.377	301.75
269.609	312.75
269.841	278.75
270.073	289.75
270.306	331.75
270.538	328.75
270.77	313.75
271.002	324.75
271.234	323.75
271.466	335.75
271.698	309.75
271.93	306.75
272.162	307.75
272.394	305.75
272.626	305.75
272.858	333.75
273.09	335.75
273.322	283.75
273.553	274.75
273.785	319.75
274.017	386.75
274.249	473.75
274.481	506.75
274.713	546.75
274.945	607.75
275.176	635.75
275.408	584.75
275.64	536.75
275.872	542.75
276.104	455.75
276.335	414.75
276.567	418.75
276.799	421.75
277.031	437.75
277.262	335.75
277.494	287.75
277.726	267.75
277.957	298.75
278.189	312.75
278.421	329.75
278.652	327.75
278.884	294.75
279.115	289.75
279.347	284.75
279.579	283.75
279.81	309.75
280.042	289.75
280.273	295.75
280.505	260.75
280.736	251.75
280.968	264.75
281.199	281.75
281.431	311.75
281.662	293.75
281.894	265.75
282.125	282.75
282.356	303.75
282.588	306.75
282.819	278.75
283.051	300.75
283.282	349.75
283.513	395.75
283.745	461.75
283.976	458.75
284.207	437.75
284.439	419.75
284.67	420.75
284.901	389.75
285.132	410.75
285.364	423.75
285.595	401.75
285.826	397.75
286.057	419.75
286.288	409.75
286.52	437.75
286.751	439.75
286.982	459.75
287.213	376.75
287.444	361.75
287.675	403.75
287.906	392.75
288.138	335.75
288.369	313.75
288.6	301.75
288.831	299.75
289.062	340.75
289.293	378.75
289.524	349.75
289.755	349.75
289.986	366.75
290.217	322.75
290.448	268.75
290.679	230.75
290.91	227.75
291.141	241.75
291.371	233.75
291.602	232.75
291.833	243.75
292.064	254.75
292.295	290.75
292.526	293.75
292.757	310.75
292.987	329.75
293.218	335.75
293.449	351.75
293.68	368.75
293.91	357.75
294.141	394.75
294.372	342.75
294.603	323.75
294.833	333.75
295.064	408.75
295.295	407.75
295.525	313.75
295.756	258.75
295.987	251.75
296.217	251.75
296.448	260.75
296.679	263.75
296.909	269.75
297.14	283.75
297.37	314.75
297.601	325.75
297.831	250.75
298.062	288.75
298.292	316.75
298.523	355.75
298.753	367.75
298.984	346.75
299.214	290.75
299.445	277.75
299.675	247.75
299.905	233.75
300.136	266.75
300.366	260.75
300.597	270.75
300.827	241.75
301.057	251.75
301.288	236.75
301.518	261.75
301.748	302.75
301.979	305.75
302.209	308.75
302.439	329.75
302.669	293.75
302.9	300.75
303.13	269.75
303.36	267.75
303.59	258.75
303.82	263.75
304.051	282.75
304.281	291.75
304.511	305.75
304.741	261.75
304.971	275.75
305.201	292.75
305.431	274.75
305.661	256.75
305.891	247.75
306.121	252.75
306.352	242.75
306.582	212.75
306.812	207.75
307.042	213.75
307.272	217.75
307.502	209.75
307.731	210.75
307.961	218.75
308.191	208.75
308.421	215.75
308.651	216.75
308.881	195.75
309.111	185.75
309.341	197.75
309.571	227.75
309.8	203.75
310.03	200.75
310.26	225.75
310.49	231.75
310.72	206.75
310.949	205.75
311.179	211.75
311.409	237.75
311.639	251.75
311.868	303.75
312.098	374.75
312.328	415.75
312.557	383.75
312.787	395.75
313.017	356.75
313.246	358.75
313.476	421.75
313.706	347.75
313.935	296.75
314.165	252.75
314.394	227.75
314.624	233.75
314.853	242.75
315.083	228.75
315.312	223.75
315.542	225.75
315.771	246.75
316.001	231.75
316.23	206.75
316.46	201.75
316.689	213.75
316.919	226.75
317.148	207.75
317.377	196.75
317.607	221.75
317.836	211.75
318.065	242.75
318.295	261.75
318.524	260.75
318.753	236.75
318.983	219.75
319.212	220.75
319.441	224.75
319.67	266.75
319.9	274.75
320.129	246.75
320.358	234.75
320.587	228.75
320.816	239.75
321.046	249.75
321.275	290.75
321.504	283.75
321.733	257.75
321.962	269.75
322.191	243.75
322.42	258.75
322.649	246.75
322.878	249.75
323.108	270.75
323.337	245.75
323.566	238.75
323.795	236.75
324.024	244.75
324.253	225.75
324.482	210.75
324.71	253.75
324.939	247.75
325.168	246.75
325.397	219.75
325.626	219.75
325.855	206.75
326.084	234.75
326.313	205.75
326.542	217.75
326.77	213.75
326.999	219.75
327.228	229.75
327.457	256.75
327.686	244.75
327.914	222.75
328.143	221.75
328.372	197.75
328.6	216.75
328.829	232.75
329.058	218.75
329.287	232.75
329.515	210.75
329.744	231.75
329.972	216.75
330.201	208.75
330.43	195.75
330.658	204.75
330.887	235.75
331.115	238.75
331.344	237.75
331.572	226.75
331.801	223.75
332.03	231.75
332.258	221.75
332.486	222.75
332.715	234.75
332.943	231.75
333.172	233.75
333.4	222.75
333.629	255.75
333.857	259.75
334.085	267.75
334.314	264.75
334.542	244.75
334.771	242.75
334.999	247.75
335.227	248.75
335.455	216.75
335.684	248.75
335.912	274.75
336.14	305.75
336.369	278.75
336.597	270.75
336.825	282.75
337.053	326.75
337.281	277.75
337.51	239.75
337.738	232.75
337.966	236.75
338.194	264.75
338.422	245.75
338.65	224.75
338.878	207.75
339.106	220.75
339.334	236.75
339.562	252.75
339.79	233.75
340.018	218.75
340.246	254.75
340.474	249.75
340.702	283.75
340.93	281.75
341.158	282.75
341.386	245.75
341.614	227.75
341.842	233.75
342.07	253.75
342.298	288.75
342.526	317.75
342.754	251.75
342.981	243.75
343.209	246.75
343.437	269.75
343.665	260.75
343.893	277.75
344.12	324.75
344.348	369.75
344.576	337.75
344.804	279.75
345.031	243.75
345.259	244.75
345.487	244.75
345.714	236.75
345.942	249.75
346.17	270.75
346.397	274.75
346.625	245.75
346.853	234.75
347.08	234.75
347.308	241.75
347.535	260.75
347.763	289.75
347.99	231.75
348.218	233.75
348.445	235.75
348.673	230.75
348.9	225.75
349.128	249.75
349.355	264.75
349.583	243.75
349.81	214.75
350.037	236.75
350.265	216.75
350.492	202.75
350.72	189.75
350.947	217.75
351.174	217.75
351.402	227.75
351.629	228.75
351.856	232.75
352.083	226.75
352.311	236.75
352.538	247.75
352.765	234.75
352.992	229.75
353.22	221.75
353.447	260.75
353.674	228.75
353.901	214.75
354.128	211.75
354.355	223.75
354.583	243.75
354.81	236.75
355.037	244.75
355.264	239.75
355.491	236.75
355.718	262.75
355.945	249.75
356.172	252.75
356.399	255.75
356.626	296.75
356.853	324.75
357.08	347.75
357.307	353.75
357.534	312.75
357.761	311.75
357.988	403.75
358.215	435.75
358.441	416.75
358.668	332.75
358.895	322.75
359.122	282.75
359.349	282.75
359.576	326.75
359.802	266.75
360.029	231.75
360.256	243.75
360.483	274.75
360.709	348.75
360.936	350.75
361.163	316.75
361.39	253.75
361.616	234.75
361.843	267.75
362.07	318.75
362.296	297.75
362.523	252.75
362.749	236.75
362.976	238.75
363.203	281.75
363.429	295.75
363.656	255.75
363.882	226.75
364.109	231.75
364.335	245.75
364.562	247.75
364.788	243.75
365.015	290.75
365.241	252.75
365.468	219.75
365.694	202.75
365.92	204.75
366.147	209.75
366.373	184.75
366.599	204.75
366.826	203.75
367.052	204.75
367.278	217.75
367.505	200.75
367.731	219.75
367.957	237.75
368.184	228.75
368.41	223.75
368.636	237.75
368.862	245.75
369.089	242.75
369.315	210.75
369.541	219.75
369.767	221.75
369.993	215.75
370.219	222.75
370.445	227.75
370.672	240.75
370.898	259.75
371.124	263.75
371.35	231.75
371.576	209.75
371.802	231.75
372.028	275.75
372.254	295.75
372.48	273.75
372.706	261.75
372.932	259.75
373.158	265.75
373.384	303.75
373.61	379.75
373.835	371.75
374.061	307.75
374.287	261.75
374.513	306.75
374.739	349.75
374.965	377.75
375.191	376.75
375.416	285.75
375.642	248.75
375.868	277.75
376.094	297.75
376.319	261.75
376.545	287.75
376.771	304.75
376.997	281.75
377.222	230.75
377.448	181.75
377.674	203.75
377.899	172.75
378.125	188.75
378.35	198.75
378.576	195.75
378.802	209.75
379.027	230.75
379.253	229.75
379.478	226.75
379.704	264.75
379.929	251.75
380.155	231.75
380.38	215.75
380.606	245.75
380.831	252.75
381.057	261.75
381.282	255.75
381.507	265.75
381.733	321.75
381.958	319.75
382.184	353.75
382.409	358.75
382.634	367.75
382.86	389.75
383.085	326.75
383.31	259.75
383.535	289.75
383.761	289.75
383.986	263.75
384.211	336.75
384.436	303.75
384.662	252.75
384.887	259.75
385.112	246.75
385.337	257.75
385.562	262.75
385.787	280.75
386.013	296.75
386.238	296.75
386.463	234.75
386.688	249.75
386.913	233.75
387.138	223.75
387.363	228.75
387.588	244.75
387.813	234.75
388.038	273.75
388.263	247.75
388.488	242.75
388.713	264.75
388.938	300.75
389.163	260.75
389.387	227.75
389.612	216.75
389.837	225.75
390.062	234.75
390.287	246.75
390.512	231.75
390.736	222.75
390.961	244.75
391.186	232.75
391.411	226.75
391.636	226.75
391.86	236.75
392.085	273.75
392.31	274.75
392.534	243.75
392.759	244.75
392.984	246.75
393.208	256.75
393.433	233.75
393.658	225.75
393.882	234.75
394.107	215.75
394.331	226.75
394.556	223.75
394.78	211.75
395.005	239.75
395.229	228.75
395.454	235.75
395.678	219.75
395.903	229.75
396.127	233.75
396.352	200.75
396.576	245.75
396.801	241.75
397.025	260.75
397.249	301.75
397.474	251.75
397.698	226.75
397.922	232.75
398.147	235.75
398.371	233.75
398.595	256.75
398.82	245.75
399.044	242.75
399.268	261.75
399.492	281.75
399.717	310.75
399.941	301.75
400.165	289.75
400.389	274.75
400.613	260.75
400.837	270.75
401.062	232.75
401.286	226.75
401.51	231.75
401.734	232.75
401.958	257.75
402.182	226.75
402.406	226.75
402.63	231.75
402.854	258.75
403.078	303.75
403.302	374.75
403.526	397.75
403.75	356.75
403.974	297.75
404.198	278.75
404.422	318.75
404.645	331.75
404.869	353.75
405.093	291.75
405.317	260.75
405.541	258.75
405.765	272.75
405.988	267.75
406.212	282.75
406.436	316.75
406.66	315.75
406.883	279.75
407.107	295.75
407.331	328.75
407.555	317.75
407.778	244.75
408.002	292.75
408.226	275.75
408.449	273.75
408.673	259.75
408.896	234.75
409.12	239.75
409.344	257.75
409.567	239.75
409.791	258.75
410.014	257.75
410.238	247.75
410.461	245.75
410.685	255.75
410.908	258.75
411.132	248.75
411.355	261.75
411.578	244.75
411.802	222.75
412.025	250.75
412.249	241.75
412.472	251.75
412.695	246.75
412.919	256.75
413.142	244.75
413.365	271.75
413.589	265.75
413.812	237.75
414.035	243.75
414.258	239.75
414.482	255.75
414.705	258.75
414.928	248.75
415.151	243.75
415.374	233.75
415.597	249.75
415.821	216.75
416.044	214.75
416.267	239.75
416.49	222.75
416.713	226.75
416.936	244.75
417.159	226.75
417.382	235.75
417.605	242.75
417.828	234.75
418.051	229.75
418.274	249.75
418.497	258.75
418.72	236.75
418.943	251.75
419.166	265.75
419.389	278.75
419.611	255.75
419.834	271.75
420.057	273.75
420.28	283.75
420.503	255.75
420.726	224.75
420.948	246.75
421.171	235.75
421.394	240.75
421.617	239.75
421.839	246.75
422.062	236.75
422.285	239.75
422.507	265.75
422.73	236.75
422.953	244.75
423.175	239.75
423.398	257.75
423.621	260.75
423.843	257.75
424.066	262.75
424.288	258.75
424.511	261.75
424.733	249.75
424.956	253.75
425.178	276.75
425.401	302.75
425.623	385.75
425.846	317.75
426.068	283.75
426.291	271.75
426.513	256.75
426.735	236.75
426.958	249.75
427.18	275.75
427.402	344.75
427.625	391.75
427.847	316.75
428.069	251.75
428.292	248.75
428.514	235.75
428.736	237.75
428.958	270.75
429.181	319.75
429.403	266.75
429.625	244.75
429.847	229.75
430.069	241.75
430.292	239.75
430.514	231.75
430.736	244.75
430.958	299.75
431.18	271.75
431.402	215.75
431.624	211.75
431.846	216.75
432.068	218.75
432.29	239.75
432.512	242.75
432.734	293.75
432.956	305.75
433.178	235.75
433.4	211.75
433.622	240.75
433.844	242.75
434.066	273.75
434.287	254.75
434.509	245.75
434.731	269.75
434.953	255.75
435.175	256.75
435.397	283.75
435.618	254.75
435.84	229.75
436.062	237.75
436.284	245.75
436.505	207.75
436.727	227.75
436.949	230.75
437.17	246.75
437.392	241.75
437.614	233.75
437.835	242.75
438.057	229.75
438.278	240.75
438.5	322.75
438.721	321.75
438.943	244.75
439.165	215.75
439.386	224.75
439.608	223.75
439.829	213.75
440.05	233.75
440.272	227.75
440.493	263.75
440.715	285.75
440.936	258.75
441.158	233.75
441.379	237.75
441.6	244.75
441.822	258.75
442.043	231.75
442.264	229.75
442.486	249.75
442.707	250.75
442.928	226.75
443.149	231.75
443.371	242.75
443.592	240.75
443.813	271.75
444.034	228.75
444.255	257.75
444.476	263.75
444.698	264.75
444.919	264.75
445.14	367.75
445.361	285.75
445.582	273.75
445.803	261.75
446.024	245.75
446.245	256.75
446.466	236.75
446.687	226.75
446.908	236.75
447.129	209.75
447.35	218.75
447.571	221.75
447.792	212.75
448.013	219.75
448.234	197.75
448.455	224.75
448.675	212.75
448.896	212.75
449.117	230.75
449.338	213.75
449.559	236.75
449.779	239.75
450	259.75
450.221	225.75
450.442	231.75
450.662	204.75
450.883	235.75
451.104	228.75
451.324	204.75
451.545	220.75
451.766	228.75
451.986	223.75
452.207	223.75
452.428	211.75
452.648	215.75
452.869	232.75
453.089	231.75
453.31	251.75
453.53	226.75
453.751	218.75
453.971	235.75
454.192	214.75
454.412	239.75
454.633	220.75
454.853	216.75
455.073	218.75
455.294	212.75
455.514	201.75
455.734	215.75
455.955	217.75
456.175	210.75
456.395	196.75
456.616	200.75
456.836	204.75
457.056	189.75
457.276	199.75
457.497	197.75
457.717	189.75
457.937	188.75
458.157	189.75
458.377	192.75
458.598	213.75
458.818	205.75
459.038	224.75
459.258	226.75
459.478	218.75
459.698	223.75
459.918	250.75
460.138	231.75
460.358	245.75
460.578	241.75
460.798	234.75
461.018	235.75
461.238	231.75
461.458	242.75
461.678	253.75
461.898	255.75
462.118	237.75
462.338	267.75
462.558	266.75
462.777	279.75
462.997	289.75
463.217	288.75
463.437	314.75
463.657	293.75
463.876	275.75
464.096	272.75
464.316	289.75
464.536	283.75
464.755	286.75
464.975	290.75
465.195	270.75
465.414	275.75
465.634	263.75
465.854	249.75
466.073	216.75
466.293	234.75
466.512	241.75
466.732	261.75
466.951	264.75
467.171	243.75
467.391	229.75
467.61	235.75
467.829	254.75
468.049	240.75
468.268	231.75
468.488	239.75
468.707	239.75
468.927	269.75
469.146	272.75
469.365	255.75
469.585	257.75
469.804	255.75
470.023	281.75
470.243	252.75
470.462	257.75
470.681	239.75
470.901	254.75
471.12	263.75
471.339	282.75
471.558	242.75
471.777	230.75
471.997	250.75
472.216	272.75
472.435	286.75
472.654	246.75
472.873	245.75
473.092	268.75
473.311	258.75
473.53	246.75
473.749	244.75
473.968	247.75
474.187	245.75
474.406	239.75
474.625	242.75
474.844	249.75
475.063	252.75
475.282	253.75
475.501	256.75
475.72	285.75
475.939	263.75
476.158	285.75
476.377	317.75
476.596	346.75
476.814	349.75
477.033	303.75
477.252	277.75
477.471	249.75
477.69	261.75
477.908	287.75
478.127	269.75
478.346	282.75
478.564	278.75
478.783	276.75
479.002	291.75
479.22	309.75
479.439	332.75
479.658	293.75
479.876	282.75
480.095	300.75
480.313	299.75
480.532	297.75
480.751	277.75
480.969	272.75
481.188	302.75
481.406	320.75
481.624	311.75
481.843	273.75
482.061	288.75
482.28	300.75
482.498	356.75
482.717	352.75
482.935	298.75
483.153	292.75
483.372	251.75
483.59	283.75
483.808	266.75
484.027	243.75
484.245	255.75
484.463	258.75
484.681	267.75
484.9	283.75
485.118	307.75
485.336	279.75
485.554	272.75
485.772	291.75
485.99	313.75
486.209	307.75
486.427	296.75
486.645	273.75
486.863	288.75
487.081	311.75
487.299	328.75
487.517	324.75
487.735	300.75
487.953	305.75
488.171	297.75
488.389	274.75
488.607	283.75
488.825	300.75
489.043	301.75
489.261	306.75
489.479	326.75
489.696	307.75
489.914	270.75
490.132	263.75
490.35	275.75
490.568	285.75
490.786	290.75
491.003	272.75
491.221	277.75
491.439	279.75
491.657	271.75
491.874	290.75
492.092	329.75
492.31	373.75
492.527	363.75
492.745	353.75
492.963	295.75
493.18	303.75
493.398	308.75
493.615	300.75
493.833	298.75
494.05	290.75
494.268	317.75
494.485	308.75
494.703	280.75
494.92	295.75
495.138	280.75
495.355	304.75
495.573	287.75
495.79	316.75
496.008	396.75
496.225	335.75
496.442	293.75
496.66	312.75
496.877	332.75
497.094	304.75
497.312	289.75
497.529	318.75
497.746	303.75
497.963	311.75
498.181	328.75
498.398	376.75
498.615	361.75
498.832	398.75
499.049	409.75
499.267	379.75
499.484	400.75
499.701	419.75
499.918	449.75
500.135	517.75
500.352	548.75
500.569	571.75
500.786	589.75
501.003	531.75
501.22	483.75
501.437	428.75
501.654	434.75
501.871	392.75
502.088	375.75
502.305	369.75
