Data from NickelSpatula.Lamp.E5.5.P2_HRD10591_11-53-49-547.txt Node
Date: Tue Jul 23 11:53:49 EDT 2019
User: cochatt
Spectrometer: HR+D1059
Trigger mode: 1
Integration Time (sec): 1.000000E-1
Scans to average: 1
Electric dark correction enabled: true
Nonlinearity correction enabled: false
Boxcar width: 0
XAxis mode: Wavelengths
Number of Pixels in Spectrum: 2048
>>>>>Begin Spectral Data<<<<<
223.165	-24.12
223.4	-24.12
223.635	-24.12
223.869	-26.12
224.104	-8.12
224.338	-23.12
224.573	-24.12
224.808	-29.12
225.042	-6.12
225.277	-1.12
225.511	8.88
225.746	18.88
225.98	7.88
226.215	8.88
226.449	24.88
226.683	33.88
226.918	10.88
227.152	27.88
227.387	35.88
227.621	33.88
227.856	25.88
228.09	41.88
228.324	42.88
228.559	42.88
228.793	59.88
229.027	74.88
229.262	68.88
229.496	74.88
229.73	70.88
229.964	88.88
230.199	90.88
230.433	101.88
230.667	113.88
230.901	89.88
231.136	96.88
231.37	106.88
231.604	112.88
231.838	122.88
232.072	102.88
232.306	112.88
232.541	121.88
232.775	97.88
233.009	111.88
233.243	106.88
233.477	124.88
233.711	126.88
233.945	123.88
234.179	107.88
234.413	128.88
234.647	122.88
234.881	143.88
235.115	137.88
235.349	130.88
235.583	118.88
235.817	129.88
236.051	120.88
236.285	141.88
236.519	148.88
236.753	143.88
236.987	129.88
237.221	126.88
237.455	135.88
237.689	130.88
237.922	146.88
238.156	136.88
238.39	152.88
238.624	188.88
238.858	170.88
239.091	154.88
239.325	140.88
239.559	146.88
239.793	144.88
240.027	180.88
240.26	173.88
240.494	155.88
240.728	149.88
240.961	180.88
241.195	173.88
241.429	165.88
241.662	167.88
241.896	150.88
242.13	136.88
242.363	135.88
242.597	130.88
242.83	150.88
243.064	140.88
243.298	164.88
243.531	182.88
243.765	177.88
243.998	171.88
244.232	180.88
244.465	174.88
244.699	161.88
244.932	178.88
245.166	170.88
245.399	156.88
245.633	162.88
245.866	153.88
246.099	178.88
246.333	196.88
246.566	207.88
246.8	201.88
247.033	217.88
247.266	186.88
247.5	185.88
247.733	183.88
247.966	187.88
248.2	190.88
248.433	198.88
248.666	202.88
248.899	216.88
249.133	213.88
249.366	240.88
249.599	234.88
249.832	224.88
250.066	201.88
250.299	223.88
250.532	215.88
250.765	201.88
250.998	196.88
251.231	181.88
251.465	199.88
251.698	190.88
251.931	202.88
252.164	207.88
252.397	229.88
252.63	260.88
252.863	265.88
253.096	296.88
253.329	258.88
253.562	258.88
253.795	287.88
254.028	318.88
254.261	315.88
254.494	262.88
254.727	296.88
254.96	269.88
255.193	306.88
255.426	266.88
255.659	214.88
255.892	211.88
256.124	218.88
256.357	255.88
256.59	290.88
256.823	291.88
257.056	239.88
257.289	230.88
257.521	222.88
257.754	276.88
257.987	316.88
258.22	275.88
258.452	244.88
258.685	271.88
258.918	295.88
259.151	281.88
259.383	325.88
259.616	344.88
259.849	338.88
260.081	359.88
260.314	417.88
260.547	325.88
260.779	343.88
261.012	400.88
261.244	361.88
261.477	366.88
261.71	362.88
261.942	306.88
262.175	324.88
262.407	287.88
262.64	274.88
262.872	335.88
263.105	344.88
263.337	393.88
263.57	350.88
263.802	248.88
264.035	220.88
264.267	224.88
264.499	207.88
264.732	197.88
264.964	180.88
265.197	171.88
265.429	190.88
265.661	224.88
265.894	221.88
266.126	225.88
266.358	237.88
266.591	292.88
266.823	346.88
267.055	334.88
267.287	281.88
267.52	310.88
267.752	318.88
267.984	327.88
268.216	343.88
268.448	266.88
268.681	268.88
268.913	271.88
269.145	287.88
269.377	297.88
269.609	295.88
269.841	259.88
270.073	308.88
270.306	339.88
270.538	355.88
270.77	336.88
271.002	322.88
271.234	343.88
271.466	349.88
271.698	343.88
271.93	323.88
272.162	305.88
272.394	304.88
272.626	295.88
272.858	311.88
273.09	327.88
273.322	283.88
273.553	267.88
273.785	326.88
274.017	406.88
274.249	494.88
274.481	491.88
274.713	550.88
274.945	641.88
275.176	646.88
275.408	588.88
275.64	542.88
275.872	534.88
276.104	483.88
276.335	420.88
276.567	408.88
276.799	426.88
277.031	446.88
277.262	344.88
277.494	276.88
277.726	283.88
277.957	313.88
278.189	331.88
278.421	311.88
278.652	320.88
278.884	292.88
279.115	279.88
279.347	275.88
279.579	281.88
279.81	283.88
280.042	284.88
280.273	295.88
280.505	270.88
280.736	239.88
280.968	254.88
281.199	268.88
281.431	289.88
281.662	292.88
281.894	277.88
282.125	280.88
282.356	305.88
282.588	338.88
282.819	295.88
283.051	315.88
283.282	362.88
283.513	430.88
283.745	464.88
283.976	464.88
284.207	445.88
284.439	446.88
284.67	419.88
284.901	390.88
285.132	396.88
285.364	444.88
285.595	386.88
285.826	419.88
286.057	427.88
286.288	411.88
286.52	428.88
286.751	452.88
286.982	463.88
287.213	395.88
287.444	394.88
287.675	411.88
287.906	410.88
288.138	350.88
288.369	306.88
288.6	323.88
288.831	305.88
289.062	357.88
289.293	375.88
289.524	376.88
289.755	350.88
289.986	367.88
290.217	342.88
290.448	270.88
290.679	226.88
290.91	204.88
291.141	230.88
291.371	240.88
291.602	266.88
291.833	223.88
292.064	240.88
292.295	278.88
292.526	323.88
292.757	310.88
292.987	341.88
293.218	366.88
293.449	361.88
293.68	394.88
293.91	387.88
294.141	399.88
294.372	363.88
294.603	345.88
294.833	372.88
295.064	422.88
295.295	424.88
295.525	306.88
295.756	291.88
295.987	228.88
296.217	242.88
296.448	258.88
296.679	266.88
296.909	274.88
297.14	291.88
297.37	342.88
297.601	308.88
297.831	267.88
298.062	293.88
298.292	319.88
298.523	349.88
298.753	370.88
298.984	348.88
299.214	293.88
299.445	249.88
299.675	249.88
299.905	259.88
300.136	258.88
300.366	273.88
300.597	264.88
300.827	256.88
301.057	246.88
301.288	272.88
301.518	265.88
301.748	287.88
301.979	307.88
302.209	318.88
302.439	325.88
302.669	297.88
302.9	294.88
303.13	288.88
303.36	259.88
303.59	263.88
303.82	260.88
304.051	281.88
304.281	307.88
304.511	286.88
304.741	282.88
304.971	275.88
305.201	302.88
305.431	295.88
305.661	247.88
305.891	254.88
306.121	275.88
306.352	243.88
306.582	214.88
306.812	216.88
307.042	198.88
307.272	215.88
307.502	194.88
307.731	211.88
307.961	218.88
308.191	231.88
308.421	194.88
308.651	200.88
308.881	197.88
309.111	188.88
309.341	196.88
309.571	231.88
309.8	221.88
310.03	230.88
310.26	238.88
310.49	241.88
310.72	205.88
310.949	219.88
311.179	222.88
311.409	234.88
311.639	245.88
311.868	311.88
312.098	370.88
312.328	416.88
312.557	370.88
312.787	390.88
313.017	360.88
313.246	388.88
313.476	440.88
313.706	370.88
313.935	296.88
314.165	264.88
314.394	250.88
314.624	219.88
314.853	235.88
315.083	249.88
315.312	238.88
315.542	247.88
315.771	228.88
316.001	213.88
316.23	210.88
316.46	216.88
316.689	213.88
316.919	207.88
317.148	225.88
317.377	216.88
317.607	218.88
317.836	226.88
318.065	238.88
318.295	277.88
318.524	250.88
318.753	219.88
318.983	207.88
319.212	194.88
319.441	228.88
319.67	251.88
319.9	266.88
320.129	248.88
320.358	227.88
320.587	233.88
320.816	229.88
321.046	260.88
321.275	294.88
321.504	279.88
321.733	268.88
321.962	271.88
322.191	256.88
322.42	259.88
322.649	248.88
322.878	271.88
323.108	267.88
323.337	245.88
323.566	258.88
323.795	267.88
324.024	238.88
324.253	225.88
324.482	214.88
324.71	238.88
324.939	276.88
325.168	254.88
325.397	215.88
325.626	219.88
325.855	223.88
326.084	219.88
326.313	211.88
326.542	209.88
326.77	219.88
326.999	214.88
327.228	215.88
327.457	238.88
327.686	230.88
327.914	209.88
328.143	202.88
328.372	195.88
328.6	209.88
328.829	212.88
329.058	190.88
329.287	209.88
329.515	200.88
329.744	225.88
329.972	201.88
330.201	202.88
330.43	202.88
330.658	226.88
330.887	262.88
331.115	247.88
331.344	233.88
331.572	238.88
331.801	228.88
332.03	211.88
332.258	211.88
332.486	234.88
332.715	233.88
332.943	227.88
333.172	231.88
333.4	231.88
333.629	255.88
333.857	270.88
334.085	266.88
334.314	274.88
334.542	258.88
334.771	226.88
334.999	239.88
335.227	219.88
335.455	231.88
335.684	241.88
335.912	273.88
336.14	312.88
336.369	287.88
336.597	268.88
336.825	303.88
337.053	322.88
337.281	282.88
337.51	247.88
337.738	230.88
337.966	243.88
338.194	263.88
338.422	254.88
338.65	232.88
338.878	217.88
339.106	214.88
339.334	231.88
339.562	247.88
339.79	220.88
340.018	229.88
340.246	262.88
340.474	283.88
340.702	276.88
340.93	287.88
341.158	302.88
341.386	246.88
341.614	259.88
341.842	254.88
342.07	278.88
342.298	296.88
342.526	311.88
342.754	266.88
342.981	242.88
343.209	247.88
343.437	259.88
343.665	268.88
343.893	281.88
344.12	322.88
344.348	364.88
344.576	329.88
344.804	274.88
345.031	240.88
345.259	223.88
345.487	228.88
345.714	243.88
345.942	249.88
346.17	300.88
346.397	272.88
346.625	228.88
346.853	229.88
347.08	248.88
347.308	242.88
347.535	267.88
347.763	274.88
347.99	254.88
348.218	227.88
348.445	254.88
348.673	258.88
348.9	241.88
349.128	261.88
349.355	266.88
349.583	235.88
349.81	226.88
350.037	222.88
350.265	213.88
350.492	209.88
350.72	206.88
350.947	196.88
351.174	203.88
351.402	226.88
351.629	232.88
351.856	217.88
352.083	223.88
352.311	210.88
352.538	242.88
352.765	242.88
352.992	248.88
353.22	236.88
353.447	244.88
353.674	222.88
353.901	226.88
354.128	213.88
354.355	230.88
354.583	229.88
354.81	236.88
355.037	243.88
355.264	242.88
355.491	236.88
355.718	265.88
355.945	266.88
356.172	238.88
356.399	251.88
356.626	291.88
356.853	354.88
357.08	360.88
357.307	368.88
357.534	292.88
357.761	307.88
357.988	389.88
358.215	419.88
358.441	404.88
358.668	319.88
358.895	322.88
359.122	262.88
359.349	276.88
359.576	290.88
359.802	243.88
360.029	224.88
360.256	232.88
360.483	286.88
360.709	339.88
360.936	369.88
361.163	314.88
361.39	256.88
361.616	223.88
361.843	283.88
362.07	313.88
362.296	287.88
362.523	229.88
362.749	217.88
362.976	233.88
363.203	272.88
363.429	298.88
363.656	261.88
363.882	234.88
364.109	232.88
364.335	225.88
364.562	239.88
364.788	250.88
365.015	275.88
365.241	260.88
365.468	222.88
365.694	202.88
365.92	192.88
366.147	204.88
366.373	201.88
366.599	195.88
366.826	203.88
367.052	194.88
367.278	190.88
367.505	197.88
367.731	211.88
367.957	224.88
368.184	245.88
368.41	240.88
368.636	230.88
368.862	242.88
369.089	246.88
369.315	227.88
369.541	208.88
369.767	211.88
369.993	199.88
370.219	220.88
370.445	244.88
370.672	227.88
370.898	256.88
371.124	262.88
371.35	238.88
371.576	224.88
371.802	240.88
372.028	283.88
372.254	314.88
372.48	298.88
372.706	252.88
372.932	264.88
373.158	260.88
373.384	298.88
373.61	378.88
373.835	390.88
374.061	295.88
374.287	263.88
374.513	310.88
374.739	370.88
374.965	378.88
375.191	365.88
375.416	260.88
375.642	250.88
375.868	264.88
376.094	305.88
376.319	262.88
376.545	280.88
376.771	296.88
376.997	283.88
377.222	211.88
377.448	196.88
377.674	194.88
377.899	204.88
378.125	194.88
378.35	187.88
378.576	191.88
378.802	204.88
379.027	224.88
379.253	229.88
379.478	198.88
379.704	243.88
379.929	262.88
380.155	271.88
380.38	228.88
380.606	240.88
380.831	270.88
381.057	249.88
381.282	232.88
381.507	261.88
381.733	303.88
381.958	314.88
382.184	338.88
382.409	351.88
382.634	360.88
382.86	370.88
383.085	327.88
383.31	290.88
383.535	272.88
383.761	260.88
383.986	275.88
384.211	316.88
384.436	327.88
384.662	243.88
384.887	253.88
385.112	258.88
385.337	267.88
385.562	245.88
385.787	268.88
386.013	290.88
386.238	276.88
386.463	271.88
386.688	266.88
386.913	246.88
387.138	224.88
387.363	240.88
387.588	239.88
387.813	258.88
388.038	265.88
388.263	261.88
388.488	244.88
388.713	266.88
388.938	303.88
389.163	220.88
389.387	227.88
389.612	225.88
389.837	245.88
390.062	227.88
390.287	250.88
390.512	231.88
390.736	233.88
390.961	222.88
391.186	216.88
391.411	214.88
391.636	216.88
391.86	231.88
392.085	242.88
392.31	278.88
392.534	246.88
392.759	252.88
392.984	252.88
393.208	242.88
393.433	237.88
393.658	212.88
393.882	220.88
394.107	201.88
394.331	214.88
394.556	213.88
394.78	198.88
395.005	215.88
395.229	229.88
395.454	230.88
395.678	222.88
395.903	228.88
396.127	223.88
396.352	215.88
396.576	229.88
396.801	243.88
397.025	241.88
397.249	256.88
397.474	231.88
397.698	232.88
397.922	238.88
398.147	217.88
398.371	225.88
398.595	234.88
398.82	242.88
399.044	229.88
399.268	266.88
399.492	286.88
399.717	302.88
399.941	306.88
400.165	281.88
400.389	272.88
400.613	254.88
400.837	241.88
401.062	228.88
401.286	231.88
401.51	243.88
401.734	223.88
401.958	256.88
402.182	221.88
402.406	242.88
402.63	256.88
402.854	271.88
403.078	306.88
403.302	368.88
403.526	383.88
403.75	336.88
403.974	288.88
404.198	290.88
404.422	324.88
404.645	337.88
404.869	358.88
405.093	276.88
405.317	270.88
405.541	257.88
405.765	274.88
405.988	265.88
406.212	285.88
406.436	304.88
406.66	330.88
406.883	282.88
407.107	287.88
407.331	337.88
407.555	328.88
407.778	299.88
408.002	280.88
408.226	283.88
408.449	270.88
408.673	282.88
408.896	245.88
409.12	240.88
409.344	263.88
409.567	248.88
409.791	234.88
410.014	251.88
410.238	247.88
410.461	244.88
410.685	256.88
410.908	231.88
411.132	255.88
411.355	251.88
411.578	266.88
411.802	238.88
412.025	251.88
412.249	259.88
412.472	242.88
412.695	228.88
412.919	254.88
413.142	241.88
413.365	244.88
413.589	262.88
413.812	247.88
414.035	232.88
414.258	260.88
414.482	268.88
414.705	262.88
414.928	241.88
415.151	232.88
415.374	235.88
415.597	248.88
415.821	248.88
416.044	225.88
416.267	233.88
416.49	232.88
416.713	234.88
416.936	235.88
417.159	222.88
417.382	233.88
417.605	248.88
417.828	247.88
418.051	245.88
418.274	255.88
418.497	238.88
418.72	233.88
418.943	226.88
419.166	240.88
419.389	250.88
419.611	258.88
419.834	284.88
420.057	290.88
420.28	277.88
420.503	264.88
420.726	242.88
420.948	235.88
421.171	232.88
421.394	238.88
421.617	226.88
421.839	230.88
422.062	246.88
422.285	254.88
422.507	251.88
422.73	260.88
422.953	267.88
423.175	227.88
423.398	246.88
423.621	287.88
423.843	265.88
424.066	272.88
424.288	241.88
424.511	256.88
424.733	244.88
424.956	251.88
425.178	291.88
425.401	322.88
425.623	374.88
425.846	315.88
426.068	241.88
426.291	265.88
426.513	267.88
426.735	258.88
426.958	260.88
427.18	274.88
427.402	354.88
427.625	366.88
427.847	323.88
428.069	238.88
428.292	233.88
428.514	234.88
428.736	242.88
428.958	254.88
429.181	314.88
429.403	266.88
429.625	221.88
429.847	240.88
430.069	215.88
430.292	227.88
430.514	240.88
430.736	246.88
430.958	290.88
431.18	267.88
431.402	215.88
431.624	209.88
431.846	234.88
432.068	226.88
432.29	225.88
432.512	265.88
432.734	283.88
432.956	266.88
433.178	234.88
433.4	231.88
433.622	218.88
433.844	232.88
434.066	246.88
434.287	257.88
434.509	242.88
434.731	255.88
434.953	226.88
435.175	254.88
435.397	278.88
435.618	264.88
435.84	228.88
436.062	217.88
436.284	239.88
436.505	211.88
436.727	212.88
436.949	211.88
437.17	227.88
437.392	224.88
437.614	225.88
437.835	225.88
438.057	225.88
438.278	235.88
438.5	308.88
438.721	322.88
438.943	256.88
439.165	216.88
439.386	204.88
439.608	218.88
439.829	231.88
440.05	228.88
440.272	226.88
440.493	256.88
440.715	280.88
440.936	246.88
441.158	239.88
441.379	257.88
441.6	271.88
441.822	267.88
442.043	251.88
442.264	224.88
442.486	244.88
442.707	230.88
442.928	248.88
443.149	246.88
443.371	252.88
443.592	242.88
443.813	254.88
444.034	254.88
444.255	231.88
444.476	249.88
444.698	271.88
444.919	260.88
445.14	360.88
445.361	318.88
445.582	269.88
445.803	248.88
446.024	245.88
446.245	250.88
446.466	242.88
446.687	251.88
446.908	262.88
447.129	231.88
447.35	216.88
447.571	231.88
447.792	217.88
448.013	209.88
448.234	215.88
448.455	215.88
448.675	196.88
448.896	201.88
449.117	211.88
449.338	215.88
449.559	211.88
449.779	223.88
450	241.88
450.221	224.88
450.442	216.88
450.662	209.88
450.883	226.88
451.104	221.88
451.324	208.88
451.545	220.88
451.766	204.88
451.986	212.88
452.207	207.88
452.428	213.88
452.648	214.88
452.869	215.88
453.089	226.88
453.31	234.88
453.53	210.88
453.751	212.88
453.971	204.88
454.192	226.88
454.412	230.88
454.633	212.88
454.853	206.88
455.073	191.88
455.294	198.88
455.514	184.88
455.734	209.88
455.955	217.88
456.175	212.88
456.395	198.88
456.616	195.88
456.836	186.88
457.056	186.88
457.276	214.88
457.497	195.88
457.717	200.88
457.937	218.88
458.157	199.88
458.377	201.88
458.598	205.88
458.818	213.88
459.038	226.88
459.258	205.88
459.478	213.88
459.698	227.88
459.918	246.88
460.138	240.88
460.358	234.88
460.578	246.88
460.798	251.88
461.018	265.88
461.238	239.88
461.458	245.88
461.678	230.88
461.898	253.88
462.118	239.88
462.338	259.88
462.558	255.88
462.777	270.88
462.997	279.88
463.217	299.88
463.437	284.88
463.657	280.88
463.876	269.88
464.096	273.88
464.316	264.88
464.536	286.88
464.755	296.88
464.975	274.88
465.195	279.88
465.414	272.88
465.634	237.88
465.854	246.88
466.073	231.88
466.293	238.88
466.512	228.88
466.732	252.88
466.951	253.88
467.171	246.88
467.391	257.88
467.61	238.88
467.829	239.88
468.049	237.88
468.268	228.88
468.488	232.88
468.707	236.88
468.927	265.88
469.146	285.88
469.365	254.88
469.585	236.88
469.804	266.88
470.023	276.88
470.243	233.88
470.462	249.88
470.681	222.88
470.901	232.88
471.12	254.88
471.339	274.88
471.558	236.88
471.777	235.88
471.997	254.88
472.216	256.88
472.435	273.88
472.654	238.88
472.873	254.88
473.092	264.88
473.311	252.88
473.53	239.88
473.749	251.88
473.968	226.88
474.187	248.88
474.406	244.88
474.625	231.88
474.844	248.88
475.063	256.88
475.282	243.88
475.501	256.88
475.72	273.88
475.939	267.88
476.158	277.88
476.377	320.88
476.596	327.88
476.814	339.88
477.033	293.88
477.252	260.88
477.471	262.88
477.69	262.88
477.908	279.88
478.127	282.88
478.346	270.88
478.564	312.88
478.783	279.88
479.002	268.88
479.22	312.88
479.439	329.88
479.658	297.88
479.876	290.88
480.095	294.88
480.313	304.88
480.532	307.88
480.751	286.88
480.969	290.88
481.188	304.88
481.406	322.88
481.624	290.88
481.843	299.88
482.061	257.88
482.28	299.88
482.498	347.88
482.717	340.88
482.935	304.88
483.153	295.88
483.372	263.88
483.59	249.88
483.808	243.88
484.027	269.88
484.245	259.88
484.463	247.88
484.681	263.88
484.9	268.88
485.118	301.88
485.336	274.88
485.554	273.88
485.772	277.88
485.99	274.88
486.209	303.88
486.427	292.88
486.645	281.88
486.863	304.88
487.081	303.88
487.299	317.88
487.517	313.88
487.735	280.88
487.953	296.88
488.171	311.88
488.389	275.88
488.607	274.88
488.825	299.88
489.043	307.88
489.261	342.88
489.479	356.88
489.696	303.88
489.914	283.88
490.132	270.88
490.35	260.88
490.568	271.88
490.786	268.88
491.003	260.88
491.221	281.88
491.439	269.88
491.657	255.88
491.874	286.88
492.092	322.88
492.31	391.88
492.527	374.88
492.745	335.88
492.963	304.88
493.18	300.88
493.398	304.88
493.615	282.88
493.833	278.88
494.05	304.88
494.268	287.88
494.485	290.88
494.703	284.88
494.92	288.88
495.138	290.88
495.355	278.88
495.573	284.88
495.79	304.88
496.008	374.88
496.225	326.88
496.442	314.88
496.66	311.88
496.877	345.88
497.094	328.88
497.312	318.88
497.529	311.88
497.746	299.88
497.963	300.88
498.181	343.88
498.398	349.88
498.615	374.88
498.832	390.88
499.049	372.88
499.267	382.88
499.484	393.88
499.701	393.88
499.918	457.88
500.135	489.88
500.352	525.88
500.569	534.88
500.786	563.88
501.003	542.88
501.22	489.88
501.437	454.88
501.654	418.88
501.871	393.88
502.088	392.88
502.305	344.88
502.522	374.88
