Data from NickelSpatula.Lamp.E5.5.P2_HRD10591_11-52-55-552.txt Node
Date: Tue Jul 23 11:52:55 EDT 2019
User: cochatt
Spectrometer: HR+D1059
Trigger mode: 1
Integration Time (sec): 1.000000E-1
Scans to average: 1
Electric dark correction enabled: true
Nonlinearity correction enabled: false
Boxcar width: 0
XAxis mode: Wavelengths
Number of Pixels in Spectrum: 2048
>>>>>Begin Spectral Data<<<<<
223.165	-1.31
223.4	-1.31
223.635	-1.31
223.869	-16.31
224.104	-38.31
224.338	-13.31
224.573	-18.31
224.808	0.69
225.042	-6.31
225.277	-3.31
225.511	-15.31
225.746	1.69
225.98	2.69
226.215	2.69
226.449	10.69
226.683	25.69
226.918	35.69
227.152	32.69
227.387	27.69
227.621	39.69
227.856	52.69
228.09	37.69
228.324	34.69
228.559	61.69
228.793	58.69
229.027	63.69
229.262	70.69
229.496	77.69
229.73	92.69
229.964	87.69
230.199	93.69
230.433	85.69
230.667	104.69
230.901	111.69
231.136	89.69
231.37	96.69
231.604	90.69
231.838	110.69
232.072	112.69
232.306	112.69
232.541	105.69
232.775	93.69
233.009	105.69
233.243	101.69
233.477	107.69
233.711	131.69
233.945	124.69
234.179	123.69
234.413	119.69
234.647	124.69
234.881	138.69
235.115	120.69
235.349	120.69
235.583	110.69
235.817	110.69
236.051	122.69
236.285	116.69
236.519	130.69
236.753	134.69
236.987	128.69
237.221	127.69
237.455	126.69
237.689	132.69
237.922	145.69
238.156	137.69
238.39	160.69
238.624	162.69
238.858	135.69
239.091	132.69
239.325	138.69
239.559	123.69
239.793	130.69
240.027	176.69
240.26	147.69
240.494	139.69
240.728	144.69
240.961	166.69
241.195	169.69
241.429	163.69
241.662	150.69
241.896	130.69
242.13	123.69
242.363	130.69
242.597	106.69
242.83	144.69
243.064	134.69
243.298	148.69
243.531	173.69
243.765	173.69
243.998	173.69
244.232	162.69
244.465	166.69
244.699	161.69
244.932	149.69
245.166	170.69
245.399	130.69
245.633	142.69
245.866	152.69
246.099	153.69
246.333	180.69
246.566	167.69
246.8	178.69
247.033	169.69
247.266	174.69
247.5	156.69
247.733	158.69
247.966	163.69
248.2	155.69
248.433	173.69
248.666	190.69
248.899	182.69
249.133	200.69
249.366	223.69
249.599	222.69
249.832	192.69
250.066	180.69
250.299	194.69
250.532	185.69
250.765	178.69
250.998	176.69
251.231	148.69
251.465	174.69
251.698	200.69
251.931	182.69
252.164	190.69
252.397	211.69
252.63	224.69
252.863	261.69
253.096	238.69
253.329	221.69
253.562	236.69
253.795	259.69
254.028	276.69
254.261	292.69
254.494	243.69
254.727	228.69
254.96	230.69
255.193	252.69
255.426	226.69
255.659	182.69
255.892	167.69
256.124	217.69
256.357	228.69
256.59	236.69
256.823	230.69
257.056	208.69
257.289	204.69
257.521	214.69
257.754	261.69
257.987	288.69
258.22	237.69
258.452	218.69
258.685	258.69
258.918	267.69
259.151	243.69
259.383	261.69
259.616	315.69
259.849	313.69
260.081	345.69
260.314	384.69
260.547	310.69
260.779	312.69
261.012	328.69
261.244	324.69
261.477	327.69
261.71	329.69
261.942	274.69
262.175	256.69
262.407	262.69
262.64	254.69
262.872	305.69
263.105	330.69
263.337	330.69
263.57	321.69
263.802	232.69
264.035	220.69
264.267	212.69
264.499	186.69
264.732	184.69
264.964	167.69
265.197	161.69
265.429	187.69
265.661	197.69
265.894	199.69
266.126	211.69
266.358	233.69
266.591	241.69
266.823	302.69
267.055	277.69
267.287	282.69
267.52	293.69
267.752	279.69
267.984	287.69
268.216	288.69
268.448	261.69
268.681	233.69
268.913	270.69
269.145	273.69
269.377	281.69
269.609	273.69
269.841	265.69
270.073	302.69
270.306	282.69
270.538	292.69
270.77	296.69
271.002	300.69
271.234	316.69
271.466	291.69
271.698	286.69
271.93	279.69
272.162	286.69
272.394	280.69
272.626	295.69
272.858	292.69
273.09	286.69
273.322	242.69
273.553	244.69
273.785	288.69
274.017	350.69
274.249	436.69
274.481	419.69
274.713	478.69
274.945	522.69
275.176	589.69
275.408	507.69
275.64	478.69
275.872	465.69
276.104	413.69
276.335	362.69
276.567	352.69
276.799	367.69
277.031	384.69
277.262	307.69
277.494	264.69
277.726	253.69
277.957	256.69
278.189	279.69
278.421	293.69
278.652	277.69
278.884	285.69
279.115	262.69
279.347	262.69
279.579	246.69
279.81	262.69
280.042	274.69
280.273	266.69
280.505	238.69
280.736	234.69
280.968	228.69
281.199	257.69
281.431	269.69
281.662	266.69
281.894	253.69
282.125	272.69
282.356	269.69
282.588	274.69
282.819	260.69
283.051	287.69
283.282	305.69
283.513	368.69
283.745	405.69
283.976	407.69
284.207	375.69
284.439	392.69
284.67	382.69
284.901	332.69
285.132	374.69
285.364	382.69
285.595	353.69
285.826	358.69
286.057	378.69
286.288	370.69
286.52	358.69
286.751	394.69
286.982	384.69
287.213	359.69
287.444	349.69
287.675	359.69
287.906	337.69
288.138	285.69
288.369	281.69
288.6	267.69
288.831	292.69
289.062	330.69
289.293	329.69
289.524	324.69
289.755	304.69
289.986	329.69
290.217	314.69
290.448	225.69
290.679	223.69
290.91	220.69
291.141	211.69
291.371	217.69
291.602	229.69
291.833	210.69
292.064	210.69
292.295	252.69
292.526	274.69
292.757	286.69
292.987	277.69
293.218	302.69
293.449	342.69
293.68	344.69
293.91	342.69
294.141	356.69
294.372	335.69
294.603	287.69
294.833	316.69
295.064	373.69
295.295	373.69
295.525	289.69
295.756	248.69
295.987	213.69
296.217	224.69
296.448	210.69
296.679	227.69
296.909	265.69
297.14	262.69
297.37	277.69
297.601	270.69
297.831	259.69
298.062	272.69
298.292	289.69
298.523	304.69
298.753	340.69
298.984	314.69
299.214	257.69
299.445	237.69
299.675	212.69
299.905	218.69
300.136	212.69
300.366	236.69
300.597	231.69
300.827	233.69
301.057	213.69
301.288	230.69
301.518	238.69
301.748	258.69
301.979	273.69
302.209	302.69
302.439	293.69
302.669	270.69
302.9	261.69
303.13	238.69
303.36	238.69
303.59	238.69
303.82	238.69
304.051	259.69
304.281	284.69
304.511	280.69
304.741	244.69
304.971	260.69
305.201	263.69
305.431	231.69
305.661	237.69
305.891	226.69
306.121	223.69
306.352	218.69
306.582	202.69
306.812	198.69
307.042	191.69
307.272	175.69
307.502	188.69
307.731	206.69
307.961	214.69
308.191	214.69
308.421	184.69
308.651	204.69
308.881	167.69
309.111	184.69
309.341	183.69
309.571	208.69
309.8	207.69
310.03	210.69
310.26	220.69
310.49	192.69
310.72	216.69
310.949	186.69
311.179	190.69
311.409	225.69
311.639	224.69
311.868	266.69
312.098	332.69
312.328	354.69
312.557	348.69
312.787	347.69
313.017	324.69
313.246	326.69
313.476	359.69
313.706	304.69
313.935	255.69
314.165	226.69
314.394	212.69
314.624	209.69
314.853	210.69
315.083	242.69
315.312	212.69
315.542	212.69
315.771	217.69
316.001	185.69
316.23	198.69
316.46	196.69
316.689	194.69
316.919	188.69
317.148	193.69
317.377	194.69
317.607	184.69
317.836	208.69
318.065	215.69
318.295	260.69
318.524	238.69
318.753	205.69
318.983	214.69
319.212	209.69
319.441	210.69
319.67	237.69
319.9	242.69
320.129	231.69
320.358	212.69
320.587	216.69
320.816	195.69
321.046	231.69
321.275	254.69
321.504	229.69
321.733	239.69
321.962	252.69
322.191	232.69
322.42	233.69
322.649	213.69
322.878	233.69
323.108	249.69
323.337	223.69
323.566	226.69
323.795	239.69
324.024	210.69
324.253	202.69
324.482	193.69
324.71	213.69
324.939	244.69
325.168	226.69
325.397	208.69
325.626	212.69
325.855	227.69
326.084	227.69
326.313	211.69
326.542	192.69
326.77	207.69
326.999	199.69
327.228	208.69
327.457	222.69
327.686	219.69
327.914	210.69
328.143	197.69
328.372	202.69
328.6	198.69
328.829	197.69
329.058	195.69
329.287	208.69
329.515	201.69
329.744	198.69
329.972	183.69
330.201	192.69
330.43	194.69
330.658	210.69
330.887	208.69
331.115	237.69
331.344	227.69
331.572	220.69
331.801	212.69
332.03	209.69
332.258	199.69
332.486	220.69
332.715	231.69
332.943	212.69
333.172	204.69
333.4	227.69
333.629	246.69
333.857	254.69
334.085	261.69
334.314	252.69
334.542	244.69
334.771	224.69
334.999	223.69
335.227	219.69
335.455	212.69
335.684	227.69
335.912	241.69
336.14	271.69
336.369	253.69
336.597	240.69
336.825	271.69
337.053	288.69
337.281	238.69
337.51	218.69
337.738	210.69
337.966	226.69
338.194	261.69
338.422	229.69
338.65	203.69
338.878	194.69
339.106	193.69
339.334	221.69
339.562	214.69
339.79	216.69
340.018	205.69
340.246	223.69
340.474	249.69
340.702	273.69
340.93	241.69
341.158	292.69
341.386	222.69
341.614	232.69
341.842	230.69
342.07	244.69
342.298	257.69
342.526	253.69
342.754	225.69
342.981	231.69
343.209	220.69
343.437	253.69
343.665	242.69
343.893	259.69
344.12	295.69
344.348	325.69
344.576	300.69
344.804	260.69
345.031	218.69
345.259	227.69
345.487	196.69
345.714	220.69
345.942	244.69
346.17	242.69
346.397	249.69
346.625	221.69
346.853	212.69
347.08	204.69
347.308	217.69
347.535	238.69
347.763	240.69
347.99	230.69
348.218	201.69
348.445	220.69
348.673	216.69
348.9	210.69
349.128	227.69
349.355	221.69
349.583	230.69
349.81	220.69
350.037	203.69
350.265	203.69
350.492	194.69
350.72	184.69
350.947	188.69
351.174	207.69
351.402	207.69
351.629	207.69
351.856	204.69
352.083	204.69
352.311	211.69
352.538	209.69
352.765	239.69
352.992	218.69
353.22	221.69
353.447	224.69
353.674	195.69
353.901	203.69
354.128	201.69
354.355	216.69
354.583	204.69
354.81	222.69
355.037	234.69
355.264	214.69
355.491	215.69
355.718	222.69
355.945	230.69
356.172	229.69
356.399	228.69
356.626	264.69
356.853	297.69
357.08	304.69
357.307	345.69
357.534	270.69
357.761	279.69
357.988	351.69
358.215	375.69
358.441	356.69
358.668	314.69
358.895	291.69
359.122	262.69
359.349	271.69
359.576	288.69
359.802	242.69
360.029	200.69
360.256	217.69
360.483	270.69
360.709	312.69
360.936	322.69
361.163	284.69
361.39	236.69
361.616	228.69
361.843	241.69
362.07	283.69
362.296	281.69
362.523	229.69
362.749	192.69
362.976	218.69
363.203	247.69
363.429	254.69
363.656	238.69
363.882	209.69
364.109	212.69
364.335	199.69
364.562	233.69
364.788	241.69
365.015	264.69
365.241	227.69
365.468	200.69
365.694	210.69
365.92	212.69
366.147	175.69
366.373	183.69
366.599	200.69
366.826	172.69
367.052	196.69
367.278	180.69
367.505	178.69
367.731	211.69
367.957	212.69
368.184	217.69
368.41	226.69
368.636	228.69
368.862	216.69
369.089	200.69
369.315	200.69
369.541	201.69
369.767	206.69
369.993	190.69
370.219	207.69
370.445	190.69
370.672	226.69
370.898	227.69
371.124	232.69
371.35	213.69
371.576	207.69
371.802	205.69
372.028	249.69
372.254	282.69
372.48	240.69
372.706	236.69
372.932	228.69
373.158	237.69
373.384	268.69
373.61	331.69
373.835	341.69
374.061	276.69
374.287	235.69
374.513	282.69
374.739	307.69
374.965	338.69
375.191	327.69
375.416	280.69
375.642	247.69
375.868	254.69
376.094	282.69
376.319	257.69
376.545	259.69
376.771	271.69
376.997	250.69
377.222	197.69
377.448	182.69
377.674	182.69
377.899	193.69
378.125	185.69
378.35	191.69
378.576	176.69
378.802	192.69
379.027	200.69
379.253	204.69
379.478	208.69
379.704	231.69
379.929	237.69
380.155	249.69
380.38	212.69
380.606	233.69
380.831	236.69
381.057	221.69
381.282	221.69
381.507	241.69
381.733	292.69
381.958	293.69
382.184	310.69
382.409	330.69
382.634	343.69
382.86	327.69
383.085	269.69
383.31	247.69
383.535	274.69
383.761	284.69
383.986	248.69
384.211	270.69
384.436	285.69
384.662	245.69
384.887	227.69
385.112	245.69
385.337	252.69
385.562	218.69
385.787	257.69
386.013	272.69
386.238	272.69
386.463	239.69
386.688	216.69
386.913	223.69
387.138	214.69
387.363	203.69
387.588	215.69
387.813	230.69
388.038	264.69
388.263	231.69
388.488	241.69
388.713	249.69
388.938	259.69
389.163	225.69
389.387	228.69
389.612	220.69
389.837	207.69
390.062	203.69
390.287	213.69
390.512	244.69
390.736	222.69
390.961	200.69
391.186	202.69
391.411	213.69
391.636	201.69
391.86	217.69
392.085	243.69
392.31	243.69
392.534	255.69
392.759	232.69
392.984	222.69
393.208	229.69
393.433	206.69
393.658	204.69
393.882	188.69
394.107	205.69
394.331	188.69
394.556	223.69
394.78	210.69
395.005	211.69
395.229	223.69
395.454	210.69
395.678	217.69
395.903	217.69
396.127	214.69
396.352	205.69
396.576	233.69
396.801	214.69
397.025	230.69
397.249	243.69
397.474	213.69
397.698	225.69
397.922	236.69
398.147	208.69
398.371	214.69
398.595	225.69
398.82	237.69
399.044	236.69
399.268	255.69
399.492	265.69
399.717	281.69
399.941	313.69
400.165	265.69
400.389	231.69
400.613	246.69
400.837	234.69
401.062	245.69
401.286	214.69
401.51	221.69
401.734	212.69
401.958	232.69
402.182	231.69
402.406	238.69
402.63	221.69
402.854	229.69
403.078	291.69
403.302	349.69
403.526	369.69
403.75	334.69
403.974	266.69
404.198	265.69
404.422	311.69
404.645	311.69
404.869	340.69
405.093	275.69
405.317	245.69
405.541	253.69
405.765	279.69
405.988	273.69
406.212	256.69
406.436	290.69
406.66	326.69
406.883	267.69
407.107	276.69
407.331	305.69
407.555	307.69
407.778	252.69
408.002	275.69
408.226	256.69
408.449	261.69
408.673	251.69
408.896	233.69
409.12	244.69
409.344	231.69
409.567	238.69
409.791	245.69
410.014	235.69
410.238	243.69
410.461	253.69
410.685	225.69
410.908	241.69
411.132	227.69
411.355	221.69
411.578	232.69
411.802	223.69
412.025	230.69
412.249	236.69
412.472	233.69
412.695	219.69
412.919	240.69
413.142	237.69
413.365	240.69
413.589	243.69
413.812	227.69
414.035	227.69
414.258	217.69
414.482	239.69
414.705	238.69
414.928	216.69
415.151	221.69
415.374	228.69
415.597	198.69
415.821	218.69
416.044	205.69
416.267	220.69
416.49	231.69
416.713	209.69
416.936	220.69
417.159	216.69
417.382	208.69
417.605	223.69
417.828	233.69
418.051	232.69
418.274	249.69
418.497	220.69
418.72	232.69
418.943	241.69
419.166	242.69
419.389	243.69
419.611	255.69
419.834	254.69
420.057	269.69
420.28	254.69
420.503	230.69
420.726	223.69
420.948	222.69
421.171	229.69
421.394	239.69
421.617	230.69
421.839	209.69
422.062	227.69
422.285	217.69
422.507	229.69
422.73	232.69
422.953	236.69
423.175	219.69
423.398	238.69
423.621	257.69
423.843	269.69
424.066	232.69
424.288	229.69
424.511	237.69
424.733	249.69
424.956	242.69
425.178	261.69
425.401	309.69
425.623	355.69
425.846	288.69
426.068	227.69
426.291	256.69
426.513	245.69
426.735	237.69
426.958	242.69
427.18	252.69
427.402	308.69
427.625	348.69
427.847	308.69
428.069	227.69
428.292	216.69
428.514	225.69
428.736	225.69
428.958	234.69
429.181	307.69
429.403	258.69
429.625	233.69
429.847	211.69
430.069	227.69
430.292	226.69
430.514	221.69
430.736	210.69
430.958	253.69
431.18	231.69
431.402	214.69
431.624	195.69
431.846	216.69
432.068	212.69
432.29	213.69
432.512	221.69
432.734	263.69
432.956	250.69
433.178	231.69
433.4	209.69
433.622	213.69
433.844	226.69
434.066	236.69
434.287	236.69
434.509	262.69
434.731	253.69
434.953	231.69
435.175	230.69
435.397	256.69
435.618	254.69
435.84	226.69
436.062	214.69
436.284	216.69
436.505	207.69
436.727	198.69
436.949	201.69
437.17	207.69
437.392	231.69
437.614	214.69
437.835	233.69
438.057	207.69
438.278	255.69
438.5	288.69
438.721	293.69
438.943	249.69
439.165	220.69
439.386	200.69
439.608	218.69
439.829	190.69
440.05	209.69
440.272	218.69
440.493	240.69
440.715	266.69
440.936	236.69
441.158	231.69
441.379	233.69
441.6	242.69
441.822	252.69
442.043	216.69
442.264	217.69
442.486	229.69
442.707	217.69
442.928	235.69
443.149	227.69
443.371	227.69
443.592	232.69
443.813	239.69
444.034	242.69
444.255	240.69
444.476	258.69
444.698	264.69
444.919	251.69
445.14	347.69
445.361	312.69
445.582	254.69
445.803	223.69
446.024	230.69
446.245	248.69
446.466	241.69
446.687	223.69
446.908	217.69
447.129	207.69
447.35	195.69
447.571	213.69
447.792	213.69
448.013	200.69
448.234	195.69
448.455	198.69
448.675	210.69
448.896	199.69
449.117	194.69
449.338	215.69
449.559	211.69
449.779	208.69
450	210.69
450.221	214.69
450.442	219.69
450.662	201.69
450.883	190.69
451.104	214.69
451.324	208.69
451.545	210.69
451.766	221.69
451.986	218.69
452.207	210.69
452.428	214.69
452.648	205.69
452.869	209.69
453.089	207.69
453.31	212.69
453.53	213.69
453.751	208.69
453.971	199.69
454.192	199.69
454.412	208.69
454.633	199.69
454.853	220.69
455.073	200.69
455.294	204.69
455.514	186.69
455.734	199.69
455.955	204.69
456.175	201.69
456.395	197.69
456.616	198.69
456.836	203.69
457.056	184.69
457.276	183.69
457.497	188.69
457.717	204.69
457.937	187.69
458.157	196.69
458.377	188.69
458.598	192.69
458.818	202.69
459.038	215.69
459.258	206.69
459.478	231.69
459.698	218.69
459.918	218.69
460.138	215.69
460.358	236.69
460.578	225.69
460.798	229.69
461.018	244.69
461.238	229.69
461.458	254.69
461.678	245.69
461.898	241.69
462.118	253.69
462.338	237.69
462.558	237.69
462.777	267.69
462.997	260.69
463.217	275.69
463.437	287.69
463.657	265.69
463.876	255.69
464.096	256.69
464.316	263.69
464.536	262.69
464.755	267.69
464.975	275.69
465.195	248.69
465.414	254.69
465.634	234.69
465.854	241.69
466.073	210.69
466.293	215.69
466.512	224.69
466.732	230.69
466.951	237.69
467.171	220.69
467.391	208.69
467.61	199.69
467.829	217.69
468.049	219.69
468.268	208.69
468.488	218.69
468.707	214.69
468.927	237.69
469.146	258.69
469.365	238.69
469.585	217.69
469.804	237.69
470.023	256.69
470.243	232.69
470.462	224.69
470.681	225.69
470.901	238.69
471.12	224.69
471.339	214.69
471.558	219.69
471.777	218.69
471.997	228.69
472.216	250.69
472.435	264.69
472.654	239.69
472.873	231.69
473.092	226.69
473.311	250.69
473.53	212.69
473.749	227.69
473.968	222.69
474.187	245.69
474.406	217.69
474.625	226.69
474.844	240.69
475.063	236.69
475.282	232.69
475.501	238.69
475.72	246.69
475.939	258.69
476.158	259.69
476.377	284.69
476.596	317.69
476.814	307.69
477.033	286.69
477.252	254.69
477.471	232.69
477.69	254.69
477.908	257.69
478.127	252.69
478.346	234.69
478.564	281.69
478.783	258.69
479.002	270.69
479.22	298.69
479.439	283.69
479.658	290.69
479.876	260.69
480.095	281.69
480.313	294.69
480.532	282.69
480.751	261.69
480.969	272.69
481.188	276.69
481.406	292.69
481.624	285.69
481.843	247.69
482.061	238.69
482.28	257.69
482.498	324.69
482.717	293.69
482.935	277.69
483.153	273.69
483.372	226.69
483.59	240.69
483.808	240.69
484.027	239.69
484.245	238.69
484.463	248.69
484.681	244.69
484.9	258.69
485.118	261.69
485.336	255.69
485.554	246.69
485.772	245.69
485.99	280.69
486.209	278.69
486.427	276.69
486.645	265.69
486.863	287.69
487.081	285.69
487.299	294.69
487.517	288.69
487.735	266.69
487.953	273.69
488.171	294.69
488.389	262.69
488.607	254.69
488.825	253.69
489.043	279.69
489.261	289.69
489.479	314.69
489.696	294.69
489.914	283.69
490.132	263.69
490.35	262.69
490.568	272.69
490.786	249.69
491.003	264.69
491.221	257.69
491.439	234.69
491.657	242.69
491.874	280.69
492.092	303.69
492.31	345.69
492.527	321.69
492.745	306.69
492.963	278.69
493.18	303.69
493.398	282.69
493.615	287.69
493.833	276.69
494.05	287.69
494.268	302.69
494.485	269.69
494.703	280.69
494.92	281.69
495.138	269.69
495.355	258.69
495.573	274.69
495.79	287.69
496.008	351.69
496.225	308.69
496.442	289.69
496.66	296.69
496.877	308.69
497.094	285.69
497.312	283.69
497.529	290.69
497.746	278.69
497.963	312.69
498.181	320.69
498.398	331.69
498.615	353.69
498.832	367.69
499.049	358.69
499.267	368.69
499.484	378.69
499.701	382.69
499.918	438.69
500.135	461.69
500.352	514.69
500.569	526.69
500.786	532.69
501.003	521.69
501.22	475.69
501.437	426.69
501.654	380.69
501.871	378.69
502.088	368.69
502.305	327.69
502.522	354.69
