Data from NickelSpatula.Lamp.E5.5.P2_HRD10591_11-53-00-551.txt Node
Date: Tue Jul 23 11:53:00 EDT 2019
User: cochatt
Spectrometer: HR+D1059
Trigger mode: 1
Integration Time (sec): 1.000000E-1
Scans to average: 1
Electric dark correction enabled: true
Nonlinearity correction enabled: false
Boxcar width: 0
XAxis mode: Wavelengths
Number of Pixels in Spectrum: 2048
>>>>>Begin Spectral Data<<<<<
223.165	-10.5
223.4	-10.5
223.635	-10.5
223.869	-27.5
224.104	-19.5
224.338	-6.5
224.573	-15.5
224.808	-2.5
225.042	-15.5
225.277	-3.5
225.511	-11.5
225.746	12.5
225.98	9.5
226.215	24.5
226.449	0.5
226.683	11.5
226.918	32.5
227.152	21.5
227.387	32.5
227.621	41.5
227.856	44.5
228.09	45.5
228.324	60.5
228.559	54.5
228.793	55.5
229.027	73.5
229.262	69.5
229.496	74.5
229.73	80.5
229.964	79.5
230.199	97.5
230.433	99.5
230.667	91.5
230.901	105.5
231.136	97.5
231.37	115.5
231.604	98.5
231.838	114.5
232.072	111.5
232.306	112.5
232.541	109.5
232.775	111.5
233.009	113.5
233.243	96.5
233.477	120.5
233.711	139.5
233.945	135.5
234.179	124.5
234.413	122.5
234.647	118.5
234.881	152.5
235.115	131.5
235.349	134.5
235.583	127.5
235.817	135.5
236.051	115.5
236.285	135.5
236.519	145.5
236.753	133.5
236.987	137.5
237.221	140.5
237.455	148.5
237.689	147.5
237.922	152.5
238.156	146.5
238.39	159.5
238.624	186.5
238.858	165.5
239.091	140.5
239.325	159.5
239.559	142.5
239.793	152.5
240.027	196.5
240.26	168.5
240.494	162.5
240.728	146.5
240.961	183.5
241.195	176.5
241.429	176.5
241.662	171.5
241.896	149.5
242.13	142.5
242.363	141.5
242.597	131.5
242.83	155.5
243.064	142.5
243.298	173.5
243.531	151.5
243.765	169.5
243.998	188.5
244.232	172.5
244.465	184.5
244.699	161.5
244.932	172.5
245.166	173.5
245.399	142.5
245.633	167.5
245.866	162.5
246.099	171.5
246.333	193.5
246.566	200.5
246.8	195.5
247.033	207.5
247.266	186.5
247.5	184.5
247.733	195.5
247.966	169.5
248.2	188.5
248.433	209.5
248.666	211.5
248.899	193.5
249.133	202.5
249.366	218.5
249.599	263.5
249.832	247.5
250.066	190.5
250.299	213.5
250.532	197.5
250.765	196.5
250.998	196.5
251.231	185.5
251.465	193.5
251.698	193.5
251.931	220.5
252.164	218.5
252.397	239.5
252.63	240.5
252.863	280.5
253.096	280.5
253.329	285.5
253.562	260.5
253.795	288.5
254.028	318.5
254.261	325.5
254.494	288.5
254.727	273.5
254.96	287.5
255.193	288.5
255.426	271.5
255.659	220.5
255.892	196.5
256.124	220.5
256.357	242.5
256.59	287.5
256.823	272.5
257.056	236.5
257.289	235.5
257.521	227.5
257.754	279.5
257.987	296.5
258.22	271.5
258.452	255.5
258.685	282.5
258.918	289.5
259.151	304.5
259.383	307.5
259.616	350.5
259.849	356.5
260.081	367.5
260.314	405.5
260.547	334.5
260.779	356.5
261.012	387.5
261.244	347.5
261.477	356.5
261.71	339.5
261.942	298.5
262.175	307.5
262.407	286.5
262.64	281.5
262.872	326.5
263.105	351.5
263.337	383.5
263.57	354.5
263.802	250.5
264.035	222.5
264.267	224.5
264.499	208.5
264.732	189.5
264.964	180.5
265.197	191.5
265.429	217.5
265.661	211.5
265.894	213.5
266.126	242.5
266.358	240.5
266.591	293.5
266.823	350.5
267.055	309.5
267.287	295.5
267.52	318.5
267.752	321.5
267.984	328.5
268.216	330.5
268.448	259.5
268.681	264.5
268.913	290.5
269.145	298.5
269.377	312.5
269.609	323.5
269.841	279.5
270.073	300.5
270.306	301.5
270.538	344.5
270.77	319.5
271.002	328.5
271.234	339.5
271.466	345.5
271.698	329.5
271.93	323.5
272.162	316.5
272.394	311.5
272.626	310.5
272.858	336.5
273.09	328.5
273.322	300.5
273.553	260.5
273.785	315.5
274.017	394.5
274.249	488.5
274.481	525.5
274.713	538.5
274.945	601.5
275.176	625.5
275.408	565.5
275.64	548.5
275.872	511.5
276.104	473.5
276.335	409.5
276.567	404.5
276.799	427.5
277.031	433.5
277.262	356.5
277.494	292.5
277.726	267.5
277.957	292.5
278.189	315.5
278.421	327.5
278.652	311.5
278.884	327.5
279.115	297.5
279.347	276.5
279.579	296.5
279.81	289.5
280.042	287.5
280.273	305.5
280.505	287.5
280.736	255.5
280.968	247.5
281.199	276.5
281.431	297.5
281.662	283.5
281.894	286.5
282.125	310.5
282.356	322.5
282.588	325.5
282.819	279.5
283.051	295.5
283.282	361.5
283.513	410.5
283.745	456.5
283.976	456.5
284.207	413.5
284.439	449.5
284.67	429.5
284.901	386.5
285.132	408.5
285.364	431.5
285.595	409.5
285.826	408.5
286.057	427.5
286.288	413.5
286.52	427.5
286.751	466.5
286.982	443.5
287.213	397.5
287.444	399.5
287.675	394.5
287.906	403.5
288.138	339.5
288.369	335.5
288.6	306.5
288.831	314.5
289.062	368.5
289.293	392.5
289.524	372.5
289.755	364.5
289.986	365.5
290.217	354.5
290.448	274.5
290.679	250.5
290.91	246.5
291.141	235.5
291.371	245.5
291.602	250.5
291.833	232.5
292.064	241.5
292.295	277.5
292.526	311.5
292.757	338.5
292.987	357.5
293.218	371.5
293.449	365.5
293.68	399.5
293.91	395.5
294.141	392.5
294.372	367.5
294.603	333.5
294.833	377.5
295.064	431.5
295.295	409.5
295.525	320.5
295.756	277.5
295.987	258.5
296.217	252.5
296.448	245.5
296.679	235.5
296.909	273.5
297.14	305.5
297.37	336.5
297.601	311.5
297.831	266.5
298.062	323.5
298.292	347.5
298.523	336.5
298.753	375.5
298.984	357.5
299.214	296.5
299.445	271.5
299.675	244.5
299.905	228.5
300.136	255.5
300.366	281.5
300.597	265.5
300.827	247.5
301.057	242.5
301.288	242.5
301.518	248.5
301.748	280.5
301.979	316.5
302.209	331.5
302.439	337.5
302.669	310.5
302.9	287.5
303.13	289.5
303.36	266.5
303.59	263.5
303.82	250.5
304.051	297.5
304.281	312.5
304.511	310.5
304.741	271.5
304.971	280.5
305.201	288.5
305.431	275.5
305.661	245.5
305.891	257.5
306.121	253.5
306.352	235.5
306.582	218.5
306.812	203.5
307.042	213.5
307.272	196.5
307.502	206.5
307.731	232.5
307.961	227.5
308.191	207.5
308.421	208.5
308.651	211.5
308.881	195.5
309.111	204.5
309.341	199.5
309.571	234.5
309.8	223.5
310.03	237.5
310.26	234.5
310.49	239.5
310.72	212.5
310.949	232.5
311.179	213.5
311.409	204.5
311.639	274.5
311.868	325.5
312.098	401.5
312.328	426.5
312.557	390.5
312.787	403.5
313.017	342.5
313.246	389.5
313.476	415.5
313.706	364.5
313.935	300.5
314.165	247.5
314.394	255.5
314.624	222.5
314.853	251.5
315.083	233.5
315.312	241.5
315.542	250.5
315.771	205.5
316.001	204.5
316.23	233.5
316.46	217.5
316.689	203.5
316.919	226.5
317.148	226.5
317.377	216.5
317.607	218.5
317.836	234.5
318.065	259.5
318.295	278.5
318.524	283.5
318.753	235.5
318.983	218.5
319.212	228.5
319.441	227.5
319.67	259.5
319.9	246.5
320.129	247.5
320.358	247.5
320.587	220.5
320.816	239.5
321.046	269.5
321.275	288.5
321.504	277.5
321.733	277.5
321.962	276.5
322.191	284.5
322.42	250.5
322.649	255.5
322.878	292.5
323.108	282.5
323.337	265.5
323.566	254.5
323.795	255.5
324.024	252.5
324.253	224.5
324.482	244.5
324.71	275.5
324.939	286.5
325.168	268.5
325.397	219.5
325.626	217.5
325.855	228.5
326.084	232.5
326.313	240.5
326.542	202.5
326.77	226.5
326.999	219.5
327.228	230.5
327.457	234.5
327.686	247.5
327.914	220.5
328.143	194.5
328.372	185.5
328.6	204.5
328.829	212.5
329.058	220.5
329.287	232.5
329.515	217.5
329.744	208.5
329.972	197.5
330.201	191.5
330.43	207.5
330.658	215.5
330.887	244.5
331.115	241.5
331.344	256.5
331.572	247.5
331.801	207.5
332.03	214.5
332.258	227.5
332.486	226.5
332.715	230.5
332.943	224.5
333.172	244.5
333.4	249.5
333.629	252.5
333.857	279.5
334.085	283.5
334.314	264.5
334.542	247.5
334.771	241.5
334.999	243.5
335.227	226.5
335.455	227.5
335.684	236.5
335.912	270.5
336.14	309.5
336.369	284.5
336.597	285.5
336.825	328.5
337.053	339.5
337.281	269.5
337.51	233.5
337.738	239.5
337.966	256.5
338.194	285.5
338.422	267.5
338.65	235.5
338.878	230.5
339.106	228.5
339.334	227.5
339.562	245.5
339.79	245.5
340.018	233.5
340.246	264.5
340.474	267.5
340.702	276.5
340.93	293.5
341.158	296.5
341.386	257.5
341.614	261.5
341.842	244.5
342.07	264.5
342.298	290.5
342.526	311.5
342.754	280.5
342.981	247.5
343.209	247.5
343.437	266.5
343.665	280.5
343.893	303.5
344.12	321.5
344.348	357.5
344.576	347.5
344.804	296.5
345.031	253.5
345.259	224.5
345.487	223.5
345.714	231.5
345.942	263.5
346.17	265.5
346.397	273.5
346.625	239.5
346.853	237.5
347.08	241.5
347.308	237.5
347.535	286.5
347.763	283.5
347.99	241.5
348.218	227.5
348.445	237.5
348.673	246.5
348.9	234.5
349.128	231.5
349.355	266.5
349.583	265.5
349.81	255.5
350.037	236.5
350.265	202.5
350.492	189.5
350.72	193.5
350.947	226.5
351.174	201.5
351.402	219.5
351.629	242.5
351.856	220.5
352.083	210.5
352.311	237.5
352.538	254.5
352.765	274.5
352.992	252.5
353.22	230.5
353.447	253.5
353.674	224.5
353.901	221.5
354.128	227.5
354.355	235.5
354.583	230.5
354.81	234.5
355.037	270.5
355.264	234.5
355.491	249.5
355.718	265.5
355.945	258.5
356.172	259.5
356.399	236.5
356.626	279.5
356.853	341.5
357.08	375.5
357.307	363.5
357.534	314.5
357.761	305.5
357.988	382.5
358.215	423.5
358.441	419.5
358.668	357.5
358.895	363.5
359.122	279.5
359.349	272.5
359.576	323.5
359.802	281.5
360.029	215.5
360.256	251.5
360.483	289.5
360.709	379.5
360.936	347.5
361.163	334.5
361.39	281.5
361.616	247.5
361.843	274.5
362.07	333.5
362.296	300.5
362.523	244.5
362.749	209.5
362.976	220.5
363.203	275.5
363.429	279.5
363.656	267.5
363.882	241.5
364.109	244.5
364.335	228.5
364.562	229.5
364.788	267.5
365.015	298.5
365.241	267.5
365.468	235.5
365.694	212.5
365.92	203.5
366.147	201.5
366.373	191.5
366.599	213.5
366.826	200.5
367.052	213.5
367.278	199.5
367.505	211.5
367.731	223.5
367.957	207.5
368.184	256.5
368.41	224.5
368.636	251.5
368.862	253.5
369.089	237.5
369.315	236.5
369.541	212.5
369.767	224.5
369.993	221.5
370.219	202.5
370.445	221.5
370.672	219.5
370.898	258.5
371.124	245.5
371.35	229.5
371.576	221.5
371.802	234.5
372.028	269.5
372.254	325.5
372.48	274.5
372.706	243.5
372.932	247.5
373.158	264.5
373.384	295.5
373.61	405.5
373.835	416.5
374.061	313.5
374.287	275.5
374.513	321.5
374.739	363.5
374.965	383.5
375.191	375.5
375.416	282.5
375.642	243.5
375.868	268.5
376.094	293.5
376.319	254.5
376.545	285.5
376.771	308.5
376.997	286.5
377.222	224.5
377.448	217.5
377.674	191.5
377.899	203.5
378.125	203.5
378.35	198.5
378.576	203.5
378.802	216.5
379.027	234.5
379.253	221.5
379.478	218.5
379.704	259.5
379.929	266.5
380.155	245.5
380.38	234.5
380.606	229.5
380.831	279.5
381.057	253.5
381.282	237.5
381.507	278.5
381.733	305.5
381.958	333.5
382.184	361.5
382.409	377.5
382.634	397.5
382.86	393.5
383.085	344.5
383.31	275.5
383.535	296.5
383.761	294.5
383.986	275.5
384.211	326.5
384.436	305.5
384.662	252.5
384.887	251.5
385.112	256.5
385.337	250.5
385.562	261.5
385.787	267.5
386.013	286.5
386.238	295.5
386.463	252.5
386.688	255.5
386.913	234.5
387.138	226.5
387.363	263.5
387.588	237.5
387.813	241.5
388.038	263.5
388.263	241.5
388.488	239.5
388.713	272.5
388.938	287.5
389.163	239.5
389.387	221.5
389.612	235.5
389.837	236.5
390.062	225.5
390.287	245.5
390.512	234.5
390.736	232.5
390.961	224.5
391.186	217.5
391.411	201.5
391.636	213.5
391.86	231.5
392.085	279.5
392.31	260.5
392.534	242.5
392.759	238.5
392.984	248.5
393.208	248.5
393.433	209.5
393.658	210.5
393.882	211.5
394.107	191.5
394.331	212.5
394.556	196.5
394.78	210.5
395.005	217.5
395.229	220.5
395.454	206.5
395.678	229.5
395.903	228.5
396.127	213.5
396.352	219.5
396.576	231.5
396.801	266.5
397.025	263.5
397.249	281.5
397.474	225.5
397.698	240.5
397.922	257.5
398.147	225.5
398.371	232.5
398.595	250.5
398.82	242.5
399.044	248.5
399.268	260.5
399.492	295.5
399.717	285.5
399.941	283.5
400.165	259.5
400.389	253.5
400.613	262.5
400.837	249.5
401.062	230.5
401.286	227.5
401.51	228.5
401.734	226.5
401.958	225.5
402.182	243.5
402.406	230.5
402.63	232.5
402.854	266.5
403.078	305.5
403.302	354.5
403.526	413.5
403.75	369.5
403.974	290.5
404.198	292.5
404.422	324.5
404.645	329.5
404.869	379.5
405.093	287.5
405.317	275.5
405.541	266.5
405.765	265.5
405.988	255.5
406.212	276.5
406.436	314.5
406.66	331.5
406.883	283.5
407.107	297.5
407.331	332.5
407.555	327.5
407.778	290.5
408.002	287.5
408.226	274.5
408.449	282.5
408.673	249.5
408.896	254.5
409.12	218.5
409.344	236.5
409.567	229.5
409.791	233.5
410.014	234.5
410.238	224.5
410.461	251.5
410.685	234.5
410.908	236.5
411.132	231.5
411.355	251.5
411.578	235.5
411.802	239.5
412.025	255.5
412.249	251.5
412.472	256.5
412.695	250.5
412.919	240.5
413.142	245.5
413.365	249.5
413.589	246.5
413.812	229.5
414.035	259.5
414.258	251.5
414.482	239.5
414.705	263.5
414.928	242.5
415.151	230.5
415.374	231.5
415.597	232.5
415.821	233.5
416.044	211.5
416.267	225.5
416.49	209.5
416.713	214.5
416.936	217.5
417.159	217.5
417.382	233.5
417.605	248.5
417.828	227.5
418.051	247.5
418.274	235.5
418.497	248.5
418.72	230.5
418.943	246.5
419.166	257.5
419.389	287.5
419.611	252.5
419.834	241.5
420.057	270.5
420.28	287.5
420.503	271.5
420.726	227.5
420.948	228.5
421.171	243.5
421.394	224.5
421.617	216.5
421.839	228.5
422.062	251.5
422.285	252.5
422.507	241.5
422.73	248.5
422.953	257.5
423.175	243.5
423.398	234.5
423.621	263.5
423.843	266.5
424.066	243.5
424.288	246.5
424.511	260.5
424.733	231.5
424.956	268.5
425.178	261.5
425.401	312.5
425.623	391.5
425.846	303.5
426.068	257.5
426.291	281.5
426.513	256.5
426.735	240.5
426.958	246.5
427.18	275.5
427.402	347.5
427.625	383.5
427.847	316.5
428.069	241.5
428.292	242.5
428.514	233.5
428.736	227.5
428.958	267.5
429.181	324.5
429.403	276.5
429.625	227.5
429.847	199.5
430.069	220.5
430.292	227.5
430.514	235.5
430.736	235.5
430.958	285.5
431.18	248.5
431.402	219.5
431.624	219.5
431.846	221.5
432.068	221.5
432.29	215.5
432.512	237.5
432.734	287.5
432.956	269.5
433.178	226.5
433.4	217.5
433.622	209.5
433.844	226.5
434.066	226.5
434.287	265.5
434.509	232.5
434.731	267.5
434.953	250.5
435.175	252.5
435.397	283.5
435.618	239.5
435.84	233.5
436.062	220.5
436.284	225.5
436.505	213.5
436.727	211.5
436.949	224.5
437.17	225.5
437.392	220.5
437.614	233.5
437.835	209.5
438.057	242.5
438.278	268.5
438.5	316.5
438.721	341.5
438.943	231.5
439.165	217.5
439.386	202.5
439.608	214.5
439.829	205.5
440.05	221.5
440.272	218.5
440.493	248.5
440.715	287.5
440.936	255.5
441.158	221.5
441.379	234.5
441.6	249.5
441.822	270.5
442.043	233.5
442.264	236.5
442.486	233.5
442.707	225.5
442.928	240.5
443.149	229.5
443.371	233.5
443.592	259.5
443.813	249.5
444.034	226.5
444.255	234.5
444.476	252.5
444.698	249.5
444.919	257.5
445.14	367.5
445.361	301.5
445.582	259.5
445.803	267.5
446.024	231.5
446.245	251.5
446.466	254.5
446.687	223.5
446.908	239.5
447.129	224.5
447.35	209.5
447.571	235.5
447.792	218.5
448.013	217.5
448.234	217.5
448.455	203.5
448.675	233.5
448.896	230.5
449.117	211.5
449.338	218.5
449.559	219.5
449.779	240.5
450	223.5
450.221	215.5
450.442	228.5
450.662	227.5
450.883	219.5
451.104	197.5
451.324	216.5
451.545	233.5
451.766	235.5
451.986	212.5
452.207	211.5
452.428	212.5
452.648	205.5
452.869	203.5
453.089	235.5
453.31	218.5
453.53	199.5
453.751	201.5
453.971	193.5
454.192	227.5
454.412	205.5
454.633	193.5
454.853	218.5
455.073	191.5
455.294	193.5
455.514	194.5
455.734	212.5
455.955	207.5
456.175	223.5
456.395	219.5
456.616	198.5
456.836	204.5
457.056	209.5
457.276	200.5
457.497	199.5
457.717	181.5
457.937	195.5
458.157	198.5
458.377	201.5
458.598	199.5
458.818	205.5
459.038	219.5
459.258	226.5
459.478	229.5
459.698	242.5
459.918	251.5
460.138	248.5
460.358	252.5
460.578	247.5
460.798	251.5
461.018	244.5
461.238	232.5
461.458	232.5
461.678	236.5
461.898	229.5
462.118	229.5
462.338	253.5
462.558	253.5
462.777	260.5
462.997	282.5
463.217	290.5
463.437	289.5
463.657	275.5
463.876	263.5
464.096	245.5
464.316	265.5
464.536	285.5
464.755	294.5
464.975	284.5
465.195	259.5
465.414	265.5
465.634	263.5
465.854	247.5
466.073	243.5
466.293	218.5
466.512	246.5
466.732	248.5
466.951	260.5
467.171	240.5
467.391	216.5
467.61	224.5
467.829	235.5
468.049	230.5
468.268	226.5
468.488	236.5
468.707	232.5
468.927	248.5
469.146	263.5
469.365	268.5
469.585	237.5
469.804	255.5
470.023	273.5
470.243	244.5
470.462	233.5
470.681	237.5
470.901	245.5
471.12	244.5
471.339	254.5
471.558	229.5
471.777	233.5
471.997	254.5
472.216	276.5
472.435	263.5
472.654	245.5
472.873	247.5
473.092	251.5
473.311	256.5
473.53	253.5
473.749	239.5
473.968	244.5
474.187	244.5
474.406	221.5
474.625	219.5
474.844	226.5
475.063	241.5
475.282	263.5
475.501	265.5
475.72	282.5
475.939	276.5
476.158	279.5
476.377	311.5
476.596	361.5
476.814	378.5
477.033	289.5
477.252	249.5
477.471	260.5
477.69	267.5
477.908	282.5
478.127	271.5
478.346	285.5
478.564	281.5
478.783	268.5
479.002	252.5
479.22	332.5
479.439	316.5
479.658	311.5
479.876	270.5
480.095	272.5
480.313	304.5
480.532	278.5
480.751	263.5
480.969	285.5
481.188	299.5
481.406	306.5
481.624	303.5
481.843	274.5
482.061	248.5
482.28	280.5
482.498	344.5
482.717	330.5
482.935	285.5
483.153	271.5
483.372	265.5
483.59	264.5
483.808	270.5
484.027	248.5
484.245	244.5
484.463	247.5
484.681	243.5
484.9	261.5
485.118	287.5
485.336	286.5
485.554	263.5
485.772	283.5
485.99	280.5
486.209	316.5
486.427	301.5
486.645	292.5
486.863	288.5
487.081	296.5
487.299	315.5
487.517	301.5
487.735	289.5
487.953	293.5
488.171	314.5
488.389	284.5
488.607	258.5
488.825	291.5
489.043	317.5
489.261	327.5
489.479	345.5
489.696	312.5
489.914	281.5
490.132	276.5
490.35	257.5
490.568	260.5
490.786	260.5
491.003	267.5
491.221	273.5
491.439	281.5
491.657	279.5
491.874	290.5
492.092	330.5
492.31	378.5
492.527	393.5
492.745	330.5
492.963	294.5
493.18	295.5
493.398	308.5
493.615	295.5
493.833	307.5
494.05	288.5
494.268	299.5
494.485	292.5
494.703	295.5
494.92	284.5
495.138	275.5
495.355	301.5
495.573	296.5
495.79	303.5
496.008	393.5
496.225	342.5
496.442	305.5
496.66	324.5
496.877	324.5
497.094	312.5
497.312	293.5
497.529	312.5
497.746	316.5
497.963	323.5
498.181	345.5
498.398	348.5
498.615	382.5
498.832	388.5
499.049	405.5
499.267	380.5
499.484	358.5
499.701	395.5
499.918	448.5
500.135	487.5
500.352	512.5
500.569	533.5
500.786	531.5
501.003	515.5
501.22	468.5
501.437	421.5
501.654	402.5
501.871	389.5
502.088	372.5
502.305	343.5
502.522	368.5
502.739	353.5
502.956	332.5
503.172	322.5
503.389	300.5
503.606	308.5
503.823	300.5
504.04	275.5
504.256	313.5
504.473	321.5
504.69	344.5
504.907	328.5
505.123	301.5
505.34	324.5
505.557	323.5
505.773	313.5
505.99	287.5
506.207	316.5
506.423	303.5
506.64	287.5
506.856	287.5
507.073	306.5
507.289	320.5
507.506	312.5
507.722	325.5
507.939	320.5
508.155	343.5
508.372	297.5
508.588	292.5
508.805	284.5
509.021	260.5
509.238	287.5
509.454	273.5
509.67	283.5
509.887	290.5
510.103	317.5
510.319	317.5
510.536	289.5
510.752	265.5
510.968	260.5
511.184	255.5
511.401	240.5
511.617	244.5
511.833	247.5
512.049	248.5
512.265	261.5
512.481	277.5
512.698	296.5
512.914	307.5
513.13	304.5
513.346	281.5
513.562	289.5
513.778	281.5
513.994	259.5
514.21	278.5
514.426	275.5
514.642	277.5
514.858	272.5
515.074	264.5
515.29	299.5
515.506	324.5
515.721	299.5
515.937	307.5
516.153	265.5
516.369	283.5
516.585	293.5
516.801	333.5
517.016	374.5
517.232	361.5
517.448	374.5
517.664	340.5
517.879	329.5
518.095	318.5
518.311	319.5
518.527	345.5
518.742	336.5
518.958	345.5
519.173	321.5
519.389	320.5
519.605	321.5
519.82	330.5
520.036	379.5
520.251	383.5
520.467	380.5
