Data from NickelSpatula.Lamp.E10.P2_HRD10591_11-57-45-531.txt Node
Date: Tue Jul 23 11:57:45 EDT 2019
User: cochatt
Spectrometer: HR+D1059
Trigger mode: 1
Integration Time (sec): 1.000000E-1
Scans to average: 1
Electric dark correction enabled: true
Nonlinearity correction enabled: false
Boxcar width: 0
XAxis mode: Wavelengths
Number of Pixels in Spectrum: 2048
>>>>>Begin Spectral Data<<<<<
223.165	-17.44
223.4	-17.44
223.635	-17.44
223.869	5.56
224.104	-19.44
224.338	-17.44
224.573	-3.44
224.808	-23.44
225.042	-5.44
225.277	-5.44
225.511	3.56
225.746	-6.44
225.98	21.56
226.215	25.56
226.449	2.56
226.683	18.56
226.918	14.56
227.152	6.56
227.387	30.56
227.621	30.56
227.856	32.56
228.09	44.56
228.324	52.56
228.559	49.56
228.793	66.56
229.027	147.56
229.262	150.56
229.496	154.56
229.73	169.56
229.964	180.56
230.199	221.56
230.433	213.56
230.667	199.56
230.901	207.56
231.136	193.56
231.37	187.56
231.604	220.56
231.838	261.56
232.072	256.56
232.306	237.56
232.541	240.56
232.775	249.56
233.009	262.56
233.243	296.56
233.477	317.56
233.711	324.56
233.945	329.56
234.179	312.56
234.413	348.56
234.647	383.56
234.881	440.56
235.115	404.56
235.349	398.56
235.583	331.56
235.817	353.56
236.051	366.56
236.285	426.56
236.519	472.56
236.753	426.56
236.987	427.56
237.221	414.56
237.455	402.56
237.689	423.56
237.922	455.56
238.156	471.56
238.39	538.56
238.624	644.56
238.858	569.56
239.091	482.56
239.325	507.56
239.559	471.56
239.793	519.56
240.027	662.56
240.26	562.56
240.494	552.56
240.728	584.56
240.961	679.56
241.195	615.56
241.429	622.56
241.662	598.56
241.896	499.56
242.13	472.56
242.363	431.56
242.597	470.56
242.83	519.56
243.064	556.56
243.298	599.56
243.531	627.56
243.765	648.56
243.998	609.56
244.232	582.56
244.465	587.56
244.699	569.56
244.932	649.56
245.166	623.56
245.399	547.56
245.633	515.56
245.866	565.56
246.099	598.56
246.333	717.56
246.566	772.56
246.8	748.56
247.033	713.56
247.266	678.56
247.5	644.56
247.733	675.56
247.966	645.56
248.2	666.56
248.433	782.56
248.666	836.56
248.899	808.56
249.133	854.56
249.366	980.56
249.599	1031.56
249.832	942.56
250.066	830.56
250.299	819.56
250.532	815.56
250.765	804.56
250.998	722.56
251.231	701.56
251.465	760.56
251.698	830.56
251.931	798.56
252.164	816.56
252.397	936.56
252.63	1061.56
252.863	1153.56
253.096	1179.56
253.329	1116.56
253.562	1062.56
253.795	1218.56
254.028	1344.56
254.261	1369.56
254.494	1230.56
254.727	1133.56
254.96	1098.56
255.193	1154.56
255.426	1111.56
255.659	864.56
255.892	781.56
256.124	880.56
256.357	973.56
256.59	1165.56
256.823	1141.56
257.056	966.56
257.289	922.56
257.521	977.56
257.754	1125.56
257.987	1236.56
258.22	1086.56
258.452	995.56
258.685	1142.56
258.918	1249.56
259.151	1225.56
259.383	1297.56
259.616	1492.56
259.849	1528.56
260.081	1664.56
260.314	1920.56
260.547	1453.56
260.779	1462.56
261.012	1716.56
261.244	1598.56
261.477	1610.56
261.71	1515.56
261.942	1309.56
262.175	1286.56
262.407	1222.56
262.64	1261.56
262.872	1490.56
263.105	1612.56
263.337	1669.56
263.57	1523.56
263.802	1012.56
264.035	910.56
264.267	876.56
264.499	773.56
264.732	695.56
264.964	692.56
265.197	730.56
265.429	762.56
265.661	828.56
265.894	846.56
266.126	904.56
266.358	1040.56
266.591	1253.56
266.823	1450.56
267.055	1359.56
267.287	1252.56
267.52	1241.56
267.752	1299.56
267.984	1412.56
268.216	1340.56
268.448	1133.56
268.681	1070.56
268.913	1204.56
269.145	1271.56
269.377	1250.56
269.609	1324.56
269.841	1211.56
270.073	1295.56
270.306	1341.56
270.538	1374.56
270.77	1377.56
271.002	1375.56
271.234	1450.56
271.466	1480.56
271.698	1451.56
271.93	1385.56
272.162	1410.56
272.394	1405.56
272.626	1391.56
272.858	1436.56
273.09	1463.56
273.322	1306.56
273.553	1245.56
273.785	1442.56
274.017	1945.56
274.249	2366.56
274.481	2518.56
274.713	2689.56
274.945	3105.56
275.176	3224.56
275.408	2815.56
275.64	2606.56
275.872	2625.56
276.104	2175.56
276.335	1868.56
276.567	1863.56
276.799	1929.56
277.031	2026.56
277.262	1570.56
277.494	1216.56
277.726	1174.56
277.957	1276.56
278.189	1472.56
278.421	1466.56
278.652	1391.56
278.884	1295.56
279.115	1223.56
279.347	1154.56
279.579	1170.56
279.81	1192.56
280.042	1187.56
280.273	1212.56
280.505	1105.56
280.736	983.56
280.968	996.56
281.199	1099.56
281.431	1210.56
281.662	1188.56
281.894	1153.56
282.125	1252.56
282.356	1308.56
282.588	1386.56
282.819	1217.56
283.051	1356.56
283.282	1658.56
283.513	1939.56
283.745	2142.56
283.976	2123.56
284.207	1975.56
284.439	2071.56
284.67	2001.56
284.901	1742.56
285.132	1933.56
285.364	1977.56
285.595	1852.56
285.826	1941.56
286.057	1995.56
286.288	1929.56
286.52	1982.56
286.751	2067.56
286.982	2042.56
287.213	1800.56
287.444	1743.56
287.675	1797.56
287.906	1810.56
288.138	1516.56
288.369	1375.56
288.6	1283.56
288.831	1294.56
289.062	1512.56
289.293	1656.56
289.524	1609.56
289.755	1582.56
289.986	1639.56
290.217	1429.56
290.448	1078.56
290.679	942.56
290.91	904.56
291.141	912.56
291.371	973.56
291.602	951.56
291.833	984.56
292.064	1049.56
292.295	1188.56
292.526	1342.56
292.757	1434.56
292.987	1520.56
293.218	1503.56
293.449	1610.56
293.68	1637.56
293.91	1590.56
294.141	1616.56
294.372	1505.56
294.603	1383.56
294.833	1550.56
295.064	1804.56
295.295	1708.56
295.525	1294.56
295.756	1088.56
295.987	948.56
296.217	979.56
296.448	1032.56
296.679	1068.56
296.909	1185.56
297.14	1242.56
297.37	1390.56
297.601	1254.56
297.831	1134.56
298.062	1234.56
298.292	1387.56
298.523	1537.56
298.753	1737.56
298.984	1549.56
299.214	1252.56
299.445	1079.56
299.675	989.56
299.905	1003.56
300.136	1026.56
300.366	1140.56
300.597	1092.56
300.827	999.56
301.057	968.56
301.288	986.56
301.518	1048.56
301.748	1198.56
301.979	1260.56
302.209	1373.56
302.439	1366.56
302.669	1209.56
302.9	1182.56
303.13	1125.56
303.36	1068.56
303.59	1053.56
303.82	1079.56
304.051	1217.56
304.281	1274.56
304.511	1242.56
304.741	1137.56
304.971	1199.56
305.201	1281.56
305.431	1182.56
305.661	1044.56
305.891	1022.56
306.121	1010.56
306.352	958.56
306.582	854.56
306.812	836.56
307.042	810.56
307.272	789.56
307.502	766.56
307.731	867.56
307.961	898.56
308.191	824.56
308.421	794.56
308.651	809.56
308.881	739.56
309.111	748.56
309.341	786.56
309.571	866.56
309.8	898.56
310.03	916.56
310.26	987.56
310.49	946.56
310.72	846.56
310.949	827.56
311.179	863.56
311.409	894.56
311.639	1034.56
311.868	1355.56
312.098	1772.56
312.328	1886.56
312.557	1834.56
312.787	1842.56
313.017	1640.56
313.246	1804.56
313.476	1964.56
313.706	1593.56
313.935	1264.56
314.165	1042.56
314.394	934.56
314.624	950.56
314.853	973.56
315.083	1005.56
315.312	1008.56
315.542	1017.56
315.771	929.56
316.001	863.56
316.23	826.56
316.46	796.56
316.689	847.56
316.919	868.56
317.148	857.56
317.377	844.56
317.607	846.56
317.836	922.56
318.065	1068.56
318.295	1205.56
318.524	1115.56
318.753	966.56
318.983	924.56
319.212	876.56
319.441	975.56
319.67	1081.56
319.9	1181.56
320.129	1084.56
320.358	965.56
320.587	911.56
320.816	1005.56
321.046	1140.56
321.275	1292.56
321.504	1267.56
321.733	1199.56
321.962	1196.56
322.191	1122.56
322.42	1050.56
322.649	1094.56
322.878	1187.56
323.108	1175.56
323.337	1103.56
323.566	1050.56
323.795	1042.56
324.024	979.56
324.253	967.56
324.482	931.56
324.71	1034.56
324.939	1144.56
325.168	1086.56
325.397	918.56
325.626	902.56
325.855	894.56
326.084	886.56
326.313	845.56
326.542	798.56
326.77	851.56
326.999	882.56
327.228	940.56
327.457	952.56
327.686	973.56
327.914	840.56
328.143	816.56
328.372	796.56
328.6	811.56
328.829	822.56
329.058	863.56
329.287	866.56
329.515	894.56
329.744	859.56
329.972	823.56
330.201	784.56
330.43	830.56
330.658	915.56
330.887	1050.56
331.115	993.56
331.344	977.56
331.572	957.56
331.801	879.56
332.03	830.56
332.258	852.56
332.486	910.56
332.715	992.56
332.943	880.56
333.172	912.56
333.4	920.56
333.629	989.56
333.857	1108.56
334.085	1063.56
334.314	1076.56
334.542	1006.56
334.771	927.56
334.999	921.56
335.227	908.56
335.455	908.56
335.684	1008.56
335.912	1148.56
336.14	1262.56
336.369	1248.56
336.597	1176.56
336.825	1340.56
337.053	1485.56
337.281	1176.56
337.51	965.56
337.738	963.56
337.966	1044.56
338.194	1140.56
338.422	1054.56
338.65	932.56
338.878	867.56
339.106	873.56
339.334	1012.56
339.562	1058.56
339.79	998.56
340.018	950.56
340.246	1030.56
340.474	1166.56
340.702	1231.56
340.93	1309.56
341.158	1274.56
341.386	1074.56
341.614	1039.56
341.842	1067.56
342.07	1132.56
342.298	1269.56
342.526	1361.56
342.754	1168.56
342.981	1076.56
343.209	1006.56
343.437	1106.56
343.665	1164.56
343.893	1112.56
344.12	1329.56
344.348	1526.56
344.576	1372.56
344.804	1156.56
345.031	1016.56
345.259	954.56
345.487	983.56
345.714	992.56
345.942	1066.56
346.17	1155.56
346.397	1089.56
346.625	972.56
346.853	951.56
347.08	907.56
347.308	980.56
347.535	1076.56
347.763	1091.56
347.99	974.56
348.218	935.56
348.445	948.56
348.673	959.56
348.9	950.56
349.128	1017.56
349.355	1040.56
349.583	1028.56
349.81	993.56
350.037	908.56
350.265	826.56
350.492	762.56
350.72	761.56
350.947	805.56
351.174	845.56
351.402	917.56
351.629	958.56
351.856	902.56
352.083	869.56
352.311	916.56
352.538	1073.56
352.765	1106.56
352.992	1008.56
353.22	922.56
353.447	941.56
353.674	913.56
353.901	908.56
354.128	927.56
354.355	989.56
354.583	931.56
354.81	944.56
355.037	1002.56
355.264	961.56
355.491	1028.56
355.718	1108.56
355.945	1092.56
356.172	1035.56
356.399	1045.56
356.626	1226.56
356.853	1501.56
357.08	1596.56
357.307	1629.56
357.534	1300.56
357.761	1323.56
357.988	1641.56
358.215	1875.56
358.441	1815.56
358.668	1566.56
358.895	1408.56
359.122	1135.56
359.349	1151.56
359.576	1269.56
359.802	1036.56
360.029	910.56
360.256	994.56
360.483	1201.56
360.709	1475.56
360.936	1547.56
361.163	1340.56
361.39	1076.56
361.616	981.56
361.843	1141.56
362.07	1436.56
362.296	1294.56
362.523	1023.56
362.749	913.56
362.976	965.56
363.203	1165.56
363.429	1267.56
363.656	994.56
363.882	945.56
364.109	940.56
364.335	927.56
364.562	947.56
364.788	1070.56
365.015	1214.56
365.241	1112.56
365.468	900.56
365.694	827.56
365.92	796.56
366.147	777.56
366.373	746.56
366.599	778.56
366.826	763.56
367.052	785.56
367.278	831.56
367.505	821.56
367.731	866.56
367.957	963.56
368.184	983.56
368.41	958.56
368.636	967.56
368.862	1037.56
369.089	987.56
369.315	874.56
369.541	859.56
369.767	855.56
369.993	829.56
370.219	830.56
370.445	886.56
370.672	991.56
370.898	1054.56
371.124	1042.56
371.35	904.56
371.576	884.56
371.802	926.56
372.028	1129.56
372.254	1261.56
372.48	1076.56
372.706	978.56
372.932	1022.56
373.158	1087.56
373.384	1262.56
373.61	1668.56
373.835	1718.56
374.061	1258.56
374.287	1112.56
374.513	1290.56
374.739	1572.56
374.965	1576.56
375.191	1541.56
375.416	1107.56
375.642	967.56
375.868	1159.56
376.094	1285.56
376.319	1080.56
376.545	1191.56
376.771	1258.56
376.997	1115.56
377.222	826.56
377.448	721.56
377.674	738.56
377.899	744.56
378.125	715.56
378.35	725.56
378.576	764.56
378.802	836.56
379.027	916.56
379.253	875.56
379.478	874.56
379.704	977.56
379.929	1026.56
380.155	1039.56
380.38	913.56
380.606	978.56
380.831	1043.56
381.057	968.56
381.282	958.56
381.507	1123.56
381.733	1356.56
381.958	1414.56
382.184	1530.56
382.409	1575.56
382.634	1579.56
382.86	1653.56
383.085	1404.56
383.31	1096.56
383.535	1163.56
383.761	1190.56
383.986	1093.56
384.211	1326.56
384.436	1300.56
384.662	996.56
384.887	959.56
385.112	966.56
385.337	1034.56
385.562	967.56
385.787	1047.56
386.013	1150.56
386.238	1192.56
386.463	987.56
386.688	946.56
386.913	931.56
387.138	875.56
387.363	922.56
387.588	941.56
387.813	954.56
388.038	1039.56
388.263	936.56
388.488	912.56
388.713	1069.56
388.938	1168.56
389.163	987.56
389.387	886.56
389.612	890.56
389.837	913.56
390.062	918.56
390.287	1000.56
390.512	979.56
390.736	945.56
390.961	865.56
391.186	818.56
391.411	810.56
391.636	821.56
391.86	901.56
392.085	977.56
392.31	983.56
392.534	925.56
392.759	910.56
392.984	972.56
393.208	928.56
393.433	867.56
393.658	816.56
393.882	784.56
394.107	762.56
394.331	792.56
394.556	775.56
394.78	826.56
395.005	824.56
395.229	822.56
395.454	874.56
395.678	874.56
395.903	879.56
396.127	864.56
396.352	846.56
396.576	947.56
396.801	938.56
397.025	1049.56
397.249	1070.56
397.474	887.56
397.698	899.56
397.922	968.56
398.147	890.56
398.371	887.56
398.595	952.56
398.82	935.56
399.044	914.56
399.268	968.56
399.492	1018.56
399.717	1077.56
399.941	1070.56
400.165	1026.56
400.389	1022.56
400.613	990.56
400.837	1001.56
401.062	911.56
401.286	897.56
401.51	879.56
401.734	872.56
401.958	879.56
402.182	890.56
402.406	866.56
402.63	921.56
402.854	932.56
403.078	1073.56
403.302	1260.56
403.526	1293.56
403.75	1188.56
403.974	1027.56
404.198	1060.56
404.422	1197.56
404.645	1382.56
404.869	1502.56
405.093	1098.56
405.317	970.56
405.541	975.56
405.765	1010.56
405.988	991.56
406.212	1054.56
406.436	1237.56
406.66	1335.56
406.883	1082.56
407.107	1128.56
407.331	1318.56
407.555	1245.56
407.778	1062.56
408.002	1016.56
408.226	1037.56
408.449	1027.56
408.673	1006.56
408.896	926.56
409.12	888.56
409.344	898.56
409.567	880.56
409.791	864.56
410.014	879.56
410.238	876.56
410.461	853.56
410.685	891.56
410.908	927.56
411.132	949.56
411.355	920.56
411.578	927.56
411.802	938.56
412.025	956.56
412.249	959.56
412.472	923.56
412.695	946.56
412.919	912.56
413.142	975.56
413.365	1054.56
413.589	1039.56
413.812	927.56
414.035	882.56
414.258	898.56
414.482	1019.56
414.705	1006.56
414.928	903.56
415.151	871.56
415.374	881.56
415.597	906.56
415.821	897.56
416.044	871.56
416.267	840.56
416.49	859.56
416.713	843.56
416.936	862.56
417.159	838.56
417.382	904.56
417.605	879.56
417.828	894.56
418.051	863.56
418.274	886.56
418.497	906.56
418.72	902.56
418.943	933.56
419.166	963.56
419.389	990.56
419.611	964.56
419.834	988.56
420.057	1092.56
420.28	1057.56
420.503	997.56
420.726	900.56
420.948	876.56
421.171	878.56
421.394	869.56
421.617	828.56
421.839	867.56
422.062	890.56
422.285	914.56
422.507	928.56
422.73	917.56
422.953	946.56
423.175	901.56
423.398	894.56
423.621	967.56
423.843	1026.56
424.066	991.56
424.288	917.56
424.511	872.56
424.733	912.56
424.956	935.56
425.178	1044.56
425.401	1182.56
425.623	1318.56
425.846	1130.56
426.068	988.56
426.291	1081.56
426.513	1006.56
426.735	938.56
426.958	955.56
427.18	1150.56
427.402	1441.56
427.625	1410.56
427.847	1157.56
428.069	896.56
428.292	880.56
428.514	872.56
428.736	844.56
428.958	934.56
429.181	1084.56
429.403	962.56
429.625	849.56
429.847	846.56
430.069	857.56
430.292	859.56
430.514	899.56
430.736	924.56
430.958	1128.56
431.18	1019.56
431.402	790.56
431.624	792.56
431.846	792.56
432.068	763.56
432.29	805.56
432.512	908.56
432.734	1164.56
432.956	1077.56
433.178	854.56
433.4	826.56
433.622	828.56
433.844	855.56
434.066	910.56
434.287	890.56
434.509	878.56
434.731	893.56
434.953	874.56
435.175	912.56
435.397	984.56
435.618	869.56
435.84	832.56
436.062	815.56
436.284	820.56
436.505	810.56
436.727	756.56
436.949	753.56
437.17	844.56
437.392	861.56
437.614	795.56
437.835	810.56
438.057	795.56
438.278	943.56
438.5	1310.56
438.721	1309.56
438.943	916.56
439.165	798.56
439.386	754.56
439.608	766.56
439.829	764.56
440.05	790.56
440.272	849.56
440.493	969.56
440.715	1186.56
440.936	955.56
441.158	838.56
441.379	853.56
441.6	970.56
441.822	1043.56
442.043	861.56
442.264	856.56
442.486	852.56
442.707	879.56
442.928	858.56
443.149	865.56
443.371	878.56
443.592	919.56
443.813	905.56
444.034	875.56
444.255	902.56
444.476	932.56
444.698	924.56
444.919	938.56
445.14	1008.56
445.361	982.56
445.582	940.56
445.803	906.56
446.024	924.56
446.245	927.56
446.466	896.56
446.687	869.56
446.908	852.56
447.129	828.56
447.35	805.56
447.571	792.56
447.792	800.56
448.013	771.56
448.234	780.56
448.455	766.56
448.675	776.56
448.896	799.56
449.117	769.56
449.338	810.56
449.559	816.56
449.779	880.56
450	867.56
450.221	828.56
450.442	782.56
450.662	778.56
450.883	804.56
451.104	817.56
451.324	806.56
451.545	822.56
451.766	792.56
451.986	779.56
452.207	760.56
452.428	748.56
452.648	766.56
452.869	795.56
453.089	824.56
453.31	838.56
453.53	732.56
453.751	741.56
453.971	728.56
454.192	744.56
454.412	798.56
454.633	735.56
454.853	724.56
455.073	731.56
455.294	703.56
455.514	719.56
455.734	773.56
455.955	795.56
456.175	825.56
456.395	721.56
456.616	712.56
456.836	686.56
457.056	668.56
457.276	679.56
457.497	692.56
457.717	701.56
457.937	696.56
458.157	715.56
458.377	712.56
458.598	741.56
458.818	761.56
459.038	784.56
459.258	806.56
459.478	833.56
459.698	882.56
459.918	874.56
460.138	868.56
460.358	877.56
460.578	862.56
460.798	888.56
461.018	860.56
461.238	839.56
461.458	837.56
461.678	883.56
461.898	948.56
462.118	913.56
462.338	932.56
462.558	950.56
462.777	968.56
462.997	1003.56
463.217	998.56
463.437	1002.56
463.657	995.56
463.876	960.56
464.096	959.56
464.316	964.56
464.536	967.56
464.755	1008.56
464.975	1010.56
465.195	962.56
465.414	984.56
465.634	964.56
465.854	938.56
466.073	856.56
466.293	842.56
466.512	914.56
466.732	968.56
466.951	998.56
467.171	907.56
467.391	853.56
467.61	857.56
467.829	948.56
468.049	927.56
468.268	870.56
468.488	867.56
468.707	912.56
468.927	1008.56
469.146	1112.56
469.365	1004.56
469.585	948.56
469.804	1009.56
470.023	1098.56
470.243	1009.56
470.462	923.56
470.681	910.56
470.901	890.56
471.12	956.56
471.339	947.56
471.558	880.56
471.777	899.56
471.997	974.56
472.216	1126.56
472.435	1067.56
472.654	978.56
472.873	944.56
473.092	982.56
473.311	1034.56
473.53	933.56
473.749	923.56
473.968	966.56
474.187	959.56
474.406	926.56
474.625	916.56
474.844	947.56
475.063	1028.56
475.282	1016.56
475.501	1029.56
475.72	1128.56
475.939	1100.56
476.158	1070.56
476.377	1229.56
476.596	1450.56
476.814	1476.56
477.033	1228.56
477.252	1042.56
477.471	987.56
477.69	1022.56
477.908	1076.56
478.127	1124.56
478.346	1038.56
478.564	1118.56
478.783	1082.56
479.002	1106.56
479.22	1281.56
479.439	1422.56
479.658	1246.56
479.876	1130.56
480.095	1203.56
480.313	1200.56
480.532	1106.56
480.751	1083.56
480.969	1118.56
481.188	1245.56
481.406	1286.56
481.624	1228.56
481.843	1096.56
482.061	1046.56
482.28	1188.56
482.498	1438.56
482.717	1336.56
482.935	1175.56
483.153	1099.56
483.372	1032.56
483.59	1054.56
483.808	1034.56
484.027	1016.56
484.245	966.56
484.463	979.56
484.681	1025.56
484.9	1115.56
485.118	1194.56
485.336	1098.56
485.554	1035.56
485.772	1086.56
485.99	1118.56
486.209	1225.56
486.427	1175.56
486.645	1160.56
486.863	1212.56
487.081	1242.56
487.299	1328.56
487.517	1315.56
487.735	1209.56
487.953	1220.56
488.171	1240.56
488.389	1139.56
488.607	1096.56
488.825	1131.56
489.043	1218.56
489.261	1414.56
489.479	1542.56
489.696	1256.56
489.914	1177.56
490.132	1106.56
490.35	1124.56
490.568	1121.56
490.786	1122.56
491.003	1105.56
491.221	1158.56
491.439	1125.56
491.657	1112.56
491.874	1202.56
492.092	1450.56
492.31	1687.56
492.527	1676.56
492.745	1498.56
492.963	1323.56
493.18	1294.56
493.398	1287.56
493.615	1282.56
493.833	1231.56
494.05	1202.56
494.268	1223.56
494.485	1206.56
494.703	1204.56
494.92	1210.56
495.138	1200.56
