Data from NickelSpatula.Lamp.E10.P2_HRD10591_11-59-48-524.txt Node
Date: Tue Jul 23 11:59:48 EDT 2019
User: cochatt
Spectrometer: HR+D1059
Trigger mode: 1
Integration Time (sec): 1.000000E-1
Scans to average: 1
Electric dark correction enabled: true
Nonlinearity correction enabled: false
Boxcar width: 0
XAxis mode: Wavelengths
Number of Pixels in Spectrum: 2048
>>>>>Begin Spectral Data<<<<<
223.165	-8.19
223.4	-8.19
223.635	-8.19
223.869	-37.19
224.104	-19.19
224.338	-14.19
224.573	-8.19
224.808	-18.19
225.042	-14.19
225.277	3.81
225.511	7.81
225.746	9.81
225.98	20.81
226.215	5.81
226.449	12.81
226.683	22.81
226.918	5.81
227.152	29.81
227.387	33.81
227.621	45.81
227.856	39.81
228.09	46.81
228.324	63.81
228.559	67.81
228.793	77.81
229.027	155.81
229.262	149.81
229.496	149.81
229.73	159.81
229.964	186.81
230.199	200.81
230.433	222.81
230.667	229.81
230.901	224.81
231.136	193.81
231.37	213.81
231.604	203.81
231.838	235.81
232.072	252.81
232.306	257.81
232.541	255.81
232.775	264.81
233.009	277.81
233.243	315.81
233.477	312.81
233.711	362.81
233.945	341.81
234.179	324.81
234.413	355.81
234.647	415.81
234.881	465.81
235.115	425.81
235.349	426.81
235.583	360.81
235.817	373.81
236.051	393.81
236.285	419.81
236.519	472.81
236.753	424.81
236.987	417.81
237.221	419.81
237.455	425.81
237.689	428.81
237.922	491.81
238.156	476.81
238.39	563.81
238.624	691.81
238.858	595.81
239.091	484.81
239.325	517.81
239.559	481.81
239.793	559.81
240.027	664.81
240.26	628.81
240.494	594.81
240.728	599.81
240.961	704.81
241.195	663.81
241.429	623.81
241.662	632.81
241.896	527.81
242.13	510.81
242.363	456.81
242.597	476.81
242.83	541.81
243.064	552.81
243.298	595.81
243.531	639.81
243.765	629.81
243.998	634.81
244.232	597.81
244.465	630.81
244.699	593.81
244.932	701.81
245.166	637.81
245.399	580.81
245.633	571.81
245.866	575.81
246.099	619.81
246.333	720.81
246.566	784.81
246.8	772.81
247.033	766.81
247.266	705.81
247.5	691.81
247.733	705.81
247.966	691.81
248.2	689.81
248.433	796.81
248.666	887.81
248.899	861.81
249.133	890.81
249.366	1012.81
249.599	1059.81
249.832	955.81
250.066	825.81
250.299	838.81
250.532	834.81
250.765	824.81
250.998	760.81
251.231	711.81
251.465	808.81
251.698	812.81
251.931	809.81
252.164	848.81
252.397	960.81
252.63	1059.81
252.863	1171.81
253.096	1213.81
253.329	1173.81
253.562	1142.81
253.795	1234.81
254.028	1363.81
254.261	1429.81
254.494	1251.81
254.727	1188.81
254.96	1124.81
255.193	1166.81
255.426	1139.81
255.659	905.81
255.892	815.81
256.124	886.81
256.357	1066.81
256.59	1225.81
256.823	1168.81
257.056	988.81
257.289	928.81
257.521	965.81
257.754	1147.81
257.987	1302.81
258.22	1118.81
258.452	1008.81
258.685	1159.81
258.918	1312.81
259.151	1274.81
259.383	1321.81
259.616	1525.81
259.849	1572.81
260.081	1722.81
260.314	1927.81
260.547	1459.81
260.779	1518.81
261.012	1743.81
261.244	1598.81
261.477	1633.81
261.71	1577.81
261.942	1282.81
262.175	1287.81
262.407	1243.81
262.64	1283.81
262.872	1526.81
263.105	1657.81
263.337	1808.81
263.57	1555.81
263.802	1041.81
264.035	915.81
264.267	881.81
264.499	787.81
264.732	720.81
264.964	695.81
265.197	725.81
265.429	780.81
265.661	839.81
265.894	864.81
266.126	930.81
266.358	1031.81
266.591	1278.81
266.823	1522.81
267.055	1444.81
267.287	1271.81
267.52	1283.81
267.752	1337.81
267.984	1449.81
268.216	1381.81
268.448	1126.81
268.681	1142.81
268.913	1188.81
269.145	1309.81
269.377	1336.81
269.609	1331.81
269.841	1227.81
270.073	1313.81
270.306	1384.81
270.538	1413.81
270.77	1418.81
271.002	1440.81
271.234	1472.81
271.466	1530.81
271.698	1473.81
271.93	1422.81
272.162	1444.81
272.394	1407.81
272.626	1421.81
272.858	1460.81
273.09	1510.81
273.322	1344.81
273.553	1289.81
273.785	1547.81
274.017	1960.81
274.249	2430.81
274.481	2556.81
274.713	2764.81
274.945	3217.81
275.176	3303.81
275.408	2895.81
275.64	2667.81
275.872	2664.81
276.104	2269.81
276.335	1924.81
276.567	1916.81
276.799	1965.81
277.031	2086.81
277.262	1656.81
277.494	1297.81
277.726	1257.81
277.957	1322.81
278.189	1519.81
278.421	1469.81
278.652	1456.81
278.884	1404.81
279.115	1294.81
279.347	1211.81
279.579	1221.81
279.81	1206.81
280.042	1220.81
280.273	1264.81
280.505	1144.81
280.736	1043.81
280.968	1053.81
281.199	1115.81
281.431	1251.81
281.662	1243.81
281.894	1181.81
282.125	1292.81
282.356	1330.81
282.588	1377.81
282.819	1288.81
283.051	1416.81
283.282	1685.81
283.513	1955.81
283.745	2188.81
283.976	2191.81
284.207	2002.81
284.439	2092.81
284.67	2030.81
284.901	1795.81
285.132	1966.81
285.364	2045.81
285.595	1891.81
285.826	2009.81
286.057	2099.81
286.288	1952.81
286.52	2058.81
286.751	2145.81
286.982	2115.81
287.213	1864.81
287.444	1777.81
287.675	1884.81
287.906	1826.81
288.138	1545.81
288.369	1372.81
288.6	1290.81
288.831	1363.81
289.062	1561.81
289.293	1707.81
289.524	1625.81
289.755	1589.81
289.986	1651.81
290.217	1451.81
290.448	1124.81
290.679	978.81
290.91	939.81
291.141	914.81
291.371	979.81
291.602	1003.81
291.833	1003.81
292.064	1090.81
292.295	1237.81
292.526	1413.81
292.757	1493.81
292.987	1558.81
293.218	1595.81
293.449	1619.81
293.68	1726.81
293.91	1619.81
294.141	1622.81
294.372	1520.81
294.603	1468.81
294.833	1595.81
295.064	1883.81
295.295	1764.81
295.525	1329.81
295.756	1163.81
295.987	1028.81
296.217	1026.81
296.448	1071.81
296.679	1123.81
296.909	1263.81
297.14	1313.81
297.37	1433.81
297.601	1380.81
297.831	1176.81
298.062	1288.81
298.292	1455.81
298.523	1619.81
298.753	1819.81
298.984	1617.81
299.214	1275.81
299.445	1081.81
299.675	1075.81
299.905	1081.81
300.136	1096.81
300.366	1219.81
300.597	1171.81
300.827	1037.81
301.057	1019.81
301.288	1036.81
301.518	1118.81
301.748	1259.81
301.979	1402.81
302.209	1490.81
302.439	1512.81
302.669	1298.81
302.9	1274.81
303.13	1185.81
303.36	1124.81
303.59	1060.81
303.82	1112.81
304.051	1253.81
304.281	1356.81
304.511	1339.81
304.741	1154.81
304.971	1231.81
305.201	1284.81
305.431	1217.81
305.661	1081.81
305.891	1130.81
306.121	1111.81
306.352	998.81
306.582	893.81
306.812	892.81
307.042	868.81
307.272	809.81
307.502	819.81
307.731	897.81
307.961	933.81
308.191	844.81
308.421	817.81
308.651	803.81
308.881	780.81
309.111	804.81
309.341	837.81
309.571	956.81
309.8	945.81
310.03	975.81
310.26	1020.81
310.49	984.81
310.72	907.81
310.949	876.81
311.179	893.81
311.409	961.81
311.639	1116.81
311.868	1403.81
312.098	1791.81
312.328	1976.81
312.557	1859.81
312.787	1873.81
313.017	1707.81
313.246	1818.81
313.476	1997.81
313.706	1659.81
313.935	1298.81
314.165	1043.81
314.394	978.81
314.624	975.81
314.853	1013.81
315.083	1061.81
315.312	1008.81
315.542	1034.81
315.771	954.81
316.001	867.81
316.23	872.81
316.46	872.81
316.689	862.81
316.919	899.81
317.148	895.81
317.377	888.81
317.607	895.81
317.836	965.81
318.065	1132.81
318.295	1238.81
318.524	1169.81
318.753	1002.81
318.983	940.81
319.212	963.81
319.441	1033.81
319.67	1149.81
319.9	1225.81
320.129	1149.81
320.358	1013.81
320.587	963.81
320.816	1013.81
321.046	1215.81
321.275	1353.81
321.504	1402.81
321.733	1317.81
321.962	1239.81
322.191	1219.81
322.42	1145.81
322.649	1174.81
322.878	1243.81
323.108	1249.81
323.337	1115.81
323.566	1107.81
323.795	1076.81
324.024	1046.81
324.253	987.81
324.482	1024.81
324.71	1112.81
324.939	1244.81
325.168	1141.81
325.397	970.81
325.626	932.81
325.855	929.81
326.084	954.81
326.313	894.81
326.542	861.81
326.77	895.81
326.999	909.81
327.228	973.81
327.457	1066.81
327.686	1020.81
327.914	902.81
328.143	852.81
328.372	855.81
328.6	899.81
328.829	913.81
329.058	918.81
329.287	894.81
329.515	894.81
329.744	893.81
329.972	872.81
330.201	797.81
330.43	854.81
330.658	961.81
330.887	1095.81
331.115	1057.81
331.344	1023.81
331.572	963.81
331.801	896.81
332.03	881.81
332.258	893.81
332.486	964.81
332.715	988.81
332.943	939.81
333.172	921.81
333.4	951.81
333.629	1023.81
333.857	1169.81
334.085	1124.81
334.314	1119.81
334.542	1045.81
334.771	978.81
334.999	943.81
335.227	949.81
335.455	939.81
335.684	1063.81
335.912	1212.81
336.14	1329.81
336.369	1300.81
336.597	1233.81
336.825	1423.81
337.053	1552.81
337.281	1253.81
337.51	1023.81
337.738	995.81
337.966	1114.81
338.194	1183.81
338.422	1143.81
338.65	956.81
338.878	898.81
339.106	926.81
339.334	1057.81
339.562	1111.81
339.79	1003.81
340.018	974.81
340.246	1060.81
340.474	1210.81
340.702	1284.81
340.93	1353.81
341.158	1372.81
341.386	1165.81
341.614	1151.81
341.842	1122.81
342.07	1176.81
342.298	1389.81
342.526	1447.81
342.754	1224.81
342.981	1155.81
343.209	1066.81
343.437	1157.81
343.665	1231.81
343.893	1240.81
344.12	1401.81
344.348	1644.81
344.576	1455.81
344.804	1240.81
345.031	1063.81
345.259	1034.81
345.487	1028.81
345.714	1055.81
345.942	1119.81
346.17	1221.81
346.397	1163.81
346.625	1008.81
346.853	977.81
347.08	970.81
347.308	1021.81
347.535	1136.81
347.763	1149.81
347.99	1020.81
348.218	920.81
348.445	992.81
348.673	1004.81
348.9	989.81
349.128	1074.81
349.355	1127.81
349.583	1083.81
349.81	1020.81
350.037	954.81
350.265	865.81
350.492	820.81
350.72	795.81
350.947	825.81
351.174	915.81
351.402	951.81
351.629	1031.81
351.856	965.81
352.083	909.81
352.311	987.81
352.538	1100.81
352.765	1220.81
352.992	1093.81
353.22	1047.81
353.447	1043.81
353.674	995.81
353.901	982.81
354.128	1018.81
354.355	1052.81
354.583	1008.81
354.81	980.81
355.037	1072.81
355.264	1019.81
355.491	1120.81
355.718	1207.81
355.945	1199.81
356.172	1128.81
356.399	1106.81
356.626	1395.81
356.853	1707.81
357.08	1790.81
357.307	1843.81
357.534	1417.81
357.761	1475.81
357.988	1795.81
358.215	2163.81
358.441	2065.81
358.668	1722.81
358.895	1605.81
359.122	1240.81
359.349	1258.81
359.576	1347.81
359.802	1117.81
360.029	963.81
360.256	1071.81
360.483	1323.81
360.709	1697.81
360.936	1738.81
361.163	1503.81
361.39	1166.81
361.616	1100.81
361.843	1283.81
362.07	1566.81
362.296	1412.81
362.523	1128.81
362.749	942.81
362.976	997.81
363.203	1257.81
363.429	1410.81
363.656	1102.81
363.882	1025.81
364.109	1047.81
364.335	1014.81
364.562	1004.81
364.788	1147.81
365.015	1351.81
365.241	1222.81
365.468	989.81
365.694	832.81
365.92	827.81
366.147	767.81
366.373	802.81
366.599	793.81
366.826	843.81
367.052	847.81
367.278	837.81
367.505	835.81
367.731	898.81
367.957	1060.81
368.184	1098.81
368.41	1067.81
368.636	1090.81
368.862	1099.81
369.089	1055.81
369.315	937.81
369.541	927.81
369.767	897.81
369.993	883.81
370.219	883.81
370.445	928.81
370.672	1033.81
370.898	1175.81
371.124	1144.81
371.35	983.81
371.576	895.81
371.802	980.81
372.028	1239.81
372.254	1406.81
372.48	1180.81
372.706	1066.81
372.932	1121.81
373.158	1160.81
373.384	1413.81
373.61	1937.81
373.835	1937.81
374.061	1442.81
374.287	1199.81
374.513	1457.81
374.739	1746.81
374.965	1798.81
375.191	1725.81
375.416	1181.81
375.642	1023.81
375.868	1231.81
376.094	1394.81
376.319	1199.81
376.545	1351.81
376.771	1419.81
376.997	1196.81
377.222	887.81
377.448	746.81
377.674	769.81
377.899	774.81
378.125	758.81
378.35	768.81
378.576	802.81
378.802	877.81
379.027	960.81
379.253	905.81
379.478	931.81
379.704	1080.81
379.929	1120.81
380.155	1149.81
380.38	980.81
380.606	1056.81
380.831	1173.81
381.057	1035.81
381.282	1008.81
381.507	1235.81
381.733	1539.81
381.958	1593.81
382.184	1722.81
382.409	1839.81
382.634	1730.81
382.86	1788.81
383.085	1497.81
383.31	1181.81
383.535	1244.81
383.761	1276.81
383.986	1184.81
384.211	1484.81
384.436	1415.81
384.662	1087.81
384.887	1021.81
385.112	1079.81
385.337	1097.81
385.562	1036.81
385.787	1104.81
386.013	1297.81
386.238	1325.81
386.463	1061.81
386.688	1017.81
386.913	995.81
387.138	901.81
387.363	983.81
387.588	1017.81
387.813	1018.81
388.038	1159.81
388.263	1000.81
388.488	981.81
388.713	1171.81
388.938	1263.81
389.163	1086.81
389.387	951.81
389.612	960.81
389.837	967.81
390.062	979.81
390.287	1008.81
390.512	1063.81
390.736	951.81
390.961	905.81
391.186	889.81
391.411	859.81
391.636	858.81
391.86	950.81
392.085	1052.81
392.31	1055.81
392.534	1001.81
392.759	979.81
392.984	1024.81
393.208	1011.81
393.433	901.81
393.658	841.81
393.882	808.81
394.107	817.81
394.331	811.81
394.556	830.81
394.78	857.81
395.005	841.81
395.229	893.81
395.454	901.81
395.678	895.81
395.903	944.81
396.127	893.81
396.352	919.81
396.576	1020.81
396.801	1038.81
397.025	1159.81
397.249	1169.81
397.474	948.81
397.698	959.81
397.922	1032.81
398.147	920.81
398.371	934.81
398.595	1002.81
398.82	977.81
399.044	985.81
399.268	983.81
399.492	1037.81
399.717	1087.81
399.941	1143.81
400.165	1100.81
400.389	1063.81
400.613	1084.81
400.837	1081.81
401.062	961.81
401.286	910.81
401.51	895.81
401.734	930.81
401.958	946.81
402.182	933.81
402.406	911.81
402.63	934.81
402.854	962.81
403.078	1123.81
403.302	1335.81
403.526	1379.81
403.75	1217.81
403.974	1073.81
404.198	1115.81
404.422	1256.81
404.645	1506.81
404.869	1642.81
405.093	1211.81
405.317	1025.81
405.541	991.81
405.765	1031.81
405.988	1027.81
406.212	1119.81
406.436	1350.81
406.66	1499.81
406.883	1183.81
407.107	1226.81
407.331	1420.81
407.555	1309.81
407.778	1123.81
408.002	1080.81
408.226	1051.81
408.449	1061.81
408.673	1049.81
408.896	960.81
409.12	952.81
409.344	899.81
409.567	911.81
409.791	904.81
410.014	943.81
410.238	894.81
410.461	899.81
410.685	909.81
410.908	922.81
411.132	921.81
411.355	937.81
411.578	963.81
411.802	936.81
412.025	1025.81
412.249	1011.81
412.472	963.81
412.695	966.81
412.919	952.81
413.142	980.81
413.365	1083.81
413.589	1087.81
413.812	982.81
414.035	910.81
414.258	955.81
414.482	1091.81
414.705	1087.81
414.928	923.81
415.151	861.81
415.374	893.81
415.597	936.81
415.821	950.81
416.044	917.81
416.267	891.81
416.49	876.81
416.713	864.81
416.936	883.81
417.159	871.81
417.382	907.81
417.605	923.81
417.828	935.81
418.051	954.81
418.274	932.81
418.497	950.81
418.72	938.81
418.943	947.81
419.166	1031.81
419.389	1036.81
419.611	1051.81
419.834	1067.81
420.057	1163.81
420.28	1178.81
420.503	1065.81
420.726	935.81
420.948	898.81
421.171	908.81
421.394	891.81
421.617	901.81
421.839	916.81
422.062	971.81
422.285	945.81
422.507	931.81
422.73	956.81
422.953	961.81
423.175	981.81
423.398	996.81
423.621	1039.81
423.843	1115.81
424.066	983.81
424.288	966.81
424.511	918.81
424.733	952.81
424.956	996.81
425.178	1119.81
425.401	1293.81
425.623	1461.81
425.846	1177.81
426.068	1036.81
426.291	1168.81
426.513	1083.81
426.735	941.81
426.958	999.81
427.18	1195.81
427.402	1580.81
427.625	1556.81
427.847	1213.81
428.069	953.81
428.292	928.81
428.514	932.81
428.736	895.81
428.958	970.81
429.181	1179.81
429.403	999.81
429.625	921.81
429.847	888.81
430.069	939.81
430.292	941.81
430.514	876.81
430.736	968.81
430.958	1233.81
431.18	1110.81
431.402	847.81
431.624	850.81
431.846	829.81
432.068	791.81
432.29	842.81
432.512	948.81
432.734	1255.81
432.956	1165.81
433.178	880.81
433.4	844.81
433.622	858.81
433.844	888.81
434.066	953.81
434.287	962.81
434.509	924.81
434.731	950.81
434.953	855.81
435.175	933.81
435.397	1058.81
435.618	900.81
435.84	829.81
436.062	841.81
436.284	852.81
436.505	784.81
436.727	792.81
436.949	804.81
437.17	855.81
437.392	869.81
437.614	827.81
437.835	845.81
438.057	858.81
438.278	1009.81
438.5	1449.81
438.721	1444.81
438.943	986.81
439.165	827.81
439.386	781.81
439.608	797.81
439.829	803.81
440.05	812.81
440.272	872.81
440.493	1053.81
440.715	1267.81
440.936	1003.81
441.158	898.81
441.379	868.81
441.6	1031.81
441.822	1057.81
442.043	891.81
442.264	891.81
442.486	898.81
442.707	873.81
442.928	892.81
443.149	923.81
443.371	908.81
443.592	947.81
443.813	927.81
444.034	935.81
444.255	893.81
444.476	977.81
444.698	950.81
444.919	967.81
445.14	1057.81
445.361	1006.81
445.582	965.81
445.803	944.81
446.024	965.81
446.245	968.81
446.466	933.81
446.687	900.81
446.908	896.81
447.129	844.81
447.35	834.81
447.571	821.81
447.792	818.81
448.013	792.81
448.234	797.81
448.455	802.81
448.675	793.81
448.896	817.81
449.117	806.81
449.338	817.81
449.559	847.81
449.779	898.81
450	865.81
450.221	855.81
450.442	834.81
450.662	785.81
450.883	788.81
451.104	835.81
451.324	790.81
451.545	851.81
451.766	808.81
451.986	777.81
452.207	774.81
452.428	807.81
452.648	790.81
452.869	875.81
453.089	869.81
453.31	817.81
453.53	753.81
453.751	775.81
453.971	733.81
454.192	774.81
454.412	792.81
454.633	769.81
454.853	755.81
455.073	740.81
455.294	745.81
455.514	736.81
455.734	778.81
455.955	803.81
456.175	852.81
456.395	764.81
456.616	716.81
456.836	725.81
457.056	737.81
457.276	700.81
457.497	714.81
457.717	748.81
457.937	738.81
458.157	763.81
458.377	727.81
458.598	745.81
458.818	768.81
459.038	827.81
459.258	817.81
459.478	863.81
459.698	919.81
459.918	895.81
460.138	890.81
460.358	928.81
460.578	887.81
460.798	889.81
461.018	899.81
461.238	860.81
461.458	858.81
461.678	901.81
461.898	947.81
462.118	926.81
462.338	941.81
462.558	975.81
462.777	1007.81
462.997	1025.81
463.217	1014.81
463.437	1056.81
463.657	1018.81
463.876	983.81
464.096	949.81
464.316	960.81
464.536	976.81
464.755	1072.81
464.975	1054.81
465.195	974.81
465.414	1034.81
465.634	989.81
465.854	933.81
466.073	882.81
466.293	866.81
466.512	933.81
466.732	1051.81
466.951	1077.81
467.171	939.81
467.391	883.81
467.61	877.81
467.829	965.81
468.049	937.81
468.268	860.81
468.488	865.81
468.707	920.81
468.927	1093.81
469.146	1171.81
469.365	1051.81
469.585	958.81
469.804	1014.81
470.023	1111.81
470.243	978.81
470.462	958.81
470.681	915.81
470.901	949.81
471.12	994.81
471.339	999.81
471.558	929.81
471.777	960.81
471.997	1036.81
472.216	1151.81
472.435	1115.81
472.654	998.81
472.873	990.81
473.092	1016.81
473.311	1091.81
473.53	989.81
473.749	947.81
473.968	979.81
474.187	979.81
474.406	919.81
474.625	920.81
474.844	972.81
475.063	1038.81
475.282	1042.81
475.501	1092.81
475.72	1137.81
475.939	1123.81
476.158	1108.81
476.377	1257.81
476.596	1489.81
476.814	1547.81
477.033	1267.81
477.252	1068.81
477.471	1008.81
477.69	1018.81
477.908	1143.81
478.127	1145.81
478.346	1047.81
478.564	1175.81
478.783	1113.81
479.002	1162.81
479.22	1287.81
479.439	1465.81
479.658	1213.81
479.876	1137.81
480.095	1231.81
480.313	1259.81
480.532	1135.81
480.751	1131.81
480.969	1143.81
481.188	1299.81
481.406	1331.81
481.624	1265.81
481.843	1151.81
482.061	1080.81
482.28	1209.81
482.498	1509.81
482.717	1413.81
482.935	1223.81
483.153	1161.81
483.372	1078.81
483.59	1052.81
483.808	1066.81
484.027	1050.81
484.245	1044.81
484.463	1001.81
484.681	1047.81
484.9	1115.81
485.118	1224.81
485.336	1125.81
485.554	1041.81
485.772	1077.81
485.99	1163.81
486.209	1247.81
486.427	1240.81
486.645	1204.81
486.863	1244.81
487.081	1247.81
487.299	1425.81
487.517	1385.81
487.735	1250.81
487.953	1254.81
488.171	1309.81
488.389	1196.81
488.607	1118.81
488.825	1199.81
489.043	1303.81
489.261	1461.81
489.479	1622.81
489.696	1312.81
489.914	1185.81
490.132	1115.81
490.35	1127.81
490.568	1130.81
490.786	1119.81
491.003	1129.81
491.221	1180.81
491.439	1163.81
491.657	1153.81
491.874	1270.81
492.092	1535.81
492.31	1875.81
492.527	1789.81
492.745	1522.81
492.963	1351.81
493.18	1313.81
493.398	1339.81
493.615	1325.81
