Data from NickelSpatula.Lamp.E5.5.P2_HRD10591_11-53-05-552.txt Node
Date: Tue Jul 23 11:53:05 EDT 2019
User: cochatt
Spectrometer: HR+D1059
Trigger mode: 1
Integration Time (sec): 1.000000E-1
Scans to average: 1
Electric dark correction enabled: true
Nonlinearity correction enabled: false
Boxcar width: 0
XAxis mode: Wavelengths
Number of Pixels in Spectrum: 2048
>>>>>Begin Spectral Data<<<<<
223.165	-15.56
223.4	-15.56
223.635	-15.56
223.869	-6.56
224.104	-32.56
224.338	-1.56
224.573	-11.56
224.808	-17.56
225.042	-16.56
225.277	-17.56
225.511	5.44
225.746	-1.56
225.98	-7.56
226.215	5.44
226.449	17.44
226.683	24.44
226.918	26.44
227.152	49.44
227.387	32.44
227.621	32.44
227.856	48.44
228.09	37.44
228.324	39.44
228.559	58.44
228.793	62.44
229.027	73.44
229.262	84.44
229.496	62.44
229.73	78.44
229.964	89.44
230.199	92.44
230.433	110.44
230.667	107.44
230.901	90.44
231.136	104.44
231.37	110.44
231.604	108.44
231.838	118.44
232.072	110.44
232.306	103.44
232.541	93.44
232.775	104.44
233.009	118.44
233.243	126.44
233.477	115.44
233.711	134.44
233.945	114.44
234.179	115.44
234.413	126.44
234.647	144.44
234.881	144.44
235.115	135.44
235.349	133.44
235.583	126.44
235.817	124.44
236.051	130.44
236.285	142.44
236.519	137.44
236.753	134.44
236.987	132.44
237.221	128.44
237.455	134.44
237.689	133.44
237.922	135.44
238.156	156.44
238.39	152.44
238.624	181.44
238.858	180.44
239.091	146.44
239.325	149.44
239.559	131.44
239.793	156.44
240.027	175.44
240.26	164.44
240.494	169.44
240.728	170.44
240.961	176.44
241.195	175.44
241.429	172.44
241.662	178.44
241.896	154.44
242.13	156.44
242.363	132.44
242.597	146.44
242.83	158.44
243.064	160.44
243.298	163.44
243.531	186.44
243.765	166.44
243.998	179.44
244.232	176.44
244.465	163.44
244.699	165.44
244.932	184.44
245.166	167.44
245.399	163.44
245.633	155.44
245.866	179.44
246.099	153.44
246.333	186.44
246.566	203.44
246.8	208.44
247.033	207.44
247.266	184.44
247.5	200.44
247.733	177.44
247.966	189.44
248.2	173.44
248.433	178.44
248.666	213.44
248.899	207.44
249.133	191.44
249.366	226.44
249.599	260.44
249.832	232.44
250.066	200.44
250.299	208.44
250.532	216.44
250.765	185.44
250.998	177.44
251.231	186.44
251.465	202.44
251.698	201.44
251.931	203.44
252.164	208.44
252.397	226.44
252.63	252.44
252.863	259.44
253.096	275.44
253.329	278.44
253.562	251.44
253.795	279.44
254.028	316.44
254.261	334.44
254.494	275.44
254.727	262.44
254.96	250.44
255.193	274.44
255.426	251.44
255.659	202.44
255.892	196.44
256.124	222.44
256.357	250.44
256.59	278.44
256.823	269.44
257.056	223.44
257.289	225.44
257.521	233.44
257.754	282.44
257.987	313.44
258.22	268.44
258.452	246.44
258.685	239.44
258.918	300.44
259.151	275.44
259.383	298.44
259.616	349.44
259.849	368.44
260.081	369.44
260.314	424.44
260.547	339.44
260.779	338.44
261.012	390.44
261.244	358.44
261.477	370.44
261.71	340.44
261.942	284.44
262.175	295.44
262.407	283.44
262.64	279.44
262.872	326.44
263.105	345.44
263.337	376.44
263.57	346.44
263.802	242.44
264.035	219.44
264.267	233.44
264.499	187.44
264.732	195.44
264.964	192.44
265.197	176.44
265.429	194.44
265.661	204.44
265.894	200.44
266.126	220.44
266.358	216.44
266.591	286.44
266.823	327.44
267.055	315.44
267.287	291.44
267.52	277.44
267.752	316.44
267.984	332.44
268.216	305.44
268.448	260.44
268.681	257.44
268.913	284.44
269.145	289.44
269.377	306.44
269.609	297.44
269.841	281.44
270.073	287.44
270.306	308.44
270.538	316.44
270.77	327.44
271.002	313.44
271.234	337.44
271.466	362.44
271.698	302.44
271.93	312.44
272.162	306.44
272.394	310.44
272.626	310.44
272.858	315.44
273.09	331.44
273.322	278.44
273.553	251.44
273.785	303.44
274.017	391.44
274.249	496.44
274.481	504.44
274.713	527.44
274.945	625.44
275.176	666.44
275.408	567.44
275.64	537.44
275.872	537.44
276.104	460.44
276.335	395.44
276.567	390.44
276.799	390.44
277.031	419.44
277.262	353.44
277.494	260.44
277.726	271.44
277.957	299.44
278.189	331.44
278.421	327.44
278.652	298.44
278.884	286.44
279.115	298.44
279.347	274.44
279.579	289.44
279.81	282.44
280.042	291.44
280.273	295.44
280.505	268.44
280.736	233.44
280.968	229.44
281.199	258.44
281.431	306.44
281.662	292.44
281.894	274.44
282.125	296.44
282.356	320.44
282.588	305.44
282.819	280.44
283.051	308.44
283.282	340.44
283.513	411.44
283.745	435.44
283.976	434.44
284.207	421.44
284.439	434.44
284.67	431.44
284.901	378.44
285.132	400.44
285.364	412.44
285.595	374.44
285.826	388.44
286.057	411.44
286.288	377.44
286.52	419.44
286.751	448.44
286.982	419.44
287.213	382.44
287.444	374.44
287.675	403.44
287.906	382.44
288.138	354.44
288.369	302.44
288.6	297.44
288.831	295.44
289.062	344.44
289.293	396.44
289.524	347.44
289.755	364.44
289.986	361.44
290.217	335.44
290.448	262.44
290.679	223.44
290.91	213.44
291.141	233.44
291.371	223.44
291.602	232.44
291.833	226.44
292.064	240.44
292.295	264.44
292.526	288.44
292.757	295.44
292.987	323.44
293.218	340.44
293.449	359.44
293.68	384.44
293.91	367.44
294.141	372.44
294.372	352.44
294.603	325.44
294.833	343.44
295.064	425.44
295.295	400.44
295.525	299.44
295.756	249.44
295.987	233.44
296.217	225.44
296.448	232.44
296.679	246.44
296.909	252.44
297.14	285.44
297.37	308.44
297.601	291.44
297.831	255.44
298.062	272.44
298.292	310.44
298.523	327.44
298.753	366.44
298.984	353.44
299.214	292.44
299.445	233.44
299.675	230.44
299.905	219.44
300.136	231.44
300.366	244.44
300.597	251.44
300.827	254.44
301.057	227.44
301.288	239.44
301.518	244.44
301.748	295.44
301.979	298.44
302.209	306.44
302.439	287.44
302.669	270.44
302.9	273.44
303.13	268.44
303.36	244.44
303.59	262.44
303.82	266.44
304.051	288.44
304.281	295.44
304.511	295.44
304.741	259.44
304.971	299.44
305.201	293.44
305.431	271.44
305.661	252.44
305.891	243.44
306.121	240.44
306.352	218.44
306.582	219.44
306.812	203.44
307.042	200.44
307.272	194.44
307.502	188.44
307.731	210.44
307.961	208.44
308.191	210.44
308.421	195.44
308.651	194.44
308.881	203.44
309.111	201.44
309.341	201.44
309.571	216.44
309.8	218.44
310.03	223.44
310.26	217.44
310.49	215.44
310.72	197.44
310.949	210.44
311.179	233.44
311.409	216.44
311.639	228.44
311.868	298.44
312.098	369.44
312.328	423.44
312.557	362.44
312.787	378.44
313.017	343.44
313.246	370.44
313.476	408.44
313.706	335.44
313.935	289.44
314.165	245.44
314.394	211.44
314.624	228.44
314.853	243.44
315.083	247.44
315.312	223.44
315.542	235.44
315.771	228.44
316.001	198.44
316.23	202.44
316.46	192.44
316.689	189.44
316.919	202.44
317.148	205.44
317.377	202.44
317.607	204.44
317.836	232.44
318.065	251.44
318.295	283.44
318.524	236.44
318.753	220.44
318.983	208.44
319.212	205.44
319.441	224.44
319.67	238.44
319.9	279.44
320.129	259.44
320.358	231.44
320.587	196.44
320.816	224.44
321.046	254.44
321.275	280.44
321.504	284.44
321.733	259.44
321.962	278.44
322.191	257.44
322.42	219.44
322.649	225.44
322.878	268.44
323.108	261.44
323.337	238.44
323.566	235.44
323.795	242.44
324.024	235.44
324.253	216.44
324.482	217.44
324.71	229.44
324.939	263.44
325.168	248.44
325.397	240.44
325.626	204.44
325.855	225.44
326.084	213.44
326.313	215.44
326.542	193.44
326.77	209.44
326.999	219.44
327.228	216.44
327.457	228.44
327.686	223.44
327.914	219.44
328.143	213.44
328.372	205.44
328.6	186.44
328.829	200.44
329.058	222.44
329.287	219.44
329.515	198.44
329.744	204.44
329.972	205.44
330.201	196.44
330.43	195.44
330.658	211.44
330.887	268.44
331.115	232.44
331.344	240.44
331.572	229.44
331.801	217.44
332.03	211.44
332.258	193.44
332.486	234.44
332.715	235.44
332.943	228.44
333.172	217.44
333.4	238.44
333.629	254.44
333.857	275.44
334.085	270.44
334.314	274.44
334.542	243.44
334.771	228.44
334.999	222.44
335.227	225.44
335.455	213.44
335.684	245.44
335.912	263.44
336.14	269.44
336.369	277.44
336.597	272.44
336.825	302.44
337.053	330.44
337.281	268.44
337.51	223.44
337.738	228.44
337.966	242.44
338.194	235.44
338.422	228.44
338.65	210.44
338.878	213.44
339.106	198.44
339.334	219.44
339.562	241.44
339.79	226.44
340.018	224.44
340.246	223.44
340.474	273.44
340.702	261.44
340.93	268.44
341.158	275.44
341.386	237.44
341.614	231.44
341.842	255.44
342.07	245.44
342.298	264.44
342.526	281.44
342.754	235.44
342.981	253.44
343.209	231.44
343.437	261.44
343.665	248.44
343.893	279.44
344.12	326.44
344.348	366.44
344.576	330.44
344.804	265.44
345.031	235.44
345.259	216.44
345.487	233.44
345.714	240.44
345.942	245.44
346.17	273.44
346.397	271.44
346.625	242.44
346.853	239.44
347.08	211.44
347.308	221.44
347.535	264.44
347.763	258.44
347.99	244.44
348.218	217.44
348.445	216.44
348.673	223.44
348.9	219.44
349.128	232.44
349.355	250.44
349.583	231.44
349.81	226.44
350.037	238.44
350.265	188.44
350.492	197.44
350.72	202.44
350.947	211.44
351.174	199.44
351.402	209.44
351.629	212.44
351.856	221.44
352.083	199.44
352.311	222.44
352.538	218.44
352.765	231.44
352.992	241.44
353.22	210.44
353.447	233.44
353.674	222.44
353.901	195.44
354.128	216.44
354.355	224.44
354.583	230.44
354.81	228.44
355.037	233.44
355.264	231.44
355.491	235.44
355.718	243.44
355.945	262.44
356.172	254.44
356.399	230.44
356.626	288.44
356.853	306.44
357.08	340.44
357.307	365.44
357.534	290.44
357.761	310.44
357.988	348.44
358.215	414.44
358.441	382.44
358.668	318.44
358.895	287.44
359.122	266.44
359.349	270.44
359.576	298.44
359.802	254.44
360.029	220.44
360.256	241.44
360.483	262.44
360.709	344.44
360.936	333.44
361.163	297.44
361.39	244.44
361.616	245.44
361.843	258.44
362.07	281.44
362.296	281.44
362.523	248.44
362.749	220.44
362.976	219.44
363.203	259.44
363.429	282.44
363.656	262.44
363.882	218.44
364.109	212.44
364.335	220.44
364.562	216.44
364.788	228.44
365.015	256.44
365.241	261.44
365.468	218.44
365.694	217.44
365.92	211.44
366.147	191.44
366.373	188.44
366.599	194.44
366.826	195.44
367.052	209.44
367.278	195.44
367.505	201.44
367.731	212.44
367.957	224.44
368.184	229.44
368.41	238.44
368.636	217.44
368.862	235.44
369.089	233.44
369.315	204.44
369.541	214.44
369.767	188.44
369.993	214.44
370.219	206.44
370.445	222.44
370.672	231.44
370.898	251.44
371.124	239.44
371.35	234.44
371.576	208.44
371.802	221.44
372.028	259.44
372.254	298.44
372.48	248.44
372.706	256.44
372.932	244.44
373.158	238.44
373.384	303.44
373.61	362.44
373.835	365.44
374.061	292.44
374.287	272.44
374.513	296.44
374.739	330.44
374.965	337.44
375.191	340.44
375.416	252.44
375.642	233.44
375.868	257.44
376.094	282.44
376.319	258.44
376.545	262.44
376.771	277.44
376.997	256.44
377.222	216.44
377.448	192.44
377.674	193.44
377.899	201.44
378.125	187.44
378.35	190.44
378.576	200.44
378.802	182.44
379.027	234.44
379.253	214.44
379.478	218.44
379.704	230.44
379.929	232.44
380.155	255.44
380.38	227.44
380.606	219.44
380.831	276.44
381.057	232.44
381.282	225.44
381.507	256.44
381.733	302.44
381.958	306.44
382.184	320.44
382.409	338.44
382.634	357.44
382.86	331.44
383.085	299.44
383.31	260.44
383.535	277.44
383.761	279.44
383.986	251.44
384.211	321.44
384.436	299.44
384.662	241.44
384.887	230.44
385.112	248.44
385.337	246.44
385.562	247.44
385.787	271.44
386.013	275.44
386.238	279.44
386.463	227.44
386.688	238.44
386.913	212.44
387.138	199.44
387.363	212.44
387.588	227.44
387.813	227.44
388.038	264.44
388.263	232.44
388.488	239.44
388.713	257.44
388.938	261.44
389.163	217.44
389.387	214.44
389.612	214.44
389.837	228.44
390.062	229.44
390.287	241.44
390.512	241.44
390.736	228.44
390.961	202.44
391.186	204.44
391.411	199.44
391.636	223.44
391.86	216.44
392.085	244.44
392.31	262.44
392.534	224.44
392.759	240.44
392.984	244.44
393.208	220.44
393.433	227.44
393.658	221.44
393.882	213.44
394.107	197.44
394.331	224.44
394.556	206.44
394.78	184.44
395.005	211.44
395.229	197.44
395.454	231.44
395.678	225.44
395.903	217.44
396.127	225.44
396.352	216.44
396.576	233.44
396.801	236.44
397.025	242.44
397.249	252.44
397.474	231.44
397.698	234.44
397.922	227.44
398.147	223.44
398.371	235.44
398.595	232.44
398.82	213.44
399.044	246.44
399.268	252.44
399.492	272.44
399.717	311.44
399.941	285.44
400.165	279.44
400.389	263.44
400.613	258.44
400.837	262.44
401.062	225.44
401.286	220.44
401.51	217.44
401.734	223.44
401.958	218.44
402.182	248.44
402.406	238.44
402.63	251.44
402.854	261.44
403.078	288.44
403.302	366.44
403.526	372.44
403.75	328.44
403.974	268.44
404.198	277.44
404.422	291.44
404.645	325.44
404.869	339.44
405.093	287.44
405.317	268.44
405.541	266.44
405.765	241.44
405.988	246.44
406.212	264.44
406.436	287.44
406.66	329.44
406.883	279.44
407.107	274.44
407.331	320.44
407.555	315.44
407.778	286.44
408.002	259.44
408.226	278.44
408.449	250.44
408.673	271.44
408.896	233.44
409.12	233.44
409.344	244.44
409.567	231.44
409.791	240.44
410.014	253.44
410.238	248.44
410.461	224.44
410.685	256.44
410.908	242.44
411.132	245.44
411.355	239.44
411.578	259.44
411.802	245.44
412.025	247.44
412.249	257.44
412.472	234.44
412.695	234.44
412.919	241.44
413.142	238.44
413.365	259.44
413.589	256.44
413.812	244.44
414.035	231.44
414.258	235.44
414.482	257.44
414.705	256.44
414.928	237.44
415.151	226.44
415.374	216.44
415.597	241.44
415.821	241.44
416.044	231.44
416.267	231.44
416.49	224.44
416.713	213.44
416.936	228.44
417.159	233.44
417.382	236.44
417.605	233.44
417.828	233.44
418.051	228.44
418.274	235.44
418.497	241.44
418.72	240.44
418.943	247.44
419.166	252.44
419.389	269.44
419.611	244.44
419.834	239.44
420.057	263.44
420.28	261.44
420.503	259.44
420.726	225.44
420.948	234.44
421.171	235.44
421.394	225.44
421.617	224.44
421.839	244.44
422.062	232.44
422.285	230.44
422.507	234.44
422.73	242.44
422.953	236.44
423.175	233.44
423.398	231.44
423.621	250.44
423.843	258.44
424.066	239.44
424.288	242.44
424.511	231.44
424.733	231.44
424.956	242.44
425.178	260.44
425.401	291.44
425.623	355.44
425.846	286.44
426.068	228.44
426.291	253.44
426.513	267.44
426.735	249.44
426.958	252.44
427.18	271.44
427.402	332.44
427.625	362.44
427.847	298.44
428.069	225.44
428.292	224.44
428.514	227.44
428.736	211.44
428.958	254.44
429.181	295.44
429.403	250.44
429.625	229.44
429.847	221.44
430.069	216.44
430.292	228.44
430.514	218.44
430.736	233.44
430.958	296.44
431.18	252.44
431.402	244.44
431.624	222.44
431.846	225.44
432.068	215.44
432.29	212.44
432.512	226.44
432.734	290.44
432.956	275.44
433.178	227.44
433.4	215.44
433.622	218.44
433.844	234.44
434.066	254.44
434.287	250.44
434.509	246.44
434.731	261.44
434.953	258.44
435.175	254.44
435.397	280.44
435.618	220.44
435.84	218.44
436.062	229.44
436.284	226.44
436.505	223.44
436.727	214.44
436.949	203.44
437.17	225.44
437.392	218.44
437.614	211.44
437.835	213.44
438.057	213.44
438.278	225.44
438.5	304.44
438.721	310.44
438.943	243.44
439.165	219.44
439.386	218.44
439.608	232.44
439.829	208.44
440.05	212.44
440.272	221.44
440.493	257.44
440.715	279.44
440.936	252.44
441.158	225.44
441.379	226.44
441.6	245.44
441.822	252.44
442.043	234.44
442.264	217.44
442.486	226.44
442.707	227.44
442.928	225.44
443.149	238.44
443.371	251.44
443.592	236.44
443.813	248.44
444.034	243.44
444.255	252.44
444.476	274.44
444.698	248.44
444.919	257.44
445.14	339.44
445.361	307.44
445.582	259.44
445.803	248.44
446.024	248.44
446.245	244.44
446.466	214.44
446.687	215.44
446.908	221.44
447.129	224.44
447.35	221.44
447.571	224.44
447.792	215.44
448.013	196.44
448.234	223.44
448.455	210.44
448.675	219.44
448.896	222.44
449.117	222.44
449.338	204.44
449.559	211.44
449.779	219.44
450	226.44
450.221	222.44
450.442	206.44
450.662	211.44
450.883	212.44
451.104	211.44
451.324	208.44
451.545	224.44
451.766	211.44
451.986	224.44
452.207	185.44
452.428	207.44
452.648	203.44
452.869	222.44
453.089	228.44
453.31	218.44
453.53	202.44
453.751	180.44
453.971	197.44
454.192	223.44
454.412	226.44
454.633	214.44
454.853	210.44
455.073	196.44
455.294	215.44
455.514	194.44
455.734	198.44
455.955	216.44
456.175	218.44
456.395	215.44
456.616	194.44
456.836	199.44
457.056	187.44
457.276	202.44
457.497	185.44
457.717	179.44
457.937	174.44
458.157	184.44
458.377	201.44
458.598	205.44
458.818	212.44
459.038	218.44
459.258	227.44
459.478	212.44
459.698	240.44
459.918	254.44
460.138	240.44
460.358	241.44
460.578	224.44
460.798	233.44
461.018	252.44
461.238	233.44
461.458	238.44
461.678	242.44
461.898	249.44
462.118	254.44
462.338	242.44
462.558	241.44
462.777	260.44
462.997	283.44
463.217	307.44
463.437	307.44
463.657	274.44
463.876	256.44
464.096	274.44
464.316	263.44
464.536	272.44
464.755	254.44
464.975	263.44
465.195	260.44
465.414	281.44
465.634	273.44
465.854	219.44
466.073	225.44
466.293	229.44
466.512	231.44
466.732	256.44
466.951	269.44
467.171	226.44
467.391	216.44
467.61	227.44
467.829	230.44
468.049	232.44
468.268	220.44
468.488	232.44
468.707	220.44
468.927	250.44
469.146	276.44
469.365	253.44
469.585	238.44
469.804	256.44
470.023	259.44
470.243	225.44
470.462	238.44
470.681	233.44
470.901	225.44
471.12	246.44
471.339	238.44
471.558	232.44
471.777	226.44
471.997	265.44
472.216	266.44
472.435	277.44
472.654	254.44
472.873	232.44
473.092	261.44
473.311	256.44
473.53	231.44
473.749	227.44
473.968	242.44
474.187	235.44
474.406	238.44
474.625	222.44
474.844	230.44
475.063	250.44
475.282	233.44
475.501	249.44
475.72	273.44
475.939	272.44
476.158	286.44
476.377	288.44
476.596	321.44
476.814	350.44
477.033	306.44
477.252	268.44
477.471	244.44
477.69	267.44
477.908	271.44
478.127	282.44
478.346	277.44
478.564	285.44
478.783	269.44
479.002	285.44
479.22	297.44
479.439	340.44
479.658	293.44
479.876	270.44
480.095	299.44
480.313	290.44
480.532	285.44
480.751	280.44
480.969	282.44
481.188	297.44
481.406	314.44
481.624	309.44
481.843	268.44
482.061	257.44
482.28	277.44
482.498	338.44
482.717	327.44
482.935	292.44
483.153	288.44
483.372	254.44
483.59	266.44
483.808	256.44
484.027	241.44
484.245	249.44
484.463	240.44
484.681	240.44
484.9	265.44
485.118	297.44
485.336	273.44
485.554	260.44
485.772	270.44
485.99	274.44
486.209	323.44
486.427	292.44
486.645	289.44
486.863	297.44
487.081	256.44
487.299	316.44
487.517	306.44
487.735	287.44
487.953	288.44
488.171	299.44
488.389	276.44
488.607	267.44
488.825	281.44
489.043	292.44
489.261	313.44
489.479	321.44
489.696	289.44
489.914	268.44
490.132	255.44
490.35	267.44
490.568	272.44
490.786	280.44
491.003	273.44
491.221	283.44
491.439	260.44
491.657	249.44
491.874	275.44
492.092	330.44
492.31	331.44
492.527	366.44
492.745	330.44
492.963	290.44
493.18	286.44
493.398	309.44
493.615	296.44
493.833	296.44
494.05	282.44
494.268	288.44
494.485	286.44
494.703	287.44
494.92	283.44
495.138	260.44
495.355	272.44
495.573	280.44
495.79	302.44
496.008	374.44
496.225	326.44
496.442	299.44
496.66	302.44
496.877	305.44
497.094	331.44
497.312	296.44
497.529	316.44
497.746	288.44
497.963	292.44
498.181	335.44
498.398	375.44
498.615	361.44
498.832	386.44
499.049	394.44
499.267	385.44
499.484	386.44
499.701	420.44
499.918	433.44
500.135	466.44
500.352	527.44
500.569	561.44
500.786	529.44
501.003	536.44
501.22	459.44
501.437	423.44
501.654	412.44
501.871	375.44
502.088	378.44
502.305	354.44
