Data from NickelSpatula.Lamp.E5.5.P2_HRD10591_11-54-01-546.txt Node
Date: Tue Jul 23 11:54:01 EDT 2019
User: cochatt
Spectrometer: HR+D1059
Trigger mode: 1
Integration Time (sec): 1.000000E-1
Scans to average: 1
Electric dark correction enabled: true
Nonlinearity correction enabled: false
Boxcar width: 0
XAxis mode: Wavelengths
Number of Pixels in Spectrum: 2048
>>>>>Begin Spectral Data<<<<<
223.165	-26.25
223.4	-26.25
223.635	-26.25
223.869	-25.25
224.104	-15.25
224.338	-14.25
224.573	-23.25
224.808	-11.25
225.042	-31.25
225.277	-5.25
225.511	-2.25
225.746	6.75
225.98	16.75
226.215	5.75
226.449	17.75
226.683	33.75
226.918	33.75
227.152	39.75
227.387	30.75
227.621	46.75
227.856	51.75
228.09	43.75
228.324	55.75
228.559	53.75
228.793	52.75
229.027	72.75
229.262	85.75
229.496	85.75
229.73	95.75
229.964	89.75
230.199	94.75
230.433	96.75
230.667	99.75
230.901	108.75
231.136	96.75
231.37	85.75
231.604	98.75
231.838	119.75
232.072	103.75
232.306	103.75
232.541	124.75
232.775	114.75
233.009	119.75
233.243	113.75
233.477	129.75
233.711	126.75
233.945	125.75
234.179	121.75
234.413	123.75
234.647	133.75
234.881	146.75
235.115	115.75
235.349	138.75
235.583	124.75
235.817	119.75
236.051	113.75
236.285	119.75
236.519	136.75
236.753	129.75
236.987	132.75
237.221	124.75
237.455	133.75
237.689	133.75
237.922	124.75
238.156	146.75
238.39	149.75
238.624	184.75
238.858	151.75
239.091	135.75
239.325	135.75
239.559	131.75
239.793	161.75
240.027	168.75
240.26	170.75
240.494	165.75
240.728	163.75
240.961	175.75
241.195	190.75
241.429	169.75
241.662	168.75
241.896	135.75
242.13	126.75
242.363	150.75
242.597	133.75
242.83	146.75
243.064	148.75
243.298	157.75
243.531	158.75
243.765	145.75
243.998	165.75
244.232	164.75
244.465	170.75
244.699	160.75
244.932	168.75
245.166	159.75
245.399	141.75
245.633	155.75
245.866	147.75
246.099	157.75
246.333	200.75
246.566	193.75
246.8	197.75
247.033	177.75
247.266	172.75
247.5	163.75
247.733	177.75
247.966	179.75
248.2	168.75
248.433	201.75
248.666	201.75
248.899	190.75
249.133	197.75
249.366	221.75
249.599	234.75
249.832	227.75
250.066	196.75
250.299	195.75
250.532	211.75
250.765	208.75
250.998	176.75
251.231	186.75
251.465	187.75
251.698	197.75
251.931	168.75
252.164	202.75
252.397	212.75
252.63	216.75
252.863	248.75
253.096	274.75
253.329	269.75
253.562	243.75
253.795	286.75
254.028	295.75
254.261	301.75
254.494	280.75
254.727	262.75
254.96	251.75
255.193	271.75
255.426	273.75
255.659	215.75
255.892	184.75
256.124	198.75
256.357	225.75
256.59	272.75
256.823	263.75
257.056	222.75
257.289	223.75
257.521	208.75
257.754	264.75
257.987	304.75
258.22	248.75
258.452	241.75
258.685	238.75
258.918	279.75
259.151	288.75
259.383	321.75
259.616	360.75
259.849	354.75
260.081	356.75
260.314	386.75
260.547	318.75
260.779	323.75
261.012	376.75
261.244	356.75
261.477	358.75
261.71	318.75
261.942	291.75
262.175	287.75
262.407	267.75
262.64	280.75
262.872	324.75
263.105	334.75
263.337	377.75
263.57	344.75
263.802	229.75
264.035	209.75
264.267	218.75
264.499	202.75
264.732	165.75
264.964	184.75
265.197	189.75
265.429	197.75
265.661	207.75
265.894	207.75
266.126	214.75
266.358	228.75
266.591	281.75
266.823	323.75
267.055	319.75
267.287	277.75
267.52	268.75
267.752	289.75
267.984	327.75
268.216	316.75
268.448	261.75
268.681	255.75
268.913	268.75
269.145	282.75
269.377	284.75
269.609	294.75
269.841	265.75
270.073	287.75
270.306	297.75
270.538	314.75
270.77	320.75
271.002	311.75
271.234	315.75
271.466	334.75
271.698	296.75
271.93	297.75
272.162	316.75
272.394	304.75
272.626	300.75
272.858	316.75
273.09	302.75
273.322	264.75
273.553	272.75
273.785	308.75
274.017	376.75
274.249	472.75
274.481	463.75
274.713	526.75
274.945	607.75
275.176	608.75
275.408	552.75
275.64	514.75
275.872	529.75
276.104	425.75
276.335	371.75
276.567	377.75
276.799	409.75
277.031	406.75
277.262	327.75
277.494	277.75
277.726	249.75
277.957	278.75
278.189	332.75
278.421	314.75
278.652	312.75
278.884	279.75
279.115	264.75
279.347	272.75
279.579	260.75
279.81	282.75
280.042	266.75
280.273	287.75
280.505	238.75
280.736	232.75
280.968	227.75
281.199	249.75
281.431	286.75
281.662	271.75
281.894	262.75
282.125	259.75
282.356	291.75
282.588	292.75
282.819	245.75
283.051	296.75
283.282	328.75
283.513	409.75
283.745	448.75
283.976	443.75
284.207	399.75
284.439	424.75
284.67	411.75
284.901	368.75
285.132	381.75
285.364	419.75
285.595	367.75
285.826	414.75
286.057	408.75
286.288	395.75
286.52	404.75
286.751	434.75
286.982	422.75
287.213	365.75
287.444	366.75
287.675	392.75
287.906	376.75
288.138	328.75
288.369	310.75
288.6	273.75
288.831	286.75
289.062	340.75
289.293	372.75
289.524	345.75
289.755	353.75
289.986	348.75
290.217	326.75
290.448	242.75
290.679	210.75
290.91	232.75
291.141	214.75
291.371	205.75
291.602	226.75
291.833	237.75
292.064	229.75
292.295	262.75
292.526	288.75
292.757	297.75
292.987	320.75
293.218	348.75
293.449	369.75
293.68	374.75
293.91	350.75
294.141	372.75
294.372	356.75
294.603	328.75
294.833	333.75
295.064	406.75
295.295	395.75
295.525	295.75
295.756	265.75
295.987	210.75
296.217	223.75
296.448	225.75
296.679	250.75
296.909	250.75
297.14	253.75
297.37	301.75
297.601	281.75
297.831	258.75
298.062	273.75
298.292	298.75
298.523	335.75
298.753	365.75
298.984	322.75
299.214	277.75
299.445	227.75
299.675	241.75
299.905	233.75
300.136	232.75
300.366	252.75
300.597	247.75
300.827	234.75
301.057	237.75
301.288	228.75
301.518	232.75
301.748	264.75
301.979	306.75
302.209	308.75
302.439	316.75
302.669	290.75
302.9	265.75
303.13	237.75
303.36	257.75
303.59	234.75
303.82	247.75
304.051	280.75
304.281	293.75
304.511	281.75
304.741	261.75
304.971	253.75
305.201	289.75
305.431	278.75
305.661	250.75
305.891	256.75
306.121	221.75
306.352	231.75
306.582	210.75
306.812	209.75
307.042	209.75
307.272	192.75
307.502	191.75
307.731	217.75
307.961	215.75
308.191	197.75
308.421	201.75
308.651	208.75
308.881	192.75
309.111	189.75
309.341	184.75
309.571	201.75
309.8	211.75
310.03	225.75
310.26	215.75
310.49	209.75
310.72	206.75
310.949	201.75
311.179	208.75
311.409	225.75
311.639	234.75
311.868	297.75
312.098	357.75
312.328	382.75
312.557	358.75
312.787	393.75
313.017	338.75
313.246	354.75
313.476	370.75
313.706	335.75
313.935	289.75
314.165	234.75
314.394	206.75
314.624	206.75
314.853	227.75
315.083	242.75
315.312	229.75
315.542	223.75
315.771	226.75
316.001	197.75
316.23	194.75
316.46	193.75
316.689	217.75
316.919	195.75
317.148	206.75
317.377	193.75
317.607	202.75
317.836	225.75
318.065	238.75
318.295	249.75
318.524	264.75
318.753	231.75
318.983	213.75
319.212	204.75
319.441	213.75
319.67	219.75
319.9	244.75
320.129	251.75
320.358	209.75
320.587	217.75
320.816	212.75
321.046	254.75
321.275	265.75
321.504	260.75
321.733	264.75
321.962	244.75
322.191	234.75
322.42	237.75
322.649	228.75
322.878	248.75
323.108	242.75
323.337	226.75
323.566	235.75
323.795	244.75
324.024	236.75
324.253	218.75
324.482	220.75
324.71	233.75
324.939	273.75
325.168	230.75
325.397	197.75
325.626	201.75
325.855	197.75
326.084	226.75
326.313	209.75
326.542	209.75
326.77	201.75
326.999	210.75
327.228	224.75
327.457	216.75
327.686	237.75
327.914	208.75
328.143	208.75
328.372	182.75
328.6	185.75
328.829	199.75
329.058	209.75
329.287	191.75
329.515	211.75
329.744	207.75
329.972	195.75
330.201	184.75
330.43	196.75
330.658	212.75
330.887	239.75
331.115	243.75
331.344	227.75
331.572	214.75
331.801	208.75
332.03	191.75
332.258	194.75
332.486	212.75
332.715	226.75
332.943	223.75
333.172	212.75
333.4	218.75
333.629	216.75
333.857	258.75
334.085	250.75
334.314	257.75
334.542	240.75
334.771	213.75
334.999	223.75
335.227	225.75
335.455	212.75
335.684	220.75
335.912	262.75
336.14	280.75
336.369	287.75
336.597	290.75
336.825	303.75
337.053	308.75
337.281	277.75
337.51	234.75
337.738	208.75
337.966	216.75
338.194	261.75
338.422	239.75
338.65	216.75
338.878	212.75
339.106	217.75
339.334	226.75
339.562	227.75
339.79	209.75
340.018	205.75
340.246	240.75
340.474	240.75
340.702	269.75
340.93	267.75
341.158	257.75
341.386	227.75
341.614	237.75
341.842	238.75
342.07	237.75
342.298	290.75
342.526	281.75
342.754	269.75
342.981	238.75
343.209	210.75
343.437	238.75
343.665	258.75
343.893	238.75
344.12	308.75
344.348	347.75
344.576	294.75
344.804	263.75
345.031	239.75
345.259	225.75
345.487	228.75
345.714	223.75
345.942	225.75
346.17	247.75
346.397	255.75
346.625	224.75
346.853	209.75
347.08	205.75
347.308	225.75
347.535	256.75
347.763	260.75
347.99	212.75
348.218	206.75
348.445	210.75
348.673	224.75
348.9	226.75
349.128	246.75
349.355	249.75
349.583	218.75
349.81	220.75
350.037	208.75
350.265	206.75
350.492	190.75
350.72	185.75
350.947	204.75
351.174	223.75
351.402	220.75
351.629	209.75
351.856	216.75
352.083	212.75
352.311	214.75
352.538	240.75
352.765	263.75
352.992	238.75
353.22	223.75
353.447	213.75
353.674	214.75
353.901	211.75
354.128	217.75
354.355	225.75
354.583	233.75
354.81	233.75
355.037	225.75
355.264	232.75
355.491	238.75
355.718	257.75
355.945	246.75
356.172	232.75
356.399	216.75
356.626	280.75
356.853	324.75
357.08	344.75
357.307	356.75
357.534	269.75
357.761	295.75
357.988	362.75
358.215	415.75
358.441	372.75
358.668	323.75
358.895	302.75
359.122	254.75
359.349	263.75
359.576	287.75
359.802	252.75
360.029	217.75
360.256	208.75
360.483	242.75
360.709	330.75
360.936	334.75
361.163	290.75
361.39	243.75
361.616	244.75
361.843	258.75
362.07	327.75
362.296	286.75
362.523	215.75
362.749	213.75
362.976	227.75
363.203	256.75
363.429	264.75
363.656	227.75
363.882	214.75
364.109	212.75
364.335	210.75
364.562	232.75
364.788	223.75
365.015	273.75
365.241	247.75
365.468	212.75
365.694	205.75
365.92	193.75
366.147	206.75
366.373	180.75
366.599	179.75
366.826	180.75
367.052	195.75
367.278	189.75
367.505	172.75
367.731	197.75
367.957	231.75
368.184	224.75
368.41	209.75
368.636	213.75
368.862	244.75
369.089	215.75
369.315	224.75
369.541	216.75
369.767	196.75
369.993	199.75
370.219	205.75
370.445	214.75
370.672	224.75
370.898	249.75
371.124	240.75
371.35	232.75
371.576	216.75
371.802	220.75
372.028	264.75
372.254	310.75
372.48	274.75
372.706	227.75
372.932	258.75
373.158	249.75
373.384	274.75
373.61	350.75
373.835	364.75
374.061	277.75
374.287	260.75
374.513	308.75
374.739	326.75
374.965	354.75
375.191	346.75
375.416	260.75
375.642	219.75
375.868	262.75
376.094	302.75
376.319	256.75
376.545	281.75
376.771	275.75
376.997	259.75
377.222	207.75
377.448	184.75
377.674	185.75
377.899	188.75
378.125	181.75
378.35	185.75
378.576	204.75
378.802	206.75
379.027	237.75
379.253	218.75
379.478	213.75
379.704	219.75
379.929	248.75
380.155	233.75
380.38	221.75
380.606	223.75
380.831	256.75
381.057	241.75
381.282	227.75
381.507	265.75
381.733	292.75
381.958	313.75
382.184	333.75
382.409	338.75
382.634	340.75
382.86	346.75
383.085	298.75
383.31	244.75
383.535	275.75
383.761	280.75
383.986	260.75
384.211	284.75
384.436	289.75
384.662	223.75
384.887	243.75
385.112	250.75
385.337	230.75
385.562	248.75
385.787	241.75
386.013	271.75
386.238	274.75
386.463	232.75
386.688	225.75
386.913	236.75
387.138	214.75
387.363	218.75
387.588	233.75
387.813	242.75
388.038	268.75
388.263	227.75
388.488	228.75
388.713	246.75
388.938	262.75
389.163	241.75
389.387	227.75
389.612	209.75
389.837	226.75
390.062	249.75
390.287	233.75
390.512	240.75
390.736	222.75
390.961	226.75
391.186	206.75
391.411	205.75
391.636	213.75
391.86	247.75
392.085	249.75
392.31	226.75
392.534	226.75
392.759	216.75
392.984	238.75
393.208	240.75
393.433	209.75
393.658	208.75
393.882	200.75
394.107	208.75
394.331	190.75
394.556	222.75
394.78	210.75
395.005	204.75
395.229	209.75
395.454	210.75
395.678	208.75
395.903	209.75
396.127	216.75
396.352	214.75
396.576	231.75
396.801	229.75
397.025	253.75
397.249	254.75
397.474	227.75
397.698	207.75
397.922	237.75
398.147	220.75
398.371	232.75
398.595	214.75
398.82	224.75
399.044	242.75
399.268	247.75
399.492	265.75
399.717	270.75
399.941	272.75
400.165	253.75
400.389	245.75
400.613	253.75
400.837	244.75
401.062	200.75
401.286	217.75
401.51	220.75
401.734	213.75
401.958	226.75
402.182	243.75
402.406	233.75
402.63	217.75
402.854	244.75
403.078	288.75
403.302	364.75
403.526	366.75
403.75	341.75
403.974	264.75
404.198	277.75
404.422	303.75
404.645	324.75
404.869	354.75
405.093	301.75
405.317	265.75
405.541	256.75
405.765	243.75
405.988	276.75
406.212	280.75
406.436	290.75
406.66	311.75
406.883	275.75
407.107	271.75
407.331	334.75
407.555	296.75
407.778	272.75
408.002	246.75
408.226	256.75
408.449	245.75
408.673	266.75
408.896	239.75
409.12	226.75
409.344	236.75
409.567	221.75
409.791	228.75
410.014	237.75
410.238	228.75
410.461	240.75
410.685	240.75
410.908	227.75
411.132	227.75
411.355	232.75
411.578	228.75
411.802	229.75
412.025	226.75
412.249	256.75
412.472	220.75
412.695	234.75
412.919	236.75
413.142	252.75
413.365	244.75
413.589	223.75
413.812	244.75
414.035	250.75
414.258	239.75
414.482	233.75
414.705	255.75
414.928	237.75
415.151	234.75
415.374	196.75
415.597	216.75
415.821	237.75
416.044	213.75
416.267	212.75
416.49	209.75
416.713	208.75
416.936	215.75
417.159	230.75
417.382	216.75
417.605	226.75
417.828	244.75
418.051	234.75
418.274	240.75
418.497	238.75
418.72	218.75
418.943	232.75
419.166	252.75
419.389	266.75
419.611	236.75
419.834	260.75
420.057	257.75
420.28	249.75
420.503	256.75
420.726	221.75
420.948	240.75
421.171	207.75
421.394	227.75
421.617	221.75
421.839	226.75
422.062	213.75
422.285	218.75
422.507	215.75
422.73	247.75
422.953	242.75
423.175	225.75
423.398	229.75
423.621	233.75
423.843	265.75
424.066	229.75
424.288	240.75
424.511	251.75
424.733	251.75
424.956	252.75
425.178	260.75
425.401	289.75
425.623	348.75
425.846	297.75
426.068	270.75
426.291	259.75
426.513	244.75
426.735	244.75
426.958	242.75
427.18	255.75
427.402	326.75
427.625	356.75
427.847	296.75
428.069	225.75
428.292	220.75
428.514	219.75
428.736	235.75
428.958	259.75
429.181	294.75
429.403	241.75
429.625	227.75
429.847	208.75
430.069	226.75
430.292	213.75
430.514	232.75
430.736	234.75
430.958	274.75
431.18	266.75
431.402	212.75
431.624	217.75
431.846	213.75
432.068	198.75
432.29	228.75
432.512	224.75
432.734	294.75
432.956	268.75
433.178	217.75
433.4	216.75
433.622	192.75
433.844	239.75
434.066	237.75
434.287	258.75
434.509	227.75
434.731	252.75
434.953	231.75
435.175	230.75
435.397	258.75
435.618	224.75
435.84	198.75
436.062	205.75
436.284	216.75
436.505	201.75
436.727	199.75
436.949	215.75
437.17	217.75
437.392	219.75
437.614	219.75
437.835	208.75
438.057	227.75
438.278	253.75
438.5	296.75
438.721	302.75
438.943	222.75
439.165	210.75
439.386	212.75
439.608	194.75
439.829	215.75
440.05	210.75
440.272	203.75
440.493	237.75
440.715	295.75
440.936	270.75
441.158	213.75
441.379	222.75
441.6	240.75
441.822	253.75
442.043	227.75
442.264	241.75
442.486	224.75
442.707	226.75
442.928	217.75
443.149	224.75
443.371	252.75
443.592	235.75
443.813	234.75
444.034	229.75
444.255	224.75
444.476	240.75
444.698	241.75
444.919	262.75
445.14	352.75
445.361	306.75
445.582	241.75
445.803	256.75
446.024	249.75
446.245	248.75
446.466	238.75
446.687	222.75
446.908	230.75
447.129	224.75
447.35	214.75
447.571	200.75
447.792	192.75
448.013	194.75
448.234	212.75
448.455	206.75
448.675	213.75
448.896	215.75
449.117	192.75
449.338	209.75
449.559	209.75
449.779	239.75
450	235.75
450.221	227.75
450.442	211.75
450.662	201.75
450.883	194.75
451.104	213.75
451.324	193.75
451.545	221.75
451.766	197.75
451.986	212.75
452.207	223.75
452.428	222.75
452.648	201.75
452.869	220.75
453.089	212.75
453.31	217.75
453.53	196.75
453.751	190.75
453.971	198.75
454.192	205.75
454.412	193.75
454.633	198.75
454.853	197.75
455.073	200.75
455.294	205.75
455.514	190.75
455.734	191.75
455.955	210.75
456.175	203.75
456.395	195.75
456.616	201.75
456.836	186.75
457.056	180.75
457.276	181.75
457.497	189.75
457.717	202.75
457.937	206.75
458.157	195.75
458.377	200.75
458.598	214.75
458.818	209.75
459.038	207.75
459.258	211.75
459.478	218.75
459.698	239.75
459.918	233.75
460.138	238.75
460.358	223.75
460.578	210.75
460.798	221.75
461.018	241.75
461.238	233.75
461.458	229.75
461.678	220.75
461.898	258.75
462.118	254.75
462.338	244.75
462.558	242.75
462.777	244.75
462.997	269.75
463.217	293.75
463.437	273.75
463.657	280.75
463.876	265.75
464.096	269.75
464.316	259.75
464.536	258.75
464.755	264.75
464.975	263.75
465.195	255.75
465.414	251.75
465.634	244.75
465.854	244.75
466.073	220.75
466.293	230.75
466.512	254.75
466.732	238.75
466.951	260.75
467.171	228.75
467.391	218.75
467.61	224.75
467.829	238.75
468.049	255.75
468.268	200.75
468.488	217.75
468.707	226.75
468.927	259.75
469.146	266.75
469.365	246.75
469.585	234.75
469.804	254.75
470.023	256.75
470.243	242.75
470.462	236.75
470.681	244.75
470.901	234.75
471.12	254.75
471.339	238.75
471.558	220.75
471.777	220.75
471.997	246.75
472.216	276.75
472.435	263.75
472.654	234.75
472.873	239.75
473.092	248.75
473.311	253.75
473.53	231.75
473.749	234.75
473.968	234.75
474.187	248.75
474.406	218.75
474.625	229.75
474.844	242.75
475.063	221.75
475.282	264.75
475.501	262.75
475.72	287.75
475.939	262.75
476.158	242.75
476.377	300.75
476.596	321.75
476.814	329.75
477.033	282.75
477.252	254.75
477.471	231.75
477.69	257.75
477.908	256.75
478.127	271.75
478.346	272.75
478.564	278.75
478.783	268.75
479.002	247.75
479.22	297.75
479.439	304.75
479.658	277.75
479.876	284.75
480.095	292.75
480.313	306.75
480.532	276.75
480.751	260.75
480.969	257.75
481.188	305.75
481.406	302.75
481.624	271.75
481.843	261.75
482.061	258.75
482.28	271.75
482.498	325.75
482.717	310.75
482.935	282.75
483.153	272.75
483.372	238.75
483.59	256.75
483.808	253.75
484.027	245.75
484.245	254.75
484.463	242.75
484.681	253.75
484.9	258.75
485.118	281.75
485.336	257.75
485.554	254.75
485.772	263.75
485.99	290.75
486.209	295.75
486.427	290.75
486.645	286.75
486.863	279.75
487.081	282.75
487.299	320.75
487.517	307.75
487.735	273.75
487.953	269.75
488.171	278.75
488.389	285.75
488.607	246.75
488.825	260.75
489.043	273.75
489.261	306.75
489.479	310.75
489.696	292.75
489.914	265.75
490.132	268.75
490.35	270.75
490.568	254.75
490.786	255.75
491.003	248.75
491.221	260.75
491.439	255.75
491.657	256.75
491.874	256.75
492.092	325.75
492.31	332.75
492.527	345.75
492.745	326.75
492.963	294.75
493.18	292.75
493.398	294.75
493.615	278.75
493.833	273.75
494.05	260.75
494.268	273.75
494.485	277.75
494.703	282.75
494.92	271.75
495.138	267.75
495.355	279.75
495.573	289.75
495.79	285.75
496.008	342.75
496.225	313.75
496.442	297.75
496.66	285.75
496.877	301.75
497.094	312.75
497.312	284.75
497.529	292.75
497.746	299.75
497.963	313.75
498.181	313.75
498.398	345.75
498.615	358.75
498.832	376.75
499.049	373.75
499.267	382.75
499.484	374.75
499.701	394.75
499.918	437.75
500.135	497.75
500.352	502.75
500.569	517.75
500.786	535.75
501.003	505.75
501.22	473.75
501.437	419.75
501.654	389.75
501.871	376.75
502.088	366.75
502.305	320.75
502.522	326.75
