Data from NickelSpatula.Lamp.E10.P2_HRD10591_11-58-37-528.txt Node
Date: Tue Jul 23 11:58:37 EDT 2019
User: cochatt
Spectrometer: HR+D1059
Trigger mode: 1
Integration Time (sec): 1.000000E-1
Scans to average: 1
Electric dark correction enabled: true
Nonlinearity correction enabled: false
Boxcar width: 0
XAxis mode: Wavelengths
Number of Pixels in Spectrum: 2048
>>>>>Begin Spectral Data<<<<<
223.165	-15.88
223.4	-15.88
223.635	-15.88
223.869	-14.88
224.104	-14.88
224.338	-12.88
224.573	-28.88
224.808	-17.88
225.042	-3.88
225.277	-10.88
225.511	2.12
225.746	4.12
225.98	10.12
226.215	11.12
226.449	9.12
226.683	19.12
226.918	30.12
227.152	34.12
227.387	39.12
227.621	56.12
227.856	52.12
228.09	42.12
228.324	66.12
228.559	47.12
228.793	76.12
229.027	146.12
229.262	145.12
229.496	154.12
229.73	196.12
229.964	192.12
230.199	195.12
230.433	226.12
230.667	198.12
230.901	194.12
231.136	205.12
231.37	218.12
231.604	224.12
231.838	263.12
232.072	256.12
232.306	261.12
232.541	241.12
232.775	255.12
233.009	268.12
233.243	301.12
233.477	299.12
233.711	339.12
233.945	351.12
234.179	349.12
234.413	353.12
234.647	410.12
234.881	468.12
235.115	430.12
235.349	432.12
235.583	356.12
235.817	358.12
236.051	384.12
236.285	424.12
236.519	454.12
236.753	417.12
236.987	437.12
237.221	393.12
237.455	411.12
237.689	430.12
237.922	443.12
238.156	487.12
238.39	561.12
238.624	650.12
238.858	593.12
239.091	489.12
239.325	487.12
239.559	481.12
239.793	535.12
240.027	651.12
240.26	589.12
240.494	590.12
240.728	583.12
240.961	697.12
241.195	646.12
241.429	650.12
241.662	618.12
241.896	526.12
242.13	479.12
242.363	478.12
242.597	472.12
242.83	558.12
243.064	544.12
243.298	594.12
243.531	629.12
243.765	658.12
243.998	652.12
244.232	610.12
244.465	593.12
244.699	605.12
244.932	668.12
245.166	622.12
245.399	551.12
245.633	545.12
245.866	567.12
246.099	592.12
246.333	709.12
246.566	782.12
246.8	772.12
247.033	751.12
247.266	698.12
247.5	698.12
247.733	705.12
247.966	671.12
248.2	682.12
248.433	781.12
248.666	850.12
248.899	839.12
249.133	851.12
249.366	987.12
249.599	1063.12
249.832	952.12
250.066	818.12
250.299	853.12
250.532	794.12
250.765	808.12
250.998	763.12
251.231	715.12
251.465	784.12
251.698	842.12
251.931	814.12
252.164	844.12
252.397	908.12
252.63	1048.12
252.863	1170.12
253.096	1216.12
253.329	1123.12
253.562	1132.12
253.795	1231.12
254.028	1406.12
254.261	1381.12
254.494	1264.12
254.727	1146.12
254.96	1154.12
255.193	1153.12
255.426	1143.12
255.659	849.12
255.892	796.12
256.124	839.12
256.357	1004.12
256.59	1215.12
256.823	1158.12
257.056	971.12
257.289	920.12
257.521	986.12
257.754	1150.12
257.987	1294.12
258.22	1119.12
258.452	1013.12
258.685	1154.12
258.918	1273.12
259.151	1227.12
259.383	1335.12
259.616	1502.12
259.849	1538.12
260.081	1682.12
260.314	1904.12
260.547	1462.12
260.779	1446.12
261.012	1703.12
261.244	1617.12
261.477	1643.12
261.71	1570.12
261.942	1283.12
262.175	1274.12
262.407	1205.12
262.64	1273.12
262.872	1540.12
263.105	1648.12
263.337	1726.12
263.57	1517.12
263.802	1030.12
264.035	892.12
264.267	878.12
264.499	797.12
264.732	702.12
264.964	695.12
265.197	731.12
265.429	797.12
265.661	836.12
265.894	852.12
266.126	915.12
266.358	1029.12
266.591	1278.12
266.823	1497.12
267.055	1376.12
267.287	1254.12
267.52	1257.12
267.752	1298.12
267.984	1428.12
268.216	1363.12
268.448	1135.12
268.681	1103.12
268.913	1186.12
269.145	1257.12
269.377	1320.12
269.609	1263.12
269.841	1230.12
270.073	1331.12
270.306	1356.12
270.538	1370.12
270.77	1368.12
271.002	1387.12
271.234	1456.12
271.466	1562.12
271.698	1472.12
271.93	1430.12
272.162	1431.12
272.394	1417.12
272.626	1390.12
272.858	1425.12
273.09	1498.12
273.322	1336.12
273.553	1290.12
273.785	1506.12
274.017	1984.12
274.249	2413.12
274.481	2507.12
274.713	2744.12
274.945	3117.12
275.176	3265.12
275.408	2865.12
275.64	2620.12
275.872	2666.12
276.104	2219.12
276.335	1884.12
276.567	1864.12
276.799	1984.12
277.031	2099.12
277.262	1623.12
277.494	1248.12
277.726	1219.12
277.957	1290.12
278.189	1488.12
278.421	1466.12
278.652	1426.12
278.884	1348.12
279.115	1272.12
279.347	1172.12
279.579	1199.12
279.81	1219.12
280.042	1186.12
280.273	1218.12
280.505	1143.12
280.736	1013.12
280.968	1029.12
281.199	1100.12
281.431	1250.12
281.662	1224.12
281.894	1202.12
282.125	1223.12
282.356	1342.12
282.588	1367.12
282.819	1268.12
283.051	1364.12
283.282	1695.12
283.513	1975.12
283.745	2174.12
283.976	2155.12
284.207	1992.12
284.439	2084.12
284.67	1997.12
284.901	1778.12
285.132	1940.12
285.364	2023.12
285.595	1843.12
285.826	1989.12
286.057	2038.12
286.288	1956.12
286.52	2003.12
286.751	2131.12
286.982	2123.12
287.213	1838.12
287.444	1802.12
287.675	1850.12
287.906	1814.12
288.138	1557.12
288.369	1366.12
288.6	1288.12
288.831	1300.12
289.062	1523.12
289.293	1688.12
289.524	1571.12
289.755	1588.12
289.986	1623.12
290.217	1444.12
290.448	1086.12
290.679	944.12
290.91	899.12
291.141	918.12
291.371	962.12
291.602	995.12
291.833	958.12
292.064	1086.12
292.295	1204.12
292.526	1396.12
292.757	1423.12
292.987	1542.12
293.218	1546.12
293.449	1575.12
293.68	1698.12
293.91	1585.12
294.141	1600.12
294.372	1494.12
294.603	1425.12
294.833	1589.12
295.064	1826.12
295.295	1691.12
295.525	1287.12
295.756	1124.12
295.987	993.12
296.217	994.12
296.448	1023.12
296.679	1102.12
296.909	1211.12
297.14	1333.12
297.37	1403.12
297.601	1347.12
297.831	1185.12
298.062	1240.12
298.292	1412.12
298.523	1554.12
298.753	1771.12
298.984	1587.12
299.214	1243.12
299.445	1063.12
299.675	1059.12
299.905	1046.12
300.136	1061.12
300.366	1171.12
300.597	1134.12
300.827	997.12
301.057	962.12
301.288	1016.12
301.518	1096.12
301.748	1236.12
301.979	1315.12
302.209	1413.12
302.439	1430.12
302.669	1215.12
302.9	1262.12
303.13	1127.12
303.36	1100.12
303.59	1063.12
303.82	1108.12
304.051	1223.12
304.281	1334.12
304.511	1266.12
304.741	1114.12
304.971	1188.12
305.201	1289.12
305.431	1188.12
305.661	1049.12
305.891	1060.12
306.121	1089.12
306.352	966.12
306.582	890.12
306.812	858.12
307.042	851.12
307.272	802.12
307.502	796.12
307.731	870.12
307.961	930.12
308.191	835.12
308.421	789.12
308.651	793.12
308.881	772.12
309.111	783.12
309.341	846.12
309.571	891.12
309.8	942.12
310.03	922.12
310.26	1008.12
310.49	976.12
310.72	872.12
310.949	853.12
311.179	849.12
311.409	900.12
311.639	1086.12
311.868	1366.12
312.098	1753.12
312.328	1932.12
312.557	1879.12
312.787	1876.12
313.017	1659.12
313.246	1827.12
313.476	1942.12
313.706	1628.12
313.935	1276.12
314.165	1038.12
314.394	954.12
314.624	955.12
314.853	1019.12
315.083	1054.12
315.312	1037.12
315.542	995.12
315.771	946.12
316.001	851.12
316.23	834.12
316.46	841.12
316.689	861.12
316.919	903.12
317.148	901.12
317.377	867.12
317.607	894.12
317.836	972.12
318.065	1097.12
318.295	1244.12
318.524	1128.12
318.753	994.12
318.983	926.12
319.212	927.12
319.441	1020.12
319.67	1110.12
319.9	1216.12
320.129	1138.12
320.358	986.12
320.587	929.12
320.816	1027.12
321.046	1169.12
321.275	1312.12
321.504	1328.12
321.733	1254.12
321.962	1235.12
322.191	1148.12
322.42	1113.12
322.649	1125.12
322.878	1216.12
323.108	1152.12
323.337	1116.12
323.566	1098.12
323.795	1048.12
324.024	995.12
324.253	974.12
324.482	985.12
324.71	1079.12
324.939	1241.12
325.168	1101.12
325.397	909.12
325.626	897.12
325.855	890.12
326.084	942.12
326.313	878.12
326.542	826.12
326.77	847.12
326.999	907.12
327.228	959.12
327.457	1019.12
327.686	1011.12
327.914	895.12
328.143	810.12
328.372	828.12
328.6	834.12
328.829	873.12
329.058	894.12
329.287	884.12
329.515	879.12
329.744	875.12
329.972	827.12
330.201	775.12
330.43	825.12
330.658	978.12
330.887	1037.12
331.115	1065.12
331.344	1001.12
331.572	975.12
331.801	880.12
332.03	859.12
332.258	873.12
332.486	954.12
332.715	982.12
332.943	901.12
333.172	894.12
333.4	936.12
333.629	1026.12
333.857	1094.12
334.085	1104.12
334.314	1114.12
334.542	1042.12
334.771	939.12
334.999	931.12
335.227	906.12
335.455	965.12
335.684	1036.12
335.912	1203.12
336.14	1300.12
336.369	1239.12
336.597	1207.12
336.825	1379.12
337.053	1511.12
337.281	1186.12
337.51	974.12
337.738	983.12
337.966	1054.12
338.194	1165.12
338.422	1112.12
338.65	954.12
338.878	868.12
339.106	907.12
339.334	1027.12
339.562	1114.12
339.79	1028.12
340.018	946.12
340.246	1055.12
340.474	1166.12
340.702	1286.12
340.93	1297.12
341.158	1305.12
341.386	1108.12
341.614	1146.12
341.842	1118.12
342.07	1152.12
342.298	1343.12
342.526	1390.12
342.754	1202.12
342.981	1101.12
343.209	1061.12
343.437	1121.12
343.665	1192.12
343.893	1170.12
344.12	1380.12
344.348	1585.12
344.576	1404.12
344.804	1196.12
345.031	1012.12
345.259	971.12
345.487	973.12
345.714	1008.12
345.942	1104.12
346.17	1180.12
346.397	1108.12
346.625	993.12
346.853	989.12
347.08	947.12
347.308	1011.12
347.535	1109.12
347.763	1117.12
347.99	992.12
348.218	907.12
348.445	959.12
348.673	955.12
348.9	957.12
349.128	1037.12
349.355	1079.12
349.583	1051.12
349.81	1028.12
350.037	949.12
350.265	811.12
350.492	822.12
350.72	795.12
350.947	820.12
351.174	874.12
351.402	966.12
351.629	986.12
351.856	959.12
352.083	885.12
352.311	963.12
352.538	1077.12
352.765	1172.12
352.992	1011.12
353.22	995.12
353.447	992.12
353.674	947.12
353.901	956.12
354.128	966.12
354.355	1001.12
354.583	994.12
354.81	997.12
355.037	1017.12
355.264	1005.12
355.491	1083.12
355.718	1170.12
355.945	1127.12
356.172	1078.12
356.399	1089.12
356.626	1343.12
356.853	1610.12
357.08	1714.12
357.307	1774.12
357.534	1375.12
357.761	1404.12
357.988	1744.12
358.215	2032.12
358.441	1950.12
358.668	1634.12
358.895	1491.12
359.122	1195.12
359.349	1202.12
359.576	1319.12
359.802	1076.12
360.029	933.12
360.256	1020.12
360.483	1278.12
360.709	1623.12
360.936	1704.12
361.163	1473.12
361.39	1113.12
361.616	1078.12
361.843	1211.12
362.07	1515.12
362.296	1346.12
362.523	1087.12
362.749	955.12
362.976	1001.12
363.203	1215.12
363.429	1344.12
363.656	1112.12
363.882	984.12
364.109	984.12
364.335	968.12
364.562	994.12
364.788	1107.12
365.015	1338.12
365.241	1178.12
365.468	946.12
365.694	801.12
365.92	776.12
366.147	794.12
366.373	778.12
366.599	795.12
366.826	815.12
367.052	844.12
367.278	867.12
367.505	826.12
367.731	859.12
367.957	1032.12
368.184	1050.12
368.41	991.12
368.636	1012.12
368.862	1102.12
369.089	1026.12
369.315	915.12
369.541	898.12
369.767	902.12
369.993	872.12
370.219	851.12
370.445	912.12
370.672	1028.12
370.898	1098.12
371.124	1086.12
371.35	936.12
371.576	901.12
371.802	964.12
372.028	1171.12
372.254	1350.12
372.48	1161.12
372.706	1039.12
372.932	1076.12
373.158	1124.12
373.384	1407.12
373.61	1825.12
373.835	1866.12
374.061	1404.12
374.287	1179.12
374.513	1362.12
374.739	1665.12
374.965	1694.12
375.191	1666.12
375.416	1174.12
375.642	1032.12
375.868	1226.12
376.094	1338.12
376.319	1160.12
376.545	1290.12
376.771	1355.12
376.997	1143.12
377.222	857.12
377.448	777.12
377.674	760.12
377.899	760.12
378.125	763.12
378.35	730.12
378.576	762.12
378.802	863.12
379.027	938.12
379.253	880.12
379.478	927.12
379.704	1044.12
379.929	1092.12
380.155	1103.12
380.38	939.12
380.606	1006.12
380.831	1127.12
381.057	1006.12
381.282	959.12
381.507	1194.12
381.733	1424.12
381.958	1526.12
382.184	1636.12
382.409	1704.12
382.634	1689.12
382.86	1756.12
383.085	1426.12
383.31	1127.12
383.535	1204.12
383.761	1209.12
383.986	1170.12
384.211	1434.12
384.436	1352.12
384.662	1046.12
384.887	975.12
385.112	1026.12
385.337	1049.12
385.562	999.12
385.787	1097.12
386.013	1211.12
386.238	1258.12
386.463	1004.12
386.688	991.12
386.913	967.12
387.138	898.12
387.363	950.12
387.588	993.12
387.813	990.12
388.038	1126.12
388.263	977.12
388.488	982.12
388.713	1128.12
388.938	1219.12
389.163	1014.12
389.387	900.12
389.612	924.12
389.837	953.12
390.062	966.12
390.287	1021.12
390.512	974.12
390.736	933.12
390.961	882.12
391.186	854.12
391.411	827.12
391.636	885.12
391.86	918.12
392.085	1034.12
392.31	1007.12
392.534	970.12
392.759	934.12
392.984	985.12
393.208	992.12
393.433	871.12
393.658	810.12
393.882	802.12
394.107	788.12
394.331	793.12
394.556	792.12
394.78	805.12
395.005	827.12
395.229	857.12
395.454	873.12
395.678	898.12
395.903	920.12
396.127	880.12
396.352	885.12
396.576	980.12
396.801	1004.12
397.025	1111.12
397.249	1125.12
397.474	944.12
397.698	913.12
397.922	987.12
398.147	891.12
398.371	918.12
398.595	994.12
398.82	952.12
399.044	939.12
399.268	991.12
399.492	1046.12
399.717	1038.12
399.941	1104.12
400.165	1041.12
400.389	1036.12
400.613	1037.12
400.837	1069.12
401.062	940.12
401.286	873.12
401.51	913.12
401.734	904.12
401.958	896.12
402.182	897.12
402.406	903.12
402.63	924.12
402.854	981.12
403.078	1076.12
403.302	1294.12
403.526	1370.12
403.75	1160.12
403.974	1037.12
404.198	1064.12
404.422	1228.12
404.645	1443.12
404.869	1614.12
405.093	1158.12
405.317	1021.12
405.541	988.12
405.765	1022.12
405.988	1008.12
406.212	1086.12
406.436	1278.12
406.66	1408.12
406.883	1115.12
407.107	1148.12
407.331	1354.12
407.555	1294.12
407.778	1050.12
408.002	1050.12
408.226	1063.12
408.449	1056.12
408.673	1003.12
408.896	932.12
409.12	890.12
409.344	928.12
409.567	873.12
409.791	888.12
410.014	894.12
410.238	882.12
410.461	877.12
410.685	879.12
410.908	912.12
411.132	918.12
411.355	923.12
411.578	936.12
411.802	918.12
412.025	978.12
412.249	980.12
412.472	978.12
412.695	979.12
412.919	929.12
413.142	954.12
413.365	1008.12
413.589	1065.12
413.812	928.12
414.035	888.12
414.258	937.12
414.482	1066.12
414.705	1063.12
414.928	903.12
415.151	890.12
415.374	879.12
415.597	912.12
415.821	953.12
416.044	909.12
416.267	891.12
416.49	878.12
416.713	857.12
416.936	858.12
417.159	847.12
417.382	881.12
417.605	888.12
417.828	939.12
418.051	925.12
418.274	954.12
418.497	938.12
418.72	920.12
418.943	955.12
419.166	988.12
419.389	1007.12
419.611	979.12
419.834	1014.12
420.057	1150.12
420.28	1155.12
420.503	1001.12
420.726	904.12
420.948	883.12
421.171	898.12
421.394	903.12
421.617	829.12
421.839	865.12
422.062	925.12
422.285	941.12
422.507	927.12
422.73	969.12
422.953	966.12
423.175	939.12
423.398	950.12
423.621	1004.12
423.843	1064.12
424.066	981.12
424.288	934.12
424.511	900.12
424.733	876.12
424.956	942.12
425.178	1075.12
425.401	1223.12
425.623	1419.12
425.846	1133.12
426.068	1031.12
426.291	1127.12
426.513	1041.12
426.735	935.12
426.958	1011.12
427.18	1170.12
427.402	1549.12
427.625	1478.12
427.847	1186.12
428.069	906.12
428.292	930.12
428.514	891.12
428.736	870.12
428.958	962.12
429.181	1121.12
429.403	982.12
429.625	902.12
429.847	878.12
430.069	895.12
430.292	907.12
430.514	887.12
430.736	945.12
430.958	1191.12
431.18	1088.12
431.402	869.12
431.624	818.12
431.846	810.12
432.068	808.12
432.29	798.12
432.512	934.12
432.734	1234.12
432.956	1128.12
433.178	877.12
433.4	852.12
433.622	838.12
433.844	890.12
434.066	947.12
434.287	927.12
434.509	894.12
434.731	918.12
434.953	853.12
435.175	925.12
435.397	1034.12
435.618	892.12
435.84	828.12
436.062	856.12
436.284	823.12
436.505	807.12
436.727	771.12
436.949	805.12
437.17	822.12
437.392	838.12
437.614	816.12
437.835	818.12
438.057	852.12
438.278	968.12
438.5	1376.12
438.721	1370.12
438.943	952.12
439.165	837.12
439.386	798.12
439.608	778.12
439.829	770.12
440.05	781.12
440.272	841.12
440.493	1003.12
440.715	1213.12
440.936	980.12
441.158	871.12
441.379	856.12
441.6	970.12
441.822	1015.12
442.043	885.12
442.264	834.12
442.486	900.12
442.707	849.12
442.928	862.12
443.149	883.12
443.371	890.12
443.592	927.12
443.813	900.12
444.034	918.12
444.255	910.12
444.476	959.12
444.698	941.12
444.919	944.12
445.14	1014.12
445.361	998.12
445.582	961.12
445.803	904.12
446.024	948.12
446.245	950.12
446.466	929.12
446.687	875.12
446.908	880.12
447.129	834.12
447.35	819.12
447.571	805.12
447.792	819.12
448.013	780.12
448.234	802.12
448.455	808.12
448.675	801.12
448.896	840.12
449.117	791.12
449.338	822.12
449.559	847.12
449.779	874.12
450	884.12
450.221	838.12
450.442	803.12
450.662	812.12
450.883	794.12
451.104	828.12
451.324	824.12
451.545	788.12
451.766	809.12
451.986	773.12
452.207	791.12
452.428	780.12
452.648	774.12
452.869	817.12
453.089	847.12
453.31	842.12
453.53	778.12
453.751	774.12
453.971	738.12
454.192	759.12
454.412	803.12
454.633	731.12
454.853	774.12
455.073	714.12
455.294	708.12
455.514	735.12
455.734	746.12
455.955	778.12
456.175	823.12
456.395	736.12
456.616	675.12
456.836	714.12
457.056	699.12
457.276	711.12
457.497	692.12
457.717	722.12
457.937	733.12
458.157	710.12
458.377	729.12
458.598	728.12
458.818	787.12
459.038	809.12
459.258	819.12
459.478	865.12
459.698	896.12
459.918	909.12
460.138	894.12
460.358	904.12
460.578	883.12
460.798	891.12
461.018	906.12
461.238	842.12
461.458	860.12
461.678	897.12
461.898	926.12
462.118	936.12
462.338	926.12
462.558	969.12
462.777	997.12
462.997	991.12
463.217	985.12
463.437	1015.12
463.657	990.12
463.876	941.12
464.096	984.12
464.316	955.12
464.536	983.12
464.755	1008.12
464.975	1013.12
465.195	964.12
465.414	1019.12
465.634	973.12
465.854	939.12
466.073	865.12
466.293	859.12
466.512	910.12
466.732	1028.12
466.951	1049.12
467.171	922.12
467.391	886.12
467.61	884.12
467.829	938.12
468.049	924.12
468.268	878.12
468.488	875.12
468.707	921.12
468.927	1050.12
469.146	1167.12
469.365	1045.12
469.585	963.12
469.804	1019.12
470.023	1140.12
470.243	943.12
470.462	914.12
470.681	935.12
470.901	922.12
471.12	953.12
471.339	953.12
471.558	929.12
471.777	929.12
471.997	964.12
472.216	1116.12
472.435	1094.12
472.654	980.12
472.873	966.12
473.092	1024.12
473.311	1070.12
473.53	977.12
473.749	936.12
473.968	1000.12
474.187	988.12
474.406	914.12
474.625	920.12
474.844	953.12
475.063	1006.12
475.282	1031.12
475.501	1051.12
475.72	1147.12
475.939	1079.12
476.158	1093.12
476.377	1238.12
476.596	1471.12
476.814	1530.12
477.033	1251.12
477.252	1042.12
477.471	999.12
477.69	994.12
477.908	1125.12
478.127	1158.12
478.346	1055.12
478.564	1137.12
478.783	1097.12
479.002	1124.12
479.22	1292.12
479.439	1432.12
479.658	1218.12
479.876	1112.12
480.095	1193.12
480.313	1236.12
480.532	1136.12
480.751	1112.12
480.969	1126.12
481.188	1290.12
481.406	1319.12
481.624	1235.12
481.843	1122.12
482.061	1035.12
482.28	1206.12
482.498	1439.12
482.717	1408.12
482.935	1177.12
483.153	1134.12
483.372	1068.12
483.59	1083.12
483.808	1047.12
484.027	1013.12
484.245	1001.12
484.463	986.12
484.681	1034.12
484.9	1112.12
485.118	1191.12
485.336	1118.12
485.554	1024.12
485.772	1097.12
485.99	1183.12
486.209	1251.12
486.427	1254.12
486.645	1207.12
486.863	1252.12
487.081	1258.12
487.299	1370.12
487.517	1313.12
487.735	1198.12
487.953	1228.12
488.171	1244.12
488.389	1206.12
488.607	1122.12
488.825	1175.12
489.043	1266.12
489.261	1474.12
489.479	1566.12
489.696	1329.12
489.914	1170.12
490.132	1099.12
490.35	1138.12
490.568	1110.12
490.786	1115.12
491.003	1134.12
491.221	1165.12
491.439	1146.12
491.657	1131.12
491.874	1194.12
492.092	1504.12
492.31	1833.12
492.527	1782.12
492.745	1542.12
492.963	1329.12
493.18	1282.12
493.398	1298.12
493.615	1281.12
493.833	1250.12
494.05	1257.12
494.268	1251.12
