Data from NickelSpatula.Lamp.E5.5.P2_HRD10591_11-53-59-546.txt Node
Date: Tue Jul 23 11:53:59 EDT 2019
User: cochatt
Spectrometer: HR+D1059
Trigger mode: 1
Integration Time (sec): 1.000000E-1
Scans to average: 1
Electric dark correction enabled: true
Nonlinearity correction enabled: false
Boxcar width: 0
XAxis mode: Wavelengths
Number of Pixels in Spectrum: 2048
>>>>>Begin Spectral Data<<<<<
223.165	-13.69
223.4	-13.69
223.635	-13.69
223.869	-6.69
224.104	-14.69
224.338	-2.69
224.573	-25.69
224.808	-20.69
225.042	-6.69
225.277	-8.69
225.511	-6.69
225.746	12.31
225.98	-0.69
226.215	16.31
226.449	16.31
226.683	28.31
226.918	8.31
227.152	25.31
227.387	32.31
227.621	32.31
227.856	32.31
228.09	33.31
228.324	38.31
228.559	47.31
228.793	54.31
229.027	72.31
229.262	81.31
229.496	65.31
229.73	71.31
229.964	90.31
230.199	88.31
230.433	93.31
230.667	98.31
230.901	110.31
231.136	91.31
231.37	83.31
231.604	112.31
231.838	105.31
232.072	117.31
232.306	107.31
232.541	89.31
232.775	111.31
233.009	95.31
233.243	115.31
233.477	110.31
233.711	122.31
233.945	130.31
234.179	129.31
234.413	127.31
234.647	128.31
234.881	140.31
235.115	148.31
235.349	127.31
235.583	127.31
235.817	121.31
236.051	122.31
236.285	135.31
236.519	153.31
236.753	152.31
236.987	142.31
237.221	116.31
237.455	140.31
237.689	135.31
237.922	139.31
238.156	145.31
238.39	154.31
238.624	163.31
238.858	152.31
239.091	127.31
239.325	157.31
239.559	139.31
239.793	156.31
240.027	178.31
240.26	167.31
240.494	155.31
240.728	170.31
240.961	166.31
241.195	173.31
241.429	168.31
241.662	172.31
241.896	149.31
242.13	129.31
242.363	146.31
242.597	123.31
242.83	164.31
243.064	159.31
243.298	170.31
243.531	171.31
243.765	177.31
243.998	177.31
244.232	174.31
244.465	154.31
244.699	179.31
244.932	183.31
245.166	174.31
245.399	169.31
245.633	154.31
245.866	146.31
246.099	180.31
246.333	188.31
246.566	182.31
246.8	202.31
247.033	201.31
247.266	171.31
247.5	169.31
247.733	168.31
247.966	160.31
248.2	181.31
248.433	194.31
248.666	217.31
248.899	182.31
249.133	205.31
249.366	238.31
249.599	245.31
249.832	213.31
250.066	197.31
250.299	205.31
250.532	197.31
250.765	185.31
250.998	180.31
251.231	175.31
251.465	192.31
251.698	193.31
251.931	189.31
252.164	202.31
252.397	219.31
252.63	256.31
252.863	261.31
253.096	270.31
253.329	277.31
253.562	247.31
253.795	283.31
254.028	332.31
254.261	314.31
254.494	286.31
254.727	278.31
254.96	256.31
255.193	264.31
255.426	261.31
255.659	201.31
255.892	183.31
256.124	210.31
256.357	233.31
256.59	265.31
256.823	265.31
257.056	237.31
257.289	215.31
257.521	227.31
257.754	275.31
257.987	302.31
258.22	263.31
258.452	240.31
258.685	282.31
258.918	285.31
259.151	272.31
259.383	292.31
259.616	347.31
259.849	335.31
260.081	385.31
260.314	395.31
260.547	338.31
260.779	329.31
261.012	383.31
261.244	337.31
261.477	368.31
261.71	343.31
261.942	295.31
262.175	294.31
262.407	277.31
262.64	289.31
262.872	345.31
263.105	369.31
263.337	393.31
263.57	341.31
263.802	232.31
264.035	207.31
264.267	212.31
264.499	201.31
264.732	180.31
264.964	177.31
265.197	179.31
265.429	186.31
265.661	202.31
265.894	194.31
266.126	230.31
266.358	245.31
266.591	283.31
266.823	335.31
267.055	321.31
267.287	293.31
267.52	283.31
267.752	308.31
267.984	313.31
268.216	303.31
268.448	273.31
268.681	263.31
268.913	263.31
269.145	288.31
269.377	298.31
269.609	306.31
269.841	262.31
270.073	297.31
270.306	315.31
270.538	319.31
270.77	326.31
271.002	327.31
271.234	327.31
271.466	344.31
271.698	313.31
271.93	289.31
272.162	309.31
272.394	307.31
272.626	306.31
272.858	298.31
273.09	325.31
273.322	273.31
273.553	277.31
273.785	292.31
274.017	390.31
274.249	487.31
274.481	499.31
274.713	527.31
274.945	629.31
275.176	649.31
275.408	558.31
275.64	531.31
275.872	541.31
276.104	459.31
276.335	379.31
276.567	393.31
276.799	402.31
277.031	445.31
277.262	351.31
277.494	271.31
277.726	257.31
277.957	280.31
278.189	317.31
278.421	329.31
278.652	295.31
278.884	307.31
279.115	267.31
279.347	275.31
279.579	270.31
279.81	279.31
280.042	290.31
280.273	275.31
280.505	265.31
280.736	234.31
280.968	231.31
281.199	245.31
281.431	280.31
281.662	298.31
281.894	299.31
282.125	283.31
282.356	298.31
282.588	312.31
282.819	265.31
283.051	290.31
283.282	358.31
283.513	391.31
283.745	430.31
283.976	457.31
284.207	435.31
284.439	436.31
284.67	429.31
284.901	374.31
285.132	404.31
285.364	423.31
285.595	380.31
285.826	406.31
286.057	403.31
286.288	403.31
286.52	400.31
286.751	428.31
286.982	449.31
287.213	369.31
287.444	371.31
287.675	386.31
287.906	402.31
288.138	339.31
288.369	305.31
288.6	267.31
288.831	295.31
289.062	322.31
289.293	370.31
289.524	362.31
289.755	355.31
289.986	375.31
290.217	320.31
290.448	267.31
290.679	225.31
290.91	215.31
291.141	199.31
291.371	205.31
291.602	239.31
291.833	219.31
292.064	235.31
292.295	261.31
292.526	289.31
292.757	305.31
292.987	321.31
293.218	331.31
293.449	360.31
293.68	379.31
293.91	356.31
294.141	370.31
294.372	335.31
294.603	313.31
294.833	319.31
295.064	396.31
295.295	389.31
295.525	304.31
295.756	243.31
295.987	218.31
296.217	212.31
296.448	243.31
296.679	247.31
296.909	266.31
297.14	298.31
297.37	306.31
297.601	294.31
297.831	259.31
298.062	291.31
298.292	301.31
298.523	328.31
298.753	349.31
298.984	324.31
299.214	249.31
299.445	255.31
299.675	226.31
299.905	243.31
300.136	237.31
300.366	240.31
300.597	249.31
300.827	225.31
301.057	235.31
301.288	229.31
301.518	229.31
301.748	273.31
301.979	290.31
302.209	301.31
302.439	302.31
302.669	262.31
302.9	274.31
303.13	262.31
303.36	262.31
303.59	249.31
303.82	274.31
304.051	275.31
304.281	306.31
304.511	309.31
304.741	251.31
304.971	272.31
305.201	256.31
305.431	270.31
305.661	234.31
305.891	241.31
306.121	248.31
306.352	216.31
306.582	208.31
306.812	222.31
307.042	203.31
307.272	194.31
307.502	207.31
307.731	211.31
307.961	225.31
308.191	215.31
308.421	203.31
308.651	196.31
308.881	189.31
309.111	190.31
309.341	210.31
309.571	197.31
309.8	221.31
310.03	214.31
310.26	218.31
310.49	222.31
310.72	202.31
310.949	212.31
311.179	223.31
311.409	229.31
311.639	225.31
311.868	280.31
312.098	371.31
312.328	392.31
312.557	381.31
312.787	388.31
313.017	346.31
313.246	362.31
313.476	402.31
313.706	336.31
313.935	288.31
314.165	250.31
314.394	211.31
314.624	220.31
314.853	226.31
315.083	225.31
315.312	223.31
315.542	225.31
315.771	205.31
316.001	200.31
316.23	201.31
316.46	197.31
316.689	197.31
316.919	217.31
317.148	211.31
317.377	207.31
317.607	206.31
317.836	218.31
318.065	249.31
318.295	264.31
318.524	261.31
318.753	244.31
318.983	214.31
319.212	201.31
319.441	207.31
319.67	227.31
319.9	250.31
320.129	241.31
320.358	221.31
320.587	217.31
320.816	213.31
321.046	230.31
321.275	262.31
321.504	272.31
321.733	244.31
321.962	253.31
322.191	262.31
322.42	238.31
322.649	230.31
322.878	256.31
323.108	250.31
323.337	223.31
323.566	238.31
323.795	225.31
324.024	240.31
324.253	229.31
324.482	221.31
324.71	224.31
324.939	263.31
325.168	239.31
325.397	197.31
325.626	201.31
325.855	198.31
326.084	218.31
326.313	215.31
326.542	198.31
326.77	216.31
326.999	199.31
327.228	209.31
327.457	238.31
327.686	245.31
327.914	200.31
328.143	205.31
328.372	220.31
328.6	193.31
328.829	207.31
329.058	203.31
329.287	197.31
329.515	213.31
329.744	194.31
329.972	195.31
330.201	193.31
330.43	190.31
330.658	230.31
330.887	226.31
331.115	234.31
331.344	238.31
331.572	231.31
331.801	215.31
332.03	200.31
332.258	207.31
332.486	239.31
332.715	227.31
332.943	219.31
333.172	212.31
333.4	217.31
333.629	256.31
333.857	261.31
334.085	261.31
334.314	265.31
334.542	242.31
334.771	220.31
334.999	224.31
335.227	203.31
335.455	210.31
335.684	238.31
335.912	251.31
336.14	281.31
336.369	285.31
336.597	274.31
336.825	282.31
337.053	330.31
337.281	271.31
337.51	222.31
337.738	218.31
337.966	235.31
338.194	263.31
338.422	262.31
338.65	217.31
338.878	210.31
339.106	203.31
339.334	228.31
339.562	232.31
339.79	206.31
340.018	223.31
340.246	235.31
340.474	247.31
340.702	261.31
340.93	275.31
341.158	269.31
341.386	258.31
341.614	250.31
341.842	229.31
342.07	236.31
342.298	292.31
342.526	294.31
342.754	246.31
342.981	251.31
343.209	227.31
343.437	257.31
343.665	266.31
343.893	284.31
344.12	297.31
344.348	352.31
344.576	311.31
344.804	265.31
345.031	230.31
345.259	225.31
345.487	230.31
345.714	235.31
345.942	238.31
346.17	259.31
346.397	267.31
346.625	232.31
346.853	223.31
347.08	219.31
347.308	234.31
347.535	250.31
347.763	279.31
347.99	253.31
348.218	229.31
348.445	219.31
348.673	240.31
348.9	237.31
349.128	245.31
349.355	251.31
349.583	249.31
349.81	231.31
350.037	232.31
350.265	198.31
350.492	189.31
350.72	183.31
350.947	207.31
351.174	205.31
351.402	215.31
351.629	220.31
351.856	213.31
352.083	217.31
352.311	213.31
352.538	231.31
352.765	241.31
352.992	221.31
353.22	223.31
353.447	229.31
353.674	232.31
353.901	217.31
354.128	206.31
354.355	219.31
354.583	226.31
354.81	225.31
355.037	225.31
355.264	219.31
355.491	228.31
355.718	245.31
355.945	225.31
356.172	233.31
356.399	232.31
356.626	269.31
356.853	328.31
357.08	341.31
357.307	340.31
357.534	279.31
357.761	292.31
357.988	356.31
358.215	401.31
358.441	373.31
358.668	306.31
358.895	324.31
359.122	257.31
359.349	261.31
359.576	317.31
359.802	238.31
360.029	216.31
360.256	214.31
360.483	263.31
360.709	333.31
360.936	335.31
361.163	308.31
361.39	238.31
361.616	241.31
361.843	277.31
362.07	307.31
362.296	273.31
362.523	201.31
362.749	211.31
362.976	238.31
363.203	269.31
363.429	285.31
363.656	216.31
363.882	212.31
364.109	238.31
364.335	238.31
364.562	218.31
364.788	241.31
365.015	292.31
365.241	259.31
365.468	236.31
365.694	198.31
365.92	193.31
366.147	175.31
366.373	189.31
366.599	195.31
366.826	191.31
367.052	191.31
367.278	187.31
367.505	193.31
367.731	212.31
367.957	215.31
368.184	223.31
368.41	223.31
368.636	227.31
368.862	208.31
369.089	224.31
369.315	204.31
369.541	210.31
369.767	209.31
369.993	199.31
370.219	210.31
370.445	210.31
370.672	224.31
370.898	226.31
371.124	258.31
371.35	213.31
371.576	209.31
371.802	226.31
372.028	266.31
372.254	297.31
372.48	266.31
372.706	232.31
372.932	248.31
373.158	261.31
373.384	274.31
373.61	350.31
373.835	385.31
374.061	306.31
374.287	239.31
374.513	302.31
374.739	360.31
374.965	344.31
375.191	354.31
375.416	262.31
375.642	232.31
375.868	273.31
376.094	298.31
376.319	254.31
376.545	275.31
376.771	287.31
376.997	240.31
377.222	211.31
377.448	181.31
377.674	201.31
377.899	200.31
378.125	182.31
378.35	203.31
378.576	203.31
378.802	196.31
379.027	220.31
379.253	210.31
379.478	204.31
379.704	229.31
379.929	242.31
380.155	237.31
380.38	229.31
380.606	229.31
380.831	257.31
381.057	247.31
381.282	232.31
381.507	249.31
381.733	292.31
381.958	315.31
382.184	334.31
382.409	345.31
382.634	365.31
382.86	358.31
383.085	290.31
383.31	257.31
383.535	281.31
383.761	284.31
383.986	267.31
384.211	306.31
384.436	288.31
384.662	243.31
384.887	240.31
385.112	245.31
385.337	251.31
385.562	248.31
385.787	241.31
386.013	291.31
386.238	291.31
386.463	266.31
386.688	229.31
386.913	225.31
387.138	219.31
387.363	215.31
387.588	229.31
387.813	236.31
388.038	252.31
388.263	228.31
388.488	231.31
388.713	251.31
388.938	281.31
389.163	227.31
389.387	228.31
389.612	235.31
389.837	216.31
390.062	222.31
390.287	228.31
390.512	239.31
390.736	223.31
390.961	215.31
391.186	211.31
391.411	202.31
391.636	212.31
391.86	208.31
392.085	245.31
392.31	239.31
392.534	230.31
392.759	238.31
392.984	244.31
393.208	239.31
393.433	221.31
393.658	207.31
393.882	193.31
394.107	201.31
394.331	221.31
394.556	218.31
394.78	202.31
395.005	212.31
395.229	210.31
395.454	197.31
395.678	203.31
395.903	217.31
396.127	213.31
396.352	229.31
396.576	240.31
396.801	230.31
397.025	259.31
397.249	261.31
397.474	233.31
397.698	215.31
397.922	242.31
398.147	214.31
398.371	233.31
398.595	221.31
398.82	251.31
399.044	244.31
399.268	259.31
399.492	302.31
399.717	287.31
399.941	285.31
400.165	271.31
400.389	238.31
400.613	262.31
400.837	246.31
401.062	217.31
401.286	235.31
401.51	216.31
401.734	230.31
401.958	222.31
402.182	245.31
402.406	218.31
402.63	234.31
402.854	256.31
403.078	307.31
403.302	346.31
403.526	378.31
403.75	326.31
403.974	276.31
404.198	271.31
404.422	310.31
404.645	313.31
404.869	336.31
405.093	285.31
405.317	267.31
405.541	233.31
405.765	265.31
405.988	257.31
406.212	272.31
406.436	285.31
406.66	317.31
406.883	275.31
407.107	264.31
407.331	322.31
407.555	302.31
407.778	286.31
408.002	275.31
408.226	273.31
408.449	268.31
408.673	260.31
408.896	243.31
409.12	258.31
409.344	237.31
409.567	221.31
409.791	230.31
410.014	233.31
410.238	237.31
410.461	239.31
410.685	250.31
410.908	211.31
411.132	253.31
411.355	231.31
411.578	221.31
411.802	226.31
412.025	256.31
412.249	255.31
412.472	242.31
412.695	244.31
412.919	233.31
413.142	237.31
413.365	250.31
413.589	256.31
413.812	251.31
414.035	229.31
414.258	245.31
414.482	243.31
414.705	250.31
414.928	226.31
415.151	232.31
415.374	234.31
415.597	225.31
415.821	242.31
416.044	232.31
416.267	222.31
416.49	223.31
416.713	228.31
416.936	231.31
417.159	216.31
417.382	217.31
417.605	242.31
417.828	226.31
418.051	239.31
418.274	241.31
418.497	229.31
418.72	225.31
418.943	240.31
419.166	252.31
419.389	267.31
419.611	251.31
419.834	250.31
420.057	275.31
420.28	266.31
420.503	244.31
420.726	240.31
420.948	240.31
421.171	232.31
421.394	223.31
421.617	206.31
421.839	220.31
422.062	231.31
422.285	241.31
422.507	229.31
422.73	238.31
422.953	225.31
423.175	227.31
423.398	226.31
423.621	240.31
423.843	273.31
424.066	250.31
424.288	248.31
424.511	240.31
424.733	241.31
424.956	234.31
425.178	257.31
425.401	296.31
425.623	347.31
425.846	290.31
426.068	247.31
426.291	277.31
426.513	255.31
426.735	226.31
426.958	246.31
427.18	267.31
427.402	339.31
427.625	331.31
427.847	291.31
428.069	235.31
428.292	220.31
428.514	241.31
428.736	237.31
428.958	257.31
429.181	306.31
429.403	262.31
429.625	219.31
429.847	217.31
430.069	241.31
430.292	234.31
430.514	229.31
430.736	226.31
430.958	260.31
431.18	251.31
431.402	218.31
431.624	209.31
431.846	205.31
432.068	203.31
432.29	222.31
432.512	248.31
432.734	289.31
432.956	257.31
433.178	215.31
433.4	211.31
433.622	225.31
433.844	248.31
434.066	256.31
434.287	246.31
434.509	240.31
434.731	262.31
434.953	239.31
435.175	246.31
435.397	277.31
435.618	227.31
435.84	226.31
436.062	213.31
436.284	227.31
436.505	198.31
436.727	216.31
436.949	231.31
437.17	223.31
437.392	222.31
437.614	215.31
437.835	223.31
438.057	201.31
438.278	233.31
438.5	320.31
438.721	310.31
438.943	221.31
439.165	203.31
439.386	199.31
439.608	207.31
439.829	216.31
440.05	203.31
440.272	210.31
440.493	237.31
440.715	291.31
440.936	254.31
441.158	224.31
441.379	222.31
441.6	250.31
441.822	253.31
442.043	250.31
442.264	227.31
442.486	227.31
442.707	230.31
442.928	231.31
443.149	235.31
443.371	226.31
443.592	247.31
443.813	236.31
444.034	242.31
444.255	231.31
444.476	257.31
444.698	249.31
444.919	271.31
445.14	346.31
445.361	298.31
445.582	258.31
445.803	247.31
446.024	241.31
446.245	247.31
446.466	239.31
446.687	224.31
446.908	231.31
447.129	225.31
447.35	225.31
447.571	212.31
447.792	221.31
448.013	208.31
448.234	216.31
448.455	210.31
448.675	210.31
448.896	209.31
449.117	211.31
449.338	225.31
449.559	200.31
449.779	223.31
450	227.31
450.221	227.31
450.442	211.31
450.662	208.31
450.883	209.31
451.104	232.31
451.324	219.31
451.545	207.31
451.766	200.31
451.986	195.31
452.207	213.31
452.428	210.31
452.648	208.31
452.869	223.31
453.089	203.31
453.31	213.31
453.53	206.31
453.751	199.31
453.971	202.31
454.192	194.31
454.412	224.31
454.633	213.31
454.853	205.31
455.073	202.31
455.294	182.31
455.514	196.31
455.734	198.31
455.955	212.31
456.175	219.31
456.395	190.31
456.616	195.31
456.836	194.31
457.056	181.31
457.276	196.31
457.497	185.31
457.717	195.31
457.937	189.31
458.157	205.31
458.377	199.31
458.598	203.31
458.818	194.31
459.038	216.31
459.258	208.31
459.478	229.31
459.698	224.31
459.918	241.31
460.138	245.31
460.358	251.31
460.578	246.31
460.798	227.31
461.018	230.31
461.238	230.31
461.458	230.31
461.678	251.31
461.898	254.31
462.118	251.31
462.338	249.31
462.558	257.31
462.777	262.31
462.997	275.31
463.217	278.31
463.437	297.31
463.657	279.31
463.876	265.31
464.096	264.31
464.316	271.31
464.536	285.31
464.755	270.31
464.975	267.31
465.195	249.31
465.414	240.31
465.634	244.31
465.854	253.31
466.073	231.31
466.293	214.31
466.512	237.31
466.732	254.31
466.951	261.31
467.171	226.31
467.391	223.31
467.61	230.31
467.829	202.31
468.049	243.31
468.268	219.31
468.488	210.31
468.707	232.31
468.927	244.31
469.146	266.31
469.365	253.31
469.585	239.31
469.804	233.31
470.023	265.31
470.243	257.31
470.462	223.31
470.681	237.31
470.901	226.31
471.12	249.31
471.339	237.31
471.558	224.31
471.777	247.31
471.997	258.31
472.216	279.31
472.435	253.31
472.654	221.31
472.873	224.31
473.092	250.31
473.311	272.31
473.53	225.31
473.749	214.31
473.968	220.31
474.187	233.31
474.406	240.31
474.625	232.31
474.844	240.31
475.063	261.31
475.282	244.31
475.501	279.31
475.72	274.31
475.939	266.31
476.158	255.31
476.377	303.31
476.596	331.31
476.814	346.31
477.033	292.31
477.252	258.31
477.471	253.31
477.69	254.31
477.908	285.31
478.127	277.31
478.346	267.31
478.564	301.31
478.783	266.31
479.002	260.31
479.22	305.31
479.439	325.31
479.658	289.31
479.876	262.31
480.095	289.31
480.313	299.31
480.532	280.31
480.751	260.31
480.969	265.31
481.188	292.31
481.406	310.31
481.624	310.31
481.843	284.31
482.061	259.31
482.28	289.31
482.498	351.31
482.717	335.31
482.935	304.31
483.153	267.31
483.372	256.31
483.59	250.31
483.808	239.31
484.027	248.31
484.245	249.31
484.463	239.31
484.681	262.31
484.9	259.31
485.118	298.31
485.336	265.31
485.554	272.31
485.772	268.31
485.99	294.31
486.209	273.31
486.427	286.31
486.645	274.31
486.863	315.31
487.081	282.31
487.299	298.31
487.517	305.31
487.735	274.31
487.953	289.31
488.171	269.31
488.389	297.31
488.607	234.31
488.825	271.31
489.043	271.31
489.261	310.31
489.479	333.31
489.696	264.31
489.914	283.31
490.132	266.31
490.35	276.31
490.568	258.31
490.786	264.31
491.003	262.31
491.221	258.31
491.439	258.31
491.657	275.31
491.874	296.31
492.092	311.31
492.31	345.31
492.527	348.31
492.745	306.31
492.963	280.31
493.18	266.31
493.398	302.31
493.615	297.31
493.833	281.31
494.05	277.31
494.268	305.31
494.485	286.31
494.703	272.31
494.92	284.31
495.138	277.31
495.355	293.31
495.573	285.31
495.79	298.31
496.008	365.31
496.225	333.31
496.442	301.31
496.66	298.31
496.877	330.31
497.094	327.31
497.312	281.31
497.529	303.31
497.746	307.31
497.963	310.31
498.181	335.31
498.398	370.31
498.615	355.31
498.832	384.31
499.049	378.31
499.267	369.31
499.484	367.31
499.701	417.31
499.918	441.31
500.135	458.31
500.352	541.31
500.569	523.31
500.786	532.31
501.003	522.31
501.22	495.31
501.437	433.31
501.654	397.31
501.871	375.31
502.088	377.31
502.305	331.31
502.522	355.31
