Data from NickelSpatula.Lamp.E5.5.P2_HRD10591_11-53-27-548.txt Node
Date: Tue Jul 23 11:53:27 EDT 2019
User: cochatt
Spectrometer: HR+D1059
Trigger mode: 1
Integration Time (sec): 1.000000E-1
Scans to average: 1
Electric dark correction enabled: true
Nonlinearity correction enabled: false
Boxcar width: 0
XAxis mode: Wavelengths
Number of Pixels in Spectrum: 2048
>>>>>Begin Spectral Data<<<<<
223.165	-5.31
223.4	-5.31
223.635	-5.31
223.869	-19.31
224.104	-17.31
224.338	-16.31
224.573	-22.31
224.808	-18.31
225.042	-5.31
225.277	0.69
225.511	-3.31
225.746	11.69
225.98	23.69
226.215	14.69
226.449	7.69
226.683	20.69
226.918	15.69
227.152	12.69
227.387	36.69
227.621	41.69
227.856	56.69
228.09	39.69
228.324	52.69
228.559	56.69
228.793	75.69
229.027	79.69
229.262	85.69
229.496	72.69
229.73	85.69
229.964	87.69
230.199	94.69
230.433	83.69
230.667	97.69
230.901	96.69
231.136	94.69
231.37	95.69
231.604	97.69
231.838	95.69
232.072	114.69
232.306	118.69
232.541	102.69
232.775	97.69
233.009	102.69
233.243	115.69
233.477	127.69
233.711	144.69
233.945	130.69
234.179	126.69
234.413	145.69
234.647	124.69
234.881	155.69
235.115	158.69
235.349	132.69
235.583	130.69
235.817	110.69
236.051	132.69
236.285	127.69
236.519	144.69
236.753	137.69
236.987	137.69
237.221	141.69
237.455	140.69
237.689	123.69
237.922	153.69
238.156	149.69
238.39	163.69
238.624	170.69
238.858	148.69
239.091	143.69
239.325	162.69
239.559	148.69
239.793	154.69
240.027	181.69
240.26	182.69
240.494	164.69
240.728	159.69
240.961	188.69
241.195	178.69
241.429	181.69
241.662	170.69
241.896	162.69
242.13	156.69
242.363	151.69
242.597	154.69
242.83	160.69
243.064	159.69
243.298	174.69
243.531	182.69
243.765	168.69
243.998	182.69
244.232	163.69
244.465	167.69
244.699	152.69
244.932	188.69
245.166	184.69
245.399	158.69
245.633	154.69
245.866	150.69
246.099	166.69
246.333	207.69
246.566	200.69
246.8	203.69
247.033	212.69
247.266	171.69
247.5	187.69
247.733	184.69
247.966	180.69
248.2	199.69
248.433	199.69
248.666	225.69
248.899	204.69
249.133	214.69
249.366	249.69
249.599	240.69
249.832	236.69
250.066	223.69
250.299	222.69
250.532	206.69
250.765	223.69
250.998	201.69
251.231	181.69
251.465	202.69
251.698	195.69
251.931	209.69
252.164	204.69
252.397	241.69
252.63	256.69
252.863	281.69
253.096	286.69
253.329	272.69
253.562	254.69
253.795	294.69
254.028	312.69
254.261	342.69
254.494	298.69
254.727	276.69
254.96	271.69
255.193	288.69
255.426	278.69
255.659	194.69
255.892	200.69
256.124	227.69
256.357	254.69
256.59	308.69
256.823	293.69
257.056	270.69
257.289	233.69
257.521	244.69
257.754	297.69
257.987	318.69
258.22	279.69
258.452	272.69
258.685	284.69
258.918	289.69
259.151	299.69
259.383	314.69
259.616	359.69
259.849	380.69
260.081	376.69
260.314	404.69
260.547	347.69
260.779	361.69
261.012	401.69
261.244	388.69
261.477	373.69
261.71	335.69
261.942	303.69
262.175	308.69
262.407	299.69
262.64	287.69
262.872	344.69
263.105	374.69
263.337	395.69
263.57	372.69
263.802	275.69
264.035	226.69
264.267	220.69
264.499	204.69
264.732	193.69
264.964	186.69
265.197	208.69
265.429	227.69
265.661	234.69
265.894	235.69
266.126	242.69
266.358	250.69
266.591	306.69
266.823	345.69
267.055	330.69
267.287	296.69
267.52	306.69
267.752	327.69
267.984	351.69
268.216	333.69
268.448	288.69
268.681	278.69
268.913	296.69
269.145	306.69
269.377	316.69
269.609	311.69
269.841	303.69
270.073	298.69
270.306	314.69
270.538	329.69
270.77	341.69
271.002	337.69
271.234	354.69
271.466	341.69
271.698	339.69
271.93	324.69
272.162	323.69
272.394	322.69
272.626	299.69
272.858	335.69
273.09	328.69
273.322	286.69
273.553	273.69
273.785	325.69
274.017	396.69
274.249	516.69
274.481	509.69
274.713	584.69
274.945	650.69
275.176	665.69
275.408	590.69
275.64	564.69
275.872	581.69
276.104	494.69
276.335	416.69
276.567	414.69
276.799	423.69
277.031	469.69
277.262	386.69
277.494	286.69
277.726	268.69
277.957	308.69
278.189	342.69
278.421	326.69
278.652	333.69
278.884	311.69
279.115	295.69
279.347	293.69
279.579	276.69
279.81	301.69
280.042	276.69
280.273	302.69
280.505	302.69
280.736	251.69
280.968	277.69
281.199	262.69
281.431	300.69
281.662	291.69
281.894	274.69
282.125	258.69
282.356	312.69
282.588	313.69
282.819	295.69
283.051	312.69
283.282	373.69
283.513	409.69
283.745	471.69
283.976	469.69
284.207	427.69
284.439	462.69
284.67	436.69
284.901	385.69
285.132	414.69
285.364	434.69
285.595	419.69
285.826	436.69
286.057	428.69
286.288	435.69
286.52	438.69
286.751	464.69
286.982	461.69
287.213	394.69
287.444	386.69
287.675	431.69
287.906	414.69
288.138	347.69
288.369	320.69
288.6	303.69
288.831	315.69
289.062	378.69
289.293	408.69
289.524	383.69
289.755	376.69
289.986	372.69
290.217	349.69
290.448	264.69
290.679	250.69
290.91	244.69
291.141	217.69
291.371	237.69
291.602	251.69
291.833	229.69
292.064	251.69
292.295	302.69
292.526	313.69
292.757	346.69
292.987	347.69
293.218	363.69
293.449	388.69
293.68	407.69
293.91	384.69
294.141	370.69
294.372	366.69
294.603	331.69
294.833	359.69
295.064	421.69
295.295	417.69
295.525	321.69
295.756	252.69
295.987	240.69
296.217	259.69
296.448	254.69
296.679	258.69
296.909	293.69
297.14	278.69
297.37	316.69
297.601	319.69
297.831	262.69
298.062	295.69
298.292	318.69
298.523	320.69
298.753	389.69
298.984	367.69
299.214	309.69
299.445	263.69
299.675	263.69
299.905	260.69
300.136	267.69
300.366	274.69
300.597	267.69
300.827	256.69
301.057	248.69
301.288	254.69
301.518	266.69
301.748	299.69
301.979	318.69
302.209	331.69
302.439	329.69
302.669	299.69
302.9	300.69
303.13	279.69
303.36	260.69
303.59	242.69
303.82	256.69
304.051	299.69
304.281	329.69
304.511	304.69
304.741	282.69
304.971	272.69
305.201	301.69
305.431	272.69
305.661	266.69
305.891	258.69
306.121	272.69
306.352	252.69
306.582	214.69
306.812	227.69
307.042	228.69
307.272	199.69
307.502	210.69
307.731	217.69
307.961	216.69
308.191	199.69
308.421	218.69
308.651	196.69
308.881	202.69
309.111	180.69
309.341	214.69
309.571	214.69
309.8	221.69
310.03	230.69
310.26	222.69
310.49	240.69
310.72	235.69
310.949	221.69
311.179	218.69
311.409	238.69
311.639	249.69
311.868	299.69
312.098	385.69
312.328	421.69
312.557	377.69
312.787	415.69
313.017	350.69
313.246	408.69
313.476	428.69
313.706	361.69
313.935	302.69
314.165	232.69
314.394	233.69
314.624	234.69
314.853	230.69
315.083	256.69
315.312	251.69
315.542	229.69
315.771	225.69
316.001	214.69
316.23	196.69
316.46	213.69
316.689	226.69
316.919	227.69
317.148	236.69
317.377	217.69
317.607	209.69
317.836	226.69
318.065	254.69
318.295	263.69
318.524	281.69
318.753	240.69
318.983	227.69
319.212	214.69
319.441	233.69
319.67	259.69
319.9	267.69
320.129	264.69
320.358	226.69
320.587	208.69
320.816	220.69
321.046	253.69
321.275	294.69
321.504	295.69
321.733	275.69
321.962	274.69
322.191	263.69
322.42	247.69
322.649	256.69
322.878	269.69
323.108	281.69
323.337	245.69
323.566	248.69
323.795	249.69
324.024	241.69
324.253	249.69
324.482	216.69
324.71	246.69
324.939	278.69
325.168	271.69
325.397	233.69
325.626	217.69
325.855	222.69
326.084	233.69
326.313	211.69
326.542	212.69
326.77	220.69
326.999	226.69
327.228	249.69
327.457	244.69
327.686	247.69
327.914	205.69
328.143	216.69
328.372	211.69
328.6	215.69
328.829	223.69
329.058	217.69
329.287	219.69
329.515	208.69
329.744	220.69
329.972	203.69
330.201	199.69
330.43	204.69
330.658	220.69
330.887	238.69
331.115	239.69
331.344	228.69
331.572	250.69
331.801	214.69
332.03	206.69
332.258	212.69
332.486	259.69
332.715	243.69
332.943	242.69
333.172	226.69
333.4	230.69
333.629	258.69
333.857	278.69
334.085	274.69
334.314	277.69
334.542	246.69
334.771	252.69
334.999	249.69
335.227	236.69
335.455	210.69
335.684	261.69
335.912	270.69
336.14	296.69
336.369	281.69
336.597	282.69
336.825	312.69
337.053	340.69
337.281	270.69
337.51	231.69
337.738	234.69
337.966	251.69
338.194	254.69
338.422	262.69
338.65	227.69
338.878	225.69
339.106	225.69
339.334	245.69
339.562	242.69
339.79	232.69
340.018	215.69
340.246	246.69
340.474	280.69
340.702	288.69
340.93	284.69
341.158	279.69
341.386	266.69
341.614	239.69
341.842	250.69
342.07	236.69
342.298	287.69
342.526	316.69
342.754	274.69
342.981	244.69
343.209	238.69
343.437	254.69
343.665	279.69
343.893	265.69
344.12	320.69
344.348	380.69
344.576	345.69
344.804	263.69
345.031	258.69
345.259	224.69
345.487	241.69
345.714	231.69
345.942	262.69
346.17	279.69
346.397	266.69
346.625	231.69
346.853	232.69
347.08	239.69
347.308	233.69
347.535	271.69
347.763	283.69
347.99	250.69
348.218	231.69
348.445	242.69
348.673	242.69
348.9	242.69
349.128	252.69
349.355	262.69
349.583	252.69
349.81	248.69
350.037	226.69
350.265	208.69
350.492	210.69
350.72	198.69
350.947	218.69
351.174	221.69
351.402	229.69
351.629	231.69
351.856	228.69
352.083	224.69
352.311	259.69
352.538	252.69
352.765	249.69
352.992	247.69
353.22	241.69
353.447	225.69
353.674	228.69
353.901	215.69
354.128	239.69
354.355	240.69
354.583	218.69
354.81	236.69
355.037	246.69
355.264	231.69
355.491	231.69
355.718	259.69
355.945	258.69
356.172	255.69
356.399	242.69
356.626	278.69
356.853	358.69
357.08	369.69
357.307	359.69
357.534	297.69
357.761	322.69
357.988	403.69
358.215	430.69
358.441	402.69
358.668	345.69
358.895	332.69
359.122	280.69
359.349	290.69
359.576	329.69
359.802	271.69
360.029	226.69
360.256	223.69
360.483	308.69
360.709	363.69
360.936	371.69
361.163	330.69
361.39	256.69
361.616	249.69
361.843	287.69
362.07	323.69
362.296	296.69
362.523	270.69
362.749	219.69
362.976	221.69
363.203	276.69
363.429	304.69
363.656	234.69
363.882	233.69
364.109	263.69
364.335	241.69
364.562	232.69
364.788	271.69
365.015	299.69
365.241	271.69
365.468	238.69
365.694	198.69
365.92	214.69
366.147	196.69
366.373	208.69
366.599	185.69
366.826	198.69
367.052	219.69
367.278	196.69
367.505	217.69
367.731	227.69
367.957	246.69
368.184	256.69
368.41	236.69
368.636	236.69
368.862	252.69
369.089	246.69
369.315	225.69
369.541	213.69
369.767	232.69
369.993	216.69
370.219	214.69
370.445	228.69
370.672	240.69
370.898	256.69
371.124	244.69
371.35	222.69
371.576	222.69
371.802	230.69
372.028	279.69
372.254	310.69
372.48	282.69
372.706	254.69
372.932	251.69
373.158	261.69
373.384	296.69
373.61	384.69
373.835	395.69
374.061	319.69
374.287	269.69
374.513	314.69
374.739	378.69
374.965	376.69
375.191	378.69
375.416	275.69
375.642	240.69
375.868	284.69
376.094	297.69
376.319	270.69
376.545	263.69
376.771	298.69
376.997	279.69
377.222	222.69
377.448	190.69
377.674	218.69
377.899	214.69
378.125	208.69
378.35	191.69
378.576	202.69
378.802	218.69
379.027	224.69
379.253	231.69
379.478	236.69
379.704	254.69
379.929	260.69
380.155	260.69
380.38	226.69
380.606	240.69
380.831	267.69
381.057	252.69
381.282	239.69
381.507	266.69
381.733	307.69
381.958	345.69
382.184	350.69
382.409	368.69
382.634	390.69
382.86	384.69
383.085	323.69
383.31	280.69
383.535	280.69
383.761	308.69
383.986	282.69
384.211	313.69
384.436	331.69
384.662	244.69
384.887	247.69
385.112	258.69
385.337	254.69
385.562	231.69
385.787	265.69
386.013	299.69
386.238	305.69
386.463	256.69
386.688	259.69
386.913	263.69
387.138	215.69
387.363	225.69
387.588	245.69
387.813	235.69
388.038	258.69
388.263	244.69
388.488	256.69
388.713	282.69
388.938	298.69
389.163	246.69
389.387	228.69
389.612	214.69
389.837	231.69
390.062	242.69
390.287	244.69
390.512	255.69
390.736	227.69
390.961	239.69
391.186	217.69
391.411	211.69
391.636	207.69
391.86	233.69
392.085	245.69
392.31	254.69
392.534	241.69
392.759	240.69
392.984	245.69
393.208	243.69
393.433	235.69
393.658	203.69
393.882	211.69
394.107	211.69
394.331	207.69
394.556	217.69
394.78	215.69
395.005	218.69
395.229	213.69
395.454	240.69
395.678	198.69
395.903	230.69
396.127	214.69
396.352	232.69
396.576	239.69
396.801	260.69
397.025	274.69
397.249	286.69
397.474	226.69
397.698	240.69
397.922	258.69
398.147	260.69
398.371	229.69
398.595	260.69
398.82	236.69
399.044	235.69
399.268	262.69
399.492	289.69
399.717	298.69
399.941	287.69
400.165	280.69
400.389	265.69
400.613	264.69
400.837	258.69
401.062	219.69
401.286	234.69
401.51	238.69
401.734	233.69
401.958	246.69
402.182	240.69
402.406	225.69
402.63	225.69
402.854	258.69
403.078	292.69
403.302	353.69
403.526	391.69
403.75	351.69
403.974	280.69
404.198	297.69
404.422	310.69
404.645	332.69
404.869	361.69
405.093	295.69
405.317	271.69
405.541	274.69
405.765	253.69
405.988	266.69
406.212	273.69
406.436	323.69
406.66	334.69
406.883	282.69
407.107	294.69
407.331	330.69
407.555	306.69
407.778	293.69
408.002	292.69
408.226	272.69
408.449	279.69
408.673	270.69
408.896	257.69
409.12	229.69
409.344	241.69
409.567	234.69
409.791	254.69
410.014	258.69
410.238	239.69
410.461	249.69
410.685	222.69
410.908	252.69
411.132	254.69
411.355	243.69
411.578	240.69
411.802	240.69
412.025	233.69
412.249	256.69
412.472	246.69
412.695	245.69
412.919	247.69
413.142	253.69
413.365	252.69
413.589	253.69
413.812	262.69
414.035	238.69
414.258	241.69
414.482	259.69
414.705	254.69
414.928	240.69
415.151	231.69
415.374	247.69
415.597	254.69
415.821	240.69
416.044	246.69
416.267	230.69
416.49	235.69
416.713	229.69
416.936	228.69
417.159	213.69
417.382	229.69
417.605	245.69
417.828	241.69
418.051	235.69
418.274	236.69
418.497	254.69
418.72	244.69
418.943	242.69
419.166	244.69
419.389	266.69
419.611	242.69
419.834	260.69
420.057	267.69
420.28	267.69
420.503	255.69
420.726	234.69
420.948	227.69
421.171	224.69
421.394	235.69
421.617	236.69
421.839	235.69
422.062	255.69
422.285	258.69
422.507	235.69
422.73	242.69
422.953	238.69
423.175	231.69
423.398	263.69
423.621	282.69
423.843	288.69
424.066	260.69
424.288	256.69
424.511	247.69
424.733	241.69
424.956	255.69
425.178	270.69
425.401	299.69
425.623	374.69
425.846	313.69
426.068	264.69
426.291	293.69
426.513	259.69
426.735	229.69
426.958	266.69
427.18	299.69
427.402	364.69
427.625	374.69
427.847	333.69
428.069	252.69
428.292	234.69
428.514	219.69
428.736	228.69
428.958	261.69
429.181	336.69
429.403	259.69
429.625	247.69
429.847	220.69
430.069	238.69
430.292	237.69
430.514	234.69
430.736	229.69
430.958	285.69
431.18	294.69
431.402	205.69
431.624	219.69
431.846	206.69
432.068	220.69
432.29	216.69
432.512	243.69
432.734	281.69
432.956	273.69
433.178	235.69
433.4	228.69
433.622	222.69
433.844	249.69
434.066	254.69
434.287	236.69
434.509	227.69
434.731	243.69
434.953	239.69
435.175	241.69
435.397	274.69
435.618	240.69
435.84	222.69
436.062	214.69
436.284	218.69
436.505	219.69
436.727	217.69
436.949	244.69
437.17	227.69
437.392	220.69
437.614	219.69
437.835	237.69
438.057	236.69
438.278	248.69
438.5	333.69
438.721	328.69
438.943	250.69
439.165	216.69
439.386	203.69
439.608	218.69
439.829	220.69
440.05	202.69
440.272	216.69
440.493	225.69
440.715	297.69
440.936	255.69
441.158	234.69
441.379	234.69
441.6	269.69
441.822	270.69
442.043	256.69
442.264	254.69
442.486	246.69
442.707	226.69
442.928	232.69
443.149	241.69
443.371	248.69
443.592	256.69
443.813	256.69
444.034	242.69
444.255	252.69
444.476	265.69
444.698	277.69
444.919	260.69
445.14	341.69
445.361	287.69
445.582	255.69
445.803	259.69
446.024	266.69
446.245	249.69
446.466	265.69
446.687	240.69
446.908	226.69
447.129	211.69
447.35	215.69
447.571	238.69
447.792	204.69
448.013	210.69
448.234	210.69
448.455	214.69
448.675	222.69
448.896	208.69
449.117	224.69
449.338	219.69
449.559	231.69
449.779	249.69
450	234.69
450.221	228.69
450.442	218.69
450.662	227.69
450.883	207.69
451.104	215.69
451.324	232.69
451.545	205.69
451.766	226.69
451.986	227.69
452.207	203.69
452.428	202.69
452.648	215.69
452.869	220.69
453.089	230.69
453.31	229.69
453.53	213.69
453.751	180.69
453.971	213.69
454.192	211.69
454.412	214.69
454.633	213.69
454.853	214.69
455.073	200.69
455.294	220.69
455.514	209.69
455.734	233.69
455.955	219.69
456.175	216.69
456.395	211.69
456.616	209.69
456.836	175.69
457.056	186.69
457.276	192.69
457.497	187.69
457.717	189.69
457.937	205.69
458.157	215.69
458.377	202.69
458.598	193.69
458.818	215.69
459.038	214.69
459.258	207.69
459.478	247.69
459.698	242.69
459.918	234.69
460.138	227.69
460.358	253.69
460.578	236.69
460.798	261.69
461.018	249.69
461.238	218.69
461.458	243.69
461.678	243.69
461.898	261.69
462.118	244.69
462.338	254.69
462.558	263.69
462.777	258.69
462.997	284.69
463.217	300.69
463.437	299.69
463.657	284.69
463.876	280.69
464.096	287.69
464.316	256.69
464.536	266.69
464.755	288.69
464.975	274.69
465.195	262.69
465.414	267.69
465.634	258.69
465.854	246.69
466.073	230.69
466.293	230.69
466.512	254.69
466.732	249.69
466.951	273.69
467.171	236.69
467.391	244.69
467.61	243.69
467.829	231.69
468.049	227.69
468.268	244.69
468.488	238.69
468.707	235.69
468.927	263.69
469.146	297.69
469.365	274.69
469.585	250.69
469.804	263.69
470.023	262.69
470.243	255.69
470.462	260.69
470.681	244.69
470.901	232.69
471.12	258.69
471.339	238.69
471.558	239.69
471.777	255.69
471.997	241.69
472.216	288.69
472.435	295.69
472.654	254.69
472.873	248.69
473.092	243.69
473.311	254.69
473.53	233.69
473.749	238.69
473.968	254.69
474.187	250.69
474.406	249.69
474.625	232.69
474.844	230.69
475.063	248.69
475.282	259.69
475.501	264.69
475.72	296.69
475.939	287.69
476.158	251.69
476.377	308.69
476.596	340.69
476.814	353.69
477.033	295.69
477.252	265.69
477.471	254.69
477.69	243.69
477.908	276.69
478.127	276.69
478.346	269.69
478.564	306.69
478.783	286.69
479.002	290.69
479.22	321.69
479.439	339.69
479.658	288.69
479.876	295.69
480.095	282.69
480.313	309.69
480.532	288.69
480.751	291.69
480.969	281.69
481.188	302.69
481.406	306.69
481.624	281.69
481.843	267.69
482.061	264.69
482.28	288.69
482.498	369.69
482.717	342.69
482.935	283.69
483.153	288.69
483.372	270.69
483.59	266.69
483.808	266.69
484.027	257.69
484.245	258.69
484.463	244.69
484.681	255.69
484.9	270.69
485.118	304.69
485.336	264.69
485.554	264.69
485.772	271.69
485.99	290.69
486.209	308.69
486.427	310.69
486.645	286.69
486.863	303.69
487.081	304.69
487.299	326.69
487.517	319.69
487.735	289.69
487.953	308.69
488.171	312.69
488.389	299.69
488.607	295.69
488.825	281.69
489.043	313.69
489.261	338.69
489.479	367.69
489.696	297.69
489.914	286.69
490.132	259.69
490.35	271.69
490.568	290.69
490.786	260.69
491.003	289.69
491.221	292.69
491.439	273.69
491.657	275.69
491.874	304.69
492.092	323.69
492.31	388.69
492.527	372.69
492.745	341.69
492.963	310.69
493.18	282.69
493.398	295.69
493.615	312.69
493.833	294.69
494.05	288.69
494.268	303.69
494.485	298.69
494.703	291.69
494.92	292.69
495.138	286.69
495.355	268.69
495.573	288.69
495.79	304.69
496.008	366.69
496.225	338.69
496.442	314.69
496.66	327.69
496.877	352.69
497.094	329.69
497.312	324.69
497.529	308.69
497.746	319.69
497.963	312.69
498.181	335.69
498.398	358.69
498.615	368.69
498.832	395.69
499.049	394.69
499.267	385.69
499.484	377.69
499.701	417.69
499.918	448.69
500.135	524.69
500.352	546.69
500.569	522.69
500.786	557.69
501.003	535.69
501.22	459.69
501.437	437.69
501.654	389.69
501.871	406.69
502.088	389.69
502.305	360.69
502.522	363.69
