Data from NickelSpatula.Lamp.E10.P2_HRD10591_11-59-08-526.txt Node
Date: Tue Jul 23 11:59:08 EDT 2019
User: cochatt
Spectrometer: HR+D1059
Trigger mode: 1
Integration Time (sec): 1.000000E-1
Scans to average: 1
Electric dark correction enabled: true
Nonlinearity correction enabled: false
Boxcar width: 0
XAxis mode: Wavelengths
Number of Pixels in Spectrum: 2048
>>>>>Begin Spectral Data<<<<<
223.165	7.12
223.4	7.12
223.635	7.12
223.869	0.12
224.104	-21.88
224.338	-3.88
224.573	-10.88
224.808	-19.88
225.042	0.12
225.277	-13.88
225.511	-11.88
225.746	-16.88
225.98	2.12
226.215	8.12
226.449	10.12
226.683	15.12
226.918	25.12
227.152	31.12
227.387	39.12
227.621	48.12
227.856	35.12
228.09	51.12
228.324	66.12
228.559	52.12
228.793	84.12
229.027	144.12
229.262	153.12
229.496	161.12
229.73	158.12
229.964	189.12
230.199	210.12
230.433	221.12
230.667	206.12
230.901	209.12
231.136	202.12
231.37	213.12
231.604	201.12
231.838	233.12
232.072	262.12
232.306	254.12
232.541	255.12
232.775	251.12
233.009	258.12
233.243	316.12
233.477	320.12
233.711	350.12
233.945	357.12
234.179	317.12
234.413	365.12
234.647	418.12
234.881	470.12
235.115	431.12
235.349	404.12
235.583	355.12
235.817	357.12
236.051	372.12
236.285	407.12
236.519	457.12
236.753	435.12
236.987	444.12
237.221	410.12
237.455	429.12
237.689	432.12
237.922	461.12
238.156	473.12
238.39	540.12
238.624	651.12
238.858	585.12
239.091	509.12
239.325	480.12
239.559	488.12
239.793	537.12
240.027	657.12
240.26	625.12
240.494	593.12
240.728	600.12
240.961	731.12
241.195	649.12
241.429	649.12
241.662	643.12
241.896	521.12
242.13	478.12
242.363	465.12
242.597	462.12
242.83	565.12
243.064	562.12
243.298	576.12
243.531	624.12
243.765	646.12
243.998	633.12
244.232	605.12
244.465	597.12
244.699	558.12
244.932	653.12
245.166	643.12
245.399	548.12
245.633	559.12
245.866	577.12
246.099	628.12
246.333	726.12
246.566	779.12
246.8	783.12
247.033	732.12
247.266	701.12
247.5	723.12
247.733	687.12
247.966	674.12
248.2	687.12
248.433	777.12
248.666	872.12
248.899	840.12
249.133	883.12
249.366	983.12
249.599	1050.12
249.832	939.12
250.066	811.12
250.299	847.12
250.532	822.12
250.765	808.12
250.998	754.12
251.231	711.12
251.465	811.12
251.698	853.12
251.931	815.12
252.164	822.12
252.397	967.12
252.63	1072.12
252.863	1179.12
253.096	1216.12
253.329	1187.12
253.562	1125.12
253.795	1244.12
254.028	1353.12
254.261	1421.12
254.494	1247.12
254.727	1138.12
254.96	1128.12
255.193	1216.12
255.426	1126.12
255.659	864.12
255.892	793.12
256.124	868.12
256.357	1043.12
256.59	1211.12
256.823	1155.12
257.056	967.12
257.289	905.12
257.521	996.12
257.754	1119.12
257.987	1291.12
258.22	1103.12
258.452	1021.12
258.685	1160.12
258.918	1310.12
259.151	1256.12
259.383	1318.12
259.616	1527.12
259.849	1554.12
260.081	1717.12
260.314	1915.12
260.547	1471.12
260.779	1477.12
261.012	1733.12
261.244	1604.12
261.477	1612.12
261.71	1561.12
261.942	1291.12
262.175	1299.12
262.407	1236.12
262.64	1281.12
262.872	1515.12
263.105	1671.12
263.337	1751.12
263.57	1535.12
263.802	1059.12
264.035	907.12
264.267	891.12
264.499	781.12
264.732	699.12
264.964	693.12
265.197	706.12
265.429	785.12
265.661	813.12
265.894	855.12
266.126	918.12
266.358	1049.12
266.591	1280.12
266.823	1521.12
267.055	1415.12
267.287	1248.12
267.52	1263.12
267.752	1302.12
267.984	1472.12
268.216	1379.12
268.448	1129.12
268.681	1104.12
268.913	1207.12
269.145	1316.12
269.377	1345.12
269.609	1315.12
269.841	1224.12
270.073	1309.12
270.306	1359.12
270.538	1384.12
270.77	1403.12
271.002	1430.12
271.234	1488.12
271.466	1509.12
271.698	1435.12
271.93	1407.12
272.162	1427.12
272.394	1411.12
272.626	1412.12
272.858	1459.12
273.09	1506.12
273.322	1304.12
273.553	1293.12
273.785	1509.12
274.017	1995.12
274.249	2457.12
274.481	2509.12
274.713	2788.12
274.945	3235.12
275.176	3302.12
275.408	2910.12
275.64	2598.12
275.872	2601.12
276.104	2247.12
276.335	1963.12
276.567	1932.12
276.799	1989.12
277.031	2045.12
277.262	1590.12
277.494	1266.12
277.726	1192.12
277.957	1329.12
278.189	1505.12
278.421	1476.12
278.652	1443.12
278.884	1375.12
279.115	1269.12
279.347	1173.12
279.579	1210.12
279.81	1184.12
280.042	1221.12
280.273	1264.12
280.505	1134.12
280.736	1033.12
280.968	1045.12
281.199	1045.12
281.431	1252.12
281.662	1243.12
281.894	1175.12
282.125	1285.12
282.356	1352.12
282.588	1403.12
282.819	1257.12
283.051	1372.12
283.282	1691.12
283.513	1983.12
283.745	2188.12
283.976	2184.12
284.207	2006.12
284.439	2122.12
284.67	2047.12
284.901	1764.12
285.132	1961.12
285.364	2018.12
285.595	1889.12
285.826	2000.12
286.057	2051.12
286.288	1989.12
286.52	1995.12
286.751	2141.12
286.982	2084.12
287.213	1828.12
287.444	1795.12
287.675	1862.12
287.906	1846.12
288.138	1529.12
288.369	1362.12
288.6	1316.12
288.831	1353.12
289.062	1535.12
289.293	1716.12
289.524	1638.12
289.755	1610.12
289.986	1641.12
290.217	1441.12
290.448	1125.12
290.679	936.12
290.91	926.12
291.141	946.12
291.371	973.12
291.602	962.12
291.833	973.12
292.064	1072.12
292.295	1205.12
292.526	1393.12
292.757	1467.12
292.987	1585.12
293.218	1582.12
293.449	1585.12
293.68	1684.12
293.91	1603.12
294.141	1636.12
294.372	1535.12
294.603	1409.12
294.833	1581.12
295.064	1840.12
295.295	1764.12
295.525	1327.12
295.756	1146.12
295.987	1020.12
296.217	1022.12
296.448	1027.12
296.679	1121.12
296.909	1224.12
297.14	1313.12
297.37	1433.12
297.601	1381.12
297.831	1171.12
298.062	1259.12
298.292	1451.12
298.523	1592.12
298.753	1819.12
298.984	1595.12
299.214	1265.12
299.445	1076.12
299.675	1057.12
299.905	1056.12
300.136	1078.12
300.366	1187.12
300.597	1157.12
300.827	1038.12
301.057	981.12
301.288	1005.12
301.518	1079.12
301.748	1250.12
301.979	1345.12
302.209	1441.12
302.439	1464.12
302.669	1228.12
302.9	1265.12
303.13	1163.12
303.36	1121.12
303.59	1065.12
303.82	1131.12
304.051	1254.12
304.281	1326.12
304.511	1312.12
304.741	1162.12
304.971	1193.12
305.201	1288.12
305.431	1201.12
305.661	1042.12
305.891	1047.12
306.121	1122.12
306.352	985.12
306.582	875.12
306.812	858.12
307.042	861.12
307.272	814.12
307.502	833.12
307.731	892.12
307.961	918.12
308.191	878.12
308.421	812.12
308.651	800.12
308.881	773.12
309.111	765.12
309.341	809.12
309.571	875.12
309.8	912.12
310.03	946.12
310.26	1015.12
310.49	985.12
310.72	856.12
310.949	856.12
311.179	885.12
311.409	913.12
311.639	1099.12
311.868	1413.12
312.098	1779.12
312.328	1937.12
312.557	1840.12
312.787	1885.12
313.017	1685.12
313.246	1797.12
313.476	1977.12
313.706	1623.12
313.935	1281.12
314.165	1054.12
314.394	948.12
314.624	963.12
314.853	1011.12
315.083	1020.12
315.312	1019.12
315.542	989.12
315.771	935.12
316.001	872.12
316.23	837.12
316.46	841.12
316.689	859.12
316.919	844.12
317.148	897.12
317.377	884.12
317.607	876.12
317.836	956.12
318.065	1103.12
318.295	1230.12
318.524	1136.12
318.753	989.12
318.983	928.12
319.212	916.12
319.441	1013.12
319.67	1150.12
319.9	1209.12
320.129	1136.12
320.358	990.12
320.587	928.12
320.816	1011.12
321.046	1197.12
321.275	1327.12
321.504	1358.12
321.733	1310.12
321.962	1193.12
322.191	1173.12
322.42	1090.12
322.649	1132.12
322.878	1236.12
323.108	1217.12
323.337	1118.12
323.566	1079.12
323.795	1048.12
324.024	1025.12
324.253	988.12
324.482	974.12
324.71	1094.12
324.939	1213.12
325.168	1150.12
325.397	933.12
325.626	906.12
325.855	917.12
326.084	906.12
326.313	893.12
326.542	825.12
326.77	881.12
326.999	912.12
327.228	973.12
327.457	1005.12
327.686	1030.12
327.914	841.12
328.143	830.12
328.372	819.12
328.6	850.12
328.829	887.12
329.058	909.12
329.287	921.12
329.515	907.12
329.744	897.12
329.972	816.12
330.201	809.12
330.43	868.12
330.658	949.12
330.887	1075.12
331.115	1051.12
331.344	999.12
331.572	973.12
331.801	919.12
332.03	840.12
332.258	887.12
332.486	969.12
332.715	977.12
332.943	882.12
333.172	899.12
333.4	943.12
333.629	1041.12
333.857	1093.12
334.085	1085.12
334.314	1108.12
334.542	1052.12
334.771	978.12
334.999	952.12
335.227	904.12
335.455	957.12
335.684	1031.12
335.912	1188.12
336.14	1339.12
336.369	1300.12
336.597	1215.12
336.825	1344.12
337.053	1499.12
337.281	1235.12
337.51	1007.12
337.738	961.12
337.966	1054.12
338.194	1177.12
338.422	1105.12
338.65	945.12
338.878	889.12
339.106	930.12
339.334	1015.12
339.562	1103.12
339.79	995.12
340.018	971.12
340.246	1029.12
340.474	1186.12
340.702	1272.12
340.93	1340.12
341.158	1317.12
341.386	1097.12
341.614	1096.12
341.842	1110.12
342.07	1163.12
342.298	1329.12
342.526	1381.12
342.754	1219.12
342.981	1102.12
343.209	1063.12
343.437	1138.12
343.665	1163.12
343.893	1196.12
344.12	1396.12
344.348	1637.12
344.576	1430.12
344.804	1203.12
345.031	1025.12
345.259	964.12
345.487	991.12
345.714	1024.12
345.942	1115.12
346.17	1204.12
346.397	1129.12
346.625	1014.12
346.853	964.12
347.08	914.12
347.308	981.12
347.535	1109.12
347.763	1146.12
347.99	996.12
348.218	892.12
348.445	956.12
348.673	975.12
348.9	967.12
349.128	1042.12
349.355	1084.12
349.583	1054.12
349.81	998.12
350.037	937.12
350.265	849.12
350.492	811.12
350.72	787.12
350.947	808.12
351.174	860.12
351.402	958.12
351.629	977.12
351.856	935.12
352.083	893.12
352.311	967.12
352.538	1071.12
352.765	1162.12
352.992	1049.12
353.22	981.12
353.447	1011.12
353.674	960.12
353.901	990.12
354.128	1005.12
354.355	999.12
354.583	1016.12
354.81	975.12
355.037	991.12
355.264	1015.12
355.491	1063.12
355.718	1159.12
355.945	1108.12
356.172	1088.12
356.399	1112.12
356.626	1327.12
356.853	1649.12
357.08	1712.12
357.307	1796.12
357.534	1358.12
357.761	1409.12
357.988	1752.12
358.215	2098.12
358.441	1943.12
358.668	1663.12
358.895	1508.12
359.122	1237.12
359.349	1209.12
359.576	1342.12
359.802	1091.12
360.029	929.12
360.256	1039.12
360.483	1270.12
360.709	1636.12
360.936	1659.12
361.163	1485.12
361.39	1129.12
361.616	1053.12
361.843	1243.12
362.07	1510.12
362.296	1405.12
362.523	1107.12
362.749	951.12
362.976	1013.12
363.203	1208.12
363.429	1337.12
363.656	1068.12
363.882	998.12
364.109	1010.12
364.335	1005.12
364.562	986.12
364.788	1122.12
365.015	1293.12
365.241	1152.12
365.468	968.12
365.694	830.12
365.92	806.12
366.147	802.12
366.373	765.12
366.599	788.12
366.826	812.12
367.052	828.12
367.278	844.12
367.505	822.12
367.731	895.12
367.957	1019.12
368.184	997.12
368.41	1018.12
368.636	1008.12
368.862	1080.12
369.089	1014.12
369.315	917.12
369.541	889.12
369.767	888.12
369.993	851.12
370.219	859.12
370.445	928.12
370.672	1026.12
370.898	1069.12
371.124	1101.12
371.35	966.12
371.576	898.12
371.802	1008.12
372.028	1175.12
372.254	1311.12
372.48	1151.12
372.706	1029.12
372.932	1085.12
373.158	1148.12
373.384	1392.12
373.61	1822.12
373.835	1867.12
374.061	1417.12
374.287	1178.12
374.513	1391.12
374.739	1679.12
374.965	1712.12
375.191	1693.12
375.416	1166.12
375.642	1044.12
375.868	1233.12
376.094	1359.12
376.319	1184.12
376.545	1269.12
376.771	1357.12
376.997	1140.12
377.222	880.12
377.448	770.12
377.674	768.12
377.899	749.12
378.125	728.12
378.35	752.12
378.576	792.12
378.802	871.12
379.027	926.12
379.253	887.12
379.478	928.12
379.704	1057.12
379.929	1119.12
380.155	1088.12
380.38	961.12
380.606	997.12
380.831	1107.12
381.057	1010.12
381.282	983.12
381.507	1160.12
381.733	1473.12
381.958	1531.12
382.184	1607.12
382.409	1741.12
382.634	1675.12
382.86	1749.12
383.085	1469.12
383.31	1136.12
383.535	1221.12
383.761	1256.12
383.986	1188.12
384.211	1394.12
384.436	1363.12
384.662	1079.12
384.887	988.12
385.112	1038.12
385.337	1026.12
385.562	983.12
385.787	1091.12
386.013	1219.12
386.238	1252.12
386.463	1032.12
386.688	998.12
386.913	940.12
387.138	863.12
387.363	959.12
387.588	990.12
387.813	1001.12
388.038	1122.12
388.263	983.12
388.488	967.12
388.713	1124.12
388.938	1231.12
389.163	1000.12
389.387	920.12
389.612	939.12
389.837	954.12
390.062	928.12
390.287	995.12
390.512	1021.12
390.736	928.12
390.961	889.12
391.186	876.12
391.411	831.12
391.636	885.12
391.86	933.12
392.085	980.12
392.31	1007.12
392.534	972.12
392.759	966.12
392.984	1015.12
393.208	972.12
393.433	872.12
393.658	806.12
393.882	800.12
394.107	811.12
394.331	801.12
394.556	800.12
394.78	833.12
395.005	859.12
395.229	864.12
395.454	881.12
395.678	907.12
395.903	909.12
396.127	896.12
396.352	883.12
396.576	983.12
396.801	1010.12
397.025	1120.12
397.249	1133.12
397.474	936.12
397.698	919.12
397.922	967.12
398.147	899.12
398.371	902.12
398.595	994.12
398.82	968.12
399.044	949.12
399.268	1022.12
399.492	1056.12
399.717	1055.12
399.941	1099.12
400.165	1069.12
400.389	1020.12
400.613	1089.12
400.837	1015.12
401.062	936.12
401.286	894.12
401.51	915.12
401.734	937.12
401.958	934.12
402.182	911.12
402.406	901.12
402.63	893.12
402.854	947.12
403.078	1096.12
403.302	1320.12
403.526	1352.12
403.75	1183.12
403.974	1052.12
404.198	1099.12
404.422	1232.12
404.645	1440.12
404.869	1587.12
405.093	1171.12
405.317	995.12
405.541	981.12
405.765	977.12
405.988	1006.12
406.212	1096.12
406.436	1336.12
406.66	1437.12
406.883	1149.12
407.107	1174.12
407.331	1390.12
407.555	1310.12
407.778	1101.12
408.002	1051.12
408.226	1045.12
408.449	1048.12
408.673	1014.12
408.896	946.12
409.12	905.12
409.344	918.12
409.567	869.12
409.791	887.12
410.014	882.12
410.238	891.12
410.461	893.12
410.685	880.12
410.908	905.12
411.132	933.12
411.355	941.12
411.578	959.12
411.802	916.12
412.025	971.12
412.249	995.12
412.472	965.12
412.695	976.12
412.919	955.12
413.142	969.12
413.365	1047.12
413.589	1048.12
413.812	940.12
414.035	901.12
414.258	926.12
414.482	1048.12
414.705	1084.12
414.928	912.12
415.151	895.12
415.374	884.12
415.597	920.12
415.821	934.12
416.044	904.12
416.267	845.12
416.49	883.12
416.713	836.12
416.936	849.12
417.159	848.12
417.382	896.12
417.605	885.12
417.828	905.12
418.051	934.12
418.274	936.12
418.497	920.12
418.72	919.12
418.943	935.12
419.166	1022.12
419.389	1047.12
419.611	981.12
419.834	1007.12
420.057	1116.12
420.28	1126.12
420.503	1025.12
420.726	880.12
420.948	886.12
421.171	897.12
421.394	892.12
421.617	872.12
421.839	895.12
422.062	939.12
422.285	945.12
422.507	932.12
422.73	960.12
422.953	953.12
423.175	957.12
423.398	932.12
423.621	1052.12
423.843	1065.12
424.066	996.12
424.288	937.12
424.511	901.12
424.733	908.12
424.956	955.12
425.178	1077.12
425.401	1207.12
425.623	1358.12
425.846	1160.12
426.068	1026.12
426.291	1116.12
426.513	1001.12
426.735	932.12
426.958	988.12
427.18	1150.12
427.402	1522.12
427.625	1475.12
427.847	1195.12
428.069	887.12
428.292	885.12
428.514	894.12
428.736	860.12
428.958	971.12
429.181	1137.12
429.403	964.12
429.625	896.12
429.847	855.12
430.069	902.12
430.292	928.12
430.514	864.12
430.736	961.12
430.958	1197.12
431.18	1086.12
431.402	848.12
431.624	813.12
431.846	797.12
432.068	796.12
432.29	825.12
432.512	924.12
432.734	1215.12
432.956	1125.12
433.178	873.12
433.4	865.12
433.622	876.12
433.844	866.12
434.066	937.12
434.287	909.12
434.509	895.12
434.731	937.12
434.953	876.12
435.175	905.12
435.397	1029.12
435.618	910.12
435.84	841.12
436.062	846.12
436.284	815.12
436.505	806.12
436.727	795.12
436.949	785.12
437.17	813.12
437.392	869.12
437.614	830.12
437.835	797.12
438.057	834.12
438.278	980.12
438.5	1398.12
438.721	1390.12
438.943	971.12
439.165	840.12
439.386	776.12
439.608	790.12
439.829	788.12
440.05	791.12
440.272	847.12
440.493	1003.12
440.715	1279.12
440.936	984.12
441.158	831.12
441.379	873.12
441.6	966.12
441.822	1039.12
442.043	891.12
442.264	868.12
442.486	875.12
442.707	852.12
442.928	867.12
443.149	894.12
443.371	897.12
443.592	932.12
443.813	913.12
444.034	913.12
444.255	928.12
444.476	967.12
444.698	952.12
444.919	963.12
445.14	1097.12
445.361	1020.12
445.582	958.12
445.803	939.12
446.024	925.12
446.245	959.12
446.466	905.12
446.687	878.12
446.908	869.12
447.129	822.12
447.35	800.12
447.571	807.12
447.792	785.12
448.013	783.12
448.234	777.12
448.455	773.12
448.675	787.12
448.896	807.12
449.117	792.12
449.338	799.12
449.559	844.12
449.779	877.12
450	880.12
450.221	821.12
450.442	811.12
450.662	812.12
450.883	807.12
451.104	806.12
451.324	793.12
451.545	820.12
451.766	797.12
451.986	783.12
452.207	783.12
452.428	773.12
452.648	791.12
452.869	817.12
453.089	838.12
453.31	830.12
453.53	761.12
453.751	760.12
453.971	743.12
454.192	758.12
454.412	796.12
454.633	762.12
454.853	735.12
455.073	706.12
455.294	719.12
455.514	729.12
455.734	799.12
455.955	843.12
456.175	829.12
456.395	748.12
456.616	711.12
456.836	703.12
457.056	667.12
457.276	704.12
457.497	703.12
457.717	727.12
457.937	698.12
458.157	713.12
458.377	751.12
458.598	741.12
458.818	750.12
459.038	771.12
459.258	837.12
459.478	853.12
459.698	885.12
459.918	905.12
460.138	887.12
460.358	895.12
460.578	895.12
460.798	896.12
461.018	894.12
461.238	867.12
461.458	867.12
461.678	892.12
461.898	921.12
462.118	936.12
462.338	928.12
462.558	956.12
462.777	1022.12
462.997	1029.12
463.217	995.12
463.437	1039.12
463.657	998.12
463.876	990.12
464.096	975.12
464.316	989.12
464.536	981.12
464.755	1012.12
464.975	1009.12
465.195	962.12
465.414	984.12
465.634	933.12
465.854	934.12
466.073	863.12
466.293	886.12
466.512	941.12
466.732	1041.12
466.951	1069.12
467.171	901.12
467.391	901.12
467.61	867.12
467.829	938.12
468.049	945.12
468.268	855.12
468.488	901.12
468.707	930.12
468.927	1070.12
469.146	1147.12
469.365	1027.12
469.585	969.12
469.804	1025.12
470.023	1125.12
470.243	976.12
470.462	943.12
470.681	905.12
470.901	929.12
471.12	976.12
471.339	991.12
471.558	925.12
471.777	936.12
471.997	1000.12
472.216	1105.12
472.435	1105.12
472.654	979.12
472.873	973.12
473.092	996.12
473.311	1037.12
473.53	953.12
473.749	928.12
473.968	980.12
474.187	960.12
474.406	955.12
474.625	936.12
474.844	951.12
475.063	1026.12
475.282	1053.12
475.501	1065.12
475.72	1140.12
475.939	1064.12
476.158	1080.12
476.377	1263.12
476.596	1453.12
476.814	1529.12
477.033	1264.12
477.252	1059.12
477.471	990.12
477.69	1008.12
477.908	1112.12
478.127	1176.12
478.346	1084.12
478.564	1161.12
478.783	1092.12
479.002	1109.12
479.22	1289.12
479.439	1401.12
479.658	1283.12
479.876	1108.12
480.095	1173.12
480.313	1224.12
480.532	1137.12
480.751	1091.12
480.969	1127.12
481.188	1268.12
481.406	1307.12
481.624	1243.12
481.843	1136.12
482.061	1056.12
482.28	1181.12
482.498	1471.12
482.717	1361.12
482.935	1195.12
483.153	1141.12
483.372	1061.12
483.59	1041.12
483.808	1060.12
484.027	1055.12
484.245	991.12
484.463	971.12
484.681	1042.12
484.9	1096.12
485.118	1240.12
485.336	1107.12
485.554	1016.12
485.772	1098.12
485.99	1158.12
486.209	1219.12
486.427	1217.12
486.645	1182.12
486.863	1231.12
487.081	1245.12
487.299	1370.12
487.517	1333.12
487.735	1213.12
487.953	1232.12
488.171	1267.12
488.389	1207.12
488.607	1090.12
488.825	1152.12
489.043	1286.12
489.261	1444.12
489.479	1563.12
489.696	1268.12
489.914	1159.12
490.132	1110.12
490.35	1121.12
490.568	1133.12
490.786	1126.12
491.003	1123.12
491.221	1183.12
491.439	1143.12
491.657	1155.12
491.874	1213.12
492.092	1492.12
492.31	1781.12
492.527	1777.12
492.745	1583.12
492.963	1345.12
493.18	1297.12
493.398	1285.12
493.615	1307.12
493.833	1253.12
494.05	1232.12
494.268	1268.12
