Data from NickelSpatula_HRD10591_16-36-28-126.txt Node
Date: Mon Jul 22 16:36:28 EDT 2019
User: cochatt
Spectrometer: HR+D1059
Trigger mode: 1
Integration Time (sec): 1.000000E-1
Scans to average: 1
Electric dark correction enabled: true
Nonlinearity correction enabled: false
Boxcar width: 0
XAxis mode: Wavelengths
Number of Pixels in Spectrum: 2048
>>>>>Begin Spectral Data<<<<<
223.165	0.44
223.4	0.44
223.635	0.44
223.869	-15.56
224.104	-18.56
224.338	-25.56
224.573	-13.56
224.808	-19.56
225.042	-12.56
225.277	-3.56
225.511	-7.56
225.746	-2.56
225.98	1.44
226.215	25.44
226.449	16.44
226.683	33.44
226.918	11.44
227.152	30.44
227.387	36.44
227.621	36.44
227.856	52.44
228.09	51.44
228.324	46.44
228.559	51.44
228.793	51.44
229.027	78.44
229.262	81.44
229.496	71.44
229.73	67.44
229.964	69.44
230.199	74.44
230.433	64.44
230.667	85.44
230.901	84.44
231.136	89.44
231.37	86.44
231.604	85.44
231.838	83.44
232.072	85.44
232.306	74.44
232.541	79.44
232.775	80.44
233.009	97.44
233.243	96.44
233.477	89.44
233.711	88.44
233.945	80.44
234.179	90.44
234.413	99.44
234.647	107.44
234.881	104.44
235.115	82.44
235.349	81.44
235.583	97.44
235.817	87.44
236.051	91.44
236.285	96.44
236.519	95.44
236.753	108.44
236.987	88.44
237.221	87.44
237.455	95.44
237.689	93.44
237.922	86.44
238.156	90.44
238.39	107.44
238.624	112.44
238.858	91.44
239.091	103.44
239.325	105.44
239.559	97.44
239.793	104.44
240.027	104.44
240.26	113.44
240.494	110.44
240.728	105.44
240.961	100.44
241.195	93.44
241.429	105.44
241.662	105.44
241.896	101.44
242.13	101.44
242.363	103.44
242.597	78.44
242.83	98.44
243.064	111.44
243.298	112.44
243.531	112.44
243.765	108.44
243.998	106.44
244.232	93.44
244.465	101.44
244.699	91.44
244.932	102.44
245.166	111.44
245.399	96.44
245.633	108.44
245.866	116.44
246.099	106.44
246.333	112.44
246.566	110.44
246.8	117.44
247.033	114.44
247.266	101.44
247.5	110.44
247.733	105.44
247.966	118.44
248.2	81.44
248.433	110.44
248.666	132.44
248.899	115.44
249.133	127.44
249.366	117.44
249.599	116.44
249.832	120.44
250.066	109.44
250.299	119.44
250.532	101.44
250.765	108.44
250.998	120.44
251.231	110.44
251.465	117.44
251.698	124.44
251.931	118.44
252.164	110.44
252.397	121.44
252.63	116.44
252.863	133.44
253.096	126.44
253.329	132.44
253.562	142.44
253.795	138.44
254.028	149.44
254.261	156.44
254.494	130.44
254.727	135.44
254.96	135.44
255.193	149.44
255.426	138.44
255.659	119.44
255.892	112.44
256.124	128.44
256.357	136.44
256.59	124.44
256.823	129.44
257.056	127.44
257.289	122.44
257.521	133.44
257.754	133.44
257.987	136.44
258.22	151.44
258.452	125.44
258.685	126.44
258.918	149.44
259.151	138.44
259.383	146.44
259.616	154.44
259.849	152.44
260.081	173.44
260.314	160.44
260.547	150.44
260.779	129.44
261.012	174.44
261.244	160.44
261.477	163.44
261.71	146.44
261.942	158.44
262.175	151.44
262.407	134.44
262.64	124.44
262.872	153.44
263.105	154.44
263.337	159.44
263.57	136.44
263.802	122.44
264.035	131.44
264.267	122.44
264.499	110.44
264.732	108.44
264.964	113.44
265.197	126.44
265.429	119.44
265.661	134.44
265.894	122.44
266.126	126.44
266.358	142.44
266.591	144.44
266.823	144.44
267.055	159.44
267.287	152.44
267.52	152.44
267.752	135.44
267.984	149.44
268.216	172.44
268.448	128.44
268.681	138.44
268.913	150.44
269.145	137.44
269.377	135.44
269.609	147.44
269.841	135.44
270.073	155.44
270.306	157.44
270.538	142.44
270.77	162.44
271.002	161.44
271.234	149.44
271.466	157.44
271.698	157.44
271.93	134.44
272.162	159.44
272.394	132.44
272.626	144.44
272.858	154.44
273.09	144.44
273.322	133.44
273.553	148.44
273.785	143.44
274.017	180.44
274.249	192.44
274.481	206.44
274.713	215.44
274.945	226.44
275.176	250.44
275.408	230.44
275.64	202.44
275.872	200.44
276.104	193.44
276.335	176.44
276.567	173.44
276.799	192.44
277.031	181.44
277.262	149.44
277.494	147.44
277.726	124.44
277.957	139.44
278.189	166.44
278.421	156.44
278.652	149.44
278.884	132.44
279.115	145.44
279.347	128.44
279.579	136.44
279.81	137.44
280.042	137.44
280.273	139.44
280.505	125.44
280.736	131.44
280.968	135.44
281.199	130.44
281.431	136.44
281.662	125.44
281.894	136.44
282.125	129.44
282.356	151.44
282.588	154.44
282.819	137.44
283.051	149.44
283.282	161.44
283.513	176.44
283.745	187.44
283.976	197.44
284.207	184.44
284.439	188.44
284.67	171.44
284.901	173.44
285.132	186.44
285.364	180.44
285.595	177.44
285.826	186.44
286.057	180.44
286.288	178.44
286.52	186.44
286.751	190.44
286.982	169.44
287.213	164.44
287.444	168.44
287.675	183.44
287.906	180.44
288.138	161.44
288.369	133.44
288.6	136.44
288.831	161.44
289.062	174.44
289.293	165.44
289.524	166.44
289.755	162.44
289.986	175.44
290.217	147.44
290.448	131.44
290.679	137.44
290.91	119.44
291.141	140.44
291.371	129.44
291.602	126.44
291.833	134.44
292.064	135.44
292.295	147.44
292.526	143.44
292.757	159.44
292.987	159.44
293.218	159.44
293.449	166.44
293.68	174.44
293.91	164.44
294.141	194.44
294.372	178.44
294.603	155.44
294.833	169.44
295.064	192.44
295.295	163.44
295.525	144.44
295.756	131.44
295.987	136.44
296.217	131.44
296.448	109.44
296.679	122.44
296.909	134.44
297.14	142.44
297.37	138.44
297.601	152.44
297.831	132.44
298.062	148.44
298.292	149.44
298.523	140.44
298.753	166.44
298.984	165.44
299.214	144.44
299.445	127.44
299.675	116.44
299.905	126.44
300.136	128.44
300.366	121.44
300.597	101.44
300.827	138.44
301.057	105.44
301.288	121.44
301.518	137.44
301.748	124.44
301.979	133.44
302.209	139.44
302.439	145.44
302.669	130.44
302.9	143.44
303.13	124.44
303.36	125.44
303.59	120.44
303.82	135.44
304.051	132.44
304.281	146.44
304.511	152.44
304.741	126.44
304.971	137.44
305.201	135.44
305.431	145.44
305.661	122.44
305.891	113.44
306.121	121.44
306.352	121.44
306.582	119.44
306.812	120.44
307.042	118.44
307.272	94.44
307.502	108.44
307.731	113.44
307.961	116.44
308.191	118.44
308.421	121.44
308.651	114.44
308.881	113.44
309.111	105.44
309.341	115.44
309.571	117.44
309.8	115.44
310.03	124.44
310.26	115.44
310.49	132.44
310.72	104.44
310.949	110.44
311.179	120.44
311.409	121.44
311.639	132.44
311.868	133.44
312.098	173.44
312.328	158.44
312.557	185.44
312.787	175.44
313.017	170.44
313.246	160.44
313.476	187.44
313.706	161.44
313.935	150.44
314.165	126.44
314.394	115.44
314.624	111.44
314.853	102.44
315.083	128.44
315.312	130.44
315.542	123.44
315.771	103.44
316.001	102.44
316.23	123.44
316.46	120.44
316.689	112.44
316.919	130.44
317.148	123.44
317.377	129.44
317.607	125.44
317.836	134.44
318.065	113.44
318.295	132.44
318.524	131.44
318.753	109.44
318.983	117.44
319.212	118.44
319.441	129.44
319.67	132.44
319.9	122.44
320.129	126.44
320.358	119.44
320.587	102.44
320.816	120.44
321.046	124.44
321.275	132.44
321.504	137.44
321.733	125.44
321.962	117.44
322.191	127.44
322.42	133.44
322.649	134.44
322.878	134.44
323.108	129.44
323.337	141.44
323.566	127.44
323.795	114.44
324.024	122.44
324.253	127.44
324.482	127.44
324.71	129.44
324.939	139.44
325.168	119.44
325.397	116.44
325.626	117.44
325.855	111.44
326.084	112.44
326.313	105.44
326.542	115.44
326.77	110.44
326.999	108.44
327.228	133.44
327.457	134.44
327.686	113.44
327.914	114.44
328.143	115.44
328.372	118.44
328.6	114.44
328.829	115.44
329.058	108.44
329.287	105.44
329.515	122.44
329.744	123.44
329.972	116.44
330.201	108.44
330.43	105.44
330.658	106.44
330.887	131.44
331.115	124.44
331.344	126.44
331.572	133.44
331.801	117.44
332.03	110.44
332.258	109.44
332.486	94.44
332.715	124.44
332.943	116.44
333.172	122.44
333.4	113.44
333.629	122.44
333.857	124.44
334.085	128.44
334.314	126.44
334.542	119.44
334.771	116.44
334.999	117.44
335.227	121.44
335.455	123.44
335.684	136.44
335.912	142.44
336.14	142.44
336.369	149.44
336.597	133.44
336.825	143.44
337.053	148.44
337.281	122.44
337.51	127.44
337.738	132.44
337.966	121.44
338.194	146.44
338.422	137.44
338.65	115.44
338.878	115.44
339.106	108.44
339.334	118.44
339.562	123.44
339.79	122.44
340.018	125.44
340.246	121.44
340.474	128.44
340.702	129.44
340.93	143.44
341.158	135.44
341.386	131.44
341.614	139.44
341.842	127.44
342.07	119.44
342.298	129.44
342.526	155.44
342.754	111.44
342.981	110.44
343.209	129.44
343.437	120.44
343.665	147.44
343.893	132.44
344.12	143.44
344.348	162.44
344.576	143.44
344.804	111.44
345.031	119.44
345.259	114.44
345.487	107.44
345.714	116.44
345.942	115.44
346.17	135.44
346.397	131.44
346.625	131.44
346.853	117.44
347.08	114.44
347.308	124.44
347.535	136.44
347.763	122.44
347.99	117.44
348.218	132.44
348.445	115.44
348.673	117.44
348.9	108.44
349.128	120.44
349.355	127.44
349.583	110.44
349.81	113.44
350.037	124.44
350.265	118.44
350.492	108.44
350.72	106.44
350.947	106.44
351.174	112.44
351.402	104.44
351.629	109.44
351.856	109.44
352.083	103.44
352.311	117.44
352.538	105.44
352.765	136.44
352.992	112.44
353.22	128.44
353.447	132.44
353.674	120.44
353.901	117.44
354.128	116.44
354.355	120.44
354.583	122.44
354.81	134.44
355.037	130.44
355.264	113.44
355.491	132.44
355.718	117.44
355.945	132.44
356.172	125.44
356.399	132.44
356.626	120.44
356.853	140.44
357.08	161.44
357.307	147.44
357.534	131.44
357.761	130.44
357.988	152.44
358.215	162.44
358.441	161.44
358.668	143.44
358.895	142.44
359.122	132.44
359.349	110.44
359.576	131.44
359.802	128.44
360.029	138.44
360.256	124.44
360.483	113.44
360.709	147.44
360.936	135.44
361.163	125.44
361.39	127.44
361.616	124.44
361.843	132.44
362.07	134.44
362.296	149.44
362.523	122.44
362.749	103.44
362.976	104.44
363.203	136.44
363.429	136.44
363.656	105.44
363.882	113.44
364.109	134.44
364.335	126.44
364.562	97.44
364.788	126.44
365.015	121.44
365.241	133.44
365.468	121.44
365.694	116.44
365.92	108.44
366.147	117.44
366.373	112.44
366.599	118.44
366.826	99.44
367.052	98.44
367.278	103.44
367.505	109.44
367.731	120.44
367.957	122.44
368.184	102.44
368.41	113.44
368.636	126.44
368.862	136.44
369.089	109.44
369.315	109.44
369.541	115.44
369.767	108.44
369.993	118.44
370.219	118.44
370.445	118.44
370.672	125.44
370.898	121.44
371.124	118.44
371.35	125.44
371.576	102.44
371.802	107.44
372.028	112.44
372.254	114.44
372.48	133.44
372.706	120.44
372.932	120.44
373.158	125.44
373.384	156.44
373.61	158.44
373.835	147.44
374.061	136.44
374.287	142.44
374.513	137.44
374.739	136.44
374.965	139.44
375.191	136.44
375.416	145.44
375.642	117.44
375.868	118.44
376.094	115.44
376.319	121.44
376.545	138.44
376.771	132.44
376.997	117.44
377.222	101.44
377.448	114.44
377.674	101.44
377.899	122.44
378.125	121.44
378.35	119.44
378.576	116.44
378.802	115.44
379.027	117.44
379.253	111.44
379.478	108.44
379.704	134.44
379.929	132.44
380.155	119.44
380.38	121.44
380.606	121.44
380.831	119.44
381.057	117.44
381.282	114.44
381.507	134.44
381.733	140.44
381.958	146.44
382.184	141.44
382.409	124.44
382.634	156.44
382.86	147.44
383.085	121.44
383.31	113.44
383.535	120.44
383.761	146.44
383.986	121.44
384.211	136.44
384.436	138.44
384.662	124.44
384.887	133.44
385.112	124.44
385.337	113.44
385.562	122.44
385.787	142.44
386.013	131.44
386.238	127.44
386.463	106.44
386.688	114.44
386.913	117.44
387.138	112.44
387.363	127.44
387.588	123.44
387.813	138.44
388.038	131.44
388.263	127.44
388.488	132.44
388.713	130.44
388.938	132.44
389.163	129.44
389.387	116.44
389.612	104.44
389.837	111.44
390.062	136.44
390.287	121.44
390.512	130.44
390.736	131.44
390.961	116.44
391.186	103.44
391.411	129.44
391.636	101.44
391.86	135.44
392.085	126.44
392.31	121.44
392.534	122.44
392.759	105.44
392.984	126.44
393.208	128.44
393.433	126.44
393.658	111.44
393.882	118.44
394.107	114.44
394.331	105.44
394.556	114.44
394.78	112.44
395.005	110.44
395.229	118.44
395.454	98.44
395.678	94.44
395.903	110.44
396.127	120.44
396.352	118.44
396.576	119.44
396.801	128.44
397.025	146.44
397.249	145.44
397.474	135.44
397.698	128.44
397.922	140.44
398.147	125.44
398.371	131.44
398.595	149.44
398.82	128.44
399.044	118.44
399.268	127.44
399.492	126.44
399.717	144.44
399.941	137.44
400.165	126.44
400.389	128.44
400.613	127.44
400.837	123.44
401.062	130.44
401.286	124.44
401.51	122.44
401.734	126.44
401.958	121.44
402.182	112.44
402.406	129.44
402.63	127.44
402.854	137.44
403.078	139.44
403.302	160.44
403.526	155.44
403.75	152.44
403.974	130.44
404.198	125.44
404.422	151.44
404.645	145.44
404.869	142.44
405.093	130.44
405.317	125.44
405.541	128.44
405.765	121.44
405.988	148.44
406.212	132.44
406.436	146.44
406.66	141.44
406.883	131.44
407.107	124.44
407.331	157.44
407.555	143.44
407.778	133.44
408.002	132.44
408.226	128.44
408.449	128.44
408.673	123.44
408.896	129.44
409.12	112.44
409.344	120.44
409.567	113.44
409.791	118.44
410.014	125.44
410.238	102.44
410.461	122.44
410.685	128.44
410.908	134.44
411.132	120.44
411.355	124.44
411.578	126.44
411.802	121.44
412.025	122.44
412.249	112.44
412.472	105.44
412.695	112.44
412.919	121.44
413.142	136.44
413.365	135.44
413.589	126.44
413.812	119.44
414.035	126.44
414.258	132.44
414.482	129.44
414.705	117.44
414.928	119.44
415.151	135.44
415.374	132.44
415.597	117.44
415.821	119.44
416.044	111.44
416.267	114.44
416.49	108.44
416.713	117.44
416.936	124.44
417.159	117.44
417.382	113.44
417.605	125.44
417.828	119.44
418.051	112.44
418.274	124.44
418.497	122.44
418.72	130.44
418.943	130.44
419.166	129.44
419.389	114.44
419.611	120.44
419.834	120.44
420.057	134.44
420.28	145.44
420.503	122.44
420.726	111.44
420.948	130.44
421.171	128.44
421.394	120.44
421.617	130.44
421.839	118.44
422.062	127.44
422.285	116.44
422.507	139.44
422.73	143.44
422.953	125.44
423.175	129.44
423.398	115.44
423.621	136.44
423.843	131.44
424.066	135.44
424.288	128.44
424.511	120.44
424.733	129.44
424.956	118.44
425.178	144.44
425.401	140.44
425.623	152.44
425.846	137.44
426.068	132.44
426.291	126.44
426.513	134.44
426.735	133.44
426.958	128.44
427.18	141.44
427.402	153.44
427.625	157.44
427.847	140.44
428.069	120.44
428.292	128.44
428.514	112.44
428.736	118.44
428.958	136.44
429.181	135.44
429.403	139.44
429.625	139.44
429.847	135.44
430.069	126.44
430.292	119.44
430.514	104.44
430.736	122.44
430.958	122.44
431.18	125.44
431.402	123.44
431.624	114.44
431.846	118.44
432.068	113.44
432.29	102.44
432.512	122.44
432.734	134.44
432.956	123.44
433.178	125.44
433.4	128.44
433.622	142.44
433.844	120.44
434.066	139.44
434.287	134.44
434.509	114.44
434.731	117.44
434.953	124.44
435.175	117.44
435.397	146.44
435.618	129.44
435.84	129.44
436.062	131.44
436.284	109.44
436.505	114.44
436.727	104.44
436.949	114.44
437.17	126.44
437.392	123.44
437.614	127.44
437.835	110.44
438.057	104.44
438.278	120.44
438.5	145.44
438.721	139.44
438.943	132.44
439.165	104.44
439.386	110.44
439.608	124.44
439.829	119.44
440.05	125.44
440.272	114.44
440.493	120.44
440.715	147.44
440.936	105.44
441.158	118.44
441.379	118.44
441.6	131.44
441.822	114.44
442.043	110.44
442.264	121.44
442.486	118.44
442.707	113.44
442.928	128.44
443.149	121.44
443.371	134.44
443.592	139.44
443.813	117.44
444.034	129.44
444.255	114.44
444.476	120.44
444.698	114.44
444.919	125.44
445.14	256.44
445.361	191.44
445.582	141.44
445.803	125.44
446.024	96.44
446.245	118.44
446.466	118.44
446.687	114.44
446.908	130.44
447.129	120.44
447.35	113.44
447.571	123.44
447.792	108.44
448.013	111.44
448.234	127.44
448.455	124.44
448.675	119.44
448.896	124.44
449.117	131.44
449.338	126.44
449.559	123.44
449.779	126.44
450	117.44
450.221	135.44
450.442	125.44
450.662	98.44
450.883	116.44
451.104	120.44
451.324	93.44
451.545	112.44
451.766	121.44
451.986	118.44
452.207	127.44
452.428	111.44
452.648	113.44
452.869	125.44
453.089	114.44
453.31	108.44
453.53	112.44
453.751	110.44
453.971	86.44
454.192	120.44
454.412	124.44
454.633	98.44
454.853	122.44
455.073	110.44
455.294	102.44
455.514	120.44
455.734	108.44
455.955	104.44
456.175	125.44
456.395	101.44
456.616	109.44
456.836	112.44
457.056	109.44
457.276	104.44
457.497	122.44
457.717	120.44
457.937	116.44
458.157	124.44
458.377	112.44
458.598	117.44
458.818	118.44
459.038	120.44
459.258	116.44
459.478	121.44
459.698	131.44
459.918	121.44
460.138	124.44
460.358	122.44
460.578	109.44
460.798	111.44
461.018	129.44
461.238	127.44
461.458	121.44
461.678	128.44
461.898	126.44
462.118	133.44
462.338	120.44
462.558	124.44
462.777	127.44
462.997	134.44
463.217	117.44
463.437	120.44
463.657	129.44
463.876	109.44
464.096	126.44
464.316	125.44
464.536	133.44
464.755	121.44
464.975	135.44
465.195	129.44
465.414	139.44
465.634	126.44
465.854	131.44
466.073	105.44
466.293	121.44
466.512	134.44
466.732	128.44
466.951	121.44
467.171	122.44
467.391	105.44
467.61	118.44
467.829	116.44
468.049	116.44
468.268	137.44
468.488	119.44
468.707	111.44
468.927	124.44
469.146	152.44
469.365	131.44
469.585	134.44
469.804	137.44
470.023	132.44
470.243	134.44
470.462	127.44
470.681	125.44
470.901	119.44
471.12	125.44
471.339	128.44
471.558	129.44
471.777	132.44
471.997	144.44
472.216	132.44
472.435	128.44
472.654	124.44
472.873	143.44
473.092	124.44
473.311	132.44
473.53	139.44
473.749	138.44
473.968	134.44
474.187	134.44
474.406	128.44
474.625	124.44
474.844	125.44
475.063	116.44
475.282	123.44
475.501	145.44
475.72	148.44
475.939	136.44
476.158	127.44
476.377	148.44
476.596	153.44
476.814	165.44
477.033	159.44
477.252	126.44
477.471	109.44
477.69	131.44
477.908	142.44
478.127	128.44
478.346	148.44
478.564	143.44
478.783	132.44
479.002	133.44
479.22	150.44
479.439	157.44
479.658	144.44
479.876	148.44
480.095	140.44
480.313	149.44
480.532	120.44
480.751	127.44
480.969	135.44
481.188	138.44
481.406	143.44
481.624	127.44
481.843	136.44
482.061	132.44
482.28	133.44
482.498	171.44
482.717	156.44
482.935	140.44
483.153	131.44
483.372	128.44
483.59	123.44
483.808	123.44
484.027	134.44
484.245	131.44
484.463	112.44
484.681	137.44
484.9	144.44
485.118	146.44
485.336	130.44
485.554	116.44
485.772	137.44
485.99	144.44
486.209	151.44
486.427	127.44
486.645	130.44
486.863	141.44
487.081	142.44
487.299	156.44
487.517	142.44
487.735	132.44
487.953	156.44
488.171	142.44
488.389	131.44
488.607	139.44
488.825	133.44
489.043	142.44
489.261	167.44
489.479	176.44
489.696	142.44
489.914	121.44
490.132	131.44
490.35	137.44
490.568	142.44
490.786	134.44
491.003	150.44
491.221	122.44
491.439	145.44
491.657	134.44
491.874	154.44
492.092	167.44
492.31	167.44
492.527	167.44
492.745	156.44
492.963	146.44
493.18	162.44
493.398	137.44
493.615	142.44
493.833	141.44
494.05	133.44
494.268	153.44
494.485	141.44
494.703	150.44
494.92	152.44
495.138	136.44
495.355	145.44
495.573	149.44
495.79	166.44
496.008	168.44
496.225	142.44
496.442	141.44
496.66	136.44
496.877	155.44
497.094	142.44
497.312	136.44
497.529	145.44
497.746	144.44
497.963	148.44
498.181	157.44
498.398	152.44
498.615	164.44
498.832	169.44
499.049	174.44
499.267	166.44
499.484	172.44
499.701	179.44
499.918	180.44
500.135	187.44
500.352	200.44
500.569	198.44
500.786	194.44
501.003	203.44
501.22	192.44
501.437	172.44
501.654	168.44
501.871	176.44
502.088	168.44
502.305	161.44
502.522	151.44
502.739	157.44
502.956	155.44
503.172	146.44
503.389	163.44
