Data from NickelSpatula_HRD10591_16-34-50-126.txt Node
Date: Mon Jul 22 16:34:50 EDT 2019
User: cochatt
Spectrometer: HR+D1059
Trigger mode: 1
Integration Time (sec): 1.000000E-1
Scans to average: 1
Electric dark correction enabled: true
Nonlinearity correction enabled: false
Boxcar width: 0
XAxis mode: Wavelengths
Number of Pixels in Spectrum: 2048
>>>>>Begin Spectral Data<<<<<
223.165	-13.69
223.4	-13.69
223.635	-13.69
223.869	-20.69
224.104	-15.69
224.338	-10.69
224.573	-2.69
224.808	-21.69
225.042	-3.69
225.277	-15.69
225.511	-6.69
225.746	-3.69
225.98	11.31
226.215	9.31
226.449	20.31
226.683	32.31
226.918	24.31
227.152	17.31
227.387	34.31
227.621	32.31
227.856	53.31
228.09	52.31
228.324	55.31
228.559	56.31
228.793	66.31
229.027	71.31
229.262	87.31
229.496	78.31
229.73	80.31
229.964	80.31
230.199	99.31
230.433	109.31
230.667	86.31
230.901	94.31
231.136	104.31
231.37	89.31
231.604	97.31
231.838	90.31
232.072	98.31
232.306	120.31
232.541	108.31
232.775	113.31
233.009	112.31
233.243	119.31
233.477	107.31
233.711	119.31
233.945	122.31
234.179	121.31
234.413	121.31
234.647	124.31
234.881	156.31
235.115	122.31
235.349	140.31
235.583	122.31
235.817	128.31
236.051	114.31
236.285	121.31
236.519	139.31
236.753	119.31
236.987	140.31
237.221	118.31
237.455	132.31
237.689	132.31
237.922	135.31
238.156	140.31
238.39	140.31
238.624	166.31
238.858	169.31
239.091	142.31
239.325	159.31
239.559	125.31
239.793	132.31
240.027	163.31
240.26	161.31
240.494	161.31
240.728	173.31
240.961	173.31
241.195	159.31
241.429	152.31
241.662	144.31
241.896	140.31
242.13	147.31
242.363	130.31
242.597	144.31
242.83	144.31
243.064	154.31
243.298	143.31
243.531	165.31
243.765	174.31
243.998	156.31
244.232	166.31
244.465	159.31
244.699	154.31
244.932	151.31
245.166	147.31
245.399	153.31
245.633	142.31
245.866	160.31
246.099	188.31
246.333	189.31
246.566	193.31
246.8	185.31
247.033	167.31
247.266	182.31
247.5	185.31
247.733	169.31
247.966	172.31
248.2	164.31
248.433	183.31
248.666	216.31
248.899	190.31
249.133	214.31
249.366	210.31
249.599	225.31
249.832	225.31
250.066	202.31
250.299	204.31
250.532	206.31
250.765	204.31
250.998	187.31
251.231	161.31
251.465	195.31
251.698	216.31
251.931	189.31
252.164	194.31
252.397	223.31
252.63	211.31
252.863	248.31
253.096	272.31
253.329	252.31
253.562	259.31
253.795	272.31
254.028	284.31
254.261	293.31
254.494	245.31
254.727	242.31
254.96	253.31
255.193	279.31
255.426	267.31
255.659	210.31
255.892	196.31
256.124	193.31
256.357	234.31
256.59	238.31
256.823	245.31
257.056	221.31
257.289	204.31
257.521	216.31
257.754	260.31
257.987	284.31
258.22	252.31
258.452	221.31
258.685	241.31
258.918	259.31
259.151	258.31
259.383	271.31
259.616	304.31
259.849	324.31
260.081	323.31
260.314	357.31
260.547	301.31
260.779	305.31
261.012	334.31
261.244	307.31
261.477	320.31
261.71	316.31
261.942	279.31
262.175	290.31
262.407	251.31
262.64	265.31
262.872	313.31
263.105	312.31
263.337	332.31
263.57	323.31
263.802	220.31
264.035	208.31
264.267	214.31
264.499	201.31
264.732	166.31
264.964	169.31
265.197	171.31
265.429	189.31
265.661	202.31
265.894	207.31
266.126	231.31
266.358	233.31
266.591	264.31
266.823	293.31
267.055	308.31
267.287	269.31
267.52	276.31
267.752	263.31
267.984	304.31
268.216	294.31
268.448	244.31
268.681	226.31
268.913	264.31
269.145	281.31
269.377	289.31
269.609	280.31
269.841	245.31
270.073	293.31
270.306	300.31
270.538	300.31
270.77	294.31
271.002	305.31
271.234	314.31
271.466	322.31
271.698	303.31
271.93	291.31
272.162	296.31
272.394	291.31
272.626	306.31
272.858	309.31
273.09	309.31
273.322	276.31
273.553	247.31
273.785	312.31
274.017	380.31
274.249	457.31
274.481	460.31
274.713	486.31
274.945	538.31
275.176	570.31
275.408	523.31
275.64	479.31
275.872	469.31
276.104	448.31
276.335	388.31
276.567	372.31
276.799	386.31
277.031	408.31
277.262	321.31
277.494	249.31
277.726	245.31
277.957	270.31
278.189	314.31
278.421	328.31
278.652	296.31
278.884	281.31
279.115	277.31
279.347	263.31
279.579	273.31
279.81	269.31
280.042	276.31
280.273	284.31
280.505	271.31
280.736	216.31
280.968	245.31
281.199	248.31
281.431	264.31
281.662	262.31
281.894	255.31
282.125	287.31
282.356	292.31
282.588	296.31
282.819	275.31
283.051	283.31
283.282	330.31
283.513	376.31
283.745	425.31
283.976	407.31
284.207	396.31
284.439	402.31
284.67	390.31
284.901	348.31
285.132	364.31
285.364	384.31
285.595	370.31
285.826	388.31
286.057	391.31
286.288	393.31
286.52	408.31
286.751	444.31
286.982	427.31
287.213	370.31
287.444	355.31
287.675	353.31
287.906	369.31
288.138	313.31
288.369	303.31
288.6	274.31
288.831	284.31
289.062	318.31
289.293	353.31
289.524	324.31
289.755	336.31
289.986	340.31
290.217	308.31
290.448	256.31
290.679	233.31
290.91	212.31
291.141	211.31
291.371	213.31
291.602	214.31
291.833	198.31
292.064	229.31
292.295	254.31
292.526	292.31
292.757	304.31
292.987	312.31
293.218	312.31
293.449	321.31
293.68	353.31
293.91	331.31
294.141	343.31
294.372	320.31
294.603	295.31
294.833	324.31
295.064	356.31
295.295	361.31
295.525	270.31
295.756	258.31
295.987	212.31
296.217	234.31
296.448	225.31
296.679	240.31
296.909	259.31
297.14	283.31
297.37	285.31
297.601	269.31
297.831	254.31
298.062	275.31
298.292	301.31
298.523	323.31
298.753	340.31
298.984	329.31
299.214	273.31
299.445	246.31
299.675	235.31
299.905	241.31
300.136	256.31
300.366	230.31
300.597	239.31
300.827	226.31
301.057	221.31
301.288	222.31
301.518	234.31
301.748	260.31
301.979	288.31
302.209	290.31
302.439	281.31
302.669	268.31
302.9	273.31
303.13	233.31
303.36	248.31
303.59	234.31
303.82	246.31
304.051	267.31
304.281	290.31
304.511	289.31
304.741	250.31
304.971	254.31
305.201	284.31
305.431	261.31
305.661	237.31
305.891	231.31
306.121	241.31
306.352	216.31
306.582	204.31
306.812	199.31
307.042	202.31
307.272	180.31
307.502	186.31
307.731	188.31
307.961	204.31
308.191	194.31
308.421	178.31
308.651	187.31
308.881	184.31
309.111	183.31
309.341	187.31
309.571	194.31
309.8	197.31
310.03	218.31
310.26	241.31
310.49	229.31
310.72	190.31
310.949	203.31
311.179	205.31
311.409	189.31
311.639	225.31
311.868	272.31
312.098	342.31
312.328	365.31
312.557	339.31
312.787	356.31
313.017	320.31
313.246	367.31
313.476	401.31
313.706	324.31
313.935	252.31
314.165	202.31
314.394	207.31
314.624	220.31
314.853	229.31
315.083	226.31
315.312	220.31
315.542	220.31
315.771	197.31
316.001	189.31
316.23	183.31
316.46	198.31
316.689	196.31
316.919	198.31
317.148	203.31
317.377	186.31
317.607	204.31
317.836	201.31
318.065	242.31
318.295	222.31
318.524	247.31
318.753	205.31
318.983	200.31
319.212	198.31
319.441	221.31
319.67	231.31
319.9	256.31
320.129	238.31
320.358	222.31
320.587	182.31
320.816	224.31
321.046	258.31
321.275	266.31
321.504	275.31
321.733	274.31
321.962	259.31
322.191	235.31
322.42	251.31
322.649	250.31
322.878	259.31
323.108	258.31
323.337	233.31
323.566	247.31
323.795	252.31
324.024	241.31
324.253	198.31
324.482	210.31
324.71	249.31
324.939	241.31
325.168	222.31
325.397	211.31
325.626	197.31
325.855	211.31
326.084	203.31
326.313	187.31
326.542	198.31
326.77	178.31
326.999	203.31
327.228	200.31
327.457	203.31
327.686	204.31
327.914	191.31
328.143	178.31
328.372	181.31
328.6	189.31
328.829	182.31
329.058	196.31
329.287	192.31
329.515	192.31
329.744	202.31
329.972	198.31
330.201	178.31
330.43	194.31
330.658	208.31
330.887	220.31
331.115	240.31
331.344	227.31
331.572	208.31
331.801	187.31
332.03	198.31
332.258	184.31
332.486	197.31
332.715	205.31
332.943	206.31
333.172	199.31
333.4	212.31
333.629	202.31
333.857	220.31
334.085	224.31
334.314	232.31
334.542	212.31
334.771	204.31
334.999	219.31
335.227	205.31
335.455	187.31
335.684	207.31
335.912	239.31
336.14	262.31
336.369	252.31
336.597	247.31
336.825	273.31
337.053	303.31
337.281	263.31
337.51	220.31
337.738	217.31
337.966	208.31
338.194	240.31
338.422	234.31
338.65	218.31
338.878	197.31
339.106	184.31
339.334	223.31
339.562	229.31
339.79	205.31
340.018	211.31
340.246	212.31
340.474	232.31
340.702	254.31
340.93	294.31
341.158	259.31
341.386	244.31
341.614	229.31
341.842	224.31
342.07	243.31
342.298	272.31
342.526	283.31
342.754	248.31
342.981	245.31
343.209	202.31
343.437	233.31
343.665	245.31
343.893	242.31
344.12	282.31
344.348	327.31
344.576	312.31
344.804	246.31
345.031	230.31
345.259	202.31
345.487	214.31
345.714	212.31
345.942	224.31
346.17	251.31
346.397	231.31
346.625	213.31
346.853	202.31
347.08	221.31
347.308	213.31
347.535	250.31
347.763	239.31
347.99	214.31
348.218	207.31
348.445	205.31
348.673	196.31
348.9	203.31
349.128	217.31
349.355	228.31
349.583	210.31
349.81	241.31
350.037	201.31
350.265	180.31
350.492	173.31
350.72	180.31
350.947	196.31
351.174	195.31
351.402	200.31
351.629	225.31
351.856	190.31
352.083	180.31
352.311	218.31
352.538	224.31
352.765	243.31
352.992	228.31
353.22	228.31
353.447	244.31
353.674	215.31
353.901	221.31
354.128	211.31
354.355	215.31
354.583	224.31
354.81	239.31
355.037	232.31
355.264	228.31
355.491	253.31
355.718	241.31
355.945	241.31
356.172	240.31
356.399	228.31
356.626	286.31
356.853	311.31
357.08	358.31
357.307	376.31
357.534	279.31
357.761	321.31
357.988	357.31
358.215	402.31
358.441	370.31
358.668	341.31
358.895	321.31
359.122	263.31
359.349	260.31
359.576	288.31
359.802	258.31
360.029	218.31
360.256	221.31
360.483	270.31
360.709	332.31
360.936	358.31
361.163	303.31
361.39	236.31
361.616	225.31
361.843	256.31
362.07	293.31
362.296	282.31
362.523	228.31
362.749	197.31
362.976	205.31
363.203	240.31
363.429	271.31
363.656	260.31
363.882	236.31
364.109	236.31
364.335	233.31
364.562	214.31
364.788	221.31
365.015	281.31
365.241	253.31
365.468	228.31
365.694	189.31
365.92	180.31
366.147	184.31
366.373	185.31
366.599	170.31
366.826	176.31
367.052	181.31
367.278	184.31
367.505	189.31
367.731	182.31
367.957	209.31
368.184	220.31
368.41	223.31
368.636	226.31
368.862	221.31
369.089	217.31
369.315	195.31
369.541	207.31
369.767	200.31
369.993	194.31
370.219	194.31
370.445	192.31
370.672	216.31
370.898	241.31
371.124	226.31
371.35	206.31
371.576	173.31
371.802	214.31
372.028	220.31
372.254	262.31
372.48	234.31
372.706	209.31
372.932	224.31
373.158	266.31
373.384	272.31
373.61	340.31
373.835	350.31
374.061	273.31
374.287	231.31
374.513	290.31
374.739	323.31
374.965	320.31
375.191	330.31
375.416	234.31
375.642	221.31
375.868	234.31
376.094	281.31
376.319	237.31
376.545	257.31
376.771	265.31
376.997	247.31
377.222	193.31
377.448	180.31
377.674	167.31
377.899	177.31
378.125	178.31
378.35	163.31
378.576	174.31
378.802	169.31
379.027	224.31
379.253	196.31
379.478	211.31
379.704	228.31
379.929	242.31
380.155	235.31
380.38	210.31
380.606	238.31
380.831	260.31
381.057	252.31
381.282	206.31
381.507	247.31
381.733	298.31
381.958	304.31
382.184	320.31
382.409	353.31
382.634	336.31
382.86	327.31
383.085	298.31
383.31	254.31
383.535	254.31
383.761	259.31
383.986	238.31
384.211	299.31
384.436	284.31
384.662	222.31
384.887	219.31
385.112	248.31
385.337	231.31
385.562	228.31
385.787	246.31
386.013	256.31
386.238	271.31
386.463	213.31
386.688	202.31
386.913	208.31
387.138	188.31
387.363	209.31
387.588	216.31
387.813	213.31
388.038	236.31
388.263	190.31
388.488	209.31
388.713	261.31
388.938	261.31
389.163	220.31
389.387	201.31
389.612	206.31
389.837	210.31
390.062	219.31
390.287	213.31
390.512	225.31
390.736	234.31
390.961	192.31
391.186	200.31
391.411	180.31
391.636	188.31
391.86	186.31
392.085	246.31
392.31	240.31
392.534	203.31
392.759	195.31
392.984	222.31
393.208	210.31
393.433	192.31
393.658	189.31
393.882	168.31
394.107	188.31
394.331	166.31
394.556	180.31
394.78	179.31
395.005	183.31
395.229	172.31
395.454	196.31
395.678	189.31
395.903	191.31
396.127	193.31
396.352	180.31
396.576	196.31
396.801	221.31
397.025	258.31
397.249	260.31
397.474	201.31
397.698	207.31
397.922	217.31
398.147	203.31
398.371	198.31
398.595	208.31
398.82	219.31
399.044	208.31
399.268	213.31
399.492	224.31
399.717	219.31
399.941	232.31
400.165	230.31
400.389	207.31
400.613	204.31
400.837	226.31
401.062	206.31
401.286	183.31
401.51	181.31
401.734	194.31
401.958	198.31
402.182	199.31
402.406	193.31
402.63	198.31
402.854	195.31
403.078	240.31
403.302	304.31
403.526	320.31
403.75	291.31
403.974	257.31
404.198	234.31
404.422	264.31
404.645	297.31
404.869	341.31
405.093	266.31
405.317	229.31
405.541	222.31
405.765	236.31
405.988	247.31
406.212	249.31
406.436	262.31
406.66	278.31
406.883	233.31
407.107	234.31
407.331	277.31
407.555	276.31
407.778	244.31
408.002	232.31
408.226	234.31
408.449	234.31
408.673	222.31
408.896	211.31
409.12	185.31
409.344	196.31
409.567	204.31
409.791	180.31
410.014	194.31
410.238	187.31
410.461	178.31
410.685	192.31
410.908	189.31
411.132	209.31
411.355	196.31
411.578	226.31
411.802	193.31
412.025	210.31
412.249	207.31
412.472	209.31
412.695	196.31
412.919	208.31
413.142	210.31
413.365	221.31
413.589	223.31
413.812	209.31
414.035	202.31
414.258	201.31
414.482	227.31
414.705	233.31
414.928	196.31
415.151	204.31
415.374	195.31
415.597	200.31
415.821	203.31
416.044	198.31
416.267	189.31
416.49	189.31
416.713	181.31
416.936	190.31
417.159	182.31
417.382	182.31
417.605	193.31
417.828	209.31
418.051	197.31
418.274	194.31
418.497	223.31
418.72	210.31
418.943	203.31
419.166	221.31
419.389	238.31
419.611	202.31
419.834	218.31
420.057	244.31
420.28	211.31
420.503	232.31
420.726	186.31
420.948	188.31
421.171	196.31
421.394	200.31
421.617	178.31
421.839	203.31
422.062	193.31
422.285	198.31
422.507	189.31
422.73	204.31
422.953	212.31
423.175	198.31
423.398	221.31
423.621	233.31
423.843	247.31
424.066	221.31
424.288	194.31
424.511	187.31
424.733	191.31
424.956	220.31
425.178	238.31
425.401	278.31
425.623	306.31
425.846	259.31
426.068	226.31
426.291	265.31
426.513	226.31
426.735	208.31
426.958	224.31
427.18	252.31
427.402	316.31
427.625	326.31
427.847	276.31
428.069	217.31
428.292	226.31
428.514	202.31
428.736	181.31
428.958	206.31
429.181	250.31
429.403	232.31
429.625	196.31
429.847	204.31
430.069	211.31
430.292	202.31
430.514	193.31
430.736	200.31
430.958	246.31
431.18	235.31
431.402	180.31
431.624	193.31
431.846	187.31
432.068	175.31
432.29	185.31
432.512	204.31
432.734	236.31
432.956	242.31
433.178	208.31
433.4	212.31
433.622	203.31
433.844	208.31
434.066	227.31
434.287	219.31
434.509	212.31
434.731	222.31
434.953	194.31
435.175	203.31
435.397	234.31
435.618	205.31
435.84	165.31
436.062	187.31
436.284	194.31
436.505	186.31
436.727	187.31
436.949	184.31
437.17	191.31
437.392	196.31
437.614	173.31
437.835	186.31
438.057	202.31
438.278	203.31
438.5	302.31
438.721	306.31
438.943	220.31
439.165	179.31
439.386	167.31
439.608	176.31
439.829	166.31
440.05	168.31
440.272	189.31
440.493	212.31
440.715	261.31
440.936	215.31
441.158	206.31
441.379	190.31
441.6	209.31
441.822	225.31
442.043	192.31
442.264	190.31
442.486	202.31
442.707	189.31
442.928	190.31
443.149	193.31
443.371	202.31
443.592	186.31
443.813	197.31
444.034	188.31
444.255	184.31
444.476	207.31
444.698	200.31
444.919	200.31
445.14	327.31
445.361	276.31
445.582	221.31
445.803	219.31
446.024	229.31
446.245	211.31
446.466	201.31
446.687	203.31
446.908	189.31
447.129	203.31
447.35	189.31
447.571	160.31
447.792	184.31
448.013	183.31
448.234	165.31
448.455	176.31
448.675	180.31
448.896	185.31
449.117	189.31
449.338	185.31
449.559	185.31
449.779	189.31
450	212.31
450.221	185.31
450.442	195.31
450.662	166.31
450.883	180.31
451.104	178.31
451.324	181.31
451.545	189.31
451.766	173.31
451.986	161.31
452.207	172.31
452.428	160.31
452.648	181.31
452.869	196.31
453.089	208.31
453.31	205.31
453.53	176.31
453.751	176.31
453.971	166.31
454.192	180.31
454.412	173.31
454.633	172.31
454.853	189.31
455.073	171.31
455.294	158.31
455.514	159.31
455.734	160.31
455.955	187.31
456.175	197.31
456.395	161.31
456.616	160.31
456.836	172.31
457.056	155.31
457.276	164.31
457.497	167.31
457.717	163.31
457.937	181.31
458.157	170.31
458.377	155.31
458.598	176.31
458.818	181.31
459.038	176.31
459.258	178.31
459.478	198.31
459.698	169.31
459.918	195.31
460.138	212.31
460.358	200.31
460.578	189.31
460.798	197.31
461.018	190.31
461.238	180.31
461.458	183.31
461.678	212.31
461.898	214.31
462.118	206.31
462.338	197.31
462.558	220.31
462.777	216.31
462.997	211.31
463.217	209.31
463.437	218.31
463.657	196.31
463.876	214.31
464.096	194.31
464.316	224.31
464.536	214.31
464.755	221.31
464.975	230.31
465.195	212.31
465.414	237.31
465.634	200.31
465.854	201.31
466.073	190.31
466.293	166.31
466.512	220.31
466.732	225.31
466.951	216.31
467.171	203.31
467.391	204.31
467.61	169.31
467.829	180.31
468.049	195.31
468.268	187.31
468.488	201.31
468.707	188.31
468.927	207.31
469.146	229.31
469.365	220.31
469.585	202.31
469.804	209.31
470.023	236.31
470.243	229.31
470.462	198.31
470.681	207.31
470.901	196.31
471.12	222.31
471.339	212.31
471.558	186.31
471.777	200.31
471.997	215.31
472.216	221.31
472.435	224.31
472.654	207.31
472.873	200.31
473.092	208.31
473.311	224.31
473.53	211.31
473.749	203.31
473.968	216.31
474.187	212.31
474.406	192.31
474.625	202.31
474.844	212.31
475.063	221.31
475.282	213.31
475.501	226.31
475.72	276.31
475.939	269.31
476.158	236.31
476.377	290.31
476.596	315.31
476.814	317.31
477.033	266.31
477.252	228.31
477.471	192.31
477.69	211.31
477.908	212.31
478.127	249.31
478.346	209.31
478.564	261.31
478.783	229.31
479.002	232.31
479.22	253.31
479.439	270.31
479.658	253.31
479.876	236.31
480.095	224.31
480.313	250.31
480.532	246.31
480.751	210.31
480.969	238.31
481.188	234.31
481.406	255.31
481.624	243.31
481.843	242.31
482.061	214.31
482.28	260.31
482.498	311.31
482.717	338.31
482.935	274.31
483.153	216.31
483.372	229.31
483.59	223.31
483.808	215.31
484.027	217.31
484.245	207.31
484.463	212.31
484.681	217.31
484.9	216.31
485.118	239.31
485.336	208.31
485.554	214.31
485.772	233.31
485.99	225.31
486.209	230.31
486.427	236.31
486.645	238.31
486.863	258.31
487.081	256.31
487.299	278.31
487.517	288.31
487.735	242.31
487.953	234.31
488.171	251.31
488.389	229.31
488.607	213.31
488.825	233.31
489.043	263.31
489.261	304.31
489.479	335.31
489.696	266.31
489.914	235.31
490.132	235.31
490.35	237.31
490.568	231.31
490.786	209.31
491.003	223.31
491.221	214.31
491.439	218.31
491.657	228.31
491.874	246.31
492.092	302.31
492.31	384.31
492.527	357.31
492.745	300.31
492.963	264.31
493.18	231.31
493.398	276.31
493.615	258.31
493.833	252.31
494.05	248.31
494.268	254.31
494.485	254.31
494.703	222.31
494.92	223.31
495.138	233.31
495.355	243.31
495.573	257.31
495.79	282.31
496.008	390.31
496.225	328.31
496.442	269.31
496.66	251.31
496.877	261.31
497.094	283.31
497.312	251.31
497.529	234.31
497.746	258.31
497.963	263.31
498.181	284.31
498.398	290.31
498.615	325.31
498.832	328.31
499.049	319.31
499.267	305.31
499.484	309.31
499.701	310.31
499.918	322.31
500.135	370.31
500.352	387.31
500.569	367.31
500.786	403.31
501.003	396.31
501.22	354.31
501.437	349.31
501.654	322.31
501.871	301.31
502.088	302.31
502.305	291.31
502.522	302.31
