Data from NickelSpatula.Lamp.E5.5.P2_HRD10591_11-52-18-555.txt Node
Date: Tue Jul 23 11:52:18 EDT 2019
User: cochatt
Spectrometer: HR+D1059
Trigger mode: 1
Integration Time (sec): 1.000000E-1
Scans to average: 1
Electric dark correction enabled: true
Nonlinearity correction enabled: false
Boxcar width: 0
XAxis mode: Wavelengths
Number of Pixels in Spectrum: 2048
>>>>>Begin Spectral Data<<<<<
223.165	-19.69
223.4	-19.69
223.635	-19.69
223.869	-15.69
224.104	-25.69
224.338	-15.69
224.573	-16.69
224.808	-19.69
225.042	6.31
225.277	-9.69
225.511	4.31
225.746	-1.69
225.98	18.31
226.215	10.31
226.449	9.31
226.683	30.31
226.918	18.31
227.152	27.31
227.387	34.31
227.621	40.31
227.856	58.31
228.09	36.31
228.324	42.31
228.559	70.31
228.793	79.31
229.027	64.31
229.262	80.31
229.496	84.31
229.73	74.31
229.964	82.31
230.199	94.31
230.433	88.31
230.667	108.31
230.901	110.31
231.136	90.31
231.37	102.31
231.604	91.31
231.838	111.31
232.072	91.31
232.306	107.31
232.541	101.31
232.775	111.31
233.009	120.31
233.243	107.31
233.477	121.31
233.711	133.31
233.945	126.31
234.179	120.31
234.413	128.31
234.647	126.31
234.881	131.31
235.115	136.31
235.349	135.31
235.583	117.31
235.817	125.31
236.051	123.31
236.285	122.31
236.519	150.31
236.753	147.31
236.987	141.31
237.221	138.31
237.455	124.31
237.689	135.31
237.922	131.31
238.156	131.31
238.39	159.31
238.624	169.31
238.858	167.31
239.091	143.31
239.325	148.31
239.559	144.31
239.793	171.31
240.027	176.31
240.26	153.31
240.494	153.31
240.728	156.31
240.961	171.31
241.195	179.31
241.429	169.31
241.662	175.31
241.896	146.31
242.13	131.31
242.363	133.31
242.597	132.31
242.83	151.31
243.064	152.31
243.298	183.31
243.531	171.31
243.765	170.31
243.998	192.31
244.232	171.31
244.465	163.31
244.699	163.31
244.932	179.31
245.166	172.31
245.399	126.31
245.633	161.31
245.866	162.31
246.099	165.31
246.333	183.31
246.566	197.31
246.8	200.31
247.033	199.31
247.266	170.31
247.5	176.31
247.733	184.31
247.966	191.31
248.2	179.31
248.433	202.31
248.666	213.31
248.899	203.31
249.133	211.31
249.366	239.31
249.599	252.31
249.832	221.31
250.066	207.31
250.299	199.31
250.532	202.31
250.765	217.31
250.998	199.31
251.231	199.31
251.465	196.31
251.698	182.31
251.931	217.31
252.164	201.31
252.397	220.31
252.63	254.31
252.863	268.31
253.096	267.31
253.329	287.31
253.562	247.31
253.795	293.31
254.028	308.31
254.261	314.31
254.494	272.31
254.727	263.31
254.96	265.31
255.193	288.31
255.426	264.31
255.659	188.31
255.892	210.31
256.124	223.31
256.357	255.31
256.59	293.31
256.823	297.31
257.056	246.31
257.289	228.31
257.521	227.31
257.754	288.31
257.987	292.31
258.22	274.31
258.452	257.31
258.685	255.31
258.918	294.31
259.151	290.31
259.383	312.31
259.616	342.31
259.849	333.31
260.081	378.31
260.314	426.31
260.547	326.31
260.779	342.31
261.012	406.31
261.244	361.31
261.477	366.31
261.71	345.31
261.942	283.31
262.175	297.31
262.407	283.31
262.64	293.31
262.872	339.31
263.105	370.31
263.337	380.31
263.57	346.31
263.802	263.31
264.035	243.31
264.267	230.31
264.499	205.31
264.732	194.31
264.964	174.31
265.197	196.31
265.429	201.31
265.661	208.31
265.894	226.31
266.126	254.31
266.358	262.31
266.591	303.31
266.823	356.31
267.055	322.31
267.287	295.31
267.52	293.31
267.752	332.31
267.984	359.31
268.216	322.31
268.448	271.31
268.681	274.31
268.913	293.31
269.145	317.31
269.377	314.31
269.609	299.31
269.841	282.31
270.073	312.31
270.306	338.31
270.538	324.31
270.77	335.31
271.002	347.31
271.234	326.31
271.466	336.31
271.698	316.31
271.93	302.31
272.162	304.31
272.394	317.31
272.626	306.31
272.858	324.31
273.09	320.31
273.322	290.31
273.553	282.31
273.785	312.31
274.017	412.31
274.249	491.31
274.481	511.31
274.713	548.31
274.945	634.31
275.176	636.31
275.408	598.31
275.64	521.31
275.872	535.31
276.104	460.31
276.335	423.31
276.567	405.31
276.799	423.31
277.031	434.31
277.262	378.31
277.494	282.31
277.726	285.31
277.957	299.31
278.189	339.31
278.421	338.31
278.652	329.31
278.884	299.31
279.115	283.31
279.347	290.31
279.579	267.31
279.81	275.31
280.042	282.31
280.273	303.31
280.505	275.31
280.736	233.31
280.968	254.31
281.199	254.31
281.431	290.31
281.662	291.31
281.894	284.31
282.125	296.31
282.356	314.31
282.588	319.31
282.819	283.31
283.051	305.31
283.282	364.31
283.513	402.31
283.745	475.31
283.976	462.31
284.207	434.31
284.439	459.31
284.67	440.31
284.901	384.31
285.132	417.31
285.364	437.31
285.595	407.31
285.826	410.31
286.057	447.31
286.288	400.31
286.52	412.31
286.751	449.31
286.982	464.31
287.213	402.31
287.444	387.31
287.675	394.31
287.906	401.31
288.138	351.31
288.369	310.31
288.6	288.31
288.831	310.31
289.062	358.31
289.293	379.31
289.524	378.31
289.755	363.31
289.986	388.31
290.217	349.31
290.448	264.31
290.679	234.31
290.91	238.31
291.141	234.31
291.371	240.31
291.602	244.31
291.833	232.31
292.064	246.31
292.295	291.31
292.526	304.31
292.757	322.31
292.987	345.31
293.218	352.31
293.449	366.31
293.68	398.31
293.91	385.31
294.141	399.31
294.372	403.31
294.603	330.31
294.833	384.31
295.064	419.31
295.295	401.31
295.525	323.31
295.756	284.31
295.987	250.31
296.217	242.31
296.448	255.31
296.679	257.31
296.909	279.31
297.14	280.31
297.37	312.31
297.601	316.31
297.831	283.31
298.062	292.31
298.292	319.31
298.523	342.31
298.753	393.31
298.984	357.31
299.214	282.31
299.445	236.31
299.675	244.31
299.905	242.31
300.136	259.31
300.366	267.31
300.597	273.31
300.827	255.31
301.057	259.31
301.288	246.31
301.518	260.31
301.748	268.31
301.979	305.31
302.209	322.31
302.439	326.31
302.669	318.31
302.9	295.31
303.13	278.31
303.36	254.31
303.59	264.31
303.82	270.31
304.051	284.31
304.281	298.31
304.511	313.31
304.741	263.31
304.971	298.31
305.201	309.31
305.431	288.31
305.661	272.31
305.891	256.31
306.121	255.31
306.352	226.31
306.582	236.31
306.812	213.31
307.042	213.31
307.272	209.31
307.502	212.31
307.731	216.31
307.961	236.31
308.191	212.31
308.421	204.31
308.651	203.31
308.881	197.31
309.111	188.31
309.341	202.31
309.571	222.31
309.8	223.31
310.03	231.31
310.26	219.31
310.49	231.31
310.72	210.31
310.949	208.31
311.179	232.31
311.409	231.31
311.639	245.31
311.868	308.31
312.098	378.31
312.328	426.31
312.557	407.31
312.787	407.31
313.017	375.31
313.246	395.31
313.476	434.31
313.706	357.31
313.935	288.31
314.165	246.31
314.394	231.31
314.624	227.31
314.853	246.31
315.083	241.31
315.312	251.31
315.542	240.31
315.771	243.31
316.001	214.31
316.23	190.31
316.46	207.31
316.689	215.31
316.919	221.31
317.148	208.31
317.377	214.31
317.607	199.31
317.836	213.31
318.065	247.31
318.295	281.31
318.524	276.31
318.753	227.31
318.983	223.31
319.212	232.31
319.441	243.31
319.67	230.31
319.9	252.31
320.129	242.31
320.358	236.31
320.587	222.31
320.816	235.31
321.046	265.31
321.275	298.31
321.504	279.31
321.733	269.31
321.962	274.31
322.191	247.31
322.42	231.31
322.649	241.31
322.878	254.31
323.108	280.31
323.337	253.31
323.566	255.31
323.795	232.31
324.024	246.31
324.253	210.31
324.482	227.31
324.71	250.31
324.939	258.31
325.168	255.31
325.397	238.31
325.626	209.31
325.855	225.31
326.084	231.31
326.313	202.31
326.542	221.31
326.77	206.31
326.999	218.31
327.228	216.31
327.457	254.31
327.686	246.31
327.914	224.31
328.143	207.31
328.372	194.31
328.6	209.31
328.829	193.31
329.058	217.31
329.287	202.31
329.515	215.31
329.744	222.31
329.972	214.31
330.201	213.31
330.43	198.31
330.658	229.31
330.887	244.31
331.115	249.31
331.344	227.31
331.572	221.31
331.801	214.31
332.03	219.31
332.258	201.31
332.486	234.31
332.715	233.31
332.943	218.31
333.172	233.31
333.4	250.31
333.629	246.31
333.857	275.31
334.085	262.31
334.314	259.31
334.542	260.31
334.771	239.31
334.999	242.31
335.227	216.31
335.455	228.31
335.684	267.31
335.912	272.31
336.14	276.31
336.369	283.31
336.597	274.31
336.825	295.31
337.053	337.31
337.281	289.31
337.51	239.31
337.738	225.31
337.966	256.31
338.194	259.31
338.422	258.31
338.65	226.31
338.878	212.31
339.106	208.31
339.334	236.31
339.562	254.31
339.79	242.31
340.018	225.31
340.246	246.31
340.474	273.31
340.702	282.31
340.93	298.31
341.158	293.31
341.386	264.31
341.614	251.31
341.842	240.31
342.07	226.31
342.298	294.31
342.526	304.31
342.754	265.31
342.981	258.31
343.209	252.31
343.437	266.31
343.665	260.31
343.893	287.31
344.12	302.31
344.348	370.31
344.576	344.31
344.804	273.31
345.031	232.31
345.259	229.31
345.487	254.31
345.714	242.31
345.942	265.31
346.17	273.31
346.397	275.31
346.625	247.31
346.853	230.31
347.08	218.31
347.308	230.31
347.535	276.31
347.763	258.31
347.99	249.31
348.218	240.31
348.445	246.31
348.673	260.31
348.9	234.31
349.128	235.31
349.355	262.31
349.583	255.31
349.81	242.31
350.037	232.31
350.265	220.31
350.492	208.31
350.72	204.31
350.947	211.31
351.174	201.31
351.402	228.31
351.629	236.31
351.856	220.31
352.083	233.31
352.311	227.31
352.538	244.31
352.765	258.31
352.992	241.31
353.22	261.31
353.447	236.31
353.674	224.31
353.901	230.31
354.128	227.31
354.355	239.31
354.583	219.31
354.81	239.31
355.037	258.31
355.264	226.31
355.491	246.31
355.718	258.31
355.945	258.31
356.172	247.31
356.399	240.31
356.626	272.31
356.853	330.31
357.08	366.31
357.307	359.31
357.534	304.31
357.761	312.31
357.988	369.31
358.215	408.31
358.441	382.31
358.668	342.31
358.895	335.31
359.122	275.31
359.349	292.31
359.576	321.31
359.802	260.31
360.029	242.31
360.256	230.31
360.483	284.31
360.709	330.31
360.936	345.31
361.163	289.31
361.39	266.31
361.616	239.31
361.843	267.31
362.07	327.31
362.296	286.31
362.523	236.31
362.749	226.31
362.976	214.31
363.203	265.31
363.429	297.31
363.656	257.31
363.882	231.31
364.109	229.31
364.335	245.31
364.562	231.31
364.788	253.31
365.015	274.31
365.241	259.31
365.468	226.31
365.694	215.31
365.92	208.31
366.147	207.31
366.373	202.31
366.599	215.31
366.826	195.31
367.052	193.31
367.278	193.31
367.505	211.31
367.731	230.31
367.957	224.31
368.184	252.31
368.41	237.31
368.636	231.31
368.862	248.31
369.089	233.31
369.315	210.31
369.541	225.31
369.767	218.31
369.993	206.31
370.219	204.31
370.445	239.31
370.672	264.31
370.898	257.31
371.124	256.31
371.35	233.31
371.576	224.31
371.802	230.31
372.028	264.31
372.254	295.31
372.48	249.31
372.706	258.31
372.932	257.31
373.158	249.31
373.384	286.31
373.61	372.31
373.835	374.31
374.061	304.31
374.287	280.31
374.513	310.31
374.739	361.31
374.965	355.31
375.191	368.31
375.416	262.31
375.642	259.31
375.868	263.31
376.094	295.31
376.319	272.31
376.545	295.31
376.771	297.31
376.997	248.31
377.222	230.31
377.448	201.31
377.674	220.31
377.899	195.31
378.125	212.31
378.35	206.31
378.576	203.31
378.802	207.31
379.027	228.31
379.253	241.31
379.478	211.31
379.704	254.31
379.929	256.31
380.155	260.31
380.38	238.31
380.606	232.31
380.831	250.31
381.057	243.31
381.282	233.31
381.507	276.31
381.733	311.31
381.958	331.31
382.184	342.31
382.409	370.31
382.634	352.31
382.86	368.31
383.085	329.31
383.31	266.31
383.535	292.31
383.761	292.31
383.986	279.31
384.211	323.31
384.436	303.31
384.662	247.31
384.887	249.31
385.112	262.31
385.337	252.31
385.562	258.31
385.787	268.31
386.013	292.31
386.238	273.31
386.463	233.31
386.688	238.31
386.913	227.31
387.138	219.31
387.363	240.31
387.588	256.31
387.813	250.31
388.038	262.31
388.263	247.31
388.488	225.31
388.713	265.31
388.938	274.31
389.163	263.31
389.387	212.31
389.612	222.31
389.837	234.31
390.062	242.31
390.287	240.31
390.512	238.31
390.736	229.31
390.961	226.31
391.186	215.31
391.411	208.31
391.636	233.31
391.86	242.31
392.085	262.31
392.31	245.31
392.534	228.31
392.759	239.31
392.984	253.31
393.208	240.31
393.433	211.31
393.658	201.31
393.882	200.31
394.107	232.31
394.331	199.31
394.556	207.31
394.78	180.31
395.005	222.31
395.229	233.31
395.454	213.31
395.678	218.31
395.903	233.31
396.127	224.31
396.352	209.31
396.576	238.31
396.801	236.31
397.025	260.31
397.249	271.31
397.474	244.31
397.698	256.31
397.922	249.31
398.147	231.31
398.371	244.31
398.595	246.31
398.82	241.31
399.044	242.31
399.268	269.31
399.492	272.31
399.717	295.31
399.941	280.31
400.165	278.31
400.389	256.31
400.613	262.31
400.837	249.31
401.062	238.31
401.286	227.31
401.51	238.31
401.734	233.31
401.958	235.31
402.182	234.31
402.406	218.31
402.63	237.31
402.854	266.31
403.078	307.31
403.302	375.31
403.526	384.31
403.75	347.31
403.974	282.31
404.198	289.31
404.422	305.31
404.645	339.31
404.869	374.31
405.093	295.31
405.317	276.31
405.541	250.31
405.765	271.31
405.988	252.31
406.212	267.31
406.436	314.31
406.66	324.31
406.883	261.31
407.107	291.31
407.331	315.31
407.555	318.31
407.778	280.31
408.002	274.31
408.226	294.31
408.449	270.31
408.673	271.31
408.896	244.31
409.12	227.31
409.344	227.31
409.567	246.31
409.791	252.31
410.014	244.31
410.238	244.31
410.461	248.31
410.685	228.31
410.908	243.31
411.132	256.31
411.355	239.31
411.578	240.31
411.802	233.31
412.025	254.31
412.249	249.31
412.472	262.31
412.695	243.31
412.919	233.31
413.142	254.31
413.365	270.31
413.589	273.31
413.812	241.31
414.035	230.31
414.258	251.31
414.482	250.31
414.705	283.31
414.928	242.31
415.151	227.31
415.374	228.31
415.597	246.31
415.821	223.31
416.044	235.31
416.267	243.31
416.49	207.31
416.713	225.31
416.936	212.31
417.159	239.31
417.382	223.31
417.605	232.31
417.828	248.31
418.051	238.31
418.274	242.31
418.497	256.31
418.72	234.31
418.943	250.31
419.166	241.31
419.389	264.31
419.611	270.31
419.834	241.31
420.057	261.31
420.28	258.31
420.503	246.31
420.726	239.31
420.948	253.31
421.171	231.31
421.394	237.31
421.617	223.31
421.839	230.31
422.062	249.31
422.285	242.31
422.507	235.31
422.73	244.31
422.953	260.31
423.175	235.31
423.398	243.31
423.621	271.31
423.843	275.31
424.066	250.31
424.288	252.31
424.511	230.31
424.733	238.31
424.956	245.31
425.178	283.31
425.401	310.31
425.623	370.31
425.846	318.31
426.068	245.31
426.291	271.31
426.513	264.31
426.735	243.31
426.958	260.31
427.18	275.31
427.402	347.31
427.625	392.31
427.847	318.31
428.069	235.31
428.292	239.31
428.514	244.31
428.736	227.31
428.958	243.31
429.181	310.31
429.403	274.31
429.625	229.31
429.847	233.31
430.069	228.31
430.292	232.31
430.514	223.31
430.736	214.31
430.958	283.31
431.18	267.31
431.402	238.31
431.624	222.31
431.846	225.31
432.068	221.31
432.29	239.31
432.512	228.31
432.734	285.31
432.956	273.31
433.178	234.31
433.4	212.31
433.622	240.31
433.844	239.31
434.066	247.31
434.287	240.31
434.509	256.31
434.731	251.31
434.953	239.31
435.175	267.31
435.397	292.31
435.618	238.31
435.84	222.31
436.062	236.31
436.284	226.31
436.505	195.31
436.727	215.31
436.949	220.31
437.17	241.31
437.392	218.31
437.614	225.31
437.835	222.31
438.057	228.31
438.278	261.31
438.5	319.31
438.721	315.31
438.943	244.31
439.165	227.31
439.386	215.31
439.608	224.31
439.829	223.31
440.05	226.31
440.272	236.31
440.493	228.31
440.715	289.31
440.936	224.31
441.158	229.31
441.379	231.31
441.6	244.31
441.822	268.31
442.043	246.31
442.264	233.31
442.486	238.31
442.707	232.31
442.928	236.31
443.149	239.31
443.371	236.31
443.592	240.31
443.813	250.31
444.034	241.31
444.255	249.31
444.476	248.31
444.698	245.31
444.919	283.31
445.14	372.31
445.361	315.31
445.582	259.31
445.803	258.31
446.024	241.31
446.245	245.31
446.466	254.31
446.687	245.31
446.908	226.31
447.129	230.31
447.35	213.31
447.571	223.31
447.792	192.31
448.013	207.31
448.234	210.31
448.455	202.31
448.675	214.31
448.896	211.31
449.117	222.31
449.338	218.31
449.559	228.31
449.779	229.31
450	223.31
450.221	227.31
450.442	222.31
450.662	204.31
450.883	212.31
451.104	226.31
451.324	206.31
451.545	224.31
451.766	215.31
451.986	229.31
452.207	207.31
452.428	214.31
452.648	229.31
452.869	211.31
453.089	237.31
453.31	231.31
453.53	207.31
453.751	204.31
453.971	214.31
454.192	212.31
454.412	199.31
454.633	224.31
454.853	216.31
455.073	208.31
455.294	191.31
455.514	185.31
455.734	205.31
455.955	219.31
456.175	214.31
456.395	206.31
456.616	197.31
456.836	207.31
457.056	210.31
457.276	195.31
457.497	183.31
457.717	191.31
457.937	188.31
458.157	199.31
458.377	190.31
458.598	208.31
458.818	208.31
459.038	220.31
459.258	210.31
459.478	217.31
459.698	232.31
459.918	238.31
460.138	228.31
460.358	243.31
460.578	248.31
460.798	256.31
461.018	251.31
461.238	227.31
461.458	240.31
461.678	243.31
461.898	231.31
462.118	246.31
462.338	260.31
462.558	255.31
462.777	265.31
462.997	283.31
463.217	289.31
463.437	292.31
463.657	280.31
463.876	269.31
464.096	267.31
464.316	260.31
464.536	266.31
464.755	288.31
464.975	282.31
465.195	264.31
465.414	277.31
465.634	231.31
465.854	244.31
466.073	222.31
466.293	213.31
466.512	242.31
466.732	243.31
466.951	238.31
467.171	231.31
467.391	215.31
467.61	217.31
467.829	234.31
468.049	244.31
468.268	231.31
468.488	224.31
468.707	231.31
468.927	253.31
469.146	278.31
469.365	244.31
469.585	246.31
469.804	241.31
470.023	274.31
470.243	243.31
470.462	220.31
470.681	228.31
470.901	240.31
471.12	247.31
471.339	257.31
471.558	228.31
471.777	238.31
471.997	275.31
472.216	279.31
472.435	269.31
472.654	246.31
472.873	235.31
473.092	260.31
473.311	243.31
473.53	254.31
473.749	227.31
473.968	258.31
474.187	248.31
474.406	236.31
474.625	240.31
474.844	214.31
475.063	224.31
475.282	256.31
475.501	265.31
475.72	284.31
475.939	268.31
476.158	280.31
476.377	308.31
476.596	345.31
476.814	348.31
477.033	302.31
477.252	266.31
477.471	238.31
477.69	233.31
477.908	274.31
478.127	272.31
478.346	264.31
478.564	300.31
478.783	276.31
479.002	281.31
479.22	294.31
479.439	303.31
479.658	312.31
479.876	262.31
480.095	281.31
480.313	308.31
480.532	296.31
480.751	276.31
480.969	292.31
481.188	321.31
481.406	311.31
481.624	306.31
481.843	286.31
482.061	267.31
482.28	297.31
482.498	335.31
482.717	350.31
482.935	302.31
483.153	272.31
483.372	274.31
483.59	259.31
483.808	244.31
484.027	260.31
484.245	263.31
484.463	258.31
484.681	251.31
484.9	271.31
485.118	302.31
485.336	259.31
485.554	277.31
485.772	274.31
485.99	291.31
486.209	293.31
486.427	316.31
486.645	303.31
486.863	313.31
487.081	307.31
487.299	318.31
487.517	326.31
487.735	302.31
487.953	280.31
488.171	277.31
488.389	283.31
488.607	277.31
488.825	286.31
489.043	314.31
489.261	335.31
489.479	339.31
489.696	302.31
489.914	281.31
490.132	258.31
490.35	256.31
490.568	266.31
490.786	270.31
491.003	274.31
491.221	267.31
491.439	283.31
491.657	284.31
491.874	294.31
492.092	341.31
492.31	371.31
492.527	372.31
492.745	321.31
492.963	308.31
493.18	292.31
493.398	299.31
493.615	289.31
493.833	303.31
494.05	283.31
494.268	288.31
494.485	297.31
494.703	303.31
494.92	295.31
495.138	277.31
495.355	267.31
495.573	283.31
495.79	318.31
496.008	375.31
496.225	329.31
496.442	316.31
496.66	304.31
496.877	316.31
497.094	323.31
497.312	286.31
497.529	299.31
497.746	289.31
497.963	315.31
498.181	351.31
498.398	352.31
498.615	374.31
498.832	378.31
499.049	401.31
499.267	390.31
499.484	380.31
499.701	417.31
499.918	472.31
500.135	502.31
500.352	522.31
500.569	561.31
500.786	584.31
501.003	528.31
501.22	478.31
501.437	436.31
501.654	393.31
501.871	386.31
502.088	390.31
502.305	345.31
502.522	368.31
