Data from NickelSpatula.Lamp.E5.5.P2_HRD10591_11-53-20-549.txt Node
Date: Tue Jul 23 11:53:20 EDT 2019
User: cochatt
Spectrometer: HR+D1059
Trigger mode: 1
Integration Time (sec): 1.000000E-1
Scans to average: 1
Electric dark correction enabled: true
Nonlinearity correction enabled: false
Boxcar width: 0
XAxis mode: Wavelengths
Number of Pixels in Spectrum: 2048
>>>>>Begin Spectral Data<<<<<
223.165	-3.44
223.4	-3.44
223.635	-3.44
223.869	-19.44
224.104	-15.44
224.338	-19.44
224.573	-31.44
224.808	1.56
225.042	-7.44
225.277	-22.44
225.511	6.56
225.746	15.56
225.98	4.56
226.215	17.56
226.449	14.56
226.683	15.56
226.918	20.56
227.152	22.56
227.387	20.56
227.621	20.56
227.856	39.56
228.09	39.56
228.324	60.56
228.559	64.56
228.793	70.56
229.027	64.56
229.262	80.56
229.496	72.56
229.73	88.56
229.964	90.56
230.199	108.56
230.433	88.56
230.667	102.56
230.901	100.56
231.136	82.56
231.37	100.56
231.604	101.56
231.838	97.56
232.072	102.56
232.306	110.56
232.541	113.56
232.775	106.56
233.009	99.56
233.243	97.56
233.477	98.56
233.711	114.56
233.945	129.56
234.179	119.56
234.413	124.56
234.647	136.56
234.881	137.56
235.115	146.56
235.349	131.56
235.583	135.56
235.817	126.56
236.051	119.56
236.285	137.56
236.519	148.56
236.753	145.56
236.987	142.56
237.221	140.56
237.455	134.56
237.689	119.56
237.922	125.56
238.156	132.56
238.39	147.56
238.624	152.56
238.858	159.56
239.091	147.56
239.325	141.56
239.559	132.56
239.793	148.56
240.027	160.56
240.26	142.56
240.494	148.56
240.728	145.56
240.961	158.56
241.195	168.56
241.429	155.56
241.662	161.56
241.896	145.56
242.13	129.56
242.363	142.56
242.597	137.56
242.83	148.56
243.064	141.56
243.298	166.56
243.531	172.56
243.765	182.56
243.998	172.56
244.232	159.56
244.465	156.56
244.699	144.56
244.932	175.56
245.166	177.56
245.399	143.56
245.633	143.56
245.866	145.56
246.099	178.56
246.333	180.56
246.566	199.56
246.8	187.56
247.033	169.56
247.266	168.56
247.5	170.56
247.733	166.56
247.966	165.56
248.2	169.56
248.433	186.56
248.666	188.56
248.899	193.56
249.133	197.56
249.366	220.56
249.599	244.56
249.832	225.56
250.066	192.56
250.299	193.56
250.532	197.56
250.765	193.56
250.998	195.56
251.231	174.56
251.465	178.56
251.698	188.56
251.931	185.56
252.164	183.56
252.397	221.56
252.63	220.56
252.863	256.56
253.096	245.56
253.329	248.56
253.562	241.56
253.795	252.56
254.028	269.56
254.261	267.56
254.494	275.56
254.727	238.56
254.96	232.56
255.193	254.56
255.426	241.56
255.659	200.56
255.892	189.56
256.124	207.56
256.357	235.56
256.59	264.56
256.823	262.56
257.056	223.56
257.289	211.56
257.521	228.56
257.754	262.56
257.987	286.56
258.22	264.56
258.452	233.56
258.685	266.56
258.918	274.56
259.151	246.56
259.383	294.56
259.616	341.56
259.849	329.56
260.081	336.56
260.314	368.56
260.547	300.56
260.779	325.56
261.012	376.56
261.244	341.56
261.477	336.56
261.71	320.56
261.942	292.56
262.175	269.56
262.407	272.56
262.64	261.56
262.872	308.56
263.105	332.56
263.337	352.56
263.57	326.56
263.802	239.56
264.035	229.56
264.267	209.56
264.499	186.56
264.732	180.56
264.964	175.56
265.197	188.56
265.429	186.56
265.661	205.56
265.894	215.56
266.126	218.56
266.358	214.56
266.591	275.56
266.823	331.56
267.055	322.56
267.287	286.56
267.52	290.56
267.752	293.56
267.984	320.56
268.216	320.56
268.448	281.56
268.681	256.56
268.913	268.56
269.145	281.56
269.377	309.56
269.609	295.56
269.841	274.56
270.073	297.56
270.306	320.56
270.538	326.56
270.77	309.56
271.002	310.56
271.234	329.56
271.466	315.56
271.698	312.56
271.93	292.56
272.162	317.56
272.394	285.56
272.626	286.56
272.858	284.56
273.09	324.56
273.322	274.56
273.553	266.56
273.785	306.56
274.017	389.56
274.249	454.56
274.481	453.56
274.713	484.56
274.945	579.56
275.176	572.56
275.408	531.56
275.64	490.56
275.872	490.56
276.104	431.56
276.335	383.56
276.567	383.56
276.799	384.56
277.031	413.56
277.262	354.56
277.494	256.56
277.726	275.56
277.957	278.56
278.189	327.56
278.421	316.56
278.652	322.56
278.884	291.56
279.115	295.56
279.347	254.56
279.579	265.56
279.81	266.56
280.042	300.56
280.273	288.56
280.505	258.56
280.736	230.56
280.968	228.56
281.199	258.56
281.431	270.56
281.662	256.56
281.894	261.56
282.125	274.56
282.356	298.56
282.588	295.56
282.819	286.56
283.051	288.56
283.282	343.56
283.513	396.56
283.745	418.56
283.976	419.56
284.207	398.56
284.439	413.56
284.67	413.56
284.901	357.56
285.132	391.56
285.364	406.56
285.595	355.56
285.826	395.56
286.057	404.56
286.288	382.56
286.52	388.56
286.751	428.56
286.982	422.56
287.213	373.56
287.444	365.56
287.675	374.56
287.906	363.56
288.138	344.56
288.369	304.56
288.6	290.56
288.831	301.56
289.062	355.56
289.293	369.56
289.524	334.56
289.755	316.56
289.986	329.56
290.217	320.56
290.448	263.56
290.679	236.56
290.91	230.56
291.141	201.56
291.371	236.56
291.602	223.56
291.833	240.56
292.064	238.56
292.295	273.56
292.526	290.56
292.757	306.56
292.987	329.56
293.218	339.56
293.449	334.56
293.68	386.56
293.91	351.56
294.141	361.56
294.372	328.56
294.603	317.56
294.833	327.56
295.064	410.56
295.295	398.56
295.525	301.56
295.756	274.56
295.987	222.56
296.217	230.56
296.448	213.56
296.679	254.56
296.909	261.56
297.14	277.56
297.37	302.56
297.601	283.56
297.831	272.56
298.062	295.56
298.292	314.56
298.523	329.56
298.753	342.56
298.984	337.56
299.214	279.56
299.445	254.56
299.675	226.56
299.905	240.56
300.136	233.56
300.366	252.56
300.597	248.56
300.827	236.56
301.057	232.56
301.288	232.56
301.518	254.56
301.748	274.56
301.979	288.56
302.209	301.56
302.439	320.56
302.669	266.56
302.9	275.56
303.13	265.56
303.36	257.56
303.59	224.56
303.82	242.56
304.051	284.56
304.281	280.56
304.511	294.56
304.741	263.56
304.971	274.56
305.201	278.56
305.431	265.56
305.661	247.56
305.891	249.56
306.121	252.56
306.352	226.56
306.582	200.56
306.812	214.56
307.042	225.56
307.272	182.56
307.502	205.56
307.731	208.56
307.961	228.56
308.191	221.56
308.421	193.56
308.651	197.56
308.881	197.56
309.111	170.56
309.341	202.56
309.571	207.56
309.8	216.56
310.03	209.56
310.26	214.56
310.49	234.56
310.72	208.56
310.949	221.56
311.179	214.56
311.409	209.56
311.639	243.56
311.868	294.56
312.098	347.56
312.328	390.56
312.557	386.56
312.787	388.56
313.017	366.56
313.246	354.56
313.476	382.56
313.706	327.56
313.935	268.56
314.165	254.56
314.394	223.56
314.624	224.56
314.853	249.56
315.083	242.56
315.312	219.56
315.542	231.56
315.771	212.56
316.001	197.56
316.23	197.56
316.46	194.56
316.689	217.56
316.919	202.56
317.148	200.56
317.377	208.56
317.607	202.56
317.836	217.56
318.065	252.56
318.295	262.56
318.524	254.56
318.753	226.56
318.983	197.56
319.212	218.56
319.441	215.56
319.67	245.56
319.9	241.56
320.129	221.56
320.358	226.56
320.587	209.56
320.816	235.56
321.046	240.56
321.275	269.56
321.504	264.56
321.733	253.56
321.962	258.56
322.191	262.56
322.42	232.56
322.649	229.56
322.878	248.56
323.108	258.56
323.337	240.56
323.566	240.56
323.795	239.56
324.024	216.56
324.253	238.56
324.482	218.56
324.71	238.56
324.939	257.56
325.168	230.56
325.397	209.56
325.626	215.56
325.855	216.56
326.084	220.56
326.313	201.56
326.542	192.56
326.77	207.56
326.999	217.56
327.228	213.56
327.457	220.56
327.686	211.56
327.914	218.56
328.143	196.56
328.372	194.56
328.6	197.56
328.829	185.56
329.058	202.56
329.287	212.56
329.515	215.56
329.744	219.56
329.972	213.56
330.201	195.56
330.43	200.56
330.658	224.56
330.887	234.56
331.115	216.56
331.344	237.56
331.572	230.56
331.801	206.56
332.03	208.56
332.258	206.56
332.486	215.56
332.715	226.56
332.943	214.56
333.172	228.56
333.4	225.56
333.629	248.56
333.857	262.56
334.085	229.56
334.314	255.56
334.542	244.56
334.771	233.56
334.999	218.56
335.227	229.56
335.455	234.56
335.684	232.56
335.912	261.56
336.14	304.56
336.369	283.56
336.597	266.56
336.825	284.56
337.053	323.56
337.281	275.56
337.51	248.56
337.738	222.56
337.966	252.56
338.194	264.56
338.422	258.56
338.65	205.56
338.878	212.56
339.106	218.56
339.334	226.56
339.562	253.56
339.79	231.56
340.018	218.56
340.246	214.56
340.474	247.56
340.702	261.56
340.93	255.56
341.158	271.56
341.386	234.56
341.614	229.56
341.842	237.56
342.07	255.56
342.298	285.56
342.526	300.56
342.754	247.56
342.981	251.56
343.209	258.56
343.437	239.56
343.665	256.56
343.893	248.56
344.12	301.56
344.348	352.56
344.576	335.56
344.804	255.56
345.031	240.56
345.259	226.56
345.487	230.56
345.714	243.56
345.942	228.56
346.17	269.56
346.397	256.56
346.625	240.56
346.853	229.56
347.08	217.56
347.308	225.56
347.535	254.56
347.763	262.56
347.99	240.56
348.218	216.56
348.445	223.56
348.673	222.56
348.9	230.56
349.128	243.56
349.355	243.56
349.583	240.56
349.81	229.56
350.037	215.56
350.265	193.56
350.492	188.56
350.72	186.56
350.947	190.56
351.174	214.56
351.402	225.56
351.629	221.56
351.856	212.56
352.083	208.56
352.311	218.56
352.538	241.56
352.765	242.56
352.992	244.56
353.22	242.56
353.447	237.56
353.674	232.56
353.901	221.56
354.128	210.56
354.355	210.56
354.583	217.56
354.81	216.56
355.037	224.56
355.264	237.56
355.491	246.56
355.718	250.56
355.945	244.56
356.172	247.56
356.399	229.56
356.626	288.56
356.853	321.56
357.08	368.56
357.307	345.56
357.534	290.56
357.761	308.56
357.988	354.56
358.215	393.56
358.441	383.56
358.668	321.56
358.895	305.56
359.122	264.56
359.349	282.56
359.576	310.56
359.802	263.56
360.029	217.56
360.256	244.56
360.483	261.56
360.709	334.56
360.936	348.56
361.163	289.56
361.39	253.56
361.616	232.56
361.843	273.56
362.07	313.56
362.296	273.56
362.523	248.56
362.749	217.56
362.976	238.56
363.203	257.56
363.429	293.56
363.656	245.56
363.882	218.56
364.109	217.56
364.335	240.56
364.562	208.56
364.788	256.56
365.015	274.56
365.241	271.56
365.468	230.56
365.694	197.56
365.92	213.56
366.147	186.56
366.373	196.56
366.599	197.56
366.826	206.56
367.052	193.56
367.278	190.56
367.505	207.56
367.731	217.56
367.957	197.56
368.184	227.56
368.41	220.56
368.636	204.56
368.862	220.56
369.089	233.56
369.315	210.56
369.541	201.56
369.767	213.56
369.993	192.56
370.219	193.56
370.445	205.56
370.672	224.56
370.898	262.56
371.124	238.56
371.35	221.56
371.576	211.56
371.802	210.56
372.028	257.56
372.254	288.56
372.48	267.56
372.706	244.56
372.932	240.56
373.158	262.56
373.384	270.56
373.61	357.56
373.835	366.56
374.061	292.56
374.287	250.56
374.513	296.56
374.739	350.56
374.965	352.56
375.191	368.56
375.416	280.56
375.642	236.56
375.868	264.56
376.094	295.56
376.319	265.56
376.545	283.56
376.771	301.56
376.997	271.56
377.222	198.56
377.448	190.56
377.674	189.56
377.899	177.56
378.125	182.56
378.35	188.56
378.576	186.56
378.802	213.56
379.027	218.56
379.253	235.56
379.478	229.56
379.704	215.56
379.929	280.56
380.155	248.56
380.38	225.56
380.606	221.56
380.831	250.56
381.057	226.56
381.282	223.56
381.507	272.56
381.733	309.56
381.958	300.56
382.184	330.56
382.409	345.56
382.634	364.56
382.86	332.56
383.085	311.56
383.31	248.56
383.535	297.56
383.761	273.56
383.986	255.56
384.211	289.56
384.436	306.56
384.662	245.56
384.887	231.56
385.112	240.56
385.337	249.56
385.562	242.56
385.787	260.56
386.013	298.56
386.238	282.56
386.463	260.56
386.688	234.56
386.913	249.56
387.138	216.56
387.363	210.56
387.588	244.56
387.813	255.56
388.038	250.56
388.263	234.56
388.488	233.56
388.713	262.56
388.938	272.56
389.163	226.56
389.387	232.56
389.612	221.56
389.837	217.56
390.062	230.56
390.287	232.56
390.512	234.56
390.736	222.56
390.961	228.56
391.186	210.56
391.411	192.56
391.636	209.56
391.86	216.56
392.085	241.56
392.31	252.56
392.534	227.56
392.759	229.56
392.984	248.56
393.208	250.56
393.433	222.56
393.658	212.56
393.882	210.56
394.107	209.56
394.331	211.56
394.556	212.56
394.78	205.56
395.005	213.56
395.229	206.56
395.454	223.56
395.678	211.56
395.903	221.56
396.127	210.56
396.352	209.56
396.576	224.56
396.801	230.56
397.025	256.56
397.249	259.56
397.474	212.56
397.698	224.56
397.922	239.56
398.147	207.56
398.371	236.56
398.595	232.56
398.82	227.56
399.044	252.56
399.268	256.56
399.492	271.56
399.717	257.56
399.941	256.56
400.165	267.56
400.389	250.56
400.613	258.56
400.837	248.56
401.062	231.56
401.286	224.56
401.51	232.56
401.734	210.56
401.958	216.56
402.182	226.56
402.406	239.56
402.63	242.56
402.854	266.56
403.078	311.56
403.302	372.56
403.526	364.56
403.75	341.56
403.974	296.56
404.198	290.56
404.422	295.56
404.645	321.56
404.869	341.56
405.093	286.56
405.317	261.56
405.541	251.56
405.765	263.56
405.988	258.56
406.212	264.56
406.436	299.56
406.66	293.56
406.883	276.56
407.107	279.56
407.331	315.56
407.555	299.56
407.778	276.56
408.002	280.56
408.226	262.56
408.449	282.56
408.673	255.56
408.896	241.56
409.12	225.56
409.344	241.56
409.567	243.56
409.791	247.56
410.014	232.56
410.238	218.56
410.461	228.56
410.685	228.56
410.908	219.56
411.132	212.56
411.355	232.56
411.578	232.56
411.802	219.56
412.025	231.56
412.249	229.56
412.472	245.56
412.695	235.56
412.919	239.56
413.142	225.56
413.365	254.56
413.589	231.56
413.812	224.56
414.035	228.56
414.258	219.56
414.482	243.56
414.705	257.56
414.928	246.56
415.151	210.56
415.374	236.56
415.597	231.56
415.821	233.56
416.044	219.56
416.267	213.56
416.49	218.56
416.713	217.56
416.936	229.56
417.159	232.56
417.382	219.56
417.605	224.56
417.828	242.56
418.051	250.56
418.274	231.56
418.497	227.56
418.72	236.56
418.943	241.56
419.166	278.56
419.389	259.56
419.611	246.56
419.834	236.56
420.057	257.56
420.28	266.56
420.503	240.56
420.726	217.56
420.948	224.56
421.171	222.56
421.394	218.56
421.617	218.56
421.839	211.56
422.062	227.56
422.285	221.56
422.507	250.56
422.73	236.56
422.953	231.56
423.175	239.56
423.398	229.56
423.621	252.56
423.843	248.56
424.066	253.56
424.288	236.56
424.511	237.56
424.733	230.56
424.956	238.56
425.178	252.56
425.401	289.56
425.623	349.56
425.846	303.56
426.068	238.56
426.291	252.56
426.513	233.56
426.735	242.56
426.958	233.56
427.18	290.56
427.402	327.56
427.625	350.56
427.847	320.56
428.069	239.56
428.292	215.56
428.514	225.56
428.736	215.56
428.958	250.56
429.181	305.56
429.403	262.56
429.625	229.56
429.847	236.56
430.069	227.56
430.292	238.56
430.514	224.56
430.736	230.56
430.958	267.56
431.18	269.56
431.402	216.56
431.624	212.56
431.846	205.56
432.068	205.56
432.29	221.56
432.512	243.56
432.734	280.56
432.956	267.56
433.178	215.56
433.4	236.56
433.622	200.56
433.844	211.56
434.066	245.56
434.287	242.56
434.509	244.56
434.731	245.56
434.953	233.56
435.175	239.56
435.397	277.56
435.618	245.56
435.84	214.56
436.062	234.56
436.284	205.56
436.505	228.56
436.727	220.56
436.949	213.56
437.17	218.56
437.392	236.56
437.614	222.56
437.835	216.56
438.057	227.56
438.278	242.56
438.5	300.56
438.721	314.56
438.943	234.56
439.165	221.56
439.386	224.56
439.608	210.56
439.829	183.56
440.05	226.56
440.272	222.56
440.493	242.56
440.715	287.56
440.936	227.56
441.158	225.56
441.379	200.56
441.6	233.56
441.822	270.56
442.043	248.56
442.264	230.56
442.486	224.56
442.707	225.56
442.928	229.56
443.149	245.56
443.371	219.56
443.592	234.56
443.813	244.56
444.034	229.56
444.255	248.56
444.476	233.56
444.698	254.56
444.919	237.56
445.14	338.56
445.361	299.56
445.582	232.56
445.803	234.56
446.024	253.56
446.245	257.56
446.466	224.56
446.687	227.56
446.908	235.56
447.129	222.56
447.35	225.56
447.571	219.56
447.792	198.56
448.013	226.56
448.234	215.56
448.455	217.56
448.675	206.56
448.896	208.56
449.117	207.56
449.338	198.56
449.559	216.56
449.779	214.56
450	222.56
450.221	245.56
450.442	220.56
450.662	203.56
450.883	205.56
451.104	216.56
451.324	207.56
451.545	222.56
451.766	210.56
451.986	222.56
452.207	195.56
452.428	194.56
452.648	191.56
452.869	198.56
453.089	217.56
453.31	227.56
453.53	194.56
453.751	201.56
453.971	200.56
454.192	203.56
454.412	192.56
454.633	201.56
454.853	203.56
455.073	202.56
455.294	200.56
455.514	214.56
455.734	204.56
455.955	195.56
456.175	197.56
456.395	188.56
456.616	190.56
456.836	196.56
457.056	175.56
457.276	188.56
457.497	181.56
457.717	195.56
457.937	195.56
458.157	192.56
458.377	192.56
458.598	181.56
458.818	204.56
459.038	204.56
459.258	199.56
459.478	213.56
459.698	240.56
459.918	228.56
460.138	240.56
460.358	241.56
460.578	257.56
460.798	246.56
461.018	249.56
461.238	229.56
461.458	226.56
461.678	223.56
461.898	239.56
462.118	236.56
462.338	257.56
462.558	246.56
462.777	252.56
462.997	256.56
463.217	273.56
463.437	308.56
463.657	266.56
463.876	251.56
464.096	273.56
464.316	269.56
464.536	266.56
464.755	266.56
464.975	274.56
465.195	268.56
465.414	263.56
465.634	235.56
465.854	246.56
466.073	222.56
466.293	214.56
466.512	222.56
466.732	257.56
466.951	266.56
467.171	218.56
467.391	219.56
467.61	228.56
467.829	235.56
468.049	215.56
468.268	207.56
468.488	196.56
468.707	215.56
468.927	238.56
469.146	258.56
469.365	231.56
469.585	221.56
469.804	237.56
470.023	253.56
470.243	237.56
470.462	234.56
470.681	240.56
470.901	222.56
471.12	242.56
471.339	238.56
471.558	228.56
471.777	234.56
471.997	238.56
472.216	261.56
472.435	261.56
472.654	239.56
472.873	234.56
473.092	250.56
473.311	274.56
473.53	234.56
473.749	216.56
473.968	256.56
474.187	241.56
474.406	231.56
474.625	213.56
474.844	218.56
475.063	245.56
475.282	253.56
475.501	264.56
475.72	288.56
475.939	252.56
476.158	253.56
476.377	295.56
476.596	332.56
476.814	342.56
477.033	288.56
477.252	249.56
477.471	238.56
477.69	243.56
477.908	248.56
478.127	280.56
478.346	260.56
478.564	296.56
478.783	280.56
479.002	280.56
479.22	291.56
479.439	315.56
479.658	292.56
479.876	245.56
480.095	287.56
480.313	302.56
480.532	274.56
480.751	286.56
480.969	247.56
481.188	278.56
481.406	290.56
481.624	281.56
481.843	266.56
482.061	257.56
482.28	288.56
482.498	337.56
482.717	327.56
482.935	288.56
483.153	264.56
483.372	251.56
483.59	256.56
483.808	244.56
484.027	255.56
484.245	254.56
484.463	241.56
484.681	252.56
484.9	261.56
485.118	272.56
485.336	276.56
485.554	246.56
485.772	264.56
485.99	282.56
486.209	295.56
486.427	286.56
486.645	259.56
486.863	284.56
487.081	263.56
487.299	306.56
487.517	288.56
487.735	273.56
487.953	286.56
488.171	273.56
488.389	279.56
488.607	258.56
488.825	262.56
489.043	286.56
489.261	301.56
489.479	318.56
489.696	290.56
489.914	275.56
490.132	262.56
490.35	249.56
490.568	263.56
490.786	261.56
491.003	276.56
491.221	267.56
491.439	249.56
491.657	255.56
491.874	273.56
492.092	324.56
492.31	355.56
492.527	360.56
492.745	341.56
492.963	303.56
493.18	292.56
493.398	304.56
493.615	295.56
493.833	286.56
494.05	277.56
494.268	254.56
494.485	278.56
494.703	264.56
494.92	294.56
495.138	268.56
495.355	285.56
495.573	276.56
495.79	309.56
496.008	352.56
496.225	313.56
496.442	297.56
496.66	293.56
496.877	316.56
497.094	301.56
497.312	286.56
497.529	294.56
497.746	273.56
497.963	306.56
498.181	313.56
498.398	340.56
498.615	374.56
498.832	385.56
499.049	377.56
499.267	359.56
499.484	364.56
499.701	393.56
499.918	442.56
500.135	455.56
500.352	512.56
500.569	530.56
500.786	545.56
501.003	518.56
501.22	459.56
501.437	425.56
501.654	387.56
501.871	383.56
502.088	372.56
502.305	340.56
502.522	343.56
