Data from NickelSpatula.Lamp.E5.5.P2_HRD10591_11-51-03-563.txt Node
Date: Tue Jul 23 11:51:03 EDT 2019
User: cochatt
Spectrometer: HR+D1059
Trigger mode: 1
Integration Time (sec): 1.000000E-1
Scans to average: 1
Electric dark correction enabled: true
Nonlinearity correction enabled: false
Boxcar width: 0
XAxis mode: Wavelengths
Number of Pixels in Spectrum: 2048
>>>>>Begin Spectral Data<<<<<
223.165	-7.69
223.4	-7.69
223.635	-7.69
223.869	-3.69
224.104	-9.69
224.338	-19.69
224.573	-18.69
224.808	-10.69
225.042	-15.69
225.277	-9.69
225.511	-0.69
225.746	0.31
225.98	-2.69
226.215	18.31
226.449	9.31
226.683	24.31
226.918	18.31
227.152	28.31
227.387	30.31
227.621	28.31
227.856	44.31
228.09	50.31
228.324	50.31
228.559	58.31
228.793	55.31
229.027	66.31
229.262	74.31
229.496	85.31
229.73	82.31
229.964	81.31
230.199	94.31
230.433	89.31
230.667	84.31
230.901	95.31
231.136	97.31
231.37	101.31
231.604	103.31
231.838	103.31
232.072	104.31
232.306	107.31
232.541	109.31
232.775	111.31
233.009	110.31
233.243	96.31
233.477	110.31
233.711	104.31
233.945	113.31
234.179	101.31
234.413	120.31
234.647	120.31
234.881	124.31
235.115	126.31
235.349	119.31
235.583	116.31
235.817	121.31
236.051	121.31
236.285	110.31
236.519	128.31
236.753	117.31
236.987	118.31
237.221	124.31
237.455	117.31
237.689	131.31
237.922	135.31
238.156	138.31
238.39	138.31
238.624	148.31
238.858	148.31
239.091	120.31
239.325	124.31
239.559	116.31
239.793	143.31
240.027	170.31
240.26	155.31
240.494	135.31
240.728	143.31
240.961	142.31
241.195	159.31
241.429	152.31
241.662	150.31
241.896	128.31
242.13	130.31
242.363	130.31
242.597	118.31
242.83	145.31
243.064	136.31
243.298	144.31
243.531	142.31
243.765	163.31
243.998	141.31
244.232	133.31
244.465	137.31
244.699	135.31
244.932	146.31
245.166	147.31
245.399	149.31
245.633	149.31
245.866	143.31
246.099	149.31
246.333	159.31
246.566	175.31
246.8	191.31
247.033	166.31
247.266	154.31
247.5	148.31
247.733	152.31
247.966	142.31
248.2	156.31
248.433	159.31
248.666	184.31
248.899	152.31
249.133	170.31
249.366	185.31
249.599	202.31
249.832	200.31
250.066	193.31
250.299	175.31
250.532	188.31
250.765	156.31
250.998	167.31
251.231	165.31
251.465	166.31
251.698	174.31
251.931	176.31
252.164	196.31
252.397	192.31
252.63	205.31
252.863	223.31
253.096	220.31
253.329	219.31
253.562	226.31
253.795	234.31
254.028	252.31
254.261	258.31
254.494	229.31
254.727	224.31
254.96	207.31
255.193	247.31
255.426	248.31
255.659	182.31
255.892	169.31
256.124	191.31
256.357	220.31
256.59	241.31
256.823	240.31
257.056	210.31
257.289	196.31
257.521	210.31
257.754	225.31
257.987	255.31
258.22	239.31
258.452	211.31
258.685	210.31
258.918	242.31
259.151	259.31
259.383	265.31
259.616	259.31
259.849	272.31
260.081	297.31
260.314	320.31
260.547	276.31
260.779	272.31
261.012	334.31
261.244	299.31
261.477	312.31
261.71	313.31
261.942	256.31
262.175	240.31
262.407	239.31
262.64	244.31
262.872	282.31
263.105	300.31
263.337	308.31
263.57	272.31
263.802	227.31
264.035	212.31
264.267	193.31
264.499	179.31
264.732	183.31
264.964	173.31
265.197	174.31
265.429	196.31
265.661	193.31
265.894	211.31
266.126	192.31
266.358	212.31
266.591	265.31
266.823	296.31
267.055	261.31
267.287	261.31
267.52	252.31
267.752	252.31
267.984	287.31
268.216	277.31
268.448	227.31
268.681	232.31
268.913	242.31
269.145	248.31
269.377	244.31
269.609	281.31
269.841	245.31
270.073	250.31
270.306	274.31
270.538	292.31
270.77	289.31
271.002	290.31
271.234	290.31
271.466	297.31
271.698	261.31
271.93	249.31
272.162	274.31
272.394	260.31
272.626	270.31
272.858	260.31
273.09	270.31
273.322	250.31
273.553	239.31
273.785	256.31
274.017	334.31
274.249	416.31
274.481	404.31
274.713	417.31
274.945	509.31
275.176	503.31
275.408	476.31
275.64	439.31
275.872	433.31
276.104	375.31
276.335	336.31
276.567	338.31
276.799	357.31
277.031	355.31
277.262	316.31
277.494	230.31
277.726	239.31
277.957	257.31
278.189	265.31
278.421	293.31
278.652	272.31
278.884	255.31
279.115	246.31
279.347	234.31
279.579	225.31
279.81	261.31
280.042	273.31
280.273	263.31
280.505	244.31
280.736	223.31
280.968	211.31
281.199	241.31
281.431	248.31
281.662	246.31
281.894	233.31
282.125	243.31
282.356	255.31
282.588	263.31
282.819	256.31
283.051	261.31
283.282	310.31
283.513	350.31
283.745	377.31
283.976	388.31
284.207	359.31
284.439	371.31
284.67	358.31
284.901	322.31
285.132	337.31
285.364	345.31
285.595	326.31
285.826	355.31
286.057	360.31
286.288	340.31
286.52	358.31
286.751	373.31
286.982	371.31
287.213	348.31
287.444	335.31
287.675	338.31
287.906	352.31
288.138	291.31
288.369	264.31
288.6	262.31
288.831	257.31
289.062	298.31
289.293	329.31
289.524	317.31
289.755	316.31
289.986	304.31
290.217	291.31
290.448	213.31
290.679	219.31
290.91	206.31
291.141	212.31
291.371	212.31
291.602	216.31
291.833	203.31
292.064	217.31
292.295	258.31
292.526	281.31
292.757	273.31
292.987	304.31
293.218	306.31
293.449	335.31
293.68	340.31
293.91	317.31
294.141	337.31
294.372	301.31
294.603	276.31
294.833	294.31
295.064	350.31
295.295	351.31
295.525	280.31
295.756	256.31
295.987	226.31
296.217	226.31
296.448	220.31
296.679	229.31
296.909	228.31
297.14	258.31
297.37	272.31
297.601	252.31
297.831	251.31
298.062	256.31
298.292	274.31
298.523	269.31
298.753	324.31
298.984	310.31
299.214	258.31
299.445	227.31
299.675	229.31
299.905	228.31
300.136	212.31
300.366	213.31
300.597	220.31
300.827	220.31
301.057	215.31
301.288	244.31
301.518	230.31
301.748	257.31
301.979	252.31
302.209	281.31
302.439	281.31
302.669	243.31
302.9	253.31
303.13	252.31
303.36	241.31
303.59	224.31
303.82	226.31
304.051	266.31
304.281	271.31
304.511	278.31
304.741	236.31
304.971	228.31
305.201	265.31
305.431	274.31
305.661	217.31
305.891	217.31
306.121	231.31
306.352	211.31
306.582	181.31
306.812	186.31
307.042	193.31
307.272	188.31
307.502	182.31
307.731	200.31
307.961	188.31
308.191	202.31
308.421	189.31
308.651	193.31
308.881	189.31
309.111	177.31
309.341	199.31
309.571	179.31
309.8	208.31
310.03	208.31
310.26	210.31
310.49	209.31
310.72	209.31
310.949	207.31
311.179	199.31
311.409	221.31
311.639	230.31
311.868	264.31
312.098	318.31
312.328	352.31
312.557	341.31
312.787	341.31
313.017	308.31
313.246	331.31
313.476	373.31
313.706	314.31
313.935	274.31
314.165	219.31
314.394	203.31
314.624	185.31
314.853	213.31
315.083	207.31
315.312	212.31
315.542	224.31
315.771	213.31
316.001	193.31
316.23	182.31
316.46	184.31
316.689	185.31
316.919	178.31
317.148	191.31
317.377	193.31
317.607	192.31
317.836	192.31
318.065	232.31
318.295	240.31
318.524	231.31
318.753	180.31
318.983	177.31
319.212	198.31
319.441	225.31
319.67	216.31
319.9	237.31
320.129	227.31
320.358	213.31
320.587	212.31
320.816	206.31
321.046	226.31
321.275	252.31
321.504	247.31
321.733	234.31
321.962	250.31
322.191	214.31
322.42	224.31
322.649	221.31
322.878	222.31
323.108	247.31
323.337	220.31
323.566	218.31
323.795	224.31
324.024	230.31
324.253	215.31
324.482	199.31
324.71	229.31
324.939	241.31
325.168	233.31
325.397	219.31
325.626	209.31
325.855	209.31
326.084	222.31
326.313	219.31
326.542	190.31
326.77	198.31
326.999	214.31
327.228	206.31
327.457	209.31
327.686	217.31
327.914	188.31
328.143	188.31
328.372	188.31
328.6	182.31
328.829	191.31
329.058	206.31
329.287	200.31
329.515	211.31
329.744	197.31
329.972	183.31
330.201	175.31
330.43	198.31
330.658	194.31
330.887	226.31
331.115	225.31
331.344	220.31
331.572	210.31
331.801	212.31
332.03	195.31
332.258	217.31
332.486	223.31
332.715	213.31
332.943	209.31
333.172	208.31
333.4	224.31
333.629	225.31
333.857	244.31
334.085	233.31
334.314	244.31
334.542	230.31
334.771	199.31
334.999	237.31
335.227	217.31
335.455	209.31
335.684	236.31
335.912	238.31
336.14	280.31
336.369	250.31
336.597	257.31
336.825	260.31
337.053	307.31
337.281	234.31
337.51	244.31
337.738	220.31
337.966	220.31
338.194	219.31
338.422	228.31
338.65	208.31
338.878	192.31
339.106	199.31
339.334	227.31
339.562	229.31
339.79	218.31
340.018	212.31
340.246	235.31
340.474	239.31
340.702	242.31
340.93	237.31
341.158	259.31
341.386	228.31
341.614	225.31
341.842	223.31
342.07	237.31
342.298	252.31
342.526	277.31
342.754	228.31
342.981	223.31
343.209	218.31
343.437	223.31
343.665	260.31
343.893	259.31
344.12	284.31
344.348	333.31
344.576	292.31
344.804	260.31
345.031	205.31
345.259	197.31
345.487	202.31
345.714	233.31
345.942	236.31
346.17	258.31
346.397	223.31
346.625	201.31
346.853	211.31
347.08	201.31
347.308	231.31
347.535	234.31
347.763	245.31
347.99	222.31
348.218	214.31
348.445	232.31
348.673	232.31
348.9	214.31
349.128	215.31
349.355	238.31
349.583	219.31
349.81	222.31
350.037	214.31
350.265	201.31
350.492	185.31
350.72	185.31
350.947	189.31
351.174	196.31
351.402	211.31
351.629	208.31
351.856	197.31
352.083	220.31
352.311	220.31
352.538	230.31
352.765	222.31
352.992	197.31
353.22	207.31
353.447	211.31
353.674	216.31
353.901	229.31
354.128	202.31
354.355	227.31
354.583	212.31
354.81	209.31
355.037	226.31
355.264	211.31
355.491	225.31
355.718	225.31
355.945	224.31
356.172	218.31
356.399	225.31
356.626	257.31
356.853	297.31
357.08	330.31
357.307	333.31
357.534	266.31
357.761	281.31
357.988	340.31
358.215	384.31
358.441	350.31
358.668	296.31
358.895	279.31
359.122	251.31
359.349	271.31
359.576	300.31
359.802	258.31
360.029	228.31
360.256	238.31
360.483	262.31
360.709	302.31
360.936	300.31
361.163	272.31
361.39	237.31
361.616	213.31
361.843	258.31
362.07	300.31
362.296	261.31
362.523	221.31
362.749	206.31
362.976	207.31
363.203	246.31
363.429	256.31
363.656	221.31
363.882	225.31
364.109	213.31
364.335	221.31
364.562	213.31
364.788	240.31
365.015	251.31
365.241	227.31
365.468	210.31
365.694	167.31
365.92	197.31
366.147	190.31
366.373	191.31
366.599	193.31
366.826	165.31
367.052	190.31
367.278	179.31
367.505	166.31
367.731	192.31
367.957	209.31
368.184	224.31
368.41	216.31
368.636	206.31
368.862	238.31
369.089	212.31
369.315	212.31
369.541	203.31
369.767	218.31
369.993	206.31
370.219	199.31
370.445	197.31
370.672	218.31
370.898	249.31
371.124	230.31
371.35	220.31
371.576	207.31
371.802	206.31
372.028	247.31
372.254	277.31
372.48	246.31
372.706	220.31
372.932	216.31
373.158	236.31
373.384	262.31
373.61	327.31
373.835	354.31
374.061	280.31
374.287	257.31
374.513	277.31
374.739	314.31
374.965	341.31
375.191	342.31
375.416	245.31
375.642	212.31
375.868	256.31
376.094	274.31
376.319	234.31
376.545	252.31
376.771	248.31
376.997	246.31
377.222	199.31
377.448	200.31
377.674	197.31
377.899	198.31
378.125	175.31
378.35	180.31
378.576	207.31
378.802	195.31
379.027	222.31
379.253	201.31
379.478	200.31
379.704	211.31
379.929	223.31
380.155	238.31
380.38	218.31
380.606	225.31
380.831	249.31
381.057	223.31
381.282	201.31
381.507	238.31
381.733	270.31
381.958	290.31
382.184	305.31
382.409	330.31
382.634	306.31
382.86	330.31
383.085	268.31
383.31	238.31
383.535	250.31
383.761	259.31
383.986	252.31
384.211	291.31
384.436	281.31
384.662	236.31
384.887	214.31
385.112	231.31
385.337	236.31
385.562	226.31
385.787	255.31
386.013	288.31
386.238	249.31
386.463	233.31
386.688	242.31
386.913	212.31
387.138	198.31
387.363	213.31
387.588	217.31
387.813	225.31
388.038	247.31
388.263	234.31
388.488	226.31
388.713	252.31
388.938	249.31
389.163	233.31
389.387	217.31
389.612	200.31
389.837	226.31
390.062	234.31
390.287	217.31
390.512	229.31
390.736	214.31
390.961	224.31
391.186	216.31
391.411	224.31
391.636	225.31
391.86	220.31
392.085	260.31
392.31	256.31
392.534	252.31
392.759	232.31
392.984	222.31
393.208	233.31
393.433	220.31
393.658	206.31
393.882	210.31
394.107	225.31
394.331	207.31
394.556	221.31
394.78	200.31
395.005	214.31
395.229	203.31
395.454	200.31
395.678	212.31
395.903	211.31
396.127	223.31
396.352	232.31
396.576	232.31
396.801	229.31
397.025	229.31
397.249	253.31
397.474	226.31
397.698	231.31
397.922	237.31
398.147	230.31
398.371	222.31
398.595	219.31
398.82	229.31
399.044	234.31
399.268	234.31
399.492	267.31
399.717	287.31
399.941	294.31
400.165	280.31
400.389	261.31
400.613	239.31
400.837	237.31
401.062	214.31
401.286	215.31
401.51	218.31
401.734	222.31
401.958	230.31
402.182	226.31
402.406	227.31
402.63	238.31
402.854	236.31
403.078	279.31
403.302	361.31
403.526	366.31
403.75	323.31
403.974	273.31
404.198	269.31
404.422	301.31
404.645	305.31
404.869	330.31
405.093	286.31
405.317	258.31
405.541	253.31
405.765	255.31
405.988	252.31
406.212	249.31
406.436	272.31
406.66	293.31
406.883	254.31
407.107	273.31
407.331	302.31
407.555	302.31
407.778	265.31
408.002	258.31
408.226	263.31
408.449	262.31
408.673	259.31
408.896	243.31
409.12	226.31
409.344	244.31
409.567	242.31
409.791	239.31
410.014	228.31
410.238	240.31
410.461	244.31
410.685	222.31
410.908	225.31
411.132	228.31
411.355	243.31
411.578	245.31
411.802	228.31
412.025	253.31
412.249	252.31
412.472	232.31
412.695	257.31
412.919	234.31
413.142	232.31
413.365	229.31
413.589	247.31
413.812	230.31
414.035	225.31
414.258	225.31
414.482	264.31
414.705	240.31
414.928	225.31
415.151	209.31
415.374	219.31
415.597	217.31
415.821	220.31
416.044	240.31
416.267	213.31
416.49	221.31
416.713	210.31
416.936	217.31
417.159	203.31
417.382	229.31
417.605	232.31
417.828	230.31
418.051	224.31
418.274	237.31
418.497	243.31
418.72	224.31
418.943	241.31
419.166	239.31
419.389	252.31
419.611	248.31
419.834	254.31
420.057	254.31
420.28	258.31
420.503	251.31
420.726	219.31
420.948	216.31
421.171	231.31
421.394	211.31
421.617	217.31
421.839	209.31
422.062	230.31
422.285	226.31
422.507	230.31
422.73	208.31
422.953	231.31
423.175	231.31
423.398	245.31
423.621	254.31
423.843	273.31
424.066	232.31
424.288	238.31
424.511	238.31
424.733	228.31
424.956	222.31
425.178	271.31
425.401	292.31
425.623	345.31
425.846	297.31
426.068	254.31
426.291	256.31
426.513	247.31
426.735	219.31
426.958	238.31
427.18	265.31
427.402	306.31
427.625	338.31
427.847	292.31
428.069	243.31
428.292	231.31
428.514	213.31
428.736	222.31
428.958	258.31
429.181	273.31
429.403	264.31
429.625	214.31
429.847	217.31
430.069	237.31
430.292	208.31
430.514	216.31
430.736	229.31
430.958	272.31
431.18	254.31
431.402	211.31
431.624	211.31
431.846	215.31
432.068	207.31
432.29	208.31
432.512	221.31
432.734	259.31
432.956	254.31
433.178	229.31
433.4	221.31
433.622	228.31
433.844	235.31
434.066	240.31
434.287	223.31
434.509	233.31
434.731	254.31
434.953	231.31
435.175	239.31
435.397	253.31
435.618	230.31
435.84	230.31
436.062	210.31
436.284	212.31
436.505	211.31
436.727	192.31
436.949	213.31
437.17	226.31
437.392	216.31
437.614	196.31
437.835	215.31
438.057	202.31
438.278	222.31
438.5	290.31
438.721	282.31
438.943	206.31
439.165	197.31
439.386	211.31
439.608	219.31
439.829	207.31
440.05	204.31
440.272	209.31
440.493	217.31
440.715	271.31
440.936	239.31
441.158	224.31
441.379	218.31
441.6	246.31
441.822	259.31
442.043	223.31
442.264	223.31
442.486	223.31
442.707	229.31
442.928	233.31
443.149	214.31
443.371	237.31
443.592	217.31
443.813	239.31
444.034	228.31
444.255	233.31
444.476	249.31
444.698	255.31
444.919	256.31
445.14	400.31
445.361	307.31
445.582	239.31
445.803	237.31
446.024	257.31
446.245	227.31
446.466	234.31
446.687	230.31
446.908	222.31
447.129	212.31
447.35	201.31
447.571	198.31
447.792	220.31
448.013	216.31
448.234	210.31
448.455	192.31
448.675	198.31
448.896	220.31
449.117	225.31
449.338	195.31
449.559	195.31
449.779	221.31
450	209.31
450.221	222.31
450.442	218.31
450.662	214.31
450.883	210.31
451.104	222.31
451.324	216.31
451.545	225.31
451.766	220.31
451.986	207.31
452.207	208.31
452.428	207.31
452.648	200.31
452.869	207.31
453.089	209.31
453.31	209.31
453.53	198.31
453.751	206.31
453.971	200.31
454.192	215.31
454.412	206.31
454.633	202.31
454.853	205.31
455.073	207.31
455.294	208.31
455.514	202.31
455.734	199.31
455.955	209.31
456.175	210.31
456.395	194.31
456.616	200.31
456.836	203.31
457.056	199.31
457.276	191.31
457.497	199.31
457.717	197.31
457.937	195.31
458.157	180.31
458.377	195.31
458.598	198.31
458.818	195.31
459.038	203.31
459.258	214.31
459.478	216.31
459.698	217.31
459.918	219.31
460.138	218.31
460.358	236.31
460.578	246.31
460.798	242.31
461.018	236.31
461.238	229.31
461.458	228.31
461.678	228.31
461.898	236.31
462.118	229.31
462.338	264.31
462.558	239.31
462.777	257.31
462.997	282.31
463.217	281.31
463.437	302.31
463.657	258.31
463.876	282.31
464.096	257.31
464.316	256.31
464.536	265.31
464.755	275.31
464.975	278.31
465.195	249.31
465.414	259.31
465.634	244.31
465.854	212.31
466.073	228.31
466.293	213.31
466.512	212.31
466.732	230.31
466.951	240.31
467.171	224.31
467.391	237.31
467.61	222.31
467.829	213.31
468.049	226.31
468.268	218.31
468.488	203.31
468.707	215.31
468.927	249.31
469.146	260.31
469.365	240.31
469.585	210.31
469.804	230.31
470.023	246.31
470.243	224.31
470.462	231.31
470.681	234.31
470.901	238.31
471.12	233.31
471.339	212.31
471.558	229.31
471.777	232.31
471.997	232.31
472.216	265.31
472.435	249.31
472.654	219.31
472.873	233.31
473.092	239.31
473.311	234.31
473.53	238.31
473.749	216.31
473.968	210.31
474.187	228.31
474.406	244.31
474.625	223.31
474.844	230.31
475.063	222.31
475.282	252.31
475.501	247.31
475.72	259.31
475.939	257.31
476.158	253.31
476.377	288.31
476.596	311.31
476.814	296.31
477.033	279.31
477.252	250.31
477.471	220.31
477.69	248.31
477.908	237.31
478.127	265.31
478.346	245.31
478.564	294.31
478.783	269.31
479.002	272.31
479.22	274.31
479.439	324.31
479.658	241.31
479.876	247.31
480.095	281.31
480.313	289.31
480.532	280.31
480.751	272.31
480.969	264.31
481.188	277.31
481.406	270.31
481.624	292.31
481.843	261.31
482.061	244.31
482.28	276.31
482.498	321.31
482.717	329.31
482.935	272.31
483.153	259.31
483.372	256.31
483.59	247.31
483.808	260.31
484.027	244.31
484.245	245.31
484.463	236.31
484.681	244.31
484.9	271.31
485.118	276.31
485.336	256.31
485.554	233.31
485.772	270.31
485.99	256.31
486.209	280.31
486.427	277.31
486.645	265.31
486.863	254.31
487.081	270.31
487.299	293.31
487.517	268.31
487.735	263.31
487.953	278.31
488.171	264.31
488.389	255.31
488.607	254.31
488.825	252.31
489.043	270.31
489.261	288.31
489.479	280.31
489.696	274.31
489.914	266.31
490.132	270.31
490.35	257.31
490.568	248.31
490.786	254.31
491.003	257.31
491.221	252.31
491.439	254.31
491.657	246.31
491.874	258.31
492.092	282.31
492.31	337.31
492.527	327.31
492.745	288.31
492.963	274.31
493.18	266.31
493.398	291.31
493.615	278.31
493.833	265.31
494.05	261.31
494.268	275.31
494.485	260.31
494.703	273.31
494.92	265.31
495.138	279.31
495.355	260.31
495.573	265.31
495.79	285.31
496.008	354.31
496.225	296.31
496.442	283.31
496.66	284.31
496.877	289.31
497.094	299.31
497.312	279.31
497.529	299.31
497.746	301.31
497.963	296.31
498.181	313.31
498.398	350.31
498.615	320.31
498.832	354.31
499.049	360.31
499.267	359.31
499.484	380.31
499.701	400.31
499.918	437.31
500.135	482.31
500.352	510.31
500.569	555.31
500.786	532.31
501.003	505.31
501.22	485.31
501.437	419.31
501.654	393.31
501.871	344.31
502.088	368.31
502.305	334.31
502.522	339.31
