Data from NickelSpatula.Lamp.E5.5.P2_HRD10591_11-53-07-550.txt Node
Date: Tue Jul 23 11:53:07 EDT 2019
User: cochatt
Spectrometer: HR+D1059
Trigger mode: 1
Integration Time (sec): 1.000000E-1
Scans to average: 1
Electric dark correction enabled: true
Nonlinearity correction enabled: false
Boxcar width: 0
XAxis mode: Wavelengths
Number of Pixels in Spectrum: 2048
>>>>>Begin Spectral Data<<<<<
223.165	-19.81
223.4	-19.81
223.635	-19.81
223.869	-22.81
224.104	-26.81
224.338	-13.81
224.573	-11.81
224.808	-12.81
225.042	-11.81
225.277	-6.81
225.511	7.19
225.746	3.19
225.98	5.19
226.215	13.19
226.449	13.19
226.683	25.19
226.918	29.19
227.152	30.19
227.387	44.19
227.621	44.19
227.856	43.19
228.09	46.19
228.324	49.19
228.559	68.19
228.793	70.19
229.027	73.19
229.262	80.19
229.496	104.19
229.73	85.19
229.964	79.19
230.199	102.19
230.433	107.19
230.667	108.19
230.901	96.19
231.136	94.19
231.37	100.19
231.604	100.19
231.838	97.19
232.072	109.19
232.306	118.19
232.541	116.19
232.775	103.19
233.009	117.19
233.243	122.19
233.477	121.19
233.711	136.19
233.945	138.19
234.179	116.19
234.413	129.19
234.647	143.19
234.881	151.19
235.115	135.19
235.349	145.19
235.583	142.19
235.817	138.19
236.051	142.19
236.285	146.19
236.519	150.19
236.753	144.19
236.987	134.19
237.221	148.19
237.455	141.19
237.689	154.19
237.922	165.19
238.156	156.19
238.39	170.19
238.624	178.19
238.858	170.19
239.091	164.19
239.325	146.19
239.559	141.19
239.793	145.19
240.027	176.19
240.26	169.19
240.494	185.19
240.728	191.19
240.961	168.19
241.195	196.19
241.429	173.19
241.662	188.19
241.896	158.19
242.13	144.19
242.363	142.19
242.597	153.19
242.83	182.19
243.064	148.19
243.298	184.19
243.531	172.19
243.765	183.19
243.998	182.19
244.232	176.19
244.465	168.19
244.699	176.19
244.932	201.19
245.166	175.19
245.399	156.19
245.633	164.19
245.866	165.19
246.099	172.19
246.333	186.19
246.566	219.19
246.8	210.19
247.033	204.19
247.266	202.19
247.5	178.19
247.733	177.19
247.966	174.19
248.2	194.19
248.433	194.19
248.666	208.19
248.899	211.19
249.133	227.19
249.366	243.19
249.599	247.19
249.832	224.19
250.066	207.19
250.299	217.19
250.532	224.19
250.765	218.19
250.998	209.19
251.231	188.19
251.465	216.19
251.698	229.19
251.931	213.19
252.164	211.19
252.397	234.19
252.63	241.19
252.863	292.19
253.096	289.19
253.329	304.19
253.562	268.19
253.795	308.19
254.028	333.19
254.261	323.19
254.494	292.19
254.727	284.19
254.96	267.19
255.193	281.19
255.426	282.19
255.659	221.19
255.892	214.19
256.124	225.19
256.357	246.19
256.59	300.19
256.823	278.19
257.056	237.19
257.289	229.19
257.521	238.19
257.754	278.19
257.987	293.19
258.22	277.19
258.452	236.19
258.685	276.19
258.918	299.19
259.151	320.19
259.383	322.19
259.616	356.19
259.849	352.19
260.081	406.19
260.314	410.19
260.547	342.19
260.779	366.19
261.012	417.19
261.244	362.19
261.477	372.19
261.71	364.19
261.942	304.19
262.175	320.19
262.407	297.19
262.64	294.19
262.872	350.19
263.105	373.19
263.337	380.19
263.57	363.19
263.802	251.19
264.035	217.19
264.267	233.19
264.499	207.19
264.732	171.19
264.964	180.19
265.197	194.19
265.429	203.19
265.661	203.19
265.894	235.19
266.126	226.19
266.358	271.19
266.591	301.19
266.823	358.19
267.055	335.19
267.287	301.19
267.52	299.19
267.752	323.19
267.984	353.19
268.216	324.19
268.448	285.19
268.681	269.19
268.913	281.19
269.145	306.19
269.377	314.19
269.609	323.19
269.841	304.19
270.073	320.19
270.306	334.19
270.538	334.19
270.77	331.19
271.002	325.19
271.234	344.19
271.466	351.19
271.698	341.19
271.93	322.19
272.162	304.19
272.394	319.19
272.626	310.19
272.858	333.19
273.09	337.19
273.322	294.19
273.553	282.19
273.785	330.19
274.017	414.19
274.249	496.19
274.481	523.19
274.713	569.19
274.945	631.19
275.176	669.19
275.408	582.19
275.64	569.19
275.872	552.19
276.104	474.19
276.335	420.19
276.567	440.19
276.799	416.19
277.031	460.19
277.262	378.19
277.494	283.19
277.726	292.19
277.957	322.19
278.189	341.19
278.421	349.19
278.652	324.19
278.884	300.19
279.115	293.19
279.347	274.19
279.579	288.19
279.81	288.19
280.042	294.19
280.273	302.19
280.505	267.19
280.736	239.19
280.968	241.19
281.199	266.19
281.431	292.19
281.662	294.19
281.894	263.19
282.125	290.19
282.356	291.19
282.588	316.19
282.819	285.19
283.051	303.19
283.282	373.19
283.513	418.19
283.745	465.19
283.976	462.19
284.207	420.19
284.439	465.19
284.67	450.19
284.901	400.19
285.132	406.19
285.364	453.19
285.595	418.19
285.826	445.19
286.057	431.19
286.288	430.19
286.52	426.19
286.751	448.19
286.982	434.19
287.213	401.19
287.444	379.19
287.675	398.19
287.906	414.19
288.138	350.19
288.369	316.19
288.6	285.19
288.831	309.19
289.062	344.19
289.293	376.19
289.524	358.19
289.755	364.19
289.986	361.19
290.217	349.19
290.448	257.19
290.679	243.19
290.91	231.19
291.141	226.19
291.371	233.19
291.602	241.19
291.833	249.19
292.064	236.19
292.295	273.19
292.526	316.19
292.757	318.19
292.987	339.19
293.218	344.19
293.449	362.19
293.68	387.19
293.91	375.19
294.141	384.19
294.372	370.19
294.603	335.19
294.833	361.19
295.064	434.19
295.295	415.19
295.525	307.19
295.756	272.19
295.987	226.19
296.217	250.19
296.448	250.19
296.679	257.19
296.909	278.19
297.14	291.19
297.37	315.19
297.601	297.19
297.831	276.19
298.062	288.19
298.292	340.19
298.523	336.19
298.753	390.19
298.984	340.19
299.214	296.19
299.445	250.19
299.675	257.19
299.905	232.19
300.136	238.19
300.366	259.19
300.597	270.19
300.827	260.19
301.057	224.19
301.288	241.19
301.518	258.19
301.748	262.19
301.979	306.19
302.209	308.19
302.439	346.19
302.669	289.19
302.9	295.19
303.13	273.19
303.36	268.19
303.59	256.19
303.82	267.19
304.051	277.19
304.281	308.19
304.511	306.19
304.741	262.19
304.971	282.19
305.201	300.19
305.431	280.19
305.661	270.19
305.891	244.19
306.121	260.19
306.352	234.19
306.582	226.19
306.812	205.19
307.042	217.19
307.272	206.19
307.502	201.19
307.731	215.19
307.961	218.19
308.191	199.19
308.421	198.19
308.651	196.19
308.881	199.19
309.111	183.19
309.341	199.19
309.571	210.19
309.8	218.19
310.03	214.19
310.26	229.19
310.49	233.19
310.72	204.19
310.949	204.19
311.179	220.19
311.409	221.19
311.639	247.19
311.868	307.19
312.098	390.19
312.328	423.19
312.557	417.19
312.787	402.19
313.017	345.19
313.246	373.19
313.476	434.19
313.706	350.19
313.935	300.19
314.165	260.19
314.394	227.19
314.624	219.19
314.853	234.19
315.083	247.19
315.312	241.19
315.542	225.19
315.771	226.19
316.001	213.19
316.23	204.19
316.46	215.19
316.689	210.19
316.919	204.19
317.148	212.19
317.377	201.19
317.607	217.19
317.836	213.19
318.065	242.19
318.295	286.19
318.524	256.19
318.753	229.19
318.983	226.19
319.212	214.19
319.441	217.19
319.67	259.19
319.9	274.19
320.129	258.19
320.358	217.19
320.587	217.19
320.816	230.19
321.046	249.19
321.275	285.19
321.504	269.19
321.733	266.19
321.962	256.19
322.191	259.19
322.42	236.19
322.649	240.19
322.878	270.19
323.108	272.19
323.337	246.19
323.566	242.19
323.795	242.19
324.024	220.19
324.253	216.19
324.482	233.19
324.71	252.19
324.939	270.19
325.168	260.19
325.397	229.19
325.626	214.19
325.855	231.19
326.084	216.19
326.313	219.19
326.542	219.19
326.77	214.19
326.999	220.19
327.228	217.19
327.457	248.19
327.686	248.19
327.914	215.19
328.143	212.19
328.372	204.19
328.6	220.19
328.829	215.19
329.058	208.19
329.287	214.19
329.515	217.19
329.744	222.19
329.972	209.19
330.201	204.19
330.43	196.19
330.658	220.19
330.887	242.19
331.115	254.19
331.344	241.19
331.572	228.19
331.801	220.19
332.03	210.19
332.258	221.19
332.486	217.19
332.715	244.19
332.943	228.19
333.172	227.19
333.4	232.19
333.629	269.19
333.857	276.19
334.085	286.19
334.314	262.19
334.542	241.19
334.771	239.19
334.999	228.19
335.227	234.19
335.455	244.19
335.684	250.19
335.912	285.19
336.14	323.19
336.369	286.19
336.597	277.19
336.825	315.19
337.053	350.19
337.281	278.19
337.51	234.19
337.738	233.19
337.966	221.19
338.194	261.19
338.422	278.19
338.65	216.19
338.878	210.19
339.106	221.19
339.334	253.19
339.562	280.19
339.79	242.19
340.018	214.19
340.246	246.19
340.474	261.19
340.702	266.19
340.93	286.19
341.158	298.19
341.386	238.19
341.614	257.19
341.842	258.19
342.07	274.19
342.298	297.19
342.526	298.19
342.754	269.19
342.981	269.19
343.209	247.19
343.437	248.19
343.665	276.19
343.893	271.19
344.12	329.19
344.348	373.19
344.576	317.19
344.804	274.19
345.031	249.19
345.259	257.19
345.487	235.19
345.714	226.19
345.942	268.19
346.17	284.19
346.397	277.19
346.625	228.19
346.853	238.19
347.08	216.19
347.308	241.19
347.535	246.19
347.763	293.19
347.99	245.19
348.218	232.19
348.445	238.19
348.673	236.19
348.9	232.19
349.128	246.19
349.355	249.19
349.583	249.19
349.81	237.19
350.037	226.19
350.265	195.19
350.492	207.19
350.72	190.19
350.947	193.19
351.174	227.19
351.402	231.19
351.629	214.19
351.856	220.19
352.083	216.19
352.311	215.19
352.538	240.19
352.765	269.19
352.992	248.19
353.22	219.19
353.447	235.19
353.674	228.19
353.901	195.19
354.128	226.19
354.355	233.19
354.583	230.19
354.81	232.19
355.037	241.19
355.264	226.19
355.491	228.19
355.718	269.19
355.945	256.19
356.172	248.19
356.399	241.19
356.626	289.19
356.853	331.19
357.08	353.19
357.307	378.19
357.534	306.19
357.761	321.19
357.988	369.19
358.215	424.19
358.441	378.19
358.668	343.19
358.895	341.19
359.122	255.19
359.349	270.19
359.576	302.19
359.802	255.19
360.029	211.19
360.256	245.19
360.483	277.19
360.709	351.19
360.936	339.19
361.163	312.19
361.39	281.19
361.616	249.19
361.843	268.19
362.07	317.19
362.296	311.19
362.523	248.19
362.749	211.19
362.976	214.19
363.203	259.19
363.429	284.19
363.656	266.19
363.882	230.19
364.109	233.19
364.335	250.19
364.562	223.19
364.788	245.19
365.015	296.19
365.241	265.19
365.468	240.19
365.694	211.19
365.92	196.19
366.147	200.19
366.373	194.19
366.599	203.19
366.826	192.19
367.052	196.19
367.278	220.19
367.505	212.19
367.731	221.19
367.957	242.19
368.184	251.19
368.41	227.19
368.636	222.19
368.862	245.19
369.089	240.19
369.315	216.19
369.541	218.19
369.767	202.19
369.993	207.19
370.219	178.19
370.445	213.19
370.672	242.19
370.898	241.19
371.124	246.19
371.35	234.19
371.576	225.19
371.802	226.19
372.028	243.19
372.254	282.19
372.48	264.19
372.706	227.19
372.932	264.19
373.158	250.19
373.384	308.19
373.61	382.19
373.835	399.19
374.061	313.19
374.287	266.19
374.513	290.19
374.739	361.19
374.965	357.19
375.191	372.19
375.416	281.19
375.642	242.19
375.868	268.19
376.094	306.19
376.319	261.19
376.545	282.19
376.771	290.19
376.997	263.19
377.222	207.19
377.448	200.19
377.674	200.19
377.899	187.19
378.125	200.19
378.35	195.19
378.576	197.19
378.802	197.19
379.027	237.19
379.253	222.19
379.478	227.19
379.704	246.19
379.929	260.19
380.155	248.19
380.38	227.19
380.606	240.19
380.831	256.19
381.057	265.19
381.282	222.19
381.507	263.19
381.733	308.19
381.958	326.19
382.184	353.19
382.409	353.19
382.634	365.19
382.86	360.19
383.085	311.19
383.31	254.19
383.535	301.19
383.761	285.19
383.986	276.19
384.211	312.19
384.436	312.19
384.662	261.19
384.887	246.19
385.112	267.19
385.337	250.19
385.562	232.19
385.787	256.19
386.013	305.19
386.238	300.19
386.463	243.19
386.688	240.19
386.913	232.19
387.138	219.19
387.363	236.19
387.588	237.19
387.813	234.19
388.038	283.19
388.263	246.19
388.488	238.19
388.713	252.19
388.938	282.19
389.163	245.19
389.387	219.19
389.612	234.19
389.837	229.19
390.062	231.19
390.287	236.19
390.512	248.19
390.736	224.19
390.961	200.19
391.186	221.19
391.411	231.19
391.636	248.19
391.86	243.19
392.085	227.19
392.31	250.19
392.534	251.19
392.759	234.19
392.984	261.19
393.208	243.19
393.433	215.19
393.658	215.19
393.882	204.19
394.107	211.19
394.331	195.19
394.556	213.19
394.78	206.19
395.005	236.19
395.229	224.19
395.454	227.19
395.678	232.19
395.903	221.19
396.127	242.19
396.352	233.19
396.576	244.19
396.801	231.19
397.025	245.19
397.249	263.19
397.474	223.19
397.698	232.19
397.922	236.19
398.147	228.19
398.371	226.19
398.595	243.19
398.82	237.19
399.044	242.19
399.268	278.19
399.492	273.19
399.717	288.19
399.941	282.19
400.165	277.19
400.389	247.19
400.613	247.19
400.837	262.19
401.062	226.19
401.286	218.19
401.51	228.19
401.734	235.19
401.958	217.19
402.182	220.19
402.406	223.19
402.63	248.19
402.854	242.19
403.078	294.19
403.302	347.19
403.526	374.19
403.75	336.19
403.974	278.19
404.198	270.19
404.422	306.19
404.645	337.19
404.869	361.19
405.093	290.19
405.317	244.19
405.541	257.19
405.765	269.19
405.988	263.19
406.212	274.19
406.436	284.19
406.66	314.19
406.883	277.19
407.107	274.19
407.331	329.19
407.555	306.19
407.778	286.19
408.002	264.19
408.226	259.19
408.449	276.19
408.673	246.19
408.896	250.19
409.12	236.19
409.344	268.19
409.567	225.19
409.791	245.19
410.014	241.19
410.238	245.19
410.461	231.19
410.685	228.19
410.908	242.19
411.132	244.19
411.355	240.19
411.578	251.19
411.802	228.19
412.025	234.19
412.249	242.19
412.472	234.19
412.695	247.19
412.919	238.19
413.142	245.19
413.365	250.19
413.589	265.19
413.812	241.19
414.035	234.19
414.258	237.19
414.482	256.19
414.705	256.19
414.928	246.19
415.151	232.19
415.374	221.19
415.597	230.19
415.821	230.19
416.044	237.19
416.267	234.19
416.49	227.19
416.713	236.19
416.936	221.19
417.159	223.19
417.382	217.19
417.605	220.19
417.828	236.19
418.051	248.19
418.274	239.19
418.497	238.19
418.72	242.19
418.943	246.19
419.166	242.19
419.389	274.19
419.611	258.19
419.834	271.19
420.057	278.19
420.28	273.19
420.503	233.19
420.726	241.19
420.948	251.19
421.171	243.19
421.394	236.19
421.617	227.19
421.839	232.19
422.062	236.19
422.285	226.19
422.507	236.19
422.73	235.19
422.953	248.19
423.175	240.19
423.398	249.19
423.621	263.19
423.843	283.19
424.066	262.19
424.288	221.19
424.511	241.19
424.733	246.19
424.956	275.19
425.178	285.19
425.401	309.19
425.623	354.19
425.846	302.19
426.068	266.19
426.291	273.19
426.513	246.19
426.735	270.19
426.958	272.19
427.18	283.19
427.402	326.19
427.625	387.19
427.847	297.19
428.069	226.19
428.292	242.19
428.514	231.19
428.736	220.19
428.958	249.19
429.181	301.19
429.403	261.19
429.625	233.19
429.847	240.19
430.069	226.19
430.292	222.19
430.514	234.19
430.736	226.19
430.958	267.19
431.18	272.19
431.402	235.19
431.624	206.19
431.846	209.19
432.068	214.19
432.29	226.19
432.512	221.19
432.734	298.19
432.956	262.19
433.178	235.19
433.4	216.19
433.622	228.19
433.844	224.19
434.066	252.19
434.287	244.19
434.509	241.19
434.731	254.19
434.953	232.19
435.175	254.19
435.397	280.19
435.618	246.19
435.84	223.19
436.062	237.19
436.284	231.19
436.505	219.19
436.727	204.19
436.949	217.19
437.17	221.19
437.392	225.19
437.614	216.19
437.835	206.19
438.057	224.19
438.278	237.19
438.5	339.19
438.721	330.19
438.943	247.19
439.165	213.19
439.386	204.19
439.608	219.19
439.829	195.19
440.05	211.19
440.272	243.19
440.493	225.19
440.715	292.19
440.936	248.19
441.158	229.19
441.379	253.19
441.6	272.19
441.822	280.19
442.043	253.19
442.264	217.19
442.486	230.19
442.707	230.19
442.928	229.19
443.149	237.19
443.371	243.19
443.592	232.19
443.813	237.19
444.034	232.19
444.255	237.19
444.476	248.19
444.698	243.19
444.919	268.19
445.14	374.19
445.361	321.19
445.582	258.19
445.803	229.19
446.024	246.19
446.245	250.19
446.466	244.19
446.687	230.19
446.908	226.19
447.129	216.19
447.35	203.19
447.571	204.19
447.792	203.19
448.013	200.19
448.234	217.19
448.455	203.19
448.675	212.19
448.896	240.19
449.117	227.19
449.338	212.19
449.559	214.19
449.779	229.19
450	222.19
450.221	240.19
450.442	226.19
450.662	222.19
450.883	213.19
451.104	224.19
451.324	217.19
451.545	233.19
451.766	217.19
451.986	223.19
452.207	214.19
452.428	206.19
452.648	210.19
452.869	216.19
453.089	216.19
453.31	204.19
453.53	210.19
453.751	205.19
453.971	213.19
454.192	216.19
454.412	234.19
454.633	217.19
454.853	218.19
455.073	200.19
455.294	198.19
455.514	200.19
455.734	217.19
455.955	210.19
456.175	224.19
456.395	203.19
456.616	204.19
456.836	209.19
457.056	199.19
457.276	197.19
457.497	184.19
457.717	206.19
457.937	180.19
458.157	192.19
458.377	195.19
458.598	208.19
458.818	196.19
459.038	218.19
459.258	218.19
459.478	219.19
459.698	251.19
459.918	245.19
460.138	244.19
460.358	235.19
460.578	228.19
460.798	230.19
461.018	261.19
461.238	240.19
461.458	237.19
461.678	242.19
461.898	243.19
462.118	257.19
462.338	263.19
462.558	266.19
462.777	269.19
462.997	286.19
463.217	270.19
463.437	298.19
463.657	269.19
463.876	255.19
464.096	260.19
464.316	279.19
464.536	273.19
464.755	284.19
464.975	257.19
465.195	267.19
465.414	261.19
465.634	256.19
465.854	243.19
466.073	225.19
466.293	228.19
466.512	247.19
466.732	247.19
466.951	283.19
467.171	232.19
467.391	225.19
467.61	246.19
467.829	237.19
468.049	248.19
468.268	226.19
468.488	222.19
468.707	243.19
468.927	276.19
469.146	280.19
469.365	260.19
469.585	238.19
469.804	268.19
470.023	266.19
470.243	260.19
470.462	256.19
470.681	244.19
470.901	245.19
471.12	255.19
471.339	237.19
471.558	233.19
471.777	234.19
471.997	245.19
472.216	276.19
472.435	267.19
472.654	248.19
472.873	254.19
473.092	257.19
473.311	254.19
473.53	246.19
473.749	235.19
473.968	249.19
474.187	227.19
474.406	233.19
474.625	234.19
474.844	228.19
475.063	258.19
475.282	258.19
475.501	254.19
475.72	277.19
475.939	290.19
476.158	272.19
476.377	300.19
476.596	330.19
476.814	340.19
477.033	287.19
477.252	241.19
477.471	242.19
477.69	241.19
477.908	281.19
478.127	278.19
478.346	259.19
478.564	290.19
478.783	290.19
479.002	269.19
479.22	307.19
479.439	344.19
479.658	308.19
479.876	289.19
480.095	290.19
480.313	320.19
480.532	272.19
480.751	262.19
480.969	286.19
481.188	329.19
481.406	292.19
481.624	312.19
481.843	288.19
482.061	270.19
482.28	284.19
482.498	314.19
482.717	340.19
482.935	301.19
483.153	262.19
483.372	238.19
483.59	256.19
483.808	259.19
484.027	277.19
484.245	240.19
484.463	235.19
484.681	262.19
484.9	268.19
485.118	296.19
485.336	263.19
485.554	262.19
485.772	281.19
485.99	288.19
486.209	312.19
486.427	292.19
486.645	300.19
486.863	285.19
487.081	306.19
487.299	320.19
487.517	308.19
487.735	268.19
487.953	299.19
488.171	308.19
488.389	284.19
488.607	260.19
488.825	269.19
489.043	305.19
489.261	333.19
489.479	361.19
489.696	300.19
489.914	281.19
490.132	271.19
490.35	277.19
490.568	275.19
490.786	288.19
491.003	272.19
491.221	276.19
491.439	265.19
491.657	270.19
491.874	286.19
492.092	321.19
492.31	360.19
492.527	363.19
492.745	345.19
492.963	292.19
493.18	299.19
493.398	292.19
493.615	286.19
493.833	299.19
494.05	292.19
494.268	285.19
494.485	296.19
494.703	283.19
494.92	308.19
495.138	285.19
495.355	272.19
495.573	292.19
495.79	333.19
496.008	379.19
496.225	330.19
496.442	296.19
496.66	302.19
496.877	307.19
497.094	314.19
497.312	309.19
497.529	313.19
497.746	299.19
497.963	325.19
498.181	343.19
498.398	361.19
498.615	364.19
498.832	388.19
499.049	411.19
499.267	371.19
499.484	398.19
499.701	413.19
499.918	448.19
500.135	489.19
500.352	504.19
500.569	566.19
500.786	566.19
501.003	537.19
501.22	468.19
501.437	409.19
501.654	392.19
501.871	361.19
502.088	369.19
502.305	357.19
