Data from NickelSpatula.Lamp.E5.5.P2_HRD10591_11-53-31-549.txt Node
Date: Tue Jul 23 11:53:31 EDT 2019
User: cochatt
Spectrometer: HR+D1059
Trigger mode: 1
Integration Time (sec): 1.000000E-1
Scans to average: 1
Electric dark correction enabled: true
Nonlinearity correction enabled: false
Boxcar width: 0
XAxis mode: Wavelengths
Number of Pixels in Spectrum: 2048
>>>>>Begin Spectral Data<<<<<
223.165	-17.88
223.4	-17.88
223.635	-17.88
223.869	-20.88
224.104	-27.88
224.338	-12.88
224.573	-0.88
224.808	-1.88
225.042	-16.88
225.277	3.12
225.511	0.12
225.746	6.12
225.98	13.12
226.215	-1.88
226.449	26.12
226.683	14.12
226.918	6.12
227.152	32.12
227.387	33.12
227.621	56.12
227.856	43.12
228.09	35.12
228.324	39.12
228.559	38.12
228.793	69.12
229.027	75.12
229.262	75.12
229.496	83.12
229.73	85.12
229.964	106.12
230.199	94.12
230.433	120.12
230.667	102.12
230.901	90.12
231.136	117.12
231.37	107.12
231.604	100.12
231.838	102.12
232.072	103.12
232.306	116.12
232.541	116.12
232.775	108.12
233.009	126.12
233.243	113.12
233.477	134.12
233.711	130.12
233.945	118.12
234.179	134.12
234.413	124.12
234.647	136.12
234.881	143.12
235.115	128.12
235.349	125.12
235.583	128.12
235.817	130.12
236.051	125.12
236.285	119.12
236.519	148.12
236.753	129.12
236.987	134.12
237.221	127.12
237.455	137.12
237.689	139.12
237.922	151.12
238.156	150.12
238.39	159.12
238.624	180.12
238.858	170.12
239.091	158.12
239.325	150.12
239.559	146.12
239.793	160.12
240.027	166.12
240.26	172.12
240.494	171.12
240.728	175.12
240.961	182.12
241.195	178.12
241.429	166.12
241.662	156.12
241.896	147.12
242.13	142.12
242.363	134.12
242.597	136.12
242.83	145.12
243.064	154.12
243.298	158.12
243.531	181.12
243.765	162.12
243.998	178.12
244.232	167.12
244.465	164.12
244.699	151.12
244.932	182.12
245.166	178.12
245.399	153.12
245.633	159.12
245.866	153.12
246.099	165.12
246.333	190.12
246.566	190.12
246.8	201.12
247.033	204.12
247.266	179.12
247.5	171.12
247.733	182.12
247.966	168.12
248.2	180.12
248.433	194.12
248.666	199.12
248.899	211.12
249.133	209.12
249.366	261.12
249.599	252.12
249.832	239.12
250.066	199.12
250.299	231.12
250.532	213.12
250.765	191.12
250.998	204.12
251.231	174.12
251.465	189.12
251.698	210.12
251.931	202.12
252.164	204.12
252.397	217.12
252.63	250.12
252.863	254.12
253.096	299.12
253.329	278.12
253.562	267.12
253.795	270.12
254.028	307.12
254.261	314.12
254.494	280.12
254.727	275.12
254.96	254.12
255.193	272.12
255.426	256.12
255.659	211.12
255.892	190.12
256.124	199.12
256.357	263.12
256.59	283.12
256.823	274.12
257.056	222.12
257.289	224.12
257.521	226.12
257.754	284.12
257.987	309.12
258.22	269.12
258.452	244.12
258.685	260.12
258.918	286.12
259.151	299.12
259.383	321.12
259.616	328.12
259.849	358.12
260.081	358.12
260.314	411.12
260.547	342.12
260.779	334.12
261.012	389.12
261.244	372.12
261.477	361.12
261.71	327.12
261.942	292.12
262.175	302.12
262.407	278.12
262.64	287.12
262.872	325.12
263.105	362.12
263.337	378.12
263.57	340.12
263.802	249.12
264.035	219.12
264.267	223.12
264.499	196.12
264.732	181.12
264.964	183.12
265.197	196.12
265.429	196.12
265.661	199.12
265.894	211.12
266.126	212.12
266.358	244.12
266.591	283.12
266.823	348.12
267.055	344.12
267.287	300.12
267.52	298.12
267.752	316.12
267.984	292.12
268.216	307.12
268.448	285.12
268.681	269.12
268.913	288.12
269.145	292.12
269.377	302.12
269.609	306.12
269.841	293.12
270.073	294.12
270.306	325.12
270.538	321.12
270.77	332.12
271.002	323.12
271.234	339.12
271.466	329.12
271.698	316.12
271.93	303.12
272.162	296.12
272.394	287.12
272.626	299.12
272.858	300.12
273.09	347.12
273.322	291.12
273.553	260.12
273.785	309.12
274.017	398.12
274.249	482.12
274.481	509.12
274.713	534.12
274.945	600.12
275.176	631.12
275.408	568.12
275.64	520.12
275.872	540.12
276.104	453.12
276.335	389.12
276.567	387.12
276.799	436.12
277.031	443.12
277.262	348.12
277.494	279.12
277.726	261.12
277.957	285.12
278.189	312.12
278.421	321.12
278.652	321.12
278.884	309.12
279.115	281.12
279.347	280.12
279.579	283.12
279.81	274.12
280.042	278.12
280.273	297.12
280.505	275.12
280.736	247.12
280.968	226.12
281.199	247.12
281.431	279.12
281.662	284.12
281.894	277.12
282.125	281.12
282.356	302.12
282.588	304.12
282.819	267.12
283.051	300.12
283.282	348.12
283.513	422.12
283.745	455.12
283.976	463.12
284.207	414.12
284.439	437.12
284.67	427.12
284.901	384.12
285.132	415.12
285.364	411.12
285.595	383.12
285.826	424.12
286.057	449.12
286.288	398.12
286.52	413.12
286.751	447.12
286.982	452.12
287.213	380.12
287.444	393.12
287.675	391.12
287.906	386.12
288.138	344.12
288.369	310.12
288.6	307.12
288.831	299.12
289.062	344.12
289.293	392.12
289.524	382.12
289.755	343.12
289.986	357.12
290.217	318.12
290.448	265.12
290.679	227.12
290.91	234.12
291.141	233.12
291.371	244.12
291.602	238.12
291.833	239.12
292.064	242.12
292.295	283.12
292.526	299.12
292.757	306.12
292.987	329.12
293.218	348.12
293.449	354.12
293.68	391.12
293.91	356.12
294.141	390.12
294.372	362.12
294.603	327.12
294.833	353.12
295.064	434.12
295.295	392.12
295.525	322.12
295.756	265.12
295.987	251.12
296.217	230.12
296.448	247.12
296.679	261.12
296.909	267.12
297.14	273.12
297.37	319.12
297.601	287.12
297.831	267.12
298.062	263.12
298.292	319.12
298.523	339.12
298.753	380.12
298.984	339.12
299.214	278.12
299.445	264.12
299.675	258.12
299.905	255.12
300.136	249.12
300.366	274.12
300.597	261.12
300.827	230.12
301.057	225.12
301.288	249.12
301.518	252.12
301.748	275.12
301.979	302.12
302.209	323.12
302.439	319.12
302.669	278.12
302.9	288.12
303.13	279.12
303.36	259.12
303.59	274.12
303.82	259.12
304.051	285.12
304.281	306.12
304.511	295.12
304.741	263.12
304.971	287.12
305.201	299.12
305.431	296.12
305.661	238.12
305.891	243.12
306.121	257.12
306.352	235.12
306.582	207.12
306.812	227.12
307.042	191.12
307.272	207.12
307.502	202.12
307.731	205.12
307.961	219.12
308.191	203.12
308.421	209.12
308.651	201.12
308.881	189.12
309.111	193.12
309.341	212.12
309.571	220.12
309.8	223.12
310.03	224.12
310.26	236.12
310.49	209.12
310.72	194.12
310.949	226.12
311.179	207.12
311.409	212.12
311.639	244.12
311.868	302.12
312.098	378.12
312.328	401.12
312.557	384.12
312.787	408.12
313.017	349.12
313.246	362.12
313.476	400.12
313.706	343.12
313.935	286.12
314.165	236.12
314.394	224.12
314.624	241.12
314.853	228.12
315.083	247.12
315.312	225.12
315.542	209.12
315.771	214.12
316.001	204.12
316.23	195.12
316.46	213.12
316.689	218.12
316.919	199.12
317.148	206.12
317.377	213.12
317.607	204.12
317.836	230.12
318.065	248.12
318.295	260.12
318.524	256.12
318.753	235.12
318.983	212.12
319.212	219.12
319.441	212.12
319.67	252.12
319.9	265.12
320.129	258.12
320.358	232.12
320.587	211.12
320.816	216.12
321.046	257.12
321.275	294.12
321.504	275.12
321.733	267.12
321.962	243.12
322.191	231.12
322.42	255.12
322.649	265.12
322.878	266.12
323.108	272.12
323.337	233.12
323.566	219.12
323.795	247.12
324.024	242.12
324.253	215.12
324.482	217.12
324.71	238.12
324.939	265.12
325.168	254.12
325.397	230.12
325.626	211.12
325.855	200.12
326.084	227.12
326.313	212.12
326.542	220.12
326.77	207.12
326.999	239.12
327.228	228.12
327.457	243.12
327.686	235.12
327.914	215.12
328.143	200.12
328.372	196.12
328.6	220.12
328.829	211.12
329.058	207.12
329.287	204.12
329.515	214.12
329.744	212.12
329.972	201.12
330.201	198.12
330.43	197.12
330.658	223.12
330.887	240.12
331.115	228.12
331.344	222.12
331.572	230.12
331.801	208.12
332.03	218.12
332.258	204.12
332.486	228.12
332.715	258.12
332.943	238.12
333.172	240.12
333.4	243.12
333.629	254.12
333.857	274.12
334.085	265.12
334.314	261.12
334.542	237.12
334.771	231.12
334.999	236.12
335.227	234.12
335.455	241.12
335.684	251.12
335.912	285.12
336.14	304.12
336.369	274.12
336.597	273.12
336.825	319.12
337.053	325.12
337.281	275.12
337.51	226.12
337.738	222.12
337.966	232.12
338.194	235.12
338.422	250.12
338.65	222.12
338.878	208.12
339.106	223.12
339.334	236.12
339.562	254.12
339.79	240.12
340.018	219.12
340.246	241.12
340.474	256.12
340.702	256.12
340.93	267.12
341.158	284.12
341.386	241.12
341.614	239.12
341.842	248.12
342.07	248.12
342.298	281.12
342.526	293.12
342.754	260.12
342.981	224.12
343.209	227.12
343.437	253.12
343.665	262.12
343.893	282.12
344.12	318.12
344.348	342.12
344.576	339.12
344.804	249.12
345.031	242.12
345.259	223.12
345.487	243.12
345.714	214.12
345.942	257.12
346.17	280.12
346.397	272.12
346.625	224.12
346.853	225.12
347.08	225.12
347.308	246.12
347.535	254.12
347.763	264.12
347.99	248.12
348.218	222.12
348.445	233.12
348.673	238.12
348.9	214.12
349.128	254.12
349.355	256.12
349.583	254.12
349.81	257.12
350.037	218.12
350.265	203.12
350.492	202.12
350.72	200.12
350.947	207.12
351.174	203.12
351.402	214.12
351.629	222.12
351.856	220.12
352.083	210.12
352.311	221.12
352.538	256.12
352.765	272.12
352.992	235.12
353.22	228.12
353.447	244.12
353.674	226.12
353.901	238.12
354.128	218.12
354.355	215.12
354.583	221.12
354.81	241.12
355.037	235.12
355.264	221.12
355.491	241.12
355.718	265.12
355.945	260.12
356.172	276.12
356.399	257.12
356.626	299.12
356.853	331.12
357.08	351.12
357.307	371.12
357.534	287.12
357.761	295.12
357.988	367.12
358.215	423.12
358.441	388.12
358.668	321.12
358.895	314.12
359.122	275.12
359.349	273.12
359.576	306.12
359.802	248.12
360.029	219.12
360.256	233.12
360.483	282.12
360.709	332.12
360.936	348.12
361.163	321.12
361.39	268.12
361.616	241.12
361.843	276.12
362.07	302.12
362.296	282.12
362.523	243.12
362.749	203.12
362.976	231.12
363.203	269.12
363.429	294.12
363.656	238.12
363.882	243.12
364.109	225.12
364.335	223.12
364.562	212.12
364.788	245.12
365.015	297.12
365.241	262.12
365.468	231.12
365.694	213.12
365.92	201.12
366.147	194.12
366.373	182.12
366.599	199.12
366.826	201.12
367.052	195.12
367.278	200.12
367.505	209.12
367.731	228.12
367.957	230.12
368.184	225.12
368.41	239.12
368.636	208.12
368.862	253.12
369.089	242.12
369.315	217.12
369.541	214.12
369.767	223.12
369.993	210.12
370.219	206.12
370.445	201.12
370.672	227.12
370.898	264.12
371.124	247.12
371.35	236.12
371.576	219.12
371.802	231.12
372.028	271.12
372.254	295.12
372.48	274.12
372.706	232.12
372.932	259.12
373.158	261.12
373.384	285.12
373.61	368.12
373.835	378.12
374.061	290.12
374.287	266.12
374.513	289.12
374.739	364.12
374.965	353.12
375.191	345.12
375.416	280.12
375.642	238.12
375.868	266.12
376.094	297.12
376.319	261.12
376.545	282.12
376.771	295.12
376.997	265.12
377.222	224.12
377.448	193.12
377.674	185.12
377.899	200.12
378.125	204.12
378.35	191.12
378.576	181.12
378.802	222.12
379.027	219.12
379.253	217.12
379.478	225.12
379.704	253.12
379.929	239.12
380.155	215.12
380.38	209.12
380.606	250.12
380.831	265.12
381.057	233.12
381.282	227.12
381.507	261.12
381.733	313.12
381.958	311.12
382.184	331.12
382.409	344.12
382.634	370.12
382.86	356.12
383.085	316.12
383.31	268.12
383.535	280.12
383.761	288.12
383.986	252.12
384.211	270.12
384.436	292.12
384.662	265.12
384.887	249.12
385.112	270.12
385.337	263.12
385.562	254.12
385.787	276.12
386.013	290.12
386.238	286.12
386.463	259.12
386.688	232.12
386.913	224.12
387.138	218.12
387.363	222.12
387.588	225.12
387.813	230.12
388.038	266.12
388.263	252.12
388.488	228.12
388.713	269.12
388.938	272.12
389.163	243.12
389.387	233.12
389.612	224.12
389.837	231.12
390.062	245.12
390.287	227.12
390.512	258.12
390.736	218.12
390.961	213.12
391.186	219.12
391.411	219.12
391.636	215.12
391.86	226.12
392.085	242.12
392.31	236.12
392.534	244.12
392.759	236.12
392.984	233.12
393.208	244.12
393.433	223.12
393.658	210.12
393.882	202.12
394.107	212.12
394.331	204.12
394.556	215.12
394.78	206.12
395.005	215.12
395.229	232.12
395.454	216.12
395.678	225.12
395.903	237.12
396.127	227.12
396.352	230.12
396.576	228.12
396.801	238.12
397.025	273.12
397.249	261.12
397.474	237.12
397.698	234.12
397.922	248.12
398.147	227.12
398.371	235.12
398.595	232.12
398.82	222.12
399.044	249.12
399.268	268.12
399.492	277.12
399.717	304.12
399.941	278.12
400.165	302.12
400.389	244.12
400.613	251.12
400.837	246.12
401.062	223.12
401.286	224.12
401.51	230.12
401.734	232.12
401.958	229.12
402.182	222.12
402.406	244.12
402.63	250.12
402.854	271.12
403.078	295.12
403.302	360.12
403.526	386.12
403.75	336.12
403.974	280.12
404.198	305.12
404.422	302.12
404.645	343.12
404.869	343.12
405.093	288.12
405.317	265.12
405.541	267.12
405.765	246.12
405.988	253.12
406.212	271.12
406.436	307.12
406.66	318.12
406.883	272.12
407.107	276.12
407.331	336.12
407.555	325.12
407.778	279.12
408.002	269.12
408.226	259.12
408.449	281.12
408.673	274.12
408.896	251.12
409.12	244.12
409.344	261.12
409.567	257.12
409.791	260.12
410.014	244.12
410.238	242.12
410.461	234.12
410.685	230.12
410.908	228.12
411.132	228.12
411.355	242.12
411.578	248.12
411.802	251.12
412.025	245.12
412.249	232.12
412.472	248.12
412.695	218.12
412.919	246.12
413.142	248.12
413.365	268.12
413.589	252.12
413.812	231.12
414.035	234.12
414.258	239.12
414.482	258.12
414.705	245.12
414.928	228.12
415.151	218.12
415.374	224.12
415.597	245.12
415.821	215.12
416.044	235.12
416.267	236.12
416.49	212.12
416.713	228.12
416.936	226.12
417.159	218.12
417.382	216.12
417.605	239.12
417.828	263.12
418.051	224.12
418.274	242.12
418.497	254.12
418.72	242.12
418.943	231.12
419.166	255.12
419.389	250.12
419.611	261.12
419.834	247.12
420.057	260.12
420.28	256.12
420.503	261.12
420.726	236.12
420.948	222.12
421.171	235.12
421.394	235.12
421.617	232.12
421.839	228.12
422.062	240.12
422.285	236.12
422.507	235.12
422.73	233.12
422.953	244.12
423.175	255.12
423.398	243.12
423.621	242.12
423.843	274.12
424.066	240.12
424.288	253.12
424.511	234.12
424.733	231.12
424.956	242.12
425.178	273.12
425.401	291.12
425.623	345.12
425.846	295.12
426.068	243.12
426.291	239.12
426.513	241.12
426.735	251.12
426.958	268.12
427.18	263.12
427.402	332.12
427.625	357.12
427.847	312.12
428.069	244.12
428.292	228.12
428.514	238.12
428.736	240.12
428.958	268.12
429.181	296.12
429.403	242.12
429.625	238.12
429.847	208.12
430.069	212.12
430.292	228.12
430.514	213.12
430.736	234.12
430.958	286.12
431.18	256.12
431.402	213.12
431.624	221.12
431.846	215.12
432.068	204.12
432.29	215.12
432.512	245.12
432.734	296.12
432.956	269.12
433.178	237.12
433.4	222.12
433.622	218.12
433.844	234.12
434.066	251.12
434.287	254.12
434.509	239.12
434.731	244.12
434.953	224.12
435.175	247.12
435.397	264.12
435.618	247.12
435.84	225.12
436.062	219.12
436.284	215.12
436.505	219.12
436.727	216.12
436.949	209.12
437.17	217.12
437.392	226.12
437.614	217.12
437.835	215.12
438.057	222.12
438.278	239.12
438.5	300.12
438.721	322.12
438.943	244.12
439.165	216.12
439.386	196.12
439.608	224.12
439.829	212.12
440.05	218.12
440.272	231.12
440.493	236.12
440.715	290.12
440.936	267.12
441.158	233.12
441.379	225.12
441.6	261.12
441.822	262.12
442.043	240.12
442.264	220.12
442.486	224.12
442.707	226.12
442.928	231.12
443.149	236.12
443.371	236.12
443.592	258.12
443.813	251.12
444.034	230.12
444.255	263.12
444.476	256.12
444.698	261.12
444.919	273.12
445.14	350.12
445.361	287.12
445.582	255.12
445.803	259.12
446.024	242.12
446.245	250.12
446.466	239.12
446.687	230.12
446.908	218.12
447.129	229.12
447.35	207.12
447.571	218.12
447.792	212.12
448.013	213.12
448.234	227.12
448.455	218.12
448.675	199.12
448.896	207.12
449.117	208.12
449.338	232.12
449.559	213.12
449.779	223.12
450	243.12
450.221	234.12
450.442	217.12
450.662	218.12
450.883	204.12
451.104	230.12
451.324	219.12
451.545	208.12
451.766	218.12
451.986	214.12
452.207	204.12
452.428	216.12
452.648	221.12
452.869	236.12
453.089	228.12
453.31	230.12
453.53	197.12
453.751	209.12
453.971	210.12
454.192	226.12
454.412	225.12
454.633	193.12
454.853	212.12
455.073	205.12
455.294	192.12
455.514	189.12
455.734	207.12
455.955	215.12
456.175	210.12
456.395	208.12
456.616	213.12
456.836	186.12
457.056	201.12
457.276	202.12
457.497	198.12
457.717	196.12
457.937	205.12
458.157	198.12
458.377	214.12
458.598	199.12
458.818	205.12
459.038	218.12
459.258	230.12
459.478	208.12
459.698	226.12
459.918	258.12
460.138	242.12
460.358	257.12
460.578	243.12
460.798	255.12
461.018	247.12
461.238	212.12
461.458	226.12
461.678	239.12
461.898	268.12
462.118	243.12
462.338	254.12
462.558	278.12
462.777	258.12
462.997	277.12
463.217	301.12
463.437	303.12
463.657	271.12
463.876	262.12
464.096	267.12
464.316	267.12
464.536	262.12
464.755	280.12
464.975	272.12
465.195	261.12
465.414	277.12
465.634	246.12
465.854	242.12
466.073	254.12
466.293	231.12
466.512	239.12
466.732	248.12
466.951	259.12
467.171	226.12
467.391	223.12
467.61	216.12
467.829	231.12
468.049	224.12
468.268	225.12
468.488	220.12
468.707	220.12
468.927	267.12
469.146	281.12
469.365	255.12
469.585	237.12
469.804	255.12
470.023	267.12
470.243	233.12
470.462	238.12
470.681	254.12
470.901	239.12
471.12	233.12
471.339	239.12
471.558	240.12
471.777	226.12
471.997	270.12
472.216	275.12
472.435	259.12
472.654	254.12
472.873	251.12
473.092	254.12
473.311	258.12
473.53	226.12
473.749	229.12
473.968	242.12
474.187	225.12
474.406	232.12
474.625	235.12
474.844	239.12
475.063	254.12
475.282	259.12
475.501	258.12
475.72	273.12
475.939	279.12
476.158	267.12
476.377	294.12
476.596	329.12
476.814	329.12
477.033	283.12
477.252	266.12
477.471	228.12
477.69	224.12
477.908	274.12
478.127	279.12
478.346	263.12
478.564	288.12
478.783	264.12
479.002	284.12
479.22	296.12
479.439	352.12
479.658	299.12
479.876	256.12
480.095	286.12
480.313	310.12
480.532	287.12
480.751	266.12
480.969	272.12
481.188	307.12
481.406	292.12
481.624	299.12
481.843	254.12
482.061	267.12
482.28	295.12
482.498	335.12
482.717	328.12
482.935	278.12
483.153	274.12
483.372	259.12
483.59	283.12
483.808	276.12
484.027	268.12
484.245	259.12
484.463	244.12
484.681	254.12
484.9	262.12
485.118	258.12
485.336	287.12
485.554	266.12
485.772	265.12
485.99	269.12
486.209	308.12
486.427	284.12
486.645	294.12
486.863	289.12
487.081	292.12
487.299	321.12
487.517	323.12
487.735	288.12
487.953	298.12
488.171	296.12
488.389	273.12
488.607	249.12
488.825	278.12
489.043	274.12
489.261	327.12
489.479	335.12
489.696	302.12
489.914	279.12
490.132	258.12
490.35	267.12
490.568	265.12
490.786	268.12
491.003	271.12
491.221	283.12
491.439	268.12
491.657	270.12
491.874	280.12
492.092	316.12
492.31	355.12
492.527	366.12
492.745	340.12
492.963	302.12
493.18	286.12
493.398	303.12
493.615	287.12
493.833	290.12
494.05	270.12
494.268	276.12
494.485	284.12
494.703	273.12
494.92	260.12
495.138	276.12
495.355	279.12
495.573	294.12
495.79	310.12
496.008	377.12
496.225	312.12
496.442	294.12
496.66	319.12
496.877	327.12
497.094	310.12
497.312	296.12
497.529	304.12
497.746	283.12
497.963	304.12
498.181	340.12
498.398	358.12
498.615	366.12
498.832	388.12
499.049	389.12
499.267	378.12
499.484	384.12
499.701	396.12
499.918	456.12
500.135	481.12
500.352	509.12
500.569	519.12
500.786	567.12
501.003	538.12
501.22	465.12
501.437	455.12
501.654	410.12
501.871	378.12
502.088	379.12
502.305	349.12
502.522	357.12
