Data from NickelSpatula.Lamp.E5.5.P2_HRD10591_11-53-47-547.txt Node
Date: Tue Jul 23 11:53:47 EDT 2019
User: cochatt
Spectrometer: HR+D1059
Trigger mode: 1
Integration Time (sec): 1.000000E-1
Scans to average: 1
Electric dark correction enabled: true
Nonlinearity correction enabled: false
Boxcar width: 0
XAxis mode: Wavelengths
Number of Pixels in Spectrum: 2048
>>>>>Begin Spectral Data<<<<<
223.165	-11.5
223.4	-11.5
223.635	-11.5
223.869	-21.5
224.104	-20.5
224.338	-15.5
224.573	-13.5
224.808	-3.5
225.042	-8.5
225.277	-10.5
225.511	0.5
225.746	-0.5
225.98	25.5
226.215	12.5
226.449	1.5
226.683	12.5
226.918	31.5
227.152	21.5
227.387	38.5
227.621	40.5
227.856	44.5
228.09	49.5
228.324	54.5
228.559	55.5
228.793	56.5
229.027	83.5
229.262	78.5
229.496	81.5
229.73	86.5
229.964	96.5
230.199	106.5
230.433	91.5
230.667	97.5
230.901	106.5
231.136	102.5
231.37	95.5
231.604	101.5
231.838	107.5
232.072	105.5
232.306	109.5
232.541	111.5
232.775	104.5
233.009	111.5
233.243	127.5
233.477	123.5
233.711	129.5
233.945	123.5
234.179	131.5
234.413	122.5
234.647	123.5
234.881	146.5
235.115	156.5
235.349	134.5
235.583	124.5
235.817	132.5
236.051	138.5
236.285	135.5
236.519	133.5
236.753	134.5
236.987	123.5
237.221	132.5
237.455	131.5
237.689	130.5
237.922	145.5
238.156	136.5
238.39	167.5
238.624	160.5
238.858	161.5
239.091	151.5
239.325	145.5
239.559	153.5
239.793	155.5
240.027	197.5
240.26	171.5
240.494	161.5
240.728	157.5
240.961	176.5
241.195	183.5
241.429	178.5
241.662	171.5
241.896	151.5
242.13	130.5
242.363	135.5
242.597	137.5
242.83	162.5
243.064	154.5
243.298	161.5
243.531	175.5
243.765	190.5
243.998	170.5
244.232	162.5
244.465	175.5
244.699	163.5
244.932	180.5
245.166	187.5
245.399	161.5
245.633	159.5
245.866	154.5
246.099	184.5
246.333	191.5
246.566	188.5
246.8	199.5
247.033	185.5
247.266	178.5
247.5	183.5
247.733	174.5
247.966	192.5
248.2	164.5
248.433	212.5
248.666	206.5
248.899	199.5
249.133	223.5
249.366	221.5
249.599	251.5
249.832	220.5
250.066	204.5
250.299	210.5
250.532	195.5
250.765	203.5
250.998	187.5
251.231	190.5
251.465	194.5
251.698	194.5
251.931	196.5
252.164	208.5
252.397	227.5
252.63	252.5
252.863	280.5
253.096	256.5
253.329	261.5
253.562	273.5
253.795	268.5
254.028	319.5
254.261	335.5
254.494	303.5
254.727	274.5
254.96	265.5
255.193	268.5
255.426	275.5
255.659	213.5
255.892	194.5
256.124	204.5
256.357	230.5
256.59	282.5
256.823	277.5
257.056	235.5
257.289	221.5
257.521	232.5
257.754	279.5
257.987	324.5
258.22	287.5
258.452	254.5
258.685	264.5
258.918	308.5
259.151	288.5
259.383	301.5
259.616	359.5
259.849	367.5
260.081	386.5
260.314	401.5
260.547	337.5
260.779	334.5
261.012	390.5
261.244	371.5
261.477	363.5
261.71	338.5
261.942	301.5
262.175	300.5
262.407	296.5
262.64	292.5
262.872	336.5
263.105	364.5
263.337	384.5
263.57	341.5
263.802	227.5
264.035	236.5
264.267	229.5
264.499	200.5
264.732	196.5
264.964	184.5
265.197	203.5
265.429	198.5
265.661	219.5
265.894	210.5
266.126	242.5
266.358	236.5
266.591	284.5
266.823	338.5
267.055	318.5
267.287	285.5
267.52	299.5
267.752	296.5
267.984	328.5
268.216	319.5
268.448	279.5
268.681	277.5
268.913	281.5
269.145	297.5
269.377	289.5
269.609	307.5
269.841	292.5
270.073	315.5
270.306	298.5
270.538	327.5
270.77	331.5
271.002	336.5
271.234	327.5
271.466	343.5
271.698	323.5
271.93	301.5
272.162	310.5
272.394	304.5
272.626	313.5
272.858	314.5
273.09	317.5
273.322	300.5
273.553	268.5
273.785	330.5
274.017	397.5
274.249	492.5
274.481	482.5
274.713	566.5
274.945	655.5
275.176	643.5
275.408	581.5
275.64	530.5
275.872	561.5
276.104	459.5
276.335	393.5
276.567	401.5
276.799	405.5
277.031	456.5
277.262	355.5
277.494	273.5
277.726	279.5
277.957	298.5
278.189	335.5
278.421	316.5
278.652	327.5
278.884	308.5
279.115	289.5
279.347	283.5
279.579	268.5
279.81	298.5
280.042	296.5
280.273	300.5
280.505	265.5
280.736	246.5
280.968	246.5
281.199	252.5
281.431	311.5
281.662	285.5
281.894	282.5
282.125	287.5
282.356	305.5
282.588	299.5
282.819	263.5
283.051	301.5
283.282	323.5
283.513	417.5
283.745	435.5
283.976	441.5
284.207	426.5
284.439	441.5
284.67	423.5
284.901	375.5
285.132	421.5
285.364	406.5
285.595	396.5
285.826	401.5
286.057	425.5
286.288	399.5
286.52	410.5
286.751	422.5
286.982	451.5
287.213	381.5
287.444	386.5
287.675	385.5
287.906	374.5
288.138	329.5
288.369	327.5
288.6	285.5
288.831	315.5
289.062	342.5
289.293	359.5
289.524	362.5
289.755	347.5
289.986	360.5
290.217	329.5
290.448	258.5
290.679	236.5
290.91	219.5
291.141	204.5
291.371	247.5
291.602	239.5
291.833	226.5
292.064	247.5
292.295	266.5
292.526	292.5
292.757	322.5
292.987	333.5
293.218	371.5
293.449	361.5
293.68	387.5
293.91	379.5
294.141	360.5
294.372	341.5
294.603	308.5
294.833	344.5
295.064	409.5
295.295	403.5
295.525	302.5
295.756	258.5
295.987	236.5
296.217	244.5
296.448	225.5
296.679	237.5
296.909	261.5
297.14	298.5
297.37	309.5
297.601	306.5
297.831	258.5
298.062	285.5
298.292	317.5
298.523	325.5
298.753	369.5
298.984	353.5
299.214	296.5
299.445	256.5
299.675	249.5
299.905	236.5
300.136	247.5
300.366	244.5
300.597	255.5
300.827	248.5
301.057	227.5
301.288	225.5
301.518	254.5
301.748	287.5
301.979	312.5
302.209	307.5
302.439	301.5
302.669	277.5
302.9	287.5
303.13	268.5
303.36	267.5
303.59	254.5
303.82	258.5
304.051	253.5
304.281	297.5
304.511	320.5
304.741	273.5
304.971	283.5
305.201	291.5
305.431	284.5
305.661	238.5
305.891	246.5
306.121	247.5
306.352	222.5
306.582	209.5
306.812	217.5
307.042	207.5
307.272	191.5
307.502	208.5
307.731	208.5
307.961	219.5
308.191	201.5
308.421	215.5
308.651	188.5
308.881	189.5
309.111	196.5
309.341	199.5
309.571	220.5
309.8	227.5
310.03	231.5
310.26	223.5
310.49	211.5
310.72	211.5
310.949	214.5
311.179	204.5
311.409	213.5
311.639	231.5
311.868	311.5
312.098	365.5
312.328	410.5
312.557	387.5
312.787	403.5
313.017	339.5
313.246	375.5
313.476	411.5
313.706	339.5
313.935	291.5
314.165	243.5
314.394	235.5
314.624	232.5
314.853	219.5
315.083	223.5
315.312	226.5
315.542	220.5
315.771	218.5
316.001	209.5
316.23	209.5
316.46	183.5
316.689	197.5
316.919	213.5
317.148	202.5
317.377	208.5
317.607	213.5
317.836	224.5
318.065	222.5
318.295	273.5
318.524	251.5
318.753	243.5
318.983	225.5
319.212	220.5
319.441	209.5
319.67	248.5
319.9	273.5
320.129	249.5
320.358	224.5
320.587	231.5
320.816	218.5
321.046	228.5
321.275	268.5
321.504	261.5
321.733	270.5
321.962	265.5
322.191	231.5
322.42	223.5
322.649	244.5
322.878	275.5
323.108	259.5
323.337	229.5
323.566	247.5
323.795	248.5
324.024	228.5
324.253	224.5
324.482	225.5
324.71	233.5
324.939	271.5
325.168	261.5
325.397	235.5
325.626	223.5
325.855	243.5
326.084	218.5
326.313	216.5
326.542	208.5
326.77	214.5
326.999	218.5
327.228	229.5
327.457	231.5
327.686	236.5
327.914	229.5
328.143	212.5
328.372	205.5
328.6	211.5
328.829	212.5
329.058	184.5
329.287	203.5
329.515	206.5
329.744	220.5
329.972	193.5
330.201	195.5
330.43	198.5
330.658	214.5
330.887	246.5
331.115	217.5
331.344	226.5
331.572	222.5
331.801	232.5
332.03	219.5
332.258	200.5
332.486	218.5
332.715	224.5
332.943	231.5
333.172	220.5
333.4	227.5
333.629	246.5
333.857	266.5
334.085	268.5
334.314	258.5
334.542	256.5
334.771	228.5
334.999	239.5
335.227	224.5
335.455	222.5
335.684	244.5
335.912	263.5
336.14	290.5
336.369	283.5
336.597	279.5
336.825	301.5
337.053	339.5
337.281	287.5
337.51	244.5
337.738	238.5
337.966	233.5
338.194	269.5
338.422	243.5
338.65	218.5
338.878	207.5
339.106	224.5
339.334	231.5
339.562	237.5
339.79	215.5
340.018	210.5
340.246	228.5
340.474	262.5
340.702	272.5
340.93	262.5
341.158	280.5
341.386	241.5
341.614	247.5
341.842	235.5
342.07	263.5
342.298	264.5
342.526	285.5
342.754	243.5
342.981	241.5
343.209	224.5
343.437	252.5
343.665	267.5
343.893	277.5
344.12	305.5
344.348	353.5
344.576	322.5
344.804	275.5
345.031	237.5
345.259	228.5
345.487	217.5
345.714	229.5
345.942	265.5
346.17	268.5
346.397	270.5
346.625	239.5
346.853	211.5
347.08	203.5
347.308	254.5
347.535	253.5
347.763	271.5
347.99	251.5
348.218	225.5
348.445	208.5
348.673	246.5
348.9	244.5
349.128	248.5
349.355	274.5
349.583	244.5
349.81	229.5
350.037	213.5
350.265	190.5
350.492	202.5
350.72	198.5
350.947	198.5
351.174	206.5
351.402	210.5
351.629	231.5
351.856	217.5
352.083	202.5
352.311	204.5
352.538	251.5
352.765	257.5
352.992	242.5
353.22	220.5
353.447	238.5
353.674	224.5
353.901	215.5
354.128	231.5
354.355	253.5
354.583	225.5
354.81	231.5
355.037	257.5
355.264	224.5
355.491	236.5
355.718	236.5
355.945	243.5
356.172	249.5
356.399	235.5
356.626	260.5
356.853	339.5
357.08	344.5
357.307	363.5
357.534	284.5
357.761	302.5
357.988	364.5
358.215	423.5
358.441	375.5
358.668	322.5
358.895	315.5
359.122	263.5
359.349	281.5
359.576	328.5
359.802	278.5
360.029	233.5
360.256	238.5
360.483	274.5
360.709	341.5
360.936	344.5
361.163	293.5
361.39	236.5
361.616	233.5
361.843	262.5
362.07	307.5
362.296	285.5
362.523	244.5
362.749	225.5
362.976	211.5
363.203	266.5
363.429	282.5
363.656	245.5
363.882	216.5
364.109	237.5
364.335	228.5
364.562	228.5
364.788	240.5
365.015	279.5
365.241	247.5
365.468	215.5
365.694	212.5
365.92	209.5
366.147	187.5
366.373	195.5
366.599	187.5
366.826	197.5
367.052	193.5
367.278	193.5
367.505	201.5
367.731	228.5
367.957	245.5
368.184	235.5
368.41	219.5
368.636	228.5
368.862	236.5
369.089	218.5
369.315	198.5
369.541	210.5
369.767	212.5
369.993	200.5
370.219	212.5
370.445	207.5
370.672	251.5
370.898	248.5
371.124	241.5
371.35	224.5
371.576	203.5
371.802	226.5
372.028	264.5
372.254	295.5
372.48	254.5
372.706	235.5
372.932	258.5
373.158	267.5
373.384	292.5
373.61	356.5
373.835	369.5
374.061	285.5
374.287	271.5
374.513	309.5
374.739	349.5
374.965	345.5
375.191	356.5
375.416	293.5
375.642	262.5
375.868	262.5
376.094	282.5
376.319	262.5
376.545	284.5
376.771	298.5
376.997	267.5
377.222	203.5
377.448	172.5
377.674	195.5
377.899	189.5
378.125	184.5
378.35	187.5
378.576	188.5
378.802	205.5
379.027	235.5
379.253	216.5
379.478	222.5
379.704	236.5
379.929	234.5
380.155	247.5
380.38	229.5
380.606	225.5
380.831	252.5
381.057	243.5
381.282	208.5
381.507	230.5
381.733	304.5
381.958	311.5
382.184	323.5
382.409	351.5
382.634	347.5
382.86	347.5
383.085	299.5
383.31	264.5
383.535	279.5
383.761	275.5
383.986	252.5
384.211	316.5
384.436	314.5
384.662	241.5
384.887	242.5
385.112	236.5
385.337	262.5
385.562	219.5
385.787	266.5
386.013	285.5
386.238	281.5
386.463	242.5
386.688	236.5
386.913	231.5
387.138	241.5
387.363	237.5
387.588	239.5
387.813	239.5
388.038	262.5
388.263	263.5
388.488	237.5
388.713	269.5
388.938	273.5
389.163	241.5
389.387	192.5
389.612	207.5
389.837	217.5
390.062	233.5
390.287	259.5
390.512	248.5
390.736	235.5
390.961	221.5
391.186	201.5
391.411	206.5
391.636	239.5
391.86	245.5
392.085	264.5
392.31	236.5
392.534	244.5
392.759	224.5
392.984	240.5
393.208	242.5
393.433	201.5
393.658	199.5
393.882	210.5
394.107	204.5
394.331	217.5
394.556	196.5
394.78	221.5
395.005	205.5
395.229	210.5
395.454	212.5
395.678	215.5
395.903	222.5
396.127	223.5
396.352	232.5
396.576	245.5
396.801	245.5
397.025	244.5
397.249	275.5
397.474	239.5
397.698	251.5
397.922	230.5
398.147	226.5
398.371	242.5
398.595	244.5
398.82	243.5
399.044	230.5
399.268	258.5
399.492	272.5
399.717	276.5
399.941	286.5
400.165	268.5
400.389	259.5
400.613	264.5
400.837	229.5
401.062	241.5
401.286	233.5
401.51	226.5
401.734	229.5
401.958	235.5
402.182	221.5
402.406	246.5
402.63	262.5
402.854	255.5
403.078	305.5
403.302	354.5
403.526	385.5
403.75	336.5
403.974	273.5
404.198	280.5
404.422	303.5
404.645	334.5
404.869	335.5
405.093	298.5
405.317	253.5
405.541	257.5
405.765	266.5
405.988	262.5
406.212	267.5
406.436	299.5
406.66	329.5
406.883	275.5
407.107	281.5
407.331	342.5
407.555	284.5
407.778	272.5
408.002	290.5
408.226	278.5
408.449	268.5
408.673	279.5
408.896	253.5
409.12	246.5
409.344	250.5
409.567	232.5
409.791	236.5
410.014	219.5
410.238	243.5
410.461	243.5
410.685	243.5
410.908	228.5
411.132	232.5
411.355	233.5
411.578	239.5
411.802	232.5
412.025	246.5
412.249	232.5
412.472	224.5
412.695	237.5
412.919	234.5
413.142	250.5
413.365	258.5
413.589	248.5
413.812	264.5
414.035	243.5
414.258	242.5
414.482	264.5
414.705	247.5
414.928	228.5
415.151	209.5
415.374	233.5
415.597	231.5
415.821	234.5
416.044	243.5
416.267	236.5
416.49	242.5
416.713	230.5
416.936	232.5
417.159	202.5
417.382	227.5
417.605	222.5
417.828	239.5
418.051	229.5
418.274	257.5
418.497	243.5
418.72	228.5
418.943	237.5
419.166	240.5
419.389	247.5
419.611	241.5
419.834	244.5
420.057	267.5
420.28	265.5
420.503	268.5
420.726	235.5
420.948	239.5
421.171	227.5
421.394	228.5
421.617	215.5
421.839	225.5
422.062	230.5
422.285	232.5
422.507	218.5
422.73	232.5
422.953	242.5
423.175	243.5
423.398	244.5
423.621	239.5
423.843	269.5
424.066	260.5
424.288	242.5
424.511	247.5
424.733	249.5
424.956	256.5
425.178	259.5
425.401	300.5
425.623	361.5
425.846	304.5
426.068	246.5
426.291	263.5
426.513	232.5
426.735	247.5
426.958	251.5
427.18	293.5
427.402	333.5
427.625	362.5
427.847	322.5
428.069	232.5
428.292	228.5
428.514	249.5
428.736	216.5
428.958	240.5
429.181	303.5
429.403	256.5
429.625	249.5
429.847	225.5
430.069	222.5
430.292	228.5
430.514	218.5
430.736	239.5
430.958	279.5
431.18	259.5
431.402	215.5
431.624	205.5
431.846	223.5
432.068	211.5
432.29	236.5
432.512	245.5
432.734	275.5
432.956	271.5
433.178	212.5
433.4	215.5
433.622	228.5
433.844	242.5
434.066	243.5
434.287	256.5
434.509	235.5
434.731	247.5
434.953	233.5
435.175	263.5
435.397	277.5
435.618	245.5
435.84	219.5
436.062	215.5
436.284	217.5
436.505	232.5
436.727	211.5
436.949	226.5
437.17	233.5
437.392	225.5
437.614	225.5
437.835	216.5
438.057	212.5
438.278	257.5
438.5	327.5
438.721	294.5
438.943	231.5
439.165	210.5
439.386	205.5
439.608	197.5
439.829	215.5
440.05	213.5
440.272	222.5
440.493	255.5
440.715	268.5
440.936	252.5
441.158	238.5
441.379	216.5
441.6	255.5
441.822	264.5
442.043	226.5
442.264	236.5
442.486	235.5
442.707	227.5
442.928	241.5
443.149	228.5
443.371	239.5
443.592	243.5
443.813	251.5
444.034	228.5
444.255	247.5
444.476	249.5
444.698	248.5
444.919	288.5
445.14	337.5
445.361	310.5
445.582	248.5
445.803	239.5
446.024	234.5
446.245	251.5
446.466	238.5
446.687	218.5
446.908	224.5
447.129	216.5
447.35	203.5
447.571	218.5
447.792	221.5
448.013	201.5
448.234	208.5
448.455	209.5
448.675	198.5
448.896	218.5
449.117	213.5
449.338	227.5
449.559	219.5
449.779	223.5
450	229.5
450.221	232.5
450.442	229.5
450.662	219.5
450.883	227.5
451.104	209.5
451.324	218.5
451.545	221.5
451.766	219.5
451.986	213.5
452.207	210.5
452.428	192.5
452.648	200.5
452.869	217.5
453.089	218.5
453.31	220.5
453.53	215.5
453.751	207.5
453.971	196.5
454.192	204.5
454.412	202.5
454.633	207.5
454.853	209.5
455.073	213.5
455.294	196.5
455.514	185.5
455.734	212.5
455.955	201.5
456.175	225.5
456.395	186.5
456.616	193.5
456.836	201.5
457.056	202.5
457.276	195.5
457.497	206.5
457.717	198.5
457.937	194.5
458.157	197.5
458.377	194.5
458.598	214.5
458.818	218.5
459.038	217.5
459.258	222.5
459.478	223.5
459.698	251.5
459.918	243.5
460.138	224.5
460.358	240.5
460.578	242.5
460.798	229.5
461.018	239.5
461.238	232.5
461.458	233.5
461.678	234.5
461.898	252.5
462.118	258.5
462.338	247.5
462.558	259.5
462.777	259.5
462.997	285.5
463.217	277.5
463.437	284.5
463.657	283.5
463.876	264.5
464.096	259.5
464.316	265.5
464.536	242.5
464.755	274.5
464.975	274.5
465.195	267.5
465.414	247.5
465.634	252.5
465.854	249.5
466.073	220.5
466.293	215.5
466.512	234.5
466.732	257.5
466.951	273.5
467.171	249.5
467.391	236.5
467.61	234.5
467.829	235.5
468.049	231.5
468.268	208.5
468.488	227.5
468.707	232.5
468.927	265.5
469.146	282.5
469.365	257.5
469.585	239.5
469.804	245.5
470.023	260.5
470.243	237.5
470.462	228.5
470.681	237.5
470.901	243.5
471.12	249.5
471.339	240.5
471.558	232.5
471.777	239.5
471.997	249.5
472.216	276.5
472.435	264.5
472.654	250.5
472.873	259.5
473.092	239.5
473.311	256.5
473.53	234.5
473.749	226.5
473.968	243.5
474.187	239.5
474.406	234.5
474.625	221.5
474.844	241.5
475.063	260.5
475.282	241.5
475.501	263.5
475.72	258.5
475.939	270.5
476.158	265.5
476.377	301.5
476.596	328.5
476.814	349.5
477.033	298.5
477.252	267.5
477.471	249.5
477.69	261.5
477.908	259.5
478.127	290.5
478.346	264.5
478.564	267.5
478.783	287.5
479.002	262.5
479.22	296.5
479.439	328.5
479.658	304.5
479.876	254.5
480.095	293.5
480.313	298.5
480.532	277.5
480.751	275.5
480.969	270.5
481.188	308.5
481.406	281.5
481.624	293.5
481.843	262.5
482.061	250.5
482.28	274.5
482.498	354.5
482.717	332.5
482.935	280.5
483.153	257.5
483.372	263.5
483.59	272.5
483.808	265.5
484.027	240.5
484.245	235.5
484.463	241.5
484.681	243.5
484.9	264.5
485.118	297.5
485.336	259.5
485.554	257.5
485.772	278.5
485.99	303.5
486.209	295.5
486.427	292.5
486.645	295.5
486.863	299.5
487.081	283.5
487.299	304.5
487.517	304.5
487.735	286.5
487.953	287.5
488.171	285.5
488.389	273.5
488.607	261.5
488.825	298.5
489.043	292.5
489.261	336.5
489.479	331.5
489.696	280.5
489.914	275.5
490.132	269.5
490.35	257.5
490.568	280.5
490.786	255.5
491.003	259.5
491.221	268.5
491.439	272.5
491.657	276.5
491.874	283.5
492.092	319.5
492.31	363.5
492.527	374.5
492.745	345.5
492.963	287.5
493.18	306.5
493.398	291.5
493.615	311.5
493.833	300.5
494.05	283.5
494.268	275.5
494.485	288.5
494.703	281.5
494.92	285.5
495.138	287.5
495.355	271.5
495.573	269.5
495.79	305.5
496.008	379.5
496.225	323.5
496.442	303.5
496.66	307.5
496.877	308.5
497.094	308.5
497.312	295.5
497.529	300.5
497.746	322.5
497.963	314.5
498.181	329.5
498.398	360.5
498.615	368.5
498.832	368.5
499.049	382.5
499.267	380.5
499.484	373.5
499.701	409.5
499.918	450.5
500.135	485.5
500.352	519.5
500.569	513.5
500.786	556.5
501.003	531.5
501.22	464.5
501.437	423.5
501.654	395.5
501.871	386.5
502.088	373.5
502.305	328.5
502.522	339.5
502.739	337.5
502.956	320.5
503.172	317.5
503.389	307.5
503.606	290.5
503.823	290.5
504.04	307.5
504.256	313.5
504.473	331.5
504.69	331.5
504.907	323.5
505.123	324.5
505.34	356.5
505.557	323.5
505.773	311.5
505.99	301.5
506.207	289.5
506.423	292.5
506.64	270.5
506.856	273.5
507.073	312.5
507.289	293.5
507.506	313.5
507.722	333.5
507.939	316.5
508.155	322.5
508.372	308.5
508.588	293.5
508.805	292.5
509.021	288.5
509.238	271.5
509.454	276.5
509.67	283.5
509.887	269.5
510.103	307.5
510.319	322.5
510.536	275.5
510.752	246.5
510.968	246.5
511.184	240.5
511.401	251.5
511.617	255.5
511.833	253.5
512.049	282.5
512.265	249.5
512.481	266.5
512.698	266.5
512.914	311.5
513.13	306.5
513.346	281.5
513.562	269.5
513.778	275.5
513.994	268.5
514.21	282.5
514.426	268.5
514.642	266.5
514.858	255.5
515.074	263.5
515.29	288.5
515.506	346.5
515.721	332.5
515.937	295.5
516.153	272.5
516.369	301.5
516.585	293.5
516.801	340.5
517.016	371.5
517.232	358.5
517.448	367.5
517.664	335.5
517.879	321.5
518.095	307.5
518.311	307.5
518.527	339.5
518.742	332.5
518.958	339.5
519.173	315.5
519.389	324.5
519.605	302.5
519.82	327.5
520.036	379.5
520.251	403.5
520.467	375.5
