Data from NickelSpatula_HRD10591_16-33-38-125.txt Node
Date: Mon Jul 22 16:33:38 EDT 2019
User: cochatt
Spectrometer: HR+D1059
Trigger mode: 1
Integration Time (sec): 1.000000E-1
Scans to average: 1
Electric dark correction enabled: true
Nonlinearity correction enabled: false
Boxcar width: 0
XAxis mode: Wavelengths
Number of Pixels in Spectrum: 2048
>>>>>Begin Spectral Data<<<<<
223.165	-14.31
223.4	-14.31
223.635	-14.31
223.869	-24.31
224.104	-15.31
224.338	-11.31
224.573	-11.31
224.808	-17.31
225.042	-14.31
225.277	-9.31
225.511	13.69
225.746	-0.31
225.98	3.69
226.215	12.69
226.449	6.69
226.683	5.69
226.918	22.69
227.152	52.69
227.387	36.69
227.621	35.69
227.856	48.69
228.09	54.69
228.324	54.69
228.559	54.69
228.793	60.69
229.027	67.69
229.262	65.69
229.496	84.69
229.73	79.69
229.964	78.69
230.199	87.69
230.433	102.69
230.667	95.69
230.901	73.69
231.136	86.69
231.37	81.69
231.604	92.69
231.838	96.69
232.072	103.69
232.306	112.69
232.541	105.69
232.775	100.69
233.009	91.69
233.243	111.69
233.477	95.69
233.711	101.69
233.945	112.69
234.179	117.69
234.413	100.69
234.647	120.69
234.881	135.69
235.115	121.69
235.349	122.69
235.583	110.69
235.817	108.69
236.051	115.69
236.285	113.69
236.519	134.69
236.753	133.69
236.987	108.69
237.221	107.69
237.455	114.69
237.689	122.69
237.922	121.69
238.156	125.69
238.39	121.69
238.624	155.69
238.858	151.69
239.091	123.69
239.325	149.69
239.559	120.69
239.793	132.69
240.027	145.69
240.26	154.69
240.494	159.69
240.728	151.69
240.961	158.69
241.195	152.69
241.429	150.69
241.662	153.69
241.896	138.69
242.13	122.69
242.363	125.69
242.597	139.69
242.83	124.69
243.064	151.69
243.298	142.69
243.531	131.69
243.765	153.69
243.998	149.69
244.232	152.69
244.465	150.69
244.699	155.69
244.932	157.69
245.166	136.69
245.399	139.69
245.633	149.69
245.866	145.69
246.099	127.69
246.333	157.69
246.566	181.69
246.8	171.69
247.033	165.69
247.266	177.69
247.5	155.69
247.733	151.69
247.966	146.69
248.2	161.69
248.433	151.69
248.666	171.69
248.899	200.69
249.133	196.69
249.366	184.69
249.599	219.69
249.832	199.69
250.066	183.69
250.299	197.69
250.532	179.69
250.765	174.69
250.998	179.69
251.231	157.69
251.465	173.69
251.698	157.69
251.931	171.69
252.164	179.69
252.397	194.69
252.63	210.69
252.863	227.69
253.096	239.69
253.329	207.69
253.562	227.69
253.795	243.69
254.028	268.69
254.261	291.69
254.494	243.69
254.727	240.69
254.96	232.69
255.193	241.69
255.426	210.69
255.659	179.69
255.892	172.69
256.124	202.69
256.357	225.69
256.59	227.69
256.823	243.69
257.056	202.69
257.289	198.69
257.521	216.69
257.754	243.69
257.987	256.69
258.22	228.69
258.452	181.69
258.685	210.69
258.918	245.69
259.151	251.69
259.383	268.69
259.616	321.69
259.849	305.69
260.081	332.69
260.314	335.69
260.547	298.69
260.779	287.69
261.012	343.69
261.244	326.69
261.477	319.69
261.71	289.69
261.942	256.69
262.175	247.69
262.407	247.69
262.64	227.69
262.872	289.69
263.105	295.69
263.337	334.69
263.57	309.69
263.802	220.69
264.035	203.69
264.267	187.69
264.499	177.69
264.732	151.69
264.964	145.69
265.197	161.69
265.429	186.69
265.661	197.69
265.894	191.69
266.126	208.69
266.358	224.69
266.591	240.69
266.823	283.69
267.055	259.69
267.287	267.69
267.52	254.69
267.752	270.69
267.984	298.69
268.216	269.69
268.448	243.69
268.681	205.69
268.913	247.69
269.145	257.69
269.377	261.69
269.609	280.69
269.841	260.69
270.073	251.69
270.306	273.69
270.538	289.69
270.77	318.69
271.002	294.69
271.234	296.69
271.466	307.69
271.698	284.69
271.93	280.69
272.162	263.69
272.394	265.69
272.626	238.69
272.858	255.69
273.09	275.69
273.322	247.69
273.553	245.69
273.785	281.69
274.017	340.69
274.249	395.69
274.481	416.69
274.713	468.69
274.945	515.69
275.176	563.69
275.408	485.69
275.64	460.69
275.872	461.69
276.104	406.69
276.335	360.69
276.567	339.69
276.799	375.69
277.031	360.69
277.262	299.69
277.494	232.69
277.726	229.69
277.957	263.69
278.189	273.69
278.421	279.69
278.652	276.69
278.884	253.69
279.115	239.69
279.347	242.69
279.579	224.69
279.81	245.69
280.042	238.69
280.273	234.69
280.505	224.69
280.736	211.69
280.968	212.69
281.199	222.69
281.431	269.69
281.662	255.69
281.894	254.69
282.125	249.69
282.356	261.69
282.588	276.69
282.819	226.69
283.051	235.69
283.282	316.69
283.513	321.69
283.745	385.69
283.976	388.69
284.207	354.69
284.439	383.69
284.67	361.69
284.901	307.69
285.132	333.69
285.364	349.69
285.595	340.69
285.826	357.69
286.057	380.69
286.288	356.69
286.52	356.69
286.751	375.69
286.982	391.69
287.213	349.69
287.444	330.69
287.675	330.69
287.906	367.69
288.138	305.69
288.369	290.69
288.6	259.69
288.831	266.69
289.062	296.69
289.293	338.69
289.524	326.69
289.755	321.69
289.986	337.69
290.217	295.69
290.448	221.69
290.679	202.69
290.91	206.69
291.141	186.69
291.371	196.69
291.602	209.69
291.833	199.69
292.064	207.69
292.295	228.69
292.526	279.69
292.757	273.69
292.987	295.69
293.218	294.69
293.449	335.69
293.68	347.69
293.91	316.69
294.141	322.69
294.372	314.69
294.603	282.69
294.833	293.69
295.064	375.69
295.295	385.69
295.525	282.69
295.756	234.69
295.987	216.69
296.217	199.69
296.448	197.69
296.679	197.69
296.909	236.69
297.14	267.69
297.37	255.69
297.601	261.69
297.831	235.69
298.062	241.69
298.292	277.69
298.523	292.69
298.753	337.69
298.984	299.69
299.214	240.69
299.445	204.69
299.675	196.69
299.905	209.69
300.136	192.69
300.366	222.69
300.597	221.69
300.827	210.69
301.057	200.69
301.288	195.69
301.518	206.69
301.748	246.69
301.979	261.69
302.209	249.69
302.439	245.69
302.669	247.69
302.9	242.69
303.13	244.69
303.36	235.69
303.59	204.69
303.82	227.69
304.051	247.69
304.281	248.69
304.511	251.69
304.741	222.69
304.971	234.69
305.201	227.69
305.431	235.69
305.661	214.69
305.891	187.69
306.121	207.69
306.352	194.69
306.582	184.69
306.812	177.69
307.042	178.69
307.272	165.69
307.502	177.69
307.731	170.69
307.961	198.69
308.191	180.69
308.421	194.69
308.651	166.69
308.881	159.69
309.111	166.69
309.341	183.69
309.571	194.69
309.8	186.69
310.03	188.69
310.26	199.69
310.49	197.69
310.72	200.69
310.949	168.69
311.179	186.69
311.409	181.69
311.639	227.69
311.868	251.69
312.098	330.69
312.328	359.69
312.557	324.69
312.787	343.69
313.017	325.69
313.246	333.69
313.476	369.69
313.706	295.69
313.935	251.69
314.165	222.69
314.394	199.69
314.624	198.69
314.853	194.69
315.083	205.69
315.312	215.69
315.542	178.69
315.771	177.69
316.001	171.69
316.23	171.69
316.46	179.69
316.689	174.69
316.919	190.69
317.148	185.69
317.377	187.69
317.607	188.69
317.836	190.69
318.065	212.69
318.295	236.69
318.524	204.69
318.753	202.69
318.983	186.69
319.212	185.69
319.441	212.69
319.67	209.69
319.9	231.69
320.129	203.69
320.358	179.69
320.587	196.69
320.816	199.69
321.046	233.69
321.275	233.69
321.504	235.69
321.733	216.69
321.962	212.69
322.191	214.69
322.42	195.69
322.649	199.69
322.878	220.69
323.108	218.69
323.337	203.69
323.566	209.69
323.795	224.69
324.024	210.69
324.253	188.69
324.482	193.69
324.71	197.69
324.939	223.69
325.168	196.69
325.397	202.69
325.626	189.69
325.855	181.69
326.084	170.69
326.313	177.69
326.542	183.69
326.77	194.69
326.999	175.69
327.228	196.69
327.457	202.69
327.686	186.69
327.914	188.69
328.143	172.69
328.372	151.69
328.6	175.69
328.829	180.69
329.058	175.69
329.287	191.69
329.515	196.69
329.744	180.69
329.972	183.69
330.201	172.69
330.43	188.69
330.658	202.69
330.887	205.69
331.115	204.69
331.344	195.69
331.572	199.69
331.801	198.69
332.03	178.69
332.258	189.69
332.486	197.69
332.715	204.69
332.943	198.69
333.172	207.69
333.4	191.69
333.629	196.69
333.857	234.69
334.085	223.69
334.314	225.69
334.542	217.69
334.771	209.69
334.999	200.69
335.227	200.69
335.455	188.69
335.684	207.69
335.912	236.69
336.14	261.69
336.369	254.69
336.597	239.69
336.825	260.69
337.053	280.69
337.281	232.69
337.51	202.69
337.738	194.69
337.966	206.69
338.194	227.69
338.422	224.69
338.65	189.69
338.878	175.69
339.106	198.69
339.334	221.69
339.562	206.69
339.79	190.69
340.018	187.69
340.246	202.69
340.474	230.69
340.702	235.69
340.93	228.69
341.158	247.69
341.386	210.69
341.614	220.69
341.842	210.69
342.07	219.69
342.298	236.69
342.526	250.69
342.754	220.69
342.981	203.69
343.209	201.69
343.437	220.69
343.665	227.69
343.893	222.69
344.12	256.69
344.348	282.69
344.576	296.69
344.804	239.69
345.031	202.69
345.259	190.69
345.487	200.69
345.714	217.69
345.942	216.69
346.17	236.69
346.397	225.69
346.625	203.69
346.853	186.69
347.08	176.69
347.308	195.69
347.535	216.69
347.763	213.69
347.99	190.69
348.218	184.69
348.445	194.69
348.673	208.69
348.9	211.69
349.128	197.69
349.355	199.69
349.583	217.69
349.81	212.69
350.037	188.69
350.265	192.69
350.492	165.69
350.72	167.69
350.947	161.69
351.174	164.69
351.402	182.69
351.629	207.69
351.856	181.69
352.083	187.69
352.311	181.69
352.538	177.69
352.765	213.69
352.992	181.69
353.22	184.69
353.447	199.69
353.674	195.69
353.901	187.69
354.128	189.69
354.355	200.69
354.583	198.69
354.81	184.69
355.037	211.69
355.264	189.69
355.491	203.69
355.718	218.69
355.945	197.69
356.172	195.69
356.399	197.69
356.626	213.69
356.853	257.69
357.08	273.69
357.307	279.69
357.534	225.69
357.761	213.69
357.988	257.69
358.215	309.69
358.441	295.69
358.668	260.69
358.895	251.69
359.122	218.69
359.349	218.69
359.576	227.69
359.802	200.69
360.029	195.69
360.256	159.69
360.483	198.69
360.709	265.69
360.936	281.69
361.163	230.69
361.39	205.69
361.616	186.69
361.843	202.69
362.07	243.69
362.296	219.69
362.523	191.69
362.749	185.69
362.976	174.69
363.203	208.69
363.429	231.69
363.656	187.69
363.882	182.69
364.109	188.69
364.335	198.69
364.562	183.69
364.788	204.69
365.015	223.69
365.241	200.69
365.468	195.69
365.694	167.69
365.92	166.69
366.147	162.69
366.373	165.69
366.599	161.69
366.826	176.69
367.052	163.69
367.278	165.69
367.505	169.69
367.731	191.69
367.957	195.69
368.184	187.69
368.41	184.69
368.636	202.69
368.862	197.69
369.089	186.69
369.315	183.69
369.541	177.69
369.767	187.69
369.993	163.69
370.219	167.69
370.445	184.69
370.672	199.69
370.898	200.69
371.124	198.69
371.35	191.69
371.576	176.69
371.802	169.69
372.028	187.69
372.254	214.69
372.48	198.69
372.706	194.69
372.932	210.69
373.158	211.69
373.384	235.69
373.61	279.69
373.835	283.69
374.061	229.69
374.287	223.69
374.513	216.69
374.739	245.69
374.965	268.69
375.191	272.69
375.416	215.69
375.642	186.69
375.868	207.69
376.094	225.69
376.319	198.69
376.545	210.69
376.771	215.69
376.997	223.69
377.222	176.69
377.448	168.69
377.674	159.69
377.899	158.69
378.125	155.69
378.35	165.69
378.576	156.69
378.802	168.69
379.027	185.69
379.253	193.69
379.478	188.69
379.704	177.69
379.929	196.69
380.155	199.69
380.38	191.69
380.606	179.69
380.831	207.69
381.057	193.69
381.282	169.69
381.507	192.69
381.733	228.69
381.958	248.69
382.184	235.69
382.409	257.69
382.634	267.69
382.86	280.69
383.085	239.69
383.31	192.69
383.535	211.69
383.761	227.69
383.986	212.69
384.211	241.69
384.436	237.69
384.662	191.69
384.887	209.69
385.112	211.69
385.337	205.69
385.562	195.69
385.787	227.69
386.013	213.69
386.238	236.69
386.463	196.69
386.688	199.69
386.913	195.69
387.138	194.69
387.363	201.69
387.588	195.69
387.813	192.69
388.038	220.69
388.263	180.69
388.488	196.69
388.713	215.69
388.938	217.69
389.163	209.69
389.387	177.69
389.612	188.69
389.837	197.69
390.062	196.69
390.287	206.69
390.512	183.69
390.736	184.69
390.961	180.69
391.186	189.69
391.411	168.69
391.636	193.69
391.86	207.69
392.085	217.69
392.31	195.69
392.534	200.69
392.759	197.69
392.984	206.69
393.208	219.69
393.433	221.69
393.658	217.69
393.882	198.69
394.107	183.69
394.331	169.69
394.556	172.69
394.78	177.69
395.005	183.69
395.229	179.69
395.454	181.69
395.678	186.69
395.903	179.69
396.127	187.69
396.352	186.69
396.576	199.69
396.801	209.69
397.025	224.69
397.249	238.69
397.474	202.69
397.698	189.69
397.922	198.69
398.147	187.69
398.371	181.69
398.595	208.69
398.82	206.69
399.044	217.69
399.268	204.69
399.492	221.69
399.717	236.69
399.941	239.69
400.165	238.69
400.389	218.69
400.613	207.69
400.837	206.69
401.062	191.69
401.286	193.69
401.51	195.69
401.734	210.69
401.958	187.69
402.182	199.69
402.406	186.69
402.63	201.69
402.854	208.69
403.078	223.69
403.302	262.69
403.526	281.69
403.75	263.69
403.974	225.69
404.198	239.69
404.422	252.69
404.645	256.69
404.869	278.69
405.093	247.69
405.317	208.69
405.541	195.69
405.765	205.69
405.988	212.69
406.212	213.69
406.436	228.69
406.66	245.69
406.883	219.69
407.107	218.69
407.331	264.69
407.555	262.69
407.778	220.69
408.002	226.69
408.226	232.69
408.449	227.69
408.673	227.69
408.896	222.69
409.12	204.69
409.344	204.69
409.567	188.69
409.791	212.69
410.014	209.69
410.238	195.69
410.461	202.69
410.685	202.69
410.908	185.69
411.132	196.69
411.355	216.69
411.578	205.69
411.802	200.69
412.025	199.69
412.249	196.69
412.472	209.69
412.695	215.69
412.919	202.69
413.142	208.69
413.365	241.69
413.589	220.69
413.812	195.69
414.035	196.69
414.258	202.69
414.482	212.69
414.705	205.69
414.928	206.69
415.151	190.69
415.374	205.69
415.597	191.69
415.821	185.69
416.044	178.69
416.267	179.69
416.49	197.69
416.713	188.69
416.936	200.69
417.159	202.69
417.382	181.69
417.605	187.69
417.828	183.69
418.051	192.69
418.274	188.69
418.497	196.69
418.72	192.69
418.943	213.69
419.166	208.69
419.389	201.69
419.611	188.69
419.834	207.69
420.057	225.69
420.28	206.69
420.503	200.69
420.726	185.69
420.948	197.69
421.171	191.69
421.394	194.69
421.617	195.69
421.839	203.69
422.062	190.69
422.285	189.69
422.507	207.69
422.73	199.69
422.953	220.69
423.175	214.69
423.398	207.69
423.621	203.69
423.843	207.69
424.066	197.69
424.288	189.69
424.511	205.69
424.733	194.69
424.956	204.69
425.178	212.69
425.401	236.69
425.623	258.69
425.846	214.69
426.068	196.69
426.291	229.69
426.513	198.69
426.735	214.69
426.958	202.69
427.18	219.69
427.402	266.69
427.625	257.69
427.847	239.69
428.069	170.69
428.292	205.69
428.514	200.69
428.736	185.69
428.958	196.69
429.181	230.69
429.403	195.69
429.625	183.69
429.847	184.69
430.069	183.69
430.292	191.69
430.514	170.69
430.736	172.69
430.958	203.69
431.18	203.69
431.402	176.69
431.624	169.69
431.846	175.69
432.068	183.69
432.29	191.69
432.512	191.69
432.734	226.69
432.956	230.69
433.178	200.69
433.4	191.69
433.622	176.69
433.844	192.69
434.066	211.69
434.287	199.69
434.509	198.69
434.731	213.69
434.953	188.69
435.175	199.69
435.397	221.69
435.618	203.69
435.84	189.69
436.062	178.69
436.284	194.69
436.505	175.69
436.727	164.69
436.949	166.69
437.17	174.69
437.392	180.69
437.614	193.69
437.835	177.69
438.057	178.69
438.278	191.69
438.5	241.69
438.721	249.69
438.943	191.69
439.165	184.69
439.386	167.69
439.608	155.69
439.829	172.69
440.05	171.69
440.272	181.69
440.493	209.69
440.715	217.69
440.936	200.69
441.158	180.69
441.379	177.69
441.6	212.69
441.822	216.69
442.043	178.69
442.264	185.69
442.486	201.69
442.707	198.69
442.928	201.69
443.149	185.69
443.371	190.69
443.592	200.69
443.813	215.69
444.034	196.69
444.255	195.69
444.476	215.69
444.698	197.69
444.919	212.69
445.14	316.69
445.361	255.69
445.582	211.69
445.803	184.69
446.024	227.69
446.245	206.69
446.466	200.69
446.687	185.69
446.908	181.69
447.129	178.69
447.35	169.69
447.571	173.69
447.792	180.69
448.013	187.69
448.234	160.69
448.455	169.69
448.675	165.69
448.896	178.69
449.117	183.69
449.338	182.69
449.559	178.69
449.779	179.69
450	169.69
450.221	193.69
450.442	178.69
450.662	169.69
450.883	184.69
451.104	177.69
451.324	172.69
451.545	183.69
451.766	177.69
451.986	177.69
452.207	181.69
452.428	178.69
452.648	182.69
452.869	173.69
453.089	181.69
453.31	176.69
453.53	169.69
453.751	147.69
453.971	166.69
454.192	159.69
454.412	169.69
454.633	169.69
454.853	181.69
455.073	159.69
455.294	173.69
455.514	175.69
455.734	172.69
455.955	163.69
456.175	150.69
456.395	183.69
456.616	174.69
456.836	166.69
457.056	164.69
457.276	183.69
457.497	151.69
457.717	156.69
457.937	147.69
458.157	177.69
458.377	155.69
458.598	169.69
458.818	167.69
459.038	197.69
459.258	178.69
459.478	181.69
459.698	192.69
459.918	184.69
460.138	195.69
460.358	200.69
460.578	194.69
460.798	196.69
461.018	180.69
461.238	188.69
461.458	189.69
461.678	207.69
461.898	204.69
462.118	199.69
462.338	201.69
462.558	214.69
462.777	224.69
462.997	221.69
463.217	232.69
463.437	229.69
463.657	224.69
463.876	214.69
464.096	216.69
464.316	204.69
464.536	219.69
464.755	229.69
464.975	222.69
465.195	222.69
465.414	217.69
465.634	198.69
465.854	193.69
466.073	196.69
466.293	176.69
466.512	205.69
466.732	211.69
466.951	200.69
467.171	210.69
467.391	187.69
467.61	205.69
467.829	199.69
468.049	204.69
468.268	189.69
468.488	170.69
468.707	193.69
468.927	206.69
469.146	218.69
469.365	209.69
469.585	198.69
469.804	198.69
470.023	214.69
470.243	212.69
470.462	195.69
470.681	179.69
470.901	184.69
471.12	200.69
471.339	213.69
471.558	213.69
471.777	182.69
471.997	188.69
472.216	222.69
472.435	207.69
472.654	201.69
472.873	207.69
473.092	212.69
473.311	208.69
473.53	186.69
473.749	184.69
473.968	208.69
474.187	220.69
474.406	198.69
474.625	189.69
474.844	189.69
475.063	203.69
475.282	188.69
475.501	207.69
475.72	233.69
475.939	224.69
476.158	211.69
476.377	247.69
476.596	281.69
476.814	293.69
477.033	262.69
477.252	212.69
477.471	194.69
477.69	218.69
477.908	216.69
478.127	223.69
478.346	211.69
478.564	244.69
478.783	241.69
479.002	219.69
479.22	234.69
479.439	247.69
479.658	251.69
479.876	228.69
480.095	229.69
480.313	239.69
480.532	234.69
480.751	211.69
480.969	212.69
481.188	264.69
481.406	268.69
481.624	249.69
481.843	216.69
482.061	208.69
482.28	228.69
482.498	274.69
482.717	265.69
482.935	223.69
483.153	229.69
483.372	205.69
483.59	211.69
483.808	208.69
484.027	204.69
484.245	217.69
484.463	192.69
484.681	219.69
484.9	221.69
485.118	234.69
485.336	225.69
485.554	215.69
485.772	223.69
485.99	233.69
486.209	225.69
486.427	214.69
486.645	209.69
486.863	250.69
487.081	238.69
487.299	242.69
487.517	247.69
487.735	211.69
487.953	206.69
488.171	242.69
488.389	216.69
488.607	208.69
488.825	221.69
489.043	219.69
489.261	299.69
489.479	284.69
489.696	224.69
489.914	222.69
490.132	203.69
490.35	227.69
490.568	225.69
490.786	223.69
491.003	198.69
491.221	230.69
491.439	224.69
491.657	224.69
491.874	228.69
492.092	269.69
492.31	318.69
492.527	291.69
492.745	263.69
492.963	241.69
493.18	227.69
493.398	240.69
493.615	239.69
493.833	236.69
494.05	217.69
494.268	239.69
494.485	224.69
494.703	234.69
494.92	217.69
495.138	242.69
495.355	226.69
495.573	234.69
495.79	251.69
496.008	324.69
496.225	271.69
496.442	245.69
496.66	249.69
496.877	251.69
497.094	243.69
497.312	239.69
497.529	247.69
497.746	261.69
497.963	241.69
498.181	267.69
498.398	281.69
498.615	307.69
498.832	335.69
499.049	338.69
499.267	314.69
499.484	319.69
499.701	329.69
499.918	355.69
500.135	398.69
500.352	412.69
500.569	417.69
500.786	449.69
501.003	414.69
501.22	389.69
501.437	352.69
501.654	333.69
501.871	323.69
502.088	314.69
502.305	274.69
502.522	294.69
502.739	289.69
