Data from NickelSpatula.Lamp.E5.5.P2_HRD10591_11-52-58-551.txt Node
Date: Tue Jul 23 11:52:58 EDT 2019
User: cochatt
Spectrometer: HR+D1059
Trigger mode: 1
Integration Time (sec): 1.000000E-1
Scans to average: 1
Electric dark correction enabled: true
Nonlinearity correction enabled: false
Boxcar width: 0
XAxis mode: Wavelengths
Number of Pixels in Spectrum: 2048
>>>>>Begin Spectral Data<<<<<
223.165	-21.69
223.4	-21.69
223.635	-21.69
223.869	-18.69
224.104	-8.69
224.338	-15.69
224.573	-10.69
224.808	-16.69
225.042	-1.69
225.277	-17.69
225.511	-1.69
225.746	3.31
225.98	3.31
226.215	10.31
226.449	27.31
226.683	22.31
226.918	21.31
227.152	25.31
227.387	30.31
227.621	47.31
227.856	53.31
228.09	53.31
228.324	51.31
228.559	71.31
228.793	64.31
229.027	77.31
229.262	99.31
229.496	89.31
229.73	80.31
229.964	84.31
230.199	89.31
230.433	87.31
230.667	86.31
230.901	99.31
231.136	93.31
231.37	106.31
231.604	106.31
231.838	108.31
232.072	105.31
232.306	109.31
232.541	104.31
232.775	124.31
233.009	108.31
233.243	121.31
233.477	106.31
233.711	123.31
233.945	129.31
234.179	129.31
234.413	139.31
234.647	141.31
234.881	156.31
235.115	140.31
235.349	129.31
235.583	118.31
235.817	125.31
236.051	140.31
236.285	144.31
236.519	145.31
236.753	130.31
236.987	139.31
237.221	128.31
237.455	132.31
237.689	144.31
237.922	141.31
238.156	147.31
238.39	172.31
238.624	165.31
238.858	160.31
239.091	146.31
239.325	159.31
239.559	156.31
239.793	165.31
240.027	186.31
240.26	163.31
240.494	158.31
240.728	153.31
240.961	165.31
241.195	180.31
241.429	154.31
241.662	166.31
241.896	153.31
242.13	135.31
242.363	133.31
242.597	125.31
242.83	166.31
243.064	164.31
243.298	167.31
243.531	166.31
243.765	180.31
243.998	174.31
244.232	177.31
244.465	181.31
244.699	167.31
244.932	191.31
245.166	181.31
245.399	155.31
245.633	156.31
245.866	162.31
246.099	165.31
246.333	178.31
246.566	216.31
246.8	213.31
247.033	183.31
247.266	182.31
247.5	166.31
247.733	182.31
247.966	190.31
248.2	180.31
248.433	187.31
248.666	207.31
248.899	212.31
249.133	201.31
249.366	220.31
249.599	229.31
249.832	220.31
250.066	196.31
250.299	216.31
250.532	211.31
250.765	206.31
250.998	193.31
251.231	193.31
251.465	198.31
251.698	196.31
251.931	205.31
252.164	215.31
252.397	227.31
252.63	264.31
252.863	269.31
253.096	285.31
253.329	277.31
253.562	246.31
253.795	284.31
254.028	303.31
254.261	316.31
254.494	277.31
254.727	276.31
254.96	261.31
255.193	296.31
255.426	263.31
255.659	213.31
255.892	222.31
256.124	206.31
256.357	229.31
256.59	277.31
256.823	259.31
257.056	228.31
257.289	228.31
257.521	233.31
257.754	267.31
257.987	314.31
258.22	284.31
258.452	242.31
258.685	267.31
258.918	298.31
259.151	292.31
259.383	313.31
259.616	346.31
259.849	352.31
260.081	385.31
260.314	407.31
260.547	322.31
260.779	349.31
261.012	382.31
261.244	363.31
261.477	359.31
261.71	333.31
261.942	279.31
262.175	300.31
262.407	271.31
262.64	286.31
262.872	359.31
263.105	374.31
263.337	379.31
263.57	326.31
263.802	235.31
264.035	226.31
264.267	233.31
264.499	187.31
264.732	202.31
264.964	189.31
265.197	185.31
265.429	203.31
265.661	214.31
265.894	199.31
266.126	232.31
266.358	261.31
266.591	299.31
266.823	339.31
267.055	343.31
267.287	303.31
267.52	289.31
267.752	307.31
267.984	332.31
268.216	318.31
268.448	279.31
268.681	256.31
268.913	293.31
269.145	311.31
269.377	303.31
269.609	312.31
269.841	272.31
270.073	292.31
270.306	321.31
270.538	329.31
270.77	335.31
271.002	336.31
271.234	326.31
271.466	347.31
271.698	320.31
271.93	306.31
272.162	310.31
272.394	304.31
272.626	301.31
272.858	316.31
273.09	321.31
273.322	289.31
273.553	267.31
273.785	313.31
274.017	396.31
274.249	483.31
274.481	488.31
274.713	545.31
274.945	645.31
275.176	648.31
275.408	599.31
275.64	541.31
275.872	516.31
276.104	469.31
276.335	405.31
276.567	395.31
276.799	417.31
277.031	456.31
277.262	335.31
277.494	283.31
277.726	273.31
277.957	309.31
278.189	322.31
278.421	307.31
278.652	310.31
278.884	311.31
279.115	291.31
279.347	282.31
279.579	281.31
279.81	299.31
280.042	281.31
280.273	293.31
280.505	271.31
280.736	256.31
280.968	262.31
281.199	259.31
281.431	284.31
281.662	283.31
281.894	269.31
282.125	281.31
282.356	301.31
282.588	326.31
282.819	300.31
283.051	311.31
283.282	355.31
283.513	418.31
283.745	462.31
283.976	463.31
284.207	415.31
284.439	430.31
284.67	439.31
284.901	381.31
285.132	426.31
285.364	428.31
285.595	382.31
285.826	427.31
286.057	446.31
286.288	433.31
286.52	414.31
286.751	445.31
286.982	444.31
287.213	398.31
287.444	390.31
287.675	397.31
287.906	382.31
288.138	344.31
288.369	312.31
288.6	302.31
288.831	301.31
289.062	347.31
289.293	373.31
289.524	337.31
289.755	348.31
289.986	366.31
290.217	343.31
290.448	261.31
290.679	235.31
290.91	232.31
291.141	222.31
291.371	246.31
291.602	236.31
291.833	225.31
292.064	243.31
292.295	269.31
292.526	305.31
292.757	313.31
292.987	318.31
293.218	349.31
293.449	350.31
293.68	391.31
293.91	370.31
294.141	377.31
294.372	372.31
294.603	328.31
294.833	324.31
295.064	414.31
295.295	393.31
295.525	329.31
295.756	277.31
295.987	246.31
296.217	238.31
296.448	230.31
296.679	267.31
296.909	277.31
297.14	285.31
297.37	310.31
297.601	302.31
297.831	277.31
298.062	300.31
298.292	318.31
298.523	334.31
298.753	377.31
298.984	348.31
299.214	300.31
299.445	271.31
299.675	234.31
299.905	257.31
300.136	258.31
300.366	262.31
300.597	267.31
300.827	243.31
301.057	229.31
301.288	239.31
301.518	281.31
301.748	288.31
301.979	311.31
302.209	330.31
302.439	325.31
302.669	265.31
302.9	274.31
303.13	267.31
303.36	253.31
303.59	236.31
303.82	269.31
304.051	286.31
304.281	320.31
304.511	302.31
304.741	271.31
304.971	276.31
305.201	295.31
305.431	275.31
305.661	255.31
305.891	261.31
306.121	257.31
306.352	222.31
306.582	210.31
306.812	210.31
307.042	220.31
307.272	203.31
307.502	197.31
307.731	196.31
307.961	217.31
308.191	201.31
308.421	204.31
308.651	182.31
308.881	201.31
309.111	201.31
309.341	199.31
309.571	208.31
309.8	214.31
310.03	223.31
310.26	216.31
310.49	239.31
310.72	210.31
310.949	224.31
311.179	213.31
311.409	217.31
311.639	248.31
311.868	316.31
312.098	394.31
312.328	428.31
312.557	389.31
312.787	406.31
313.017	357.31
313.246	389.31
313.476	416.31
313.706	345.31
313.935	293.31
314.165	263.31
314.394	239.31
314.624	229.31
314.853	236.31
315.083	260.31
315.312	228.31
315.542	230.31
315.771	210.31
316.001	202.31
316.23	205.31
316.46	196.31
316.689	208.31
316.919	216.31
317.148	197.31
317.377	211.31
317.607	204.31
317.836	207.31
318.065	250.31
318.295	257.31
318.524	259.31
318.753	229.31
318.983	202.31
319.212	220.31
319.441	234.31
319.67	241.31
319.9	257.31
320.129	249.31
320.358	237.31
320.587	221.31
320.816	238.31
321.046	242.31
321.275	287.31
321.504	275.31
321.733	261.31
321.962	265.31
322.191	243.31
322.42	240.31
322.649	225.31
322.878	255.31
323.108	282.31
323.337	245.31
323.566	260.31
323.795	261.31
324.024	245.31
324.253	217.31
324.482	225.31
324.71	254.31
324.939	273.31
325.168	280.31
325.397	223.31
325.626	207.31
325.855	211.31
326.084	229.31
326.313	228.31
326.542	217.31
326.77	216.31
326.999	223.31
327.228	237.31
327.457	244.31
327.686	241.31
327.914	211.31
328.143	213.31
328.372	206.31
328.6	215.31
328.829	202.31
329.058	224.31
329.287	209.31
329.515	213.31
329.744	210.31
329.972	189.31
330.201	212.31
330.43	207.31
330.658	217.31
330.887	240.31
331.115	228.31
331.344	239.31
331.572	220.31
331.801	219.31
332.03	219.31
332.258	219.31
332.486	218.31
332.715	257.31
332.943	236.31
333.172	232.31
333.4	239.31
333.629	247.31
333.857	267.31
334.085	266.31
334.314	260.31
334.542	247.31
334.771	229.31
334.999	220.31
335.227	225.31
335.455	249.31
335.684	250.31
335.912	272.31
336.14	295.31
336.369	281.31
336.597	279.31
336.825	305.31
337.053	339.31
337.281	284.31
337.51	235.31
337.738	247.31
337.966	242.31
338.194	269.31
338.422	255.31
338.65	228.31
338.878	221.31
339.106	229.31
339.334	261.31
339.562	247.31
339.79	250.31
340.018	223.31
340.246	234.31
340.474	261.31
340.702	279.31
340.93	274.31
341.158	291.31
341.386	249.31
341.614	249.31
341.842	243.31
342.07	232.31
342.298	277.31
342.526	302.31
342.754	259.31
342.981	243.31
343.209	250.31
343.437	280.31
343.665	264.31
343.893	290.31
344.12	311.31
344.348	383.31
344.576	325.31
344.804	268.31
345.031	249.31
345.259	240.31
345.487	238.31
345.714	234.31
345.942	262.31
346.17	271.31
346.397	267.31
346.625	235.31
346.853	229.31
347.08	225.31
347.308	248.31
347.535	259.31
347.763	284.31
347.99	233.31
348.218	231.31
348.445	231.31
348.673	225.31
348.9	244.31
349.128	267.31
349.355	236.31
349.583	238.31
349.81	217.31
350.037	227.31
350.265	204.31
350.492	210.31
350.72	213.31
350.947	218.31
351.174	199.31
351.402	220.31
351.629	205.31
351.856	230.31
352.083	214.31
352.311	237.31
352.538	240.31
352.765	267.31
352.992	228.31
353.22	232.31
353.447	234.31
353.674	239.31
353.901	225.31
354.128	232.31
354.355	226.31
354.583	227.31
354.81	228.31
355.037	271.31
355.264	247.31
355.491	254.31
355.718	245.31
355.945	252.31
356.172	245.31
356.399	245.31
356.626	284.31
356.853	349.31
357.08	371.31
357.307	363.31
357.534	289.31
357.761	313.31
357.988	371.31
358.215	425.31
358.441	382.31
358.668	347.31
358.895	317.31
359.122	281.31
359.349	277.31
359.576	310.31
359.802	247.31
360.029	214.31
360.256	237.31
360.483	302.31
360.709	360.31
360.936	381.31
361.163	321.31
361.39	265.31
361.616	260.31
361.843	261.31
362.07	308.31
362.296	271.31
362.523	233.31
362.749	214.31
362.976	230.31
363.203	277.31
363.429	305.31
363.656	238.31
363.882	228.31
364.109	237.31
364.335	241.31
364.562	227.31
364.788	244.31
365.015	272.31
365.241	281.31
365.468	248.31
365.694	215.31
365.92	213.31
366.147	198.31
366.373	189.31
366.599	214.31
366.826	214.31
367.052	216.31
367.278	208.31
367.505	197.31
367.731	206.31
367.957	229.31
368.184	243.31
368.41	227.31
368.636	257.31
368.862	250.31
369.089	237.31
369.315	211.31
369.541	226.31
369.767	207.31
369.993	203.31
370.219	199.31
370.445	220.31
370.672	238.31
370.898	264.31
371.124	262.31
371.35	228.31
371.576	221.31
371.802	234.31
372.028	277.31
372.254	309.31
372.48	270.31
372.706	236.31
372.932	253.31
373.158	264.31
373.384	305.31
373.61	391.31
373.835	372.31
374.061	329.31
374.287	285.31
374.513	318.31
374.739	358.31
374.965	357.31
375.191	381.31
375.416	275.31
375.642	225.31
375.868	279.31
376.094	313.31
376.319	258.31
376.545	275.31
376.771	282.31
376.997	272.31
377.222	192.31
377.448	189.31
377.674	163.31
377.899	183.31
378.125	197.31
378.35	200.31
378.576	206.31
378.802	221.31
379.027	229.31
379.253	220.31
379.478	225.31
379.704	243.31
379.929	248.31
380.155	253.31
380.38	245.31
380.606	235.31
380.831	253.31
381.057	255.31
381.282	238.31
381.507	256.31
381.733	294.31
381.958	319.31
382.184	357.31
382.409	353.31
382.634	351.31
382.86	364.31
383.085	297.31
383.31	262.31
383.535	271.31
383.761	281.31
383.986	265.31
384.211	296.31
384.436	299.31
384.662	263.31
384.887	259.31
385.112	257.31
385.337	277.31
385.562	247.31
385.787	272.31
386.013	288.31
386.238	308.31
386.463	257.31
386.688	227.31
386.913	229.31
387.138	213.31
387.363	233.31
387.588	251.31
387.813	255.31
388.038	271.31
388.263	244.31
388.488	246.31
388.713	259.31
388.938	270.31
389.163	241.31
389.387	214.31
389.612	239.31
389.837	227.31
390.062	238.31
390.287	221.31
390.512	241.31
390.736	225.31
390.961	230.31
391.186	226.31
391.411	222.31
391.636	225.31
391.86	240.31
392.085	273.31
392.31	258.31
392.534	249.31
392.759	243.31
392.984	248.31
393.208	244.31
393.433	215.31
393.658	218.31
393.882	201.31
394.107	218.31
394.331	215.31
394.556	207.31
394.78	191.31
395.005	217.31
395.229	224.31
395.454	221.31
395.678	227.31
395.903	214.31
396.127	223.31
396.352	237.31
396.576	243.31
396.801	236.31
397.025	273.31
397.249	271.31
397.474	231.31
397.698	233.31
397.922	228.31
398.147	231.31
398.371	226.31
398.595	249.31
398.82	229.31
399.044	235.31
399.268	246.31
399.492	269.31
399.717	305.31
399.941	302.31
400.165	278.31
400.389	257.31
400.613	249.31
400.837	248.31
401.062	233.31
401.286	229.31
401.51	226.31
401.734	234.31
401.958	248.31
402.182	235.31
402.406	244.31
402.63	249.31
402.854	241.31
403.078	313.31
403.302	363.31
403.526	404.31
403.75	349.31
403.974	262.31
404.198	293.31
404.422	323.31
404.645	337.31
404.869	359.31
405.093	289.31
405.317	260.31
405.541	259.31
405.765	274.31
405.988	286.31
406.212	264.31
406.436	297.31
406.66	318.31
406.883	268.31
407.107	275.31
407.331	315.31
407.555	308.31
407.778	279.31
408.002	269.31
408.226	269.31
408.449	277.31
408.673	266.31
408.896	245.31
409.12	230.31
409.344	241.31
409.567	237.31
409.791	249.31
410.014	242.31
410.238	257.31
410.461	247.31
410.685	233.31
410.908	241.31
411.132	217.31
411.355	236.31
411.578	243.31
411.802	229.31
412.025	250.31
412.249	251.31
412.472	249.31
412.695	236.31
412.919	234.31
413.142	251.31
413.365	243.31
413.589	252.31
413.812	246.31
414.035	228.31
414.258	248.31
414.482	267.31
414.705	261.31
414.928	231.31
415.151	232.31
415.374	233.31
415.597	232.31
415.821	243.31
416.044	235.31
416.267	222.31
416.49	228.31
416.713	230.31
416.936	202.31
417.159	229.31
417.382	237.31
417.605	226.31
417.828	264.31
418.051	249.31
418.274	243.31
418.497	224.31
418.72	250.31
418.943	245.31
419.166	254.31
419.389	267.31
419.611	235.31
419.834	250.31
420.057	277.31
420.28	264.31
420.503	261.31
420.726	231.31
420.948	213.31
421.171	224.31
421.394	231.31
421.617	222.31
421.839	222.31
422.062	239.31
422.285	245.31
422.507	247.31
422.73	243.31
422.953	262.31
423.175	234.31
423.398	235.31
423.621	250.31
423.843	247.31
424.066	256.31
424.288	241.31
424.511	235.31
424.733	247.31
424.956	248.31
425.178	257.31
425.401	300.31
425.623	346.31
425.846	320.31
426.068	263.31
426.291	275.31
426.513	263.31
426.735	224.31
426.958	238.31
427.18	273.31
427.402	343.31
427.625	359.31
427.847	326.31
428.069	249.31
428.292	233.31
428.514	244.31
428.736	237.31
428.958	258.31
429.181	305.31
429.403	273.31
429.625	211.31
429.847	237.31
430.069	228.31
430.292	231.31
430.514	220.31
430.736	233.31
430.958	272.31
431.18	243.31
431.402	230.31
431.624	220.31
431.846	214.31
432.068	232.31
432.29	235.31
432.512	237.31
432.734	287.31
432.956	281.31
433.178	218.31
433.4	234.31
433.622	236.31
433.844	230.31
434.066	256.31
434.287	238.31
434.509	235.31
434.731	254.31
434.953	247.31
435.175	253.31
435.397	269.31
435.618	254.31
435.84	229.31
436.062	231.31
436.284	237.31
436.505	229.31
436.727	194.31
436.949	223.31
437.17	211.31
437.392	242.31
437.614	219.31
437.835	227.31
438.057	212.31
438.278	223.31
438.5	322.31
438.721	315.31
438.943	255.31
439.165	229.31
439.386	223.31
439.608	207.31
439.829	207.31
440.05	205.31
440.272	222.31
440.493	234.31
440.715	285.31
440.936	250.31
441.158	221.31
441.379	225.31
441.6	262.31
441.822	270.31
442.043	233.31
442.264	238.31
442.486	244.31
442.707	247.31
442.928	248.31
443.149	220.31
443.371	225.31
443.592	236.31
443.813	245.31
444.034	234.31
444.255	232.31
444.476	255.31
444.698	255.31
444.919	262.31
445.14	369.31
445.361	319.31
445.582	255.31
445.803	246.31
446.024	257.31
446.245	241.31
446.466	229.31
446.687	233.31
446.908	229.31
447.129	219.31
447.35	222.31
447.571	213.31
447.792	209.31
448.013	207.31
448.234	204.31
448.455	202.31
448.675	209.31
448.896	216.31
449.117	224.31
449.338	212.31
449.559	207.31
449.779	226.31
450	226.31
450.221	228.31
450.442	213.31
450.662	204.31
450.883	206.31
451.104	215.31
451.324	209.31
451.545	219.31
451.766	213.31
451.986	207.31
452.207	213.31
452.428	212.31
452.648	202.31
452.869	234.31
453.089	213.31
453.31	231.31
453.53	214.31
453.751	210.31
453.971	211.31
454.192	219.31
454.412	205.31
454.633	199.31
454.853	200.31
455.073	189.31
455.294	205.31
455.514	205.31
455.734	213.31
455.955	204.31
456.175	212.31
456.395	202.31
456.616	205.31
456.836	204.31
457.056	195.31
457.276	188.31
457.497	202.31
457.717	205.31
457.937	199.31
458.157	199.31
458.377	204.31
458.598	199.31
458.818	216.31
459.038	201.31
459.258	214.31
459.478	228.31
459.698	238.31
459.918	241.31
460.138	241.31
460.358	235.31
460.578	229.31
460.798	241.31
461.018	248.31
461.238	210.31
461.458	262.31
461.678	239.31
461.898	244.31
462.118	265.31
462.338	253.31
462.558	250.31
462.777	261.31
462.997	307.31
463.217	288.31
463.437	274.31
463.657	289.31
463.876	273.31
464.096	286.31
464.316	271.31
464.536	278.31
464.755	281.31
464.975	285.31
465.195	268.31
465.414	281.31
465.634	248.31
465.854	242.31
466.073	237.31
466.293	219.31
466.512	234.31
466.732	255.31
466.951	269.31
467.171	236.31
467.391	224.31
467.61	225.31
467.829	230.31
468.049	249.31
468.268	244.31
468.488	215.31
468.707	222.31
468.927	225.31
469.146	276.31
469.365	262.31
469.585	231.31
469.804	244.31
470.023	263.31
470.243	246.31
470.462	238.31
470.681	245.31
470.901	246.31
471.12	259.31
471.339	251.31
471.558	259.31
471.777	236.31
471.997	248.31
472.216	269.31
472.435	266.31
472.654	242.31
472.873	239.31
473.092	247.31
473.311	265.31
473.53	225.31
473.749	229.31
473.968	266.31
474.187	244.31
474.406	230.31
474.625	238.31
474.844	232.31
475.063	261.31
475.282	247.31
475.501	273.31
475.72	277.31
475.939	249.31
476.158	261.31
476.377	298.31
476.596	321.31
476.814	341.31
477.033	303.31
477.252	274.31
477.471	251.31
477.69	254.31
477.908	274.31
478.127	292.31
478.346	284.31
478.564	287.31
478.783	284.31
479.002	274.31
479.22	297.31
479.439	336.31
479.658	299.31
479.876	270.31
480.095	273.31
480.313	298.31
480.532	293.31
480.751	277.31
480.969	279.31
481.188	310.31
481.406	313.31
481.624	287.31
481.843	286.31
482.061	265.31
482.28	291.31
482.498	357.31
482.717	343.31
482.935	315.31
483.153	293.31
483.372	277.31
483.59	241.31
483.808	241.31
484.027	251.31
484.245	260.31
484.463	237.31
484.681	255.31
484.9	277.31
485.118	275.31
485.336	261.31
485.554	253.31
485.772	270.31
485.99	289.31
486.209	301.31
486.427	280.31
486.645	300.31
486.863	310.31
487.081	294.31
487.299	321.31
487.517	316.31
487.735	297.31
487.953	291.31
488.171	300.31
488.389	277.31
488.607	267.31
488.825	273.31
489.043	302.31
489.261	334.31
489.479	348.31
489.696	284.31
489.914	277.31
490.132	238.31
490.35	251.31
490.568	267.31
490.786	267.31
491.003	272.31
491.221	276.31
491.439	273.31
491.657	265.31
491.874	279.31
492.092	308.31
492.31	379.31
492.527	378.31
492.745	349.31
492.963	285.31
493.18	317.31
493.398	279.31
493.615	289.31
493.833	296.31
494.05	274.31
494.268	290.31
494.485	293.31
494.703	290.31
494.92	290.31
495.138	269.31
495.355	277.31
495.573	287.31
495.79	313.31
496.008	368.31
496.225	315.31
496.442	310.31
496.66	319.31
496.877	318.31
497.094	321.31
497.312	285.31
497.529	286.31
497.746	324.31
497.963	305.31
498.181	348.31
498.398	349.31
498.615	343.31
498.832	371.31
499.049	395.31
499.267	379.31
499.484	369.31
499.701	391.31
499.918	436.31
500.135	493.31
500.352	510.31
500.569	541.31
500.786	529.31
501.003	523.31
501.22	471.31
501.437	425.31
501.654	399.31
501.871	383.31
502.088	367.31
502.305	336.31
502.522	339.31
