Data from NickelSpatula.Lamp.E5.5.P2_HRD10591_11-53-54-547.txt Node
Date: Tue Jul 23 11:53:54 EDT 2019
User: cochatt
Spectrometer: HR+D1059
Trigger mode: 1
Integration Time (sec): 1.000000E-1
Scans to average: 1
Electric dark correction enabled: true
Nonlinearity correction enabled: false
Boxcar width: 0
XAxis mode: Wavelengths
Number of Pixels in Spectrum: 2048
>>>>>Begin Spectral Data<<<<<
223.165	-17.06
223.4	-17.06
223.635	-17.06
223.869	-20.06
224.104	-7.06
224.338	-8.06
224.573	-3.06
224.808	-16.06
225.042	-14.06
225.277	-11.06
225.511	-7.06
225.746	-2.06
225.98	7.94
226.215	11.94
226.449	15.94
226.683	16.94
226.918	23.94
227.152	28.94
227.387	19.94
227.621	43.94
227.856	40.94
228.09	40.94
228.324	56.94
228.559	48.94
228.793	56.94
229.027	79.94
229.262	63.94
229.496	73.94
229.73	80.94
229.964	79.94
230.199	84.94
230.433	86.94
230.667	111.94
230.901	87.94
231.136	95.94
231.37	87.94
231.604	92.94
231.838	119.94
232.072	115.94
232.306	107.94
232.541	91.94
232.775	93.94
233.009	85.94
233.243	102.94
233.477	112.94
233.711	124.94
233.945	119.94
234.179	113.94
234.413	109.94
234.647	123.94
234.881	145.94
235.115	157.94
235.349	141.94
235.583	123.94
235.817	141.94
236.051	123.94
236.285	127.94
236.519	133.94
236.753	142.94
236.987	115.94
237.221	116.94
237.455	118.94
237.689	120.94
237.922	122.94
238.156	134.94
238.39	140.94
238.624	162.94
238.858	143.94
239.091	129.94
239.325	146.94
239.559	140.94
239.793	141.94
240.027	157.94
240.26	168.94
240.494	158.94
240.728	148.94
240.961	165.94
241.195	167.94
241.429	163.94
241.662	169.94
241.896	134.94
242.13	114.94
242.363	126.94
242.597	142.94
242.83	160.94
243.064	136.94
243.298	155.94
243.531	149.94
243.765	161.94
243.998	141.94
244.232	151.94
244.465	162.94
244.699	165.94
244.932	169.94
245.166	135.94
245.399	123.94
245.633	143.94
245.866	144.94
246.099	148.94
246.333	166.94
246.566	167.94
246.8	171.94
247.033	176.94
247.266	163.94
247.5	160.94
247.733	166.94
247.966	156.94
248.2	159.94
248.433	177.94
248.666	179.94
248.899	177.94
249.133	182.94
249.366	203.94
249.599	233.94
249.832	199.94
250.066	191.94
250.299	191.94
250.532	200.94
250.765	179.94
250.998	174.94
251.231	195.94
251.465	173.94
251.698	180.94
251.931	186.94
252.164	186.94
252.397	195.94
252.63	201.94
252.863	217.94
253.096	228.94
253.329	225.94
253.562	224.94
253.795	268.94
254.028	276.94
254.261	289.94
254.494	240.94
254.727	236.94
254.96	235.94
255.193	258.94
255.426	235.94
255.659	183.94
255.892	182.94
256.124	201.94
256.357	227.94
256.59	254.94
256.823	260.94
257.056	204.94
257.289	196.94
257.521	222.94
257.754	254.94
257.987	284.94
258.22	249.94
258.452	222.94
258.685	239.94
258.918	273.94
259.151	263.94
259.383	279.94
259.616	321.94
259.849	311.94
260.081	349.94
260.314	365.94
260.547	310.94
260.779	303.94
261.012	355.94
261.244	324.94
261.477	336.94
261.71	314.94
261.942	271.94
262.175	283.94
262.407	232.94
262.64	264.94
262.872	309.94
263.105	319.94
263.337	315.94
263.57	316.94
263.802	240.94
264.035	215.94
264.267	189.94
264.499	181.94
264.732	175.94
264.964	171.94
265.197	168.94
265.429	196.94
265.661	195.94
265.894	191.94
266.126	210.94
266.358	230.94
266.591	251.94
266.823	303.94
267.055	295.94
267.287	278.94
267.52	264.94
267.752	282.94
267.984	311.94
268.216	291.94
268.448	257.94
268.681	242.94
268.913	260.94
269.145	229.94
269.377	260.94
269.609	270.94
269.841	258.94
270.073	271.94
270.306	305.94
270.538	289.94
270.77	295.94
271.002	294.94
271.234	310.94
271.466	312.94
271.698	314.94
271.93	289.94
272.162	284.94
272.394	270.94
272.626	278.94
272.858	282.94
273.09	294.94
273.322	249.94
273.553	252.94
273.785	275.94
274.017	357.94
274.249	427.94
274.481	451.94
274.713	491.94
274.945	552.94
275.176	565.94
275.408	519.94
275.64	461.94
275.872	475.94
276.104	413.94
276.335	352.94
276.567	363.94
276.799	381.94
277.031	395.94
277.262	316.94
277.494	261.94
277.726	254.94
277.957	279.94
278.189	317.94
278.421	299.94
278.652	314.94
278.884	289.94
279.115	269.94
279.347	265.94
279.579	254.94
279.81	265.94
280.042	263.94
280.273	254.94
280.505	222.94
280.736	237.94
280.968	219.94
281.199	245.94
281.431	271.94
281.662	262.94
281.894	233.94
282.125	258.94
282.356	268.94
282.588	295.94
282.819	245.94
283.051	267.94
283.282	325.94
283.513	374.94
283.745	422.94
283.976	414.94
284.207	381.94
284.439	389.94
284.67	384.94
284.901	329.94
285.132	365.94
285.364	355.94
285.595	352.94
285.826	369.94
286.057	377.94
286.288	363.94
286.52	376.94
286.751	417.94
286.982	391.94
287.213	353.94
287.444	337.94
287.675	371.94
287.906	369.94
288.138	323.94
288.369	296.94
288.6	269.94
288.831	278.94
289.062	322.94
289.293	364.94
289.524	317.94
289.755	301.94
289.986	329.94
290.217	305.94
290.448	237.94
290.679	232.94
290.91	203.94
291.141	220.94
291.371	222.94
291.602	208.94
291.833	214.94
292.064	220.94
292.295	258.94
292.526	278.94
292.757	304.94
292.987	310.94
293.218	301.94
293.449	335.94
293.68	342.94
293.91	331.94
294.141	356.94
294.372	333.94
294.603	283.94
294.833	319.94
295.064	367.94
295.295	382.94
295.525	273.94
295.756	242.94
295.987	205.94
296.217	227.94
296.448	211.94
296.679	233.94
296.909	254.94
297.14	266.94
297.37	276.94
297.601	288.94
297.831	257.94
298.062	267.94
298.292	287.94
298.523	295.94
298.753	335.94
298.984	301.94
299.214	254.94
299.445	237.94
299.675	231.94
299.905	235.94
300.136	243.94
300.366	237.94
300.597	232.94
300.827	234.94
301.057	226.94
301.288	225.94
301.518	241.94
301.748	254.94
301.979	287.94
302.209	292.94
302.439	312.94
302.669	263.94
302.9	272.94
303.13	268.94
303.36	232.94
303.59	226.94
303.82	237.94
304.051	259.94
304.281	268.94
304.511	271.94
304.741	241.94
304.971	257.94
305.201	267.94
305.431	263.94
305.661	223.94
305.891	239.94
306.121	235.94
306.352	229.94
306.582	195.94
306.812	191.94
307.042	197.94
307.272	181.94
307.502	176.94
307.731	198.94
307.961	202.94
308.191	190.94
308.421	192.94
308.651	209.94
308.881	181.94
309.111	201.94
309.341	198.94
309.571	210.94
309.8	216.94
310.03	214.94
310.26	215.94
310.49	207.94
310.72	185.94
310.949	196.94
311.179	194.94
311.409	211.94
311.639	235.94
311.868	265.94
312.098	340.94
312.328	352.94
312.557	354.94
312.787	365.94
313.017	309.94
313.246	354.94
313.476	355.94
313.706	307.94
313.935	258.94
314.165	231.94
314.394	219.94
314.624	208.94
314.853	212.94
315.083	216.94
315.312	210.94
315.542	220.94
315.771	201.94
316.001	193.94
316.23	199.94
316.46	188.94
316.689	193.94
316.919	179.94
317.148	195.94
317.377	195.94
317.607	204.94
317.836	185.94
318.065	239.94
318.295	262.94
318.524	245.94
318.753	203.94
318.983	207.94
319.212	203.94
319.441	212.94
319.67	239.94
319.9	241.94
320.129	237.94
320.358	217.94
320.587	211.94
320.816	195.94
321.046	224.94
321.275	261.94
321.504	254.94
321.733	241.94
321.962	236.94
322.191	222.94
322.42	219.94
322.649	210.94
322.878	229.94
323.108	251.94
323.337	225.94
323.566	235.94
323.795	222.94
324.024	228.94
324.253	204.94
324.482	211.94
324.71	230.94
324.939	249.94
325.168	245.94
325.397	211.94
325.626	219.94
325.855	203.94
326.084	192.94
326.313	203.94
326.542	199.94
326.77	203.94
326.999	200.94
327.228	221.94
327.457	214.94
327.686	218.94
327.914	194.94
328.143	203.94
328.372	179.94
328.6	190.94
328.829	179.94
329.058	210.94
329.287	191.94
329.515	208.94
329.744	187.94
329.972	195.94
330.201	198.94
330.43	175.94
330.658	236.94
330.887	227.94
331.115	228.94
331.344	220.94
331.572	235.94
331.801	211.94
332.03	207.94
332.258	197.94
332.486	199.94
332.715	222.94
332.943	205.94
333.172	213.94
333.4	220.94
333.629	228.94
333.857	239.94
334.085	254.94
334.314	250.94
334.542	230.94
334.771	224.94
334.999	213.94
335.227	213.94
335.455	203.94
335.684	230.94
335.912	257.94
336.14	273.94
336.369	260.94
336.597	265.94
336.825	290.94
337.053	312.94
337.281	256.94
337.51	213.94
337.738	216.94
337.966	225.94
338.194	247.94
338.422	232.94
338.65	219.94
338.878	188.94
339.106	192.94
339.334	219.94
339.562	223.94
339.79	226.94
340.018	200.94
340.246	207.94
340.474	239.94
340.702	265.94
340.93	262.94
341.158	270.94
341.386	232.94
341.614	221.94
341.842	224.94
342.07	238.94
342.298	261.94
342.526	275.94
342.754	233.94
342.981	232.94
343.209	230.94
343.437	235.94
343.665	259.94
343.893	259.94
344.12	297.94
344.348	331.94
344.576	307.94
344.804	230.94
345.031	215.94
345.259	209.94
345.487	222.94
345.714	226.94
345.942	230.94
346.17	241.94
346.397	251.94
346.625	221.94
346.853	232.94
347.08	214.94
347.308	217.94
347.535	251.94
347.763	256.94
347.99	224.94
348.218	204.94
348.445	218.94
348.673	239.94
348.9	236.94
349.128	249.94
349.355	230.94
349.583	246.94
349.81	211.94
350.037	222.94
350.265	200.94
350.492	187.94
350.72	199.94
350.947	194.94
351.174	195.94
351.402	210.94
351.629	221.94
351.856	211.94
352.083	206.94
352.311	200.94
352.538	232.94
352.765	225.94
352.992	219.94
353.22	220.94
353.447	235.94
353.674	204.94
353.901	203.94
354.128	204.94
354.355	212.94
354.583	220.94
354.81	216.94
355.037	237.94
355.264	213.94
355.491	241.94
355.718	237.94
355.945	228.94
356.172	226.94
356.399	222.94
356.626	264.94
356.853	296.94
357.08	312.94
357.307	337.94
357.534	280.94
357.761	277.94
357.988	351.94
358.215	397.94
358.441	341.94
358.668	305.94
358.895	287.94
359.122	258.94
359.349	263.94
359.576	291.94
359.802	252.94
360.029	215.94
360.256	231.94
360.483	268.94
360.709	317.94
360.936	327.94
361.163	301.94
361.39	232.94
361.616	227.94
361.843	256.94
362.07	274.94
362.296	271.94
362.523	235.94
362.749	202.94
362.976	214.94
363.203	247.94
363.429	260.94
363.656	227.94
363.882	208.94
364.109	220.94
364.335	229.94
364.562	215.94
364.788	249.94
365.015	256.94
365.241	235.94
365.468	188.94
365.694	199.94
365.92	196.94
366.147	179.94
366.373	210.94
366.599	176.94
366.826	185.94
367.052	192.94
367.278	198.94
367.505	176.94
367.731	206.94
367.957	209.94
368.184	225.94
368.41	210.94
368.636	225.94
368.862	232.94
369.089	222.94
369.315	201.94
369.541	187.94
369.767	199.94
369.993	207.94
370.219	195.94
370.445	205.94
370.672	223.94
370.898	255.94
371.124	225.94
371.35	214.94
371.576	207.94
371.802	213.94
372.028	240.94
372.254	269.94
372.48	247.94
372.706	227.94
372.932	228.94
373.158	237.94
373.384	267.94
373.61	338.94
373.835	340.94
374.061	279.94
374.287	260.94
374.513	283.94
374.739	326.94
374.965	363.94
375.191	346.94
375.416	261.94
375.642	248.94
375.868	261.94
376.094	282.94
376.319	240.94
376.545	269.94
376.771	277.94
376.997	245.94
377.222	222.94
377.448	193.94
377.674	185.94
377.899	175.94
378.125	183.94
378.35	203.94
378.576	191.94
378.802	193.94
379.027	214.94
379.253	197.94
379.478	213.94
379.704	210.94
379.929	227.94
380.155	237.94
380.38	207.94
380.606	214.94
380.831	246.94
381.057	233.94
381.282	207.94
381.507	224.94
381.733	267.94
381.958	303.94
382.184	313.94
382.409	320.94
382.634	329.94
382.86	364.94
383.085	280.94
383.31	242.94
383.535	285.94
383.761	266.94
383.986	256.94
384.211	286.94
384.436	296.94
384.662	245.94
384.887	228.94
385.112	229.94
385.337	242.94
385.562	224.94
385.787	258.94
386.013	283.94
386.238	273.94
386.463	225.94
386.688	244.94
386.913	207.94
387.138	206.94
387.363	219.94
387.588	221.94
387.813	236.94
388.038	223.94
388.263	226.94
388.488	212.94
388.713	252.94
388.938	255.94
389.163	215.94
389.387	189.94
389.612	207.94
389.837	196.94
390.062	217.94
390.287	246.94
390.512	239.94
390.736	216.94
390.961	213.94
391.186	194.94
391.411	204.94
391.636	207.94
391.86	205.94
392.085	239.94
392.31	244.94
392.534	247.94
392.759	214.94
392.984	235.94
393.208	229.94
393.433	207.94
393.658	211.94
393.882	192.94
394.107	196.94
394.331	191.94
394.556	216.94
394.78	185.94
395.005	206.94
395.229	216.94
395.454	214.94
395.678	201.94
395.903	212.94
396.127	204.94
396.352	202.94
396.576	244.94
396.801	223.94
397.025	239.94
397.249	249.94
397.474	239.94
397.698	205.94
397.922	226.94
398.147	212.94
398.371	214.94
398.595	243.94
398.82	240.94
399.044	242.94
399.268	248.94
399.492	277.94
399.717	281.94
399.941	287.94
400.165	271.94
400.389	248.94
400.613	248.94
400.837	224.94
401.062	209.94
401.286	215.94
401.51	224.94
401.734	213.94
401.958	230.94
402.182	227.94
402.406	229.94
402.63	237.94
402.854	240.94
403.078	277.94
403.302	351.94
403.526	381.94
403.75	320.94
403.974	271.94
404.198	264.94
404.422	283.94
404.645	301.94
404.869	330.94
405.093	266.94
405.317	242.94
405.541	247.94
405.765	241.94
405.988	236.94
406.212	243.94
406.436	271.94
406.66	304.94
406.883	259.94
407.107	265.94
407.331	305.94
407.555	289.94
407.778	258.94
408.002	273.94
408.226	275.94
408.449	247.94
408.673	265.94
408.896	239.94
409.12	220.94
409.344	226.94
409.567	221.94
409.791	241.94
410.014	238.94
410.238	228.94
410.461	235.94
410.685	227.94
410.908	239.94
411.132	242.94
411.355	236.94
411.578	235.94
411.802	220.94
412.025	229.94
412.249	251.94
412.472	241.94
412.695	220.94
412.919	220.94
413.142	223.94
413.365	262.94
413.589	251.94
413.812	222.94
414.035	219.94
414.258	229.94
414.482	226.94
414.705	249.94
414.928	232.94
415.151	220.94
415.374	220.94
415.597	230.94
415.821	232.94
416.044	225.94
416.267	215.94
416.49	227.94
416.713	219.94
416.936	207.94
417.159	214.94
417.382	216.94
417.605	207.94
417.828	240.94
418.051	237.94
418.274	229.94
418.497	227.94
418.72	242.94
418.943	224.94
419.166	244.94
419.389	266.94
419.611	239.94
419.834	245.94
420.057	243.94
420.28	245.94
420.503	238.94
420.726	216.94
420.948	200.94
421.171	218.94
421.394	241.94
421.617	213.94
421.839	199.94
422.062	217.94
422.285	220.94
422.507	225.94
422.73	232.94
422.953	240.94
423.175	221.94
423.398	238.94
423.621	264.94
423.843	253.94
424.066	226.94
424.288	255.94
424.511	229.94
424.733	232.94
424.956	237.94
425.178	257.94
425.401	293.94
425.623	341.94
425.846	293.94
426.068	245.94
426.291	229.94
426.513	239.94
426.735	217.94
426.958	225.94
427.18	264.94
427.402	311.94
427.625	347.94
427.847	301.94
428.069	217.94
428.292	224.94
428.514	226.94
428.736	212.94
428.958	249.94
429.181	285.94
429.403	239.94
429.625	210.94
429.847	216.94
430.069	225.94
430.292	225.94
430.514	204.94
430.736	219.94
430.958	272.94
431.18	249.94
431.402	220.94
431.624	211.94
431.846	187.94
432.068	208.94
432.29	214.94
432.512	248.94
432.734	265.94
432.956	239.94
433.178	221.94
433.4	214.94
433.622	216.94
433.844	235.94
434.066	247.94
434.287	232.94
434.509	236.94
434.731	232.94
434.953	256.94
435.175	224.94
435.397	279.94
435.618	222.94
435.84	232.94
436.062	219.94
436.284	213.94
436.505	207.94
436.727	202.94
436.949	205.94
437.17	211.94
437.392	216.94
437.614	236.94
437.835	201.94
438.057	209.94
438.278	226.94
438.5	292.94
438.721	295.94
438.943	239.94
439.165	214.94
439.386	195.94
439.608	205.94
439.829	190.94
440.05	213.94
440.272	211.94
440.493	219.94
440.715	260.94
440.936	241.94
441.158	221.94
441.379	239.94
441.6	267.94
441.822	259.94
442.043	228.94
442.264	231.94
442.486	217.94
442.707	196.94
442.928	220.94
443.149	228.94
443.371	233.94
443.592	233.94
443.813	232.94
444.034	216.94
444.255	236.94
444.476	232.94
444.698	240.94
444.919	240.94
445.14	348.94
445.361	301.94
445.582	235.94
445.803	236.94
446.024	235.94
446.245	236.94
446.466	223.94
446.687	220.94
446.908	209.94
447.129	210.94
447.35	207.94
447.571	199.94
447.792	189.94
448.013	200.94
448.234	200.94
448.455	198.94
448.675	189.94
448.896	199.94
449.117	205.94
449.338	204.94
449.559	198.94
449.779	227.94
450	214.94
450.221	211.94
450.442	207.94
450.662	205.94
450.883	194.94
451.104	211.94
451.324	206.94
451.545	213.94
451.766	201.94
451.986	213.94
452.207	200.94
452.428	194.94
452.648	184.94
452.869	222.94
453.089	210.94
453.31	225.94
453.53	191.94
453.751	200.94
453.971	206.94
454.192	197.94
454.412	211.94
454.633	207.94
454.853	195.94
455.073	195.94
455.294	182.94
455.514	191.94
455.734	199.94
455.955	202.94
456.175	195.94
456.395	195.94
456.616	171.94
456.836	171.94
457.056	166.94
457.276	179.94
457.497	187.94
457.717	177.94
457.937	194.94
458.157	196.94
458.377	191.94
458.598	194.94
458.818	200.94
459.038	205.94
459.258	211.94
459.478	207.94
459.698	230.94
459.918	233.94
460.138	223.94
460.358	229.94
460.578	214.94
460.798	224.94
461.018	230.94
461.238	229.94
461.458	223.94
461.678	255.94
461.898	252.94
462.118	222.94
462.338	242.94
462.558	237.94
462.777	265.94
462.997	283.94
463.217	284.94
463.437	275.94
463.657	274.94
463.876	264.94
464.096	256.94
464.316	256.94
464.536	284.94
464.755	280.94
464.975	259.94
465.195	256.94
465.414	251.94
465.634	226.94
465.854	211.94
466.073	229.94
466.293	222.94
466.512	235.94
466.732	236.94
466.951	243.94
467.171	248.94
467.391	220.94
467.61	206.94
467.829	214.94
468.049	231.94
468.268	222.94
468.488	213.94
468.707	220.94
468.927	248.94
469.146	238.94
469.365	239.94
469.585	224.94
469.804	235.94
470.023	247.94
470.243	228.94
470.462	223.94
470.681	209.94
470.901	221.94
471.12	227.94
471.339	218.94
471.558	227.94
471.777	219.94
471.997	226.94
472.216	248.94
472.435	265.94
472.654	235.94
472.873	219.94
473.092	235.94
473.311	243.94
473.53	200.94
473.749	224.94
473.968	243.94
474.187	253.94
474.406	211.94
474.625	218.94
474.844	215.94
475.063	243.94
475.282	228.94
475.501	249.94
475.72	265.94
475.939	250.94
476.158	251.94
476.377	289.94
476.596	318.94
476.814	317.94
477.033	281.94
477.252	223.94
477.471	229.94
477.69	232.94
477.908	237.94
478.127	269.94
478.346	262.94
478.564	283.94
478.783	258.94
479.002	270.94
479.22	288.94
479.439	322.94
479.658	272.94
479.876	249.94
480.095	276.94
480.313	291.94
480.532	253.94
480.751	252.94
480.969	287.94
481.188	292.94
481.406	315.94
481.624	271.94
481.843	237.94
482.061	252.94
482.28	284.94
482.498	335.94
482.717	325.94
482.935	276.94
483.153	241.94
483.372	250.94
483.59	252.94
483.808	243.94
484.027	237.94
484.245	230.94
484.463	244.94
484.681	237.94
484.9	249.94
485.118	267.94
485.336	274.94
485.554	248.94
485.772	244.94
485.99	272.94
486.209	280.94
486.427	278.94
486.645	285.94
486.863	266.94
487.081	269.94
487.299	287.94
487.517	296.94
487.735	253.94
487.953	272.94
488.171	272.94
488.389	250.94
488.607	262.94
488.825	249.94
489.043	274.94
489.261	315.94
489.479	311.94
489.696	276.94
489.914	251.94
490.132	239.94
490.35	245.94
490.568	240.94
490.786	249.94
491.003	252.94
491.221	247.94
491.439	276.94
491.657	249.94
491.874	256.94
492.092	295.94
492.31	337.94
492.527	347.94
492.745	291.94
492.963	284.94
493.18	276.94
493.398	280.94
493.615	275.94
493.833	276.94
494.05	274.94
494.268	273.94
494.485	268.94
494.703	270.94
494.92	281.94
495.138	269.94
495.355	275.94
495.573	267.94
495.79	304.94
496.008	358.94
496.225	310.94
496.442	292.94
496.66	288.94
496.877	307.94
497.094	292.94
497.312	295.94
497.529	289.94
497.746	281.94
497.963	296.94
498.181	316.94
498.398	333.94
498.615	362.94
498.832	363.94
499.049	383.94
499.267	383.94
499.484	368.94
499.701	382.94
499.918	412.94
500.135	482.94
500.352	492.94
500.569	542.94
500.786	535.94
501.003	503.94
501.22	456.94
501.437	433.94
501.654	406.94
501.871	367.94
502.088	370.94
502.305	341.94
502.522	341.94
