Data from NickelSpatula.Lamp.E10.P2_HRD10591_11-59-44-525.txt Node
Date: Tue Jul 23 11:59:44 EDT 2019
User: cochatt
Spectrometer: HR+D1059
Trigger mode: 1
Integration Time (sec): 1.000000E-1
Scans to average: 1
Electric dark correction enabled: true
Nonlinearity correction enabled: false
Boxcar width: 0
XAxis mode: Wavelengths
Number of Pixels in Spectrum: 2048
>>>>>Begin Spectral Data<<<<<
223.165	-17.75
223.4	-17.75
223.635	-17.75
223.869	-18.75
224.104	-16.75
224.338	-16.75
224.573	-13.75
224.808	-13.75
225.042	-16.75
225.277	1.25
225.511	2.25
225.746	17.25
225.98	-1.75
226.215	18.25
226.449	15.25
226.683	24.25
226.918	11.25
227.152	26.25
227.387	29.25
227.621	39.25
227.856	43.25
228.09	51.25
228.324	60.25
228.559	67.25
228.793	87.25
229.027	139.25
229.262	162.25
229.496	174.25
229.73	143.25
229.964	206.25
230.199	222.25
230.433	214.25
230.667	190.25
230.901	202.25
231.136	193.25
231.37	201.25
231.604	206.25
231.838	233.25
232.072	240.25
232.306	250.25
232.541	231.25
232.775	245.25
233.009	254.25
233.243	291.25
233.477	322.25
233.711	349.25
233.945	335.25
234.179	334.25
234.413	351.25
234.647	399.25
234.881	447.25
235.115	431.25
235.349	396.25
235.583	346.25
235.817	355.25
236.051	367.25
236.285	424.25
236.519	466.25
236.753	422.25
236.987	422.25
237.221	430.25
237.455	413.25
237.689	403.25
237.922	441.25
238.156	471.25
238.39	551.25
238.624	657.25
238.858	583.25
239.091	485.25
239.325	486.25
239.559	457.25
239.793	533.25
240.027	645.25
240.26	589.25
240.494	557.25
240.728	581.25
240.961	678.25
241.195	630.25
241.429	610.25
241.662	597.25
241.896	533.25
242.13	473.25
242.363	440.25
242.597	455.25
242.83	526.25
243.064	550.25
243.298	574.25
243.531	629.25
243.765	629.25
243.998	635.25
244.232	597.25
244.465	588.25
244.699	584.25
244.932	656.25
245.166	606.25
245.399	540.25
245.633	545.25
245.866	562.25
246.099	627.25
246.333	687.25
246.566	740.25
246.8	740.25
247.033	726.25
247.266	681.25
247.5	698.25
247.733	686.25
247.966	661.25
248.2	661.25
248.433	788.25
248.666	792.25
248.899	835.25
249.133	869.25
249.366	978.25
249.599	1035.25
249.832	897.25
250.066	817.25
250.299	818.25
250.532	802.25
250.765	775.25
250.998	756.25
251.231	711.25
251.465	763.25
251.698	820.25
251.931	786.25
252.164	834.25
252.397	920.25
252.63	1021.25
252.863	1143.25
253.096	1172.25
253.329	1145.25
253.562	1053.25
253.795	1203.25
254.028	1325.25
254.261	1383.25
254.494	1218.25
254.727	1115.25
254.96	1105.25
255.193	1153.25
255.426	1087.25
255.659	838.25
255.892	793.25
256.124	839.25
256.357	980.25
256.59	1183.25
256.823	1121.25
257.056	949.25
257.289	919.25
257.521	979.25
257.754	1139.25
257.987	1248.25
258.22	1077.25
258.452	981.25
258.685	1127.25
258.918	1263.25
259.151	1211.25
259.383	1267.25
259.616	1473.25
259.849	1513.25
260.081	1689.25
260.314	1879.25
260.547	1433.25
260.779	1467.25
261.012	1711.25
261.244	1557.25
261.477	1603.25
261.71	1499.25
261.942	1271.25
262.175	1270.25
262.407	1194.25
262.64	1236.25
262.872	1463.25
263.105	1608.25
263.337	1703.25
263.57	1474.25
263.802	1001.25
264.035	878.25
264.267	869.25
264.499	759.25
264.732	695.25
264.964	692.25
265.197	721.25
265.429	755.25
265.661	807.25
265.894	815.25
266.126	894.25
266.358	1010.25
266.591	1228.25
266.823	1483.25
267.055	1358.25
267.287	1197.25
267.52	1213.25
267.752	1273.25
267.984	1395.25
268.216	1356.25
268.448	1086.25
268.681	1103.25
268.913	1171.25
269.145	1215.25
269.377	1279.25
269.609	1309.25
269.841	1188.25
270.073	1280.25
270.306	1349.25
270.538	1354.25
270.77	1389.25
271.002	1395.25
271.234	1446.25
271.466	1476.25
271.698	1424.25
271.93	1397.25
272.162	1401.25
272.394	1366.25
272.626	1373.25
272.858	1419.25
273.09	1466.25
273.322	1300.25
273.553	1249.25
273.785	1472.25
274.017	1956.25
274.249	2416.25
274.481	2491.25
274.713	2733.25
274.945	3075.25
275.176	3185.25
275.408	2773.25
275.64	2575.25
275.872	2557.25
276.104	2162.25
276.335	1871.25
276.567	1869.25
276.799	1946.25
277.031	2035.25
277.262	1554.25
277.494	1241.25
277.726	1194.25
277.957	1278.25
278.189	1463.25
278.421	1477.25
278.652	1414.25
278.884	1332.25
279.115	1277.25
279.347	1170.25
279.579	1177.25
279.81	1162.25
280.042	1183.25
280.273	1211.25
280.505	1127.25
280.736	991.25
280.968	996.25
281.199	1097.25
281.431	1234.25
281.662	1167.25
281.894	1159.25
282.125	1222.25
282.356	1318.25
282.588	1366.25
282.819	1234.25
283.051	1353.25
283.282	1687.25
283.513	1919.25
283.745	2134.25
283.976	2122.25
284.207	1973.25
284.439	2069.25
284.67	1995.25
284.901	1726.25
285.132	1886.25
285.364	1937.25
285.595	1853.25
285.826	1956.25
286.057	1975.25
286.288	1904.25
286.52	1961.25
286.751	2048.25
286.982	2063.25
287.213	1773.25
287.444	1701.25
287.675	1798.25
287.906	1785.25
288.138	1537.25
288.369	1362.25
288.6	1271.25
288.831	1291.25
289.062	1510.25
289.293	1630.25
289.524	1586.25
289.755	1585.25
289.986	1626.25
290.217	1385.25
290.448	1109.25
290.679	944.25
290.91	915.25
291.141	893.25
291.371	953.25
291.602	986.25
291.833	933.25
292.064	1022.25
292.295	1218.25
292.526	1333.25
292.757	1403.25
292.987	1523.25
293.218	1506.25
293.449	1561.25
293.68	1643.25
293.91	1525.25
294.141	1594.25
294.372	1484.25
294.603	1352.25
294.833	1515.25
295.064	1795.25
295.295	1670.25
295.525	1275.25
295.756	1089.25
295.987	983.25
296.217	987.25
296.448	1012.25
296.679	1099.25
296.909	1197.25
297.14	1271.25
297.37	1426.25
297.601	1332.25
297.831	1139.25
298.062	1215.25
298.292	1409.25
298.523	1533.25
298.753	1738.25
298.984	1551.25
299.214	1237.25
299.445	1067.25
299.675	1019.25
299.905	1023.25
300.136	1027.25
300.366	1129.25
300.597	1097.25
300.827	987.25
301.057	984.25
301.288	998.25
301.518	1069.25
301.748	1183.25
301.979	1296.25
302.209	1401.25
302.439	1437.25
302.669	1214.25
302.9	1197.25
303.13	1114.25
303.36	1093.25
303.59	1053.25
303.82	1101.25
304.051	1208.25
304.281	1287.25
304.511	1251.25
304.741	1109.25
304.971	1173.25
305.201	1263.25
305.431	1178.25
305.661	1042.25
305.891	1045.25
306.121	1062.25
306.352	968.25
306.582	859.25
306.812	831.25
307.042	859.25
307.272	790.25
307.502	796.25
307.731	865.25
307.961	920.25
308.191	844.25
308.421	790.25
308.651	803.25
308.881	741.25
309.111	747.25
309.341	816.25
309.571	847.25
309.8	889.25
310.03	913.25
310.26	993.25
310.49	934.25
310.72	831.25
310.949	834.25
311.179	863.25
311.409	919.25
311.639	1093.25
311.868	1341.25
312.098	1758.25
312.328	1877.25
312.557	1830.25
312.787	1800.25
313.017	1655.25
313.246	1748.25
313.476	1934.25
313.706	1572.25
313.935	1245.25
314.165	1019.25
314.394	953.25
314.624	938.25
314.853	984.25
315.083	1013.25
315.312	1017.25
315.542	988.25
315.771	931.25
316.001	850.25
316.23	799.25
316.46	816.25
316.689	884.25
316.919	872.25
317.148	905.25
317.377	855.25
317.607	894.25
317.836	943.25
318.065	1097.25
318.295	1183.25
318.524	1104.25
318.753	985.25
318.983	918.25
319.212	903.25
319.441	986.25
319.67	1095.25
319.9	1202.25
320.129	1105.25
320.358	948.25
320.587	925.25
320.816	1030.25
321.046	1141.25
321.275	1313.25
321.504	1295.25
321.733	1216.25
321.962	1190.25
322.191	1125.25
322.42	1089.25
322.649	1103.25
322.878	1180.25
323.108	1166.25
323.337	1089.25
323.566	1039.25
323.795	1045.25
324.024	1025.25
324.253	968.25
324.482	973.25
324.71	1051.25
324.939	1188.25
325.168	1097.25
325.397	908.25
325.626	877.25
325.855	915.25
326.084	897.25
326.313	831.25
326.542	833.25
326.77	851.25
326.999	885.25
327.228	941.25
327.457	995.25
327.686	1019.25
327.914	876.25
328.143	814.25
328.372	802.25
328.6	843.25
328.829	873.25
329.058	866.25
329.287	883.25
329.515	883.25
329.744	861.25
329.972	820.25
330.201	805.25
330.43	817.25
330.658	903.25
330.887	1021.25
331.115	1038.25
331.344	985.25
331.572	931.25
331.801	892.25
332.03	843.25
332.258	899.25
332.486	954.25
332.715	992.25
332.943	914.25
333.172	909.25
333.4	927.25
333.629	1019.25
333.857	1066.25
334.085	1084.25
334.314	1066.25
334.542	1028.25
334.771	945.25
334.999	928.25
335.227	891.25
335.455	936.25
335.684	1001.25
335.912	1125.25
336.14	1283.25
336.369	1231.25
336.597	1183.25
336.825	1322.25
337.053	1484.25
337.281	1207.25
337.51	964.25
337.738	957.25
337.966	1058.25
338.194	1155.25
338.422	1071.25
338.65	945.25
338.878	870.25
339.106	903.25
339.334	1025.25
339.562	1091.25
339.79	995.25
340.018	937.25
340.246	1052.25
340.474	1194.25
340.702	1245.25
340.93	1270.25
341.158	1285.25
341.386	1086.25
341.614	1073.25
341.842	1063.25
342.07	1150.25
342.298	1279.25
342.526	1367.25
342.754	1153.25
342.981	1074.25
343.209	1017.25
343.437	1099.25
343.665	1145.25
343.893	1169.25
344.12	1335.25
344.348	1586.25
344.576	1389.25
344.804	1147.25
345.031	1010.25
345.259	990.25
345.487	966.25
345.714	1026.25
345.942	1075.25
346.17	1130.25
346.397	1125.25
346.625	981.25
346.853	951.25
347.08	914.25
347.308	991.25
347.535	1067.25
347.763	1119.25
347.99	986.25
348.218	919.25
348.445	920.25
348.673	952.25
348.9	967.25
349.128	1045.25
349.355	1081.25
349.583	1040.25
349.81	999.25
350.037	921.25
350.265	831.25
350.492	780.25
350.72	793.25
350.947	831.25
351.174	885.25
351.402	957.25
351.629	945.25
351.856	939.25
352.083	891.25
352.311	977.25
352.538	1042.25
352.765	1135.25
352.992	1017.25
353.22	947.25
353.447	959.25
353.674	946.25
353.901	952.25
354.128	953.25
354.355	961.25
354.583	961.25
354.81	985.25
355.037	973.25
355.264	990.25
355.491	1058.25
355.718	1158.25
355.945	1094.25
356.172	1077.25
356.399	1079.25
356.626	1293.25
356.853	1559.25
357.08	1706.25
357.307	1702.25
357.534	1341.25
357.761	1378.25
357.988	1738.25
358.215	1991.25
358.441	1896.25
358.668	1571.25
358.895	1480.25
359.122	1181.25
359.349	1168.25
359.576	1290.25
359.802	1097.25
360.029	934.25
360.256	1021.25
360.483	1248.25
360.709	1545.25
360.936	1610.25
361.163	1394.25
361.39	1093.25
361.616	1037.25
361.843	1235.25
362.07	1451.25
362.296	1348.25
362.523	1052.25
362.749	925.25
362.976	967.25
363.203	1177.25
363.429	1292.25
363.656	1061.25
363.882	993.25
364.109	994.25
364.335	971.25
364.562	962.25
364.788	1093.25
365.015	1286.25
365.241	1139.25
365.468	951.25
365.694	821.25
365.92	824.25
366.147	761.25
366.373	785.25
366.599	778.25
366.826	800.25
367.052	792.25
367.278	802.25
367.505	798.25
367.731	901.25
367.957	997.25
368.184	981.25
368.41	973.25
368.636	985.25
368.862	1001.25
369.089	1011.25
369.315	878.25
369.541	875.25
369.767	889.25
369.993	825.25
370.219	845.25
370.445	873.25
370.672	987.25
370.898	1088.25
371.124	1051.25
371.35	925.25
371.576	872.25
371.802	937.25
372.028	1134.25
372.254	1307.25
372.48	1128.25
372.706	1007.25
372.932	1029.25
373.158	1104.25
373.384	1338.25
373.61	1811.25
373.835	1845.25
374.061	1347.25
374.287	1127.25
374.513	1343.25
374.739	1603.25
374.965	1651.25
375.191	1611.25
375.416	1174.25
375.642	1007.25
375.868	1194.25
376.094	1342.25
376.319	1159.25
376.545	1266.25
376.771	1333.25
376.997	1140.25
377.222	839.25
377.448	730.25
377.674	743.25
377.899	754.25
378.125	731.25
378.35	728.25
378.576	757.25
378.802	825.25
379.027	918.25
379.253	875.25
379.478	891.25
379.704	1035.25
379.929	1055.25
380.155	1073.25
380.38	957.25
380.606	977.25
380.831	1078.25
381.057	1021.25
381.282	940.25
381.507	1155.25
381.733	1418.25
381.958	1531.25
382.184	1628.25
382.409	1634.25
382.634	1588.25
382.86	1685.25
383.085	1408.25
383.31	1113.25
383.535	1190.25
383.761	1201.25
383.986	1129.25
384.211	1372.25
384.436	1332.25
384.662	1030.25
384.887	1002.25
385.112	1024.25
385.337	1020.25
385.562	990.25
385.787	1033.25
386.013	1192.25
386.238	1221.25
386.463	1021.25
386.688	959.25
386.913	961.25
387.138	905.25
387.363	936.25
387.588	984.25
387.813	968.25
388.038	1092.25
388.263	950.25
388.488	947.25
388.713	1115.25
388.938	1178.25
389.163	998.25
389.387	909.25
389.612	938.25
389.837	961.25
390.062	945.25
390.287	972.25
390.512	1018.25
390.736	906.25
390.961	886.25
391.186	850.25
391.411	813.25
391.636	843.25
391.86	908.25
392.085	981.25
392.31	1012.25
392.534	949.25
392.759	905.25
392.984	959.25
393.208	963.25
393.433	855.25
393.658	813.25
393.882	824.25
394.107	778.25
394.331	802.25
394.556	787.25
394.78	794.25
395.005	834.25
395.229	848.25
395.454	860.25
395.678	872.25
395.903	902.25
396.127	857.25
396.352	897.25
396.576	949.25
396.801	966.25
397.025	1091.25
397.249	1114.25
397.474	908.25
397.698	893.25
397.922	979.25
398.147	881.25
398.371	891.25
398.595	971.25
398.82	934.25
399.044	929.25
399.268	990.25
399.492	1025.25
399.717	1053.25
399.941	1101.25
400.165	1048.25
400.389	1033.25
400.613	1026.25
400.837	1009.25
401.062	903.25
401.286	893.25
401.51	882.25
401.734	864.25
401.958	921.25
402.182	878.25
402.406	917.25
402.63	918.25
402.854	942.25
403.078	1042.25
403.302	1282.25
403.526	1288.25
403.75	1161.25
403.974	1056.25
404.198	1052.25
404.422	1206.25
404.645	1433.25
404.869	1549.25
405.093	1183.25
405.317	999.25
405.541	976.25
405.765	986.25
405.988	990.25
406.212	1067.25
406.436	1277.25
406.66	1383.25
406.883	1116.25
407.107	1151.25
407.331	1371.25
407.555	1285.25
407.778	1078.25
408.002	1038.25
408.226	1037.25
408.449	1018.25
408.673	994.25
408.896	903.25
409.12	925.25
409.344	905.25
409.567	884.25
409.791	876.25
410.014	869.25
410.238	893.25
410.461	879.25
410.685	895.25
410.908	872.25
411.132	937.25
411.355	936.25
411.578	943.25
411.802	949.25
412.025	993.25
412.249	957.25
412.472	925.25
412.695	934.25
412.919	948.25
413.142	947.25
413.365	1047.25
413.589	1032.25
413.812	962.25
414.035	929.25
414.258	913.25
414.482	1014.25
414.705	1052.25
414.928	909.25
415.151	845.25
415.374	880.25
415.597	911.25
415.821	911.25
416.044	906.25
416.267	859.25
416.49	835.25
416.713	831.25
416.936	834.25
417.159	863.25
417.382	883.25
417.605	886.25
417.828	919.25
418.051	899.25
418.274	907.25
418.497	910.25
418.72	918.25
418.943	938.25
419.166	983.25
419.389	1021.25
419.611	992.25
419.834	1008.25
420.057	1096.25
420.28	1066.25
420.503	1001.25
420.726	895.25
420.948	861.25
421.171	877.25
421.394	869.25
421.617	865.25
421.839	859.25
422.062	895.25
422.285	925.25
422.507	901.25
422.73	945.25
422.953	936.25
423.175	953.25
423.398	923.25
423.621	973.25
423.843	1011.25
424.066	983.25
424.288	935.25
424.511	917.25
424.733	909.25
424.956	938.25
425.178	1075.25
425.401	1218.25
425.623	1339.25
425.846	1119.25
426.068	1018.25
426.291	1115.25
426.513	999.25
426.735	953.25
426.958	976.25
427.18	1124.25
427.402	1479.25
427.625	1438.25
427.847	1140.25
428.069	911.25
428.292	899.25
428.514	889.25
428.736	851.25
428.958	949.25
429.181	1088.25
429.403	969.25
429.625	882.25
429.847	853.25
430.069	879.25
430.292	902.25
430.514	854.25
430.736	933.25
430.958	1156.25
431.18	1065.25
431.402	868.25
431.624	829.25
431.846	807.25
432.068	758.25
432.29	830.25
432.512	917.25
432.734	1195.25
432.956	1108.25
433.178	853.25
433.4	826.25
433.622	831.25
433.844	862.25
434.066	914.25
434.287	873.25
434.509	875.25
434.731	919.25
434.953	862.25
435.175	907.25
435.397	965.25
435.618	890.25
435.84	822.25
436.062	831.25
436.284	815.25
436.505	808.25
436.727	785.25
436.949	805.25
437.17	834.25
437.392	861.25
437.614	824.25
437.835	816.25
438.057	849.25
438.278	975.25
438.5	1367.25
438.721	1358.25
438.943	931.25
439.165	800.25
439.386	772.25
439.608	785.25
439.829	765.25
440.05	801.25
440.272	829.25
440.493	1017.25
440.715	1217.25
440.936	951.25
441.158	848.25
441.379	850.25
441.6	965.25
441.822	1013.25
442.043	861.25
442.264	881.25
442.486	865.25
442.707	852.25
442.928	853.25
443.149	873.25
443.371	892.25
443.592	909.25
443.813	898.25
444.034	871.25
444.255	903.25
444.476	947.25
444.698	920.25
444.919	949.25
445.14	1048.25
445.361	995.25
445.582	905.25
445.803	881.25
446.024	922.25
446.245	926.25
446.466	904.25
446.687	864.25
446.908	869.25
447.129	826.25
447.35	803.25
447.571	799.25
447.792	770.25
448.013	787.25
448.234	771.25
448.455	771.25
448.675	777.25
448.896	800.25
449.117	804.25
449.338	809.25
449.559	833.25
449.779	849.25
450	850.25
450.221	828.25
450.442	790.25
450.662	794.25
450.883	798.25
451.104	807.25
451.324	771.25
451.545	778.25
451.766	808.25
451.986	760.25
452.207	758.25
452.428	738.25
452.648	754.25
452.869	789.25
453.089	847.25
453.31	855.25
453.53	755.25
453.751	739.25
453.971	749.25
454.192	771.25
454.412	817.25
454.633	761.25
454.853	745.25
455.073	719.25
455.294	721.25
455.514	724.25
455.734	746.25
455.955	781.25
456.175	848.25
456.395	741.25
456.616	707.25
456.836	691.25
457.056	716.25
457.276	721.25
457.497	705.25
457.717	696.25
457.937	725.25
458.157	722.25
458.377	733.25
458.598	745.25
458.818	780.25
459.038	797.25
459.258	807.25
459.478	836.25
459.698	896.25
459.918	886.25
460.138	862.25
460.358	908.25
460.578	868.25
460.798	873.25
461.018	896.25
461.238	828.25
461.458	830.25
461.678	886.25
461.898	925.25
462.118	901.25
462.338	904.25
462.558	945.25
462.777	999.25
462.997	988.25
463.217	981.25
463.437	999.25
463.657	1014.25
463.876	943.25
464.096	952.25
464.316	958.25
464.536	982.25
464.755	993.25
464.975	994.25
465.195	932.25
465.414	979.25
465.634	959.25
465.854	919.25
466.073	841.25
466.293	867.25
466.512	914.25
466.732	1016.25
466.951	1027.25
467.171	903.25
467.391	847.25
467.61	845.25
467.829	933.25
468.049	907.25
468.268	870.25
468.488	891.25
468.707	910.25
468.927	1060.25
469.146	1137.25
469.365	1021.25
469.585	929.25
469.804	1002.25
470.023	1087.25
470.243	957.25
470.462	896.25
470.681	893.25
470.901	887.25
471.12	964.25
471.339	945.25
471.558	899.25
471.777	924.25
471.997	1007.25
472.216	1124.25
472.435	1043.25
472.654	968.25
472.873	930.25
473.092	985.25
473.311	990.25
473.53	957.25
473.749	929.25
473.968	975.25
474.187	971.25
474.406	904.25
474.625	916.25
474.844	943.25
475.063	1027.25
475.282	1011.25
475.501	1058.25
475.72	1102.25
475.939	1109.25
476.158	1070.25
476.377	1217.25
476.596	1435.25
476.814	1524.25
477.033	1210.25
477.252	1059.25
477.471	997.25
477.69	1011.25
477.908	1101.25
478.127	1117.25
478.346	1067.25
478.564	1102.25
478.783	1065.25
479.002	1100.25
479.22	1233.25
479.439	1372.25
479.658	1230.25
479.876	1089.25
480.095	1183.25
480.313	1215.25
480.532	1113.25
480.751	1099.25
480.969	1134.25
481.188	1226.25
481.406	1292.25
481.624	1194.25
481.843	1127.25
482.061	1031.25
482.28	1194.25
482.498	1432.25
482.717	1359.25
482.935	1175.25
483.153	1103.25
483.372	1073.25
483.59	1060.25
483.808	1043.25
484.027	1022.25
484.245	987.25
484.463	1005.25
484.681	1001.25
484.9	1117.25
485.118	1203.25
485.336	1102.25
485.554	1048.25
485.772	1053.25
485.99	1145.25
486.209	1237.25
486.427	1223.25
486.645	1183.25
486.863	1223.25
487.081	1211.25
487.299	1372.25
487.517	1325.25
487.735	1167.25
487.953	1214.25
488.171	1231.25
488.389	1159.25
488.607	1124.25
488.825	1166.25
489.043	1243.25
489.261	1445.25
489.479	1501.25
489.696	1280.25
489.914	1153.25
490.132	1086.25
490.35	1101.25
490.568	1123.25
490.786	1123.25
491.003	1114.25
491.221	1160.25
491.439	1122.25
491.657	1109.25
491.874	1195.25
492.092	1470.25
492.31	1713.25
492.527	1697.25
492.745	1497.25
492.963	1312.25
493.18	1288.25
493.398	1292.25
493.615	1273.25
493.833	1201.25
494.05	1222.25
494.268	1259.25
494.485	1224.25
494.703	1193.25
