Data from NickelSpatula.Lamp.E10.P2_HRD10591_11-57-33-532.txt Node
Date: Tue Jul 23 11:57:33 EDT 2019
User: cochatt
Spectrometer: HR+D1059
Trigger mode: 1
Integration Time (sec): 1.000000E-1
Scans to average: 1
Electric dark correction enabled: true
Nonlinearity correction enabled: false
Boxcar width: 0
XAxis mode: Wavelengths
Number of Pixels in Spectrum: 2048
>>>>>Begin Spectral Data<<<<<
223.165	-15.94
223.4	-15.94
223.635	-15.94
223.869	-17.94
224.104	-29.94
224.338	-15.94
224.573	-7.94
224.808	-13.94
225.042	-0.94
225.277	-18.94
225.511	1.06
225.746	5.06
225.98	17.06
226.215	16.06
226.449	19.06
226.683	27.06
226.918	13.06
227.152	23.06
227.387	41.06
227.621	45.06
227.856	39.06
228.09	40.06
228.324	52.06
228.559	49.06
228.793	83.06
229.027	135.06
229.262	143.06
229.496	159.06
229.73	170.06
229.964	192.06
230.199	214.06
230.433	223.06
230.667	197.06
230.901	192.06
231.136	190.06
231.37	211.06
231.604	225.06
231.838	228.06
232.072	236.06
232.306	250.06
232.541	228.06
232.775	229.06
233.009	256.06
233.243	289.06
233.477	295.06
233.711	349.06
233.945	352.06
234.179	327.06
234.413	333.06
234.647	377.06
234.881	447.06
235.115	418.06
235.349	402.06
235.583	337.06
235.817	353.06
236.051	367.06
236.285	404.06
236.519	462.06
236.753	416.06
236.987	419.06
237.221	408.06
237.455	377.06
237.689	425.06
237.922	448.06
238.156	462.06
238.39	540.06
238.624	649.06
238.858	588.06
239.091	492.06
239.325	483.06
239.559	480.06
239.793	516.06
240.027	642.06
240.26	576.06
240.494	583.06
240.728	573.06
240.961	654.06
241.195	631.06
241.429	641.06
241.662	617.06
241.896	532.06
242.13	467.06
242.363	432.06
242.597	463.06
242.83	530.06
243.064	537.06
243.298	584.06
243.531	605.06
243.765	636.06
243.998	588.06
244.232	584.06
244.465	571.06
244.699	565.06
244.932	639.06
245.166	612.06
245.399	562.06
245.633	516.06
245.866	566.06
246.099	598.06
246.333	698.06
246.566	768.06
246.8	741.06
247.033	726.06
247.266	659.06
247.5	668.06
247.733	669.06
247.966	648.06
248.2	661.06
248.433	749.06
248.666	814.06
248.899	817.06
249.133	862.06
249.366	979.06
249.599	1016.06
249.832	917.06
250.066	798.06
250.299	812.06
250.532	796.06
250.765	790.06
250.998	725.06
251.231	687.06
251.465	774.06
251.698	813.06
251.931	804.06
252.164	826.06
252.397	920.06
252.63	1021.06
252.863	1113.06
253.096	1183.06
253.329	1136.06
253.562	1061.06
253.795	1201.06
254.028	1334.06
254.261	1321.06
254.494	1199.06
254.727	1068.06
254.96	1104.06
255.193	1153.06
255.426	1096.06
255.659	837.06
255.892	764.06
256.124	828.06
256.357	966.06
256.59	1153.06
256.823	1126.06
257.056	960.06
257.289	900.06
257.521	939.06
257.754	1136.06
257.987	1239.06
258.22	1050.06
258.452	979.06
258.685	1108.06
258.918	1249.06
259.151	1229.06
259.383	1297.06
259.616	1486.06
259.849	1525.06
260.081	1662.06
260.314	1864.06
260.547	1448.06
260.779	1455.06
261.012	1660.06
261.244	1582.06
261.477	1622.06
261.71	1473.06
261.942	1266.06
262.175	1251.06
262.407	1194.06
262.64	1253.06
262.872	1470.06
263.105	1610.06
263.337	1653.06
263.57	1497.06
263.802	983.06
264.035	884.06
264.267	873.06
264.499	768.06
264.732	702.06
264.964	666.06
265.197	727.06
265.429	793.06
265.661	813.06
265.894	812.06
266.126	892.06
266.358	1021.06
266.591	1200.06
266.823	1468.06
267.055	1412.06
267.287	1225.06
267.52	1235.06
267.752	1305.06
267.984	1424.06
268.216	1360.06
268.448	1150.06
268.681	1083.06
268.913	1177.06
269.145	1255.06
269.377	1300.06
269.609	1276.06
269.841	1204.06
270.073	1290.06
270.306	1338.06
270.538	1370.06
270.77	1397.06
271.002	1351.06
271.234	1438.06
271.466	1458.06
271.698	1418.06
271.93	1352.06
272.162	1375.06
272.394	1382.06
272.626	1335.06
272.858	1391.06
273.09	1446.06
273.322	1252.06
273.553	1233.06
273.785	1476.06
274.017	1910.06
274.249	2348.06
274.481	2438.06
274.713	2690.06
274.945	3072.06
275.176	3139.06
275.408	2763.06
275.64	2554.06
275.872	2566.06
276.104	2142.06
276.335	1864.06
276.567	1862.06
276.799	1915.06
277.031	2019.06
277.262	1579.06
277.494	1226.06
277.726	1173.06
277.957	1271.06
278.189	1428.06
278.421	1436.06
278.652	1399.06
278.884	1319.06
279.115	1217.06
279.347	1159.06
279.579	1172.06
279.81	1167.06
280.042	1197.06
280.273	1244.06
280.505	1126.06
280.736	961.06
280.968	1004.06
281.199	1064.06
281.431	1228.06
281.662	1220.06
281.894	1142.06
282.125	1224.06
282.356	1309.06
282.588	1356.06
282.819	1212.06
283.051	1346.06
283.282	1671.06
283.513	1902.06
283.745	2121.06
283.976	2149.06
284.207	1977.06
284.439	2075.06
284.67	1972.06
284.901	1761.06
285.132	1842.06
285.364	1959.06
285.595	1817.06
285.826	1920.06
286.057	1977.06
286.288	1902.06
286.52	1941.06
286.751	2039.06
286.982	1992.06
287.213	1775.06
287.444	1760.06
287.675	1836.06
287.906	1758.06
288.138	1497.06
288.369	1335.06
288.6	1279.06
288.831	1329.06
289.062	1529.06
289.293	1694.06
289.524	1599.06
289.755	1574.06
289.986	1625.06
290.217	1420.06
290.448	1060.06
290.679	956.06
290.91	897.06
291.141	910.06
291.371	959.06
291.602	944.06
291.833	942.06
292.064	1042.06
292.295	1166.06
292.526	1337.06
292.757	1432.06
292.987	1530.06
293.218	1516.06
293.449	1573.06
293.68	1633.06
293.91	1568.06
294.141	1609.06
294.372	1526.06
294.603	1376.06
294.833	1588.06
295.064	1808.06
295.295	1700.06
295.525	1298.06
295.756	1144.06
295.987	966.06
296.217	993.06
296.448	995.06
296.679	1046.06
296.909	1186.06
297.14	1251.06
297.37	1369.06
297.601	1297.06
297.831	1135.06
298.062	1234.06
298.292	1390.06
298.523	1521.06
298.753	1701.06
298.984	1567.06
299.214	1248.06
299.445	1046.06
299.675	1028.06
299.905	987.06
300.136	1020.06
300.366	1161.06
300.597	1102.06
300.827	954.06
301.057	961.06
301.288	996.06
301.518	1042.06
301.748	1142.06
301.979	1243.06
302.209	1356.06
302.439	1365.06
302.669	1206.06
302.9	1152.06
303.13	1118.06
303.36	1089.06
303.59	1041.06
303.82	1063.06
304.051	1198.06
304.281	1283.06
304.511	1254.06
304.741	1096.06
304.971	1162.06
305.201	1240.06
305.431	1164.06
305.661	1018.06
305.891	1028.06
306.121	1046.06
306.352	942.06
306.582	857.06
306.812	796.06
307.042	801.06
307.272	784.06
307.502	806.06
307.731	843.06
307.961	894.06
308.191	866.06
308.421	781.06
308.651	784.06
308.881	737.06
309.111	758.06
309.341	766.06
309.571	868.06
309.8	907.06
310.03	914.06
310.26	946.06
310.49	932.06
310.72	851.06
310.949	842.06
311.179	847.06
311.409	914.06
311.639	1078.06
311.868	1329.06
312.098	1774.06
312.328	1904.06
312.557	1822.06
312.787	1809.06
313.017	1632.06
313.246	1763.06
313.476	1918.06
313.706	1598.06
313.935	1269.06
314.165	1022.06
314.394	933.06
314.624	930.06
314.853	974.06
315.083	990.06
315.312	962.06
315.542	962.06
315.771	901.06
316.001	835.06
316.23	818.06
316.46	825.06
316.689	836.06
316.919	861.06
317.148	882.06
317.377	834.06
317.607	868.06
317.836	923.06
318.065	1084.06
318.295	1196.06
318.524	1124.06
318.753	970.06
318.983	907.06
319.212	905.06
319.441	985.06
319.67	1083.06
319.9	1140.06
320.129	1080.06
320.358	919.06
320.587	916.06
320.816	966.06
321.046	1123.06
321.275	1248.06
321.504	1253.06
321.733	1216.06
321.962	1157.06
322.191	1098.06
322.42	1046.06
322.649	1088.06
322.878	1156.06
323.108	1177.06
323.337	1095.06
323.566	1060.06
323.795	1012.06
324.024	997.06
324.253	970.06
324.482	922.06
324.71	1045.06
324.939	1151.06
325.168	1082.06
325.397	893.06
325.626	898.06
325.855	864.06
326.084	909.06
326.313	865.06
326.542	812.06
326.77	836.06
326.999	878.06
327.228	924.06
327.457	991.06
327.686	943.06
327.914	851.06
328.143	810.06
328.372	794.06
328.6	804.06
328.829	849.06
329.058	835.06
329.287	862.06
329.515	878.06
329.744	858.06
329.972	826.06
330.201	776.06
330.43	790.06
330.658	925.06
330.887	1046.06
331.115	1024.06
331.344	1002.06
331.572	927.06
331.801	880.06
332.03	814.06
332.258	860.06
332.486	931.06
332.715	954.06
332.943	912.06
333.172	877.06
333.4	905.06
333.629	967.06
333.857	1092.06
334.085	1109.06
334.314	1087.06
334.542	1028.06
334.771	957.06
334.999	890.06
335.227	903.06
335.455	917.06
335.684	999.06
335.912	1183.06
336.14	1269.06
336.369	1212.06
336.597	1203.06
336.825	1322.06
337.053	1487.06
337.281	1202.06
337.51	942.06
337.738	936.06
337.966	1022.06
338.194	1125.06
338.422	1078.06
338.65	916.06
338.878	838.06
339.106	894.06
339.334	998.06
339.562	1068.06
339.79	990.06
340.018	951.06
340.246	1002.06
340.474	1136.06
340.702	1191.06
340.93	1264.06
341.158	1262.06
341.386	1065.06
341.614	1058.06
341.842	1079.06
342.07	1098.06
342.298	1275.06
342.526	1331.06
342.754	1144.06
342.981	1029.06
343.209	1017.06
343.437	1083.06
343.665	1140.06
343.893	1115.06
344.12	1320.06
344.348	1552.06
344.576	1394.06
344.804	1154.06
345.031	1020.06
345.259	970.06
345.487	977.06
345.714	998.06
345.942	1053.06
346.17	1118.06
346.397	1095.06
346.625	967.06
346.853	943.06
347.08	895.06
347.308	940.06
347.535	1058.06
347.763	1112.06
347.99	983.06
348.218	899.06
348.445	936.06
348.673	912.06
348.9	943.06
349.128	1017.06
349.355	1044.06
349.583	1010.06
349.81	976.06
350.037	889.06
350.265	825.06
350.492	782.06
350.72	774.06
350.947	813.06
351.174	861.06
351.402	925.06
351.629	945.06
351.856	895.06
352.083	861.06
352.311	936.06
352.538	1022.06
352.765	1049.06
352.992	1008.06
353.22	966.06
353.447	968.06
353.674	911.06
353.901	910.06
354.128	904.06
354.355	933.06
354.583	941.06
354.81	947.06
355.037	977.06
355.264	967.06
355.491	1041.06
355.718	1106.06
355.945	1045.06
356.172	1047.06
356.399	1057.06
356.626	1256.06
356.853	1495.06
357.08	1608.06
357.307	1649.06
357.534	1302.06
357.761	1329.06
357.988	1620.06
358.215	1914.06
358.441	1782.06
358.668	1554.06
358.895	1398.06
359.122	1127.06
359.349	1124.06
359.576	1235.06
359.802	1057.06
360.029	873.06
360.256	961.06
360.483	1206.06
360.709	1507.06
360.936	1584.06
361.163	1334.06
361.39	1050.06
361.616	1014.06
361.843	1185.06
362.07	1399.06
362.296	1254.06
362.523	1024.06
362.749	879.06
362.976	956.06
363.203	1168.06
363.429	1254.06
363.656	1022.06
363.882	954.06
364.109	920.06
364.335	960.06
364.562	920.06
364.788	1048.06
365.015	1234.06
365.241	1092.06
365.468	894.06
365.694	822.06
365.92	780.06
366.147	764.06
366.373	768.06
366.599	778.06
366.826	772.06
367.052	767.06
367.278	805.06
367.505	803.06
367.731	845.06
367.957	975.06
368.184	991.06
368.41	965.06
368.636	967.06
368.862	1009.06
369.089	975.06
369.315	868.06
369.541	850.06
369.767	846.06
369.993	809.06
370.219	830.06
370.445	880.06
370.672	956.06
370.898	1044.06
371.124	1016.06
371.35	922.06
371.576	871.06
371.802	940.06
372.028	1105.06
372.254	1239.06
372.48	1064.06
372.706	999.06
372.932	1016.06
373.158	1044.06
373.384	1286.06
373.61	1680.06
373.835	1702.06
374.061	1279.06
374.287	1121.06
374.513	1289.06
374.739	1543.06
374.965	1590.06
375.191	1545.06
375.416	1105.06
375.642	976.06
375.868	1124.06
376.094	1264.06
376.319	1119.06
376.545	1191.06
376.771	1250.06
376.997	1105.06
377.222	839.06
377.448	707.06
377.674	751.06
377.899	731.06
378.125	708.06
378.35	736.06
378.576	736.06
378.802	840.06
379.027	891.06
379.253	847.06
379.478	868.06
379.704	981.06
379.929	1044.06
380.155	1013.06
380.38	891.06
380.606	959.06
380.831	1044.06
381.057	1001.06
381.282	953.06
381.507	1097.06
381.733	1330.06
381.958	1424.06
382.184	1510.06
382.409	1566.06
382.634	1552.06
382.86	1583.06
383.085	1352.06
383.31	1066.06
383.535	1107.06
383.761	1140.06
383.986	1095.06
384.211	1332.06
384.436	1224.06
384.662	989.06
384.887	964.06
385.112	995.06
385.337	1014.06
385.562	952.06
385.787	1060.06
386.013	1150.06
386.238	1196.06
386.463	982.06
386.688	969.06
386.913	917.06
387.138	868.06
387.363	930.06
387.588	942.06
387.813	940.06
388.038	1033.06
388.263	920.06
388.488	948.06
388.713	1095.06
388.938	1121.06
389.163	993.06
389.387	869.06
389.612	889.06
389.837	912.06
390.062	916.06
390.287	910.06
390.512	961.06
390.736	948.06
390.961	868.06
391.186	823.06
391.411	814.06
391.636	872.06
391.86	928.06
392.085	980.06
392.31	963.06
392.534	928.06
392.759	902.06
392.984	920.06
393.208	956.06
393.433	855.06
393.658	797.06
393.882	783.06
394.107	784.06
394.331	793.06
394.556	786.06
394.78	784.06
395.005	803.06
395.229	871.06
395.454	862.06
395.678	860.06
395.903	887.06
396.127	861.06
396.352	846.06
396.576	949.06
396.801	953.06
397.025	1068.06
397.249	1044.06
397.474	909.06
397.698	898.06
397.922	957.06
398.147	905.06
398.371	879.06
398.595	935.06
398.82	917.06
399.044	931.06
399.268	994.06
399.492	1057.06
399.717	1032.06
399.941	1068.06
400.165	1047.06
400.389	1022.06
400.613	1033.06
400.837	1010.06
401.062	906.06
401.286	894.06
401.51	881.06
401.734	890.06
401.958	890.06
402.182	888.06
402.406	877.06
402.63	897.06
402.854	914.06
403.078	1029.06
403.302	1276.06
403.526	1311.06
403.75	1194.06
403.974	1031.06
404.198	1064.06
404.422	1189.06
404.645	1385.06
404.869	1474.06
405.093	1167.06
405.317	993.06
405.541	953.06
405.765	980.06
405.988	986.06
406.212	1080.06
406.436	1238.06
406.66	1390.06
406.883	1108.06
407.107	1151.06
407.331	1298.06
407.555	1231.06
407.778	1055.06
408.002	1039.06
408.226	1042.06
408.449	1040.06
408.673	971.06
408.896	924.06
409.12	910.06
409.344	916.06
409.567	865.06
409.791	882.06
410.014	888.06
410.238	880.06
410.461	854.06
410.685	906.06
410.908	906.06
411.132	906.06
411.355	921.06
411.578	936.06
411.802	896.06
412.025	961.06
412.249	969.06
412.472	933.06
412.695	938.06
412.919	942.06
413.142	954.06
413.365	1021.06
413.589	1006.06
413.812	925.06
414.035	898.06
414.258	969.06
414.482	1007.06
414.705	1019.06
414.928	878.06
415.151	852.06
415.374	862.06
415.597	891.06
415.821	899.06
416.044	867.06
416.267	855.06
416.49	865.06
416.713	850.06
416.936	837.06
417.159	854.06
417.382	856.06
417.605	884.06
417.828	911.06
418.051	888.06
418.274	890.06
418.497	905.06
418.72	898.06
418.943	935.06
419.166	971.06
419.389	1005.06
419.611	993.06
419.834	1027.06
420.057	1076.06
420.28	1070.06
420.503	980.06
420.726	870.06
420.948	850.06
421.171	876.06
421.394	860.06
421.617	852.06
421.839	865.06
422.062	921.06
422.285	913.06
422.507	926.06
422.73	946.06
422.953	958.06
423.175	937.06
423.398	934.06
423.621	968.06
423.843	1028.06
424.066	946.06
424.288	920.06
424.511	906.06
424.733	911.06
424.956	926.06
425.178	1032.06
425.401	1165.06
425.623	1300.06
425.846	1121.06
426.068	976.06
426.291	1040.06
426.513	990.06
426.735	925.06
426.958	985.06
427.18	1088.06
427.402	1402.06
427.625	1433.06
427.847	1141.06
428.069	891.06
428.292	914.06
428.514	886.06
428.736	853.06
428.958	918.06
429.181	1066.06
429.403	950.06
429.625	848.06
429.847	844.06
430.069	859.06
430.292	885.06
430.514	873.06
430.736	922.06
430.958	1142.06
431.18	1043.06
431.402	857.06
431.624	786.06
431.846	805.06
432.068	756.06
432.29	821.06
432.512	881.06
432.734	1172.06
432.956	1096.06
433.178	877.06
433.4	842.06
433.622	833.06
433.844	864.06
434.066	912.06
434.287	900.06
434.509	861.06
434.731	899.06
434.953	846.06
435.175	904.06
435.397	1000.06
435.618	899.06
435.84	816.06
436.062	842.06
436.284	826.06
436.505	776.06
436.727	776.06
436.949	808.06
437.17	801.06
437.392	846.06
437.614	807.06
437.835	828.06
438.057	816.06
438.278	963.06
438.5	1328.06
438.721	1326.06
438.943	926.06
439.165	764.06
439.386	755.06
439.608	774.06
439.829	777.06
440.05	756.06
440.272	856.06
440.493	974.06
440.715	1176.06
440.936	963.06
441.158	856.06
441.379	854.06
441.6	945.06
441.822	1012.06
442.043	872.06
442.264	864.06
442.486	860.06
442.707	862.06
442.928	869.06
443.149	893.06
443.371	873.06
443.592	899.06
443.813	888.06
444.034	868.06
444.255	884.06
444.476	947.06
444.698	946.06
444.919	966.06
445.14	1039.06
445.361	993.06
445.582	976.06
445.803	927.06
446.024	921.06
446.245	921.06
446.466	903.06
446.687	877.06
446.908	874.06
447.129	823.06
447.35	806.06
447.571	777.06
447.792	793.06
448.013	766.06
448.234	766.06
448.455	820.06
448.675	800.06
448.896	791.06
449.117	777.06
449.338	788.06
449.559	820.06
449.779	833.06
450	818.06
450.221	816.06
450.442	803.06
450.662	796.06
450.883	779.06
451.104	804.06
451.324	788.06
451.545	805.06
451.766	779.06
451.986	756.06
452.207	759.06
452.428	759.06
452.648	754.06
452.869	785.06
453.089	848.06
453.31	846.06
453.53	714.06
453.751	711.06
453.971	713.06
454.192	721.06
454.412	762.06
454.633	744.06
454.853	712.06
455.073	728.06
455.294	733.06
455.514	717.06
455.734	752.06
455.955	787.06
456.175	815.06
456.395	746.06
456.616	708.06
456.836	702.06
457.056	685.06
457.276	682.06
457.497	705.06
457.717	702.06
457.937	730.06
458.157	733.06
458.377	717.06
458.598	743.06
458.818	734.06
459.038	791.06
459.258	814.06
459.478	794.06
459.698	884.06
459.918	902.06
460.138	888.06
460.358	873.06
460.578	863.06
460.798	873.06
461.018	868.06
461.238	833.06
461.458	838.06
461.678	867.06
461.898	896.06
462.118	916.06
462.338	914.06
462.558	941.06
462.777	984.06
462.997	1020.06
463.217	1007.06
463.437	1006.06
463.657	986.06
463.876	957.06
464.096	934.06
464.316	975.06
464.536	958.06
464.755	973.06
464.975	1006.06
465.195	922.06
465.414	994.06
465.634	919.06
465.854	905.06
466.073	868.06
466.293	863.06
466.512	932.06
466.732	1021.06
466.951	1022.06
467.171	912.06
467.391	869.06
467.61	882.06
467.829	908.06
468.049	918.06
468.268	867.06
468.488	856.06
468.707	896.06
468.927	1038.06
469.146	1134.06
469.365	990.06
469.585	928.06
469.804	969.06
470.023	1092.06
470.243	946.06
470.462	906.06
470.681	901.06
470.901	910.06
471.12	942.06
471.339	967.06
471.558	888.06
471.777	925.06
471.997	945.06
472.216	1083.06
472.435	1031.06
472.654	990.06
472.873	931.06
473.092	982.06
473.311	1029.06
473.53	931.06
473.749	927.06
473.968	964.06
474.187	948.06
474.406	932.06
474.625	912.06
474.844	949.06
475.063	1031.06
475.282	1010.06
475.501	1053.06
475.72	1089.06
475.939	1070.06
476.158	1070.06
476.377	1237.06
476.596	1392.06
476.814	1464.06
477.033	1217.06
477.252	1032.06
477.471	986.06
477.69	989.06
477.908	1092.06
478.127	1119.06
478.346	1045.06
478.564	1115.06
478.783	1074.06
479.002	1098.06
479.22	1230.06
479.439	1427.06
479.658	1223.06
479.876	1104.06
480.095	1207.06
480.313	1216.06
480.532	1106.06
480.751	1089.06
480.969	1066.06
481.188	1260.06
481.406	1268.06
481.624	1230.06
481.843	1124.06
482.061	1070.06
482.28	1199.06
482.498	1444.06
482.717	1338.06
482.935	1144.06
483.153	1110.06
483.372	1035.06
483.59	1053.06
483.808	1036.06
484.027	1040.06
484.245	974.06
484.463	974.06
484.681	989.06
484.9	1096.06
485.118	1164.06
485.336	1087.06
485.554	1036.06
485.772	1086.06
485.99	1143.06
486.209	1210.06
486.427	1191.06
486.645	1151.06
486.863	1220.06
487.081	1213.06
487.299	1337.06
487.517	1279.06
487.735	1192.06
487.953	1194.06
488.171	1221.06
488.389	1196.06
488.607	1096.06
488.825	1148.06
489.043	1227.06
489.261	1395.06
489.479	1493.06
489.696	1257.06
489.914	1165.06
490.132	1116.06
490.35	1118.06
490.568	1142.06
490.786	1130.06
491.003	1158.06
491.221	1144.06
491.439	1120.06
491.657	1097.06
491.874	1213.06
492.092	1445.06
492.31	1672.06
492.527	1672.06
492.745	1511.06
492.963	1307.06
493.18	1256.06
493.398	1274.06
493.615	1277.06
493.833	1202.06
494.05	1228.06
494.268	1232.06
494.485	1231.06
494.703	1173.06
494.92	1238.06
495.138	1159.06
