Data from NickelSpatula_HRD10591_16-33-31-126.txt Node
Date: Mon Jul 22 16:33:31 EDT 2019
User: cochatt
Spectrometer: HR+D1059
Trigger mode: 1
Integration Time (sec): 1.000000E-1
Scans to average: 1
Electric dark correction enabled: true
Nonlinearity correction enabled: false
Boxcar width: 0
XAxis mode: Wavelengths
Number of Pixels in Spectrum: 2048
>>>>>Begin Spectral Data<<<<<
223.165	-17.44
223.4	-17.44
223.635	-17.44
223.869	-16.44
224.104	-18.44
224.338	-18.44
224.573	-15.44
224.808	-18.44
225.042	-3.44
225.277	-4.44
225.511	-2.44
225.746	9.56
225.98	10.56
226.215	3.56
226.449	17.56
226.683	26.56
226.918	14.56
227.152	32.56
227.387	32.56
227.621	33.56
227.856	57.56
228.09	60.56
228.324	46.56
228.559	54.56
228.793	61.56
229.027	68.56
229.262	90.56
229.496	73.56
229.73	79.56
229.964	89.56
230.199	93.56
230.433	93.56
230.667	92.56
230.901	88.56
231.136	100.56
231.37	110.56
231.604	104.56
231.838	104.56
232.072	100.56
232.306	107.56
232.541	98.56
232.775	97.56
233.009	118.56
233.243	103.56
233.477	102.56
233.711	124.56
233.945	119.56
234.179	117.56
234.413	115.56
234.647	126.56
234.881	147.56
235.115	124.56
235.349	137.56
235.583	117.56
235.817	102.56
236.051	125.56
236.285	130.56
236.519	152.56
236.753	129.56
236.987	145.56
237.221	134.56
237.455	121.56
237.689	121.56
237.922	136.56
238.156	127.56
238.39	147.56
238.624	170.56
238.858	150.56
239.091	136.56
239.325	157.56
239.559	126.56
239.793	158.56
240.027	152.56
240.26	146.56
240.494	157.56
240.728	168.56
240.961	182.56
241.195	162.56
241.429	169.56
241.662	182.56
241.896	152.56
242.13	147.56
242.363	137.56
242.597	142.56
242.83	157.56
243.064	166.56
243.298	139.56
243.531	162.56
243.765	163.56
243.998	163.56
244.232	166.56
244.465	170.56
244.699	140.56
244.932	166.56
245.166	158.56
245.399	157.56
245.633	154.56
245.866	141.56
246.099	146.56
246.333	190.56
246.566	180.56
246.8	170.56
247.033	191.56
247.266	166.56
247.5	170.56
247.733	175.56
247.966	158.56
248.2	168.56
248.433	175.56
248.666	174.56
248.899	186.56
249.133	195.56
249.366	221.56
249.599	229.56
249.832	216.56
250.066	197.56
250.299	185.56
250.532	184.56
250.765	199.56
250.998	181.56
251.231	167.56
251.465	171.56
251.698	190.56
251.931	190.56
252.164	194.56
252.397	205.56
252.63	219.56
252.863	256.56
253.096	238.56
253.329	235.56
253.562	240.56
253.795	265.56
254.028	262.56
254.261	287.56
254.494	254.56
254.727	236.56
254.96	230.56
255.193	254.56
255.426	242.56
255.659	212.56
255.892	196.56
256.124	201.56
256.357	226.56
256.59	284.56
256.823	263.56
257.056	213.56
257.289	212.56
257.521	212.56
257.754	260.56
257.987	283.56
258.22	274.56
258.452	219.56
258.685	237.56
258.918	258.56
259.151	260.56
259.383	267.56
259.616	320.56
259.849	344.56
260.081	347.56
260.314	364.56
260.547	298.56
260.779	322.56
261.012	351.56
261.244	329.56
261.477	315.56
261.71	301.56
261.942	269.56
262.175	292.56
262.407	261.56
262.64	265.56
262.872	289.56
263.105	326.56
263.337	343.56
263.57	321.56
263.802	249.56
264.035	202.56
264.267	223.56
264.499	190.56
264.732	187.56
264.964	174.56
265.197	186.56
265.429	185.56
265.661	200.56
265.894	165.56
266.126	196.56
266.358	238.56
266.591	271.56
266.823	314.56
267.055	310.56
267.287	278.56
267.52	273.56
267.752	287.56
267.984	330.56
268.216	298.56
268.448	274.56
268.681	239.56
268.913	254.56
269.145	262.56
269.377	277.56
269.609	308.56
269.841	264.56
270.073	288.56
270.306	299.56
270.538	311.56
270.77	300.56
271.002	316.56
271.234	324.56
271.466	328.56
271.698	297.56
271.93	286.56
272.162	292.56
272.394	293.56
272.626	278.56
272.858	296.56
273.09	308.56
273.322	281.56
273.553	262.56
273.785	277.56
274.017	347.56
274.249	447.56
274.481	442.56
274.713	482.56
274.945	546.56
275.176	582.56
275.408	524.56
275.64	480.56
275.872	489.56
276.104	431.56
276.335	374.56
276.567	382.56
276.799	373.56
277.031	396.56
277.262	334.56
277.494	280.56
277.726	235.56
277.957	278.56
278.189	317.56
278.421	312.56
278.652	292.56
278.884	289.56
279.115	271.56
279.347	270.56
279.579	261.56
279.81	272.56
280.042	264.56
280.273	275.56
280.505	259.56
280.736	228.56
280.968	228.56
281.199	251.56
281.431	274.56
281.662	279.56
281.894	246.56
282.125	267.56
282.356	277.56
282.588	284.56
282.819	255.56
283.051	279.56
283.282	316.56
283.513	374.56
283.745	400.56
283.976	400.56
284.207	385.56
284.439	390.56
284.67	405.56
284.901	348.56
285.132	368.56
285.364	379.56
285.595	360.56
285.826	384.56
286.057	403.56
286.288	363.56
286.52	382.56
286.751	406.56
286.982	401.56
287.213	360.56
287.444	338.56
287.675	375.56
287.906	361.56
288.138	312.56
288.369	296.56
288.6	270.56
288.831	281.56
289.062	331.56
289.293	358.56
289.524	330.56
289.755	327.56
289.986	316.56
290.217	296.56
290.448	238.56
290.679	216.56
290.91	200.56
291.141	200.56
291.371	225.56
291.602	222.56
291.833	214.56
292.064	224.56
292.295	250.56
292.526	291.56
292.757	284.56
292.987	316.56
293.218	309.56
293.449	329.56
293.68	359.56
293.91	327.56
294.141	367.56
294.372	312.56
294.603	293.56
294.833	310.56
295.064	370.56
295.295	363.56
295.525	298.56
295.756	262.56
295.987	219.56
296.217	201.56
296.448	218.56
296.679	234.56
296.909	253.56
297.14	264.56
297.37	288.56
297.601	286.56
297.831	227.56
298.062	266.56
298.292	307.56
298.523	301.56
298.753	358.56
298.984	315.56
299.214	266.56
299.445	235.56
299.675	219.56
299.905	229.56
300.136	230.56
300.366	253.56
300.597	240.56
300.827	218.56
301.057	215.56
301.288	233.56
301.518	228.56
301.748	265.56
301.979	280.56
302.209	276.56
302.439	284.56
302.669	250.56
302.9	239.56
303.13	260.56
303.36	244.56
303.59	239.56
303.82	237.56
304.051	261.56
304.281	267.56
304.511	271.56
304.741	238.56
304.971	248.56
305.201	254.56
305.431	261.56
305.661	224.56
305.891	239.56
306.121	230.56
306.352	209.56
306.582	198.56
306.812	186.56
307.042	196.56
307.272	198.56
307.502	200.56
307.731	201.56
307.961	211.56
308.191	186.56
308.421	183.56
308.651	186.56
308.881	182.56
309.111	183.56
309.341	170.56
309.571	211.56
309.8	181.56
310.03	203.56
310.26	222.56
310.49	202.56
310.72	184.56
310.949	194.56
311.179	216.56
311.409	201.56
311.639	227.56
311.868	272.56
312.098	324.56
312.328	379.56
312.557	356.56
312.787	361.56
313.017	338.56
313.246	319.56
313.476	392.56
313.706	315.56
313.935	276.56
314.165	226.56
314.394	218.56
314.624	208.56
314.853	216.56
315.083	213.56
315.312	216.56
315.542	214.56
315.771	200.56
316.001	173.56
316.23	190.56
316.46	180.56
316.689	188.56
316.919	192.56
317.148	194.56
317.377	194.56
317.607	206.56
317.836	199.56
318.065	227.56
318.295	253.56
318.524	243.56
318.753	206.56
318.983	194.56
319.212	189.56
319.441	194.56
319.67	231.56
319.9	239.56
320.129	245.56
320.358	196.56
320.587	202.56
320.816	211.56
321.046	234.56
321.275	264.56
321.504	249.56
321.733	256.56
321.962	251.56
322.191	228.56
322.42	235.56
322.649	226.56
322.878	226.56
323.108	247.56
323.337	222.56
323.566	222.56
323.795	227.56
324.024	213.56
324.253	194.56
324.482	208.56
324.71	213.56
324.939	217.56
325.168	228.56
325.397	215.56
325.626	181.56
325.855	203.56
326.084	185.56
326.313	189.56
326.542	187.56
326.77	207.56
326.999	193.56
327.228	206.56
327.457	200.56
327.686	215.56
327.914	191.56
328.143	188.56
328.372	184.56
328.6	179.56
328.829	197.56
329.058	191.56
329.287	187.56
329.515	200.56
329.744	196.56
329.972	198.56
330.201	198.56
330.43	182.56
330.658	197.56
330.887	220.56
331.115	220.56
331.344	207.56
331.572	205.56
331.801	194.56
332.03	200.56
332.258	189.56
332.486	213.56
332.715	216.56
332.943	202.56
333.172	210.56
333.4	207.56
333.629	216.56
333.857	234.56
334.085	239.56
334.314	244.56
334.542	228.56
334.771	199.56
334.999	192.56
335.227	202.56
335.455	209.56
335.684	205.56
335.912	235.56
336.14	248.56
336.369	264.56
336.597	245.56
336.825	269.56
337.053	290.56
337.281	250.56
337.51	213.56
337.738	201.56
337.966	216.56
338.194	233.56
338.422	229.56
338.65	220.56
338.878	185.56
339.106	206.56
339.334	200.56
339.562	232.56
339.79	211.56
340.018	213.56
340.246	207.56
340.474	237.56
340.702	244.56
340.93	227.56
341.158	249.56
341.386	218.56
341.614	224.56
341.842	208.56
342.07	220.56
342.298	269.56
342.526	276.56
342.754	230.56
342.981	213.56
343.209	218.56
343.437	226.56
343.665	245.56
343.893	234.56
344.12	269.56
344.348	331.56
344.576	303.56
344.804	226.56
345.031	206.56
345.259	205.56
345.487	224.56
345.714	214.56
345.942	214.56
346.17	228.56
346.397	242.56
346.625	211.56
346.853	202.56
347.08	203.56
347.308	201.56
347.535	221.56
347.763	221.56
347.99	201.56
348.218	205.56
348.445	219.56
348.673	206.56
348.9	198.56
349.128	207.56
349.355	213.56
349.583	196.56
349.81	194.56
350.037	221.56
350.265	192.56
350.492	166.56
350.72	172.56
350.947	159.56
351.174	174.56
351.402	191.56
351.629	209.56
351.856	191.56
352.083	190.56
352.311	191.56
352.538	218.56
352.765	228.56
352.992	222.56
353.22	218.56
353.447	217.56
353.674	200.56
353.901	199.56
354.128	213.56
354.355	214.56
354.583	213.56
354.81	219.56
355.037	216.56
355.264	222.56
355.491	216.56
355.718	221.56
355.945	226.56
356.172	213.56
356.399	212.56
356.626	241.56
356.853	290.56
357.08	328.56
357.307	330.56
357.534	267.56
357.761	258.56
357.988	312.56
358.215	352.56
358.441	337.56
358.668	297.56
358.895	284.56
359.122	237.56
359.349	238.56
359.576	258.56
359.802	220.56
360.029	196.56
360.256	208.56
360.483	250.56
360.709	291.56
360.936	310.56
361.163	272.56
361.39	216.56
361.616	199.56
361.843	225.56
362.07	264.56
362.296	255.56
362.523	207.56
362.749	181.56
362.976	184.56
363.203	204.56
363.429	264.56
363.656	204.56
363.882	201.56
364.109	207.56
364.335	199.56
364.562	192.56
364.788	213.56
365.015	248.56
365.241	240.56
365.468	194.56
365.694	164.56
365.92	170.56
366.147	153.56
366.373	156.56
366.599	160.56
366.826	167.56
367.052	171.56
367.278	165.56
367.505	175.56
367.731	185.56
367.957	200.56
368.184	212.56
368.41	217.56
368.636	220.56
368.862	212.56
369.089	205.56
369.315	191.56
369.541	181.56
369.767	186.56
369.993	198.56
370.219	175.56
370.445	189.56
370.672	208.56
370.898	217.56
371.124	216.56
371.35	194.56
371.576	184.56
371.802	192.56
372.028	212.56
372.254	269.56
372.48	228.56
372.706	215.56
372.932	208.56
373.158	218.56
373.384	247.56
373.61	311.56
373.835	316.56
374.061	274.56
374.287	217.56
374.513	244.56
374.739	312.56
374.965	296.56
375.191	287.56
375.416	223.56
375.642	219.56
375.868	227.56
376.094	252.56
376.319	225.56
376.545	221.56
376.771	250.56
376.997	225.56
377.222	196.56
377.448	176.56
377.674	172.56
377.899	163.56
378.125	173.56
378.35	165.56
378.576	188.56
378.802	187.56
379.027	198.56
379.253	189.56
379.478	198.56
379.704	216.56
379.929	231.56
380.155	216.56
380.38	197.56
380.606	199.56
380.831	222.56
381.057	208.56
381.282	230.56
381.507	242.56
381.733	247.56
381.958	258.56
382.184	274.56
382.409	310.56
382.634	301.56
382.86	304.56
383.085	272.56
383.31	231.56
383.535	245.56
383.761	246.56
383.986	228.56
384.211	287.56
384.436	262.56
384.662	213.56
384.887	199.56
385.112	204.56
385.337	242.56
385.562	210.56
385.787	231.56
386.013	247.56
386.238	246.56
386.463	219.56
386.688	209.56
386.913	195.56
387.138	187.56
387.363	206.56
387.588	202.56
387.813	201.56
388.038	232.56
388.263	209.56
388.488	198.56
388.713	238.56
388.938	244.56
389.163	212.56
389.387	192.56
389.612	208.56
389.837	201.56
390.062	215.56
390.287	188.56
390.512	211.56
390.736	199.56
390.961	204.56
391.186	187.56
391.411	187.56
391.636	201.56
391.86	208.56
392.085	218.56
392.31	218.56
392.534	209.56
392.759	223.56
392.984	204.56
393.208	216.56
393.433	201.56
393.658	205.56
393.882	183.56
394.107	191.56
394.331	179.56
394.556	189.56
394.78	188.56
395.005	182.56
395.229	189.56
395.454	198.56
395.678	186.56
395.903	206.56
396.127	193.56
396.352	196.56
396.576	212.56
396.801	217.56
397.025	232.56
397.249	242.56
397.474	209.56
397.698	198.56
397.922	216.56
398.147	192.56
398.371	203.56
398.595	216.56
398.82	214.56
399.044	194.56
399.268	225.56
399.492	236.56
399.717	243.56
399.941	239.56
400.165	218.56
400.389	233.56
400.613	230.56
400.837	227.56
401.062	196.56
401.286	191.56
401.51	179.56
401.734	208.56
401.958	216.56
402.182	206.56
402.406	189.56
402.63	210.56
402.854	207.56
403.078	239.56
403.302	287.56
403.526	314.56
403.75	278.56
403.974	233.56
404.198	229.56
404.422	264.56
404.645	293.56
404.869	290.56
405.093	269.56
405.317	214.56
405.541	220.56
405.765	220.56
405.988	221.56
406.212	228.56
406.436	253.56
406.66	282.56
406.883	243.56
407.107	243.56
407.331	265.56
407.555	277.56
407.778	242.56
408.002	242.56
408.226	244.56
408.449	250.56
408.673	248.56
408.896	213.56
409.12	206.56
409.344	218.56
409.567	223.56
409.791	199.56
410.014	213.56
410.238	198.56
410.461	205.56
410.685	202.56
410.908	194.56
411.132	207.56
411.355	197.56
411.578	203.56
411.802	199.56
412.025	204.56
412.249	219.56
412.472	215.56
412.695	217.56
412.919	206.56
413.142	202.56
413.365	223.56
413.589	224.56
413.812	220.56
414.035	206.56
414.258	205.56
414.482	224.56
414.705	235.56
414.928	213.56
415.151	196.56
415.374	196.56
415.597	200.56
415.821	218.56
416.044	199.56
416.267	190.56
416.49	197.56
416.713	203.56
416.936	200.56
417.159	188.56
417.382	190.56
417.605	203.56
417.828	197.56
418.051	199.56
418.274	205.56
418.497	207.56
418.72	219.56
418.943	208.56
419.166	220.56
419.389	226.56
419.611	204.56
419.834	208.56
420.057	235.56
420.28	256.56
420.503	232.56
420.726	197.56
420.948	194.56
421.171	204.56
421.394	189.56
421.617	183.56
421.839	222.56
422.062	210.56
422.285	205.56
422.507	189.56
422.73	224.56
422.953	203.56
423.175	199.56
423.398	205.56
423.621	231.56
423.843	224.56
424.066	223.56
424.288	203.56
424.511	200.56
424.733	206.56
424.956	213.56
425.178	230.56
425.401	255.56
425.623	284.56
425.846	248.56
426.068	235.56
426.291	220.56
426.513	229.56
426.735	200.56
426.958	209.56
427.18	231.56
427.402	285.56
427.625	304.56
427.847	239.56
428.069	193.56
428.292	215.56
428.514	199.56
428.736	202.56
428.958	221.56
429.181	237.56
429.403	211.56
429.625	190.56
429.847	194.56
430.069	208.56
430.292	211.56
430.514	195.56
430.736	192.56
430.958	239.56
431.18	218.56
431.402	175.56
431.624	192.56
431.846	195.56
432.068	184.56
432.29	191.56
432.512	178.56
432.734	224.56
432.956	248.56
433.178	180.56
433.4	183.56
433.622	199.56
433.844	197.56
434.066	208.56
434.287	214.56
434.509	198.56
434.731	180.56
434.953	205.56
435.175	214.56
435.397	229.56
435.618	197.56
435.84	191.56
436.062	171.56
436.284	195.56
436.505	200.56
436.727	203.56
436.949	176.56
437.17	193.56
437.392	207.56
437.614	203.56
437.835	185.56
438.057	204.56
438.278	213.56
438.5	270.56
438.721	250.56
438.943	202.56
439.165	176.56
439.386	170.56
439.608	178.56
439.829	155.56
440.05	157.56
440.272	191.56
440.493	230.56
440.715	260.56
440.936	209.56
441.158	176.56
441.379	202.56
441.6	209.56
441.822	219.56
442.043	201.56
442.264	194.56
442.486	199.56
442.707	206.56
442.928	182.56
443.149	179.56
443.371	192.56
443.592	202.56
443.813	208.56
444.034	212.56
444.255	179.56
444.476	189.56
444.698	220.56
444.919	211.56
445.14	350.56
445.361	240.56
445.582	228.56
445.803	206.56
446.024	223.56
446.245	224.56
446.466	206.56
446.687	196.56
446.908	206.56
447.129	181.56
447.35	181.56
447.571	182.56
447.792	176.56
448.013	152.56
448.234	170.56
448.455	170.56
448.675	184.56
448.896	170.56
449.117	182.56
449.338	188.56
449.559	183.56
449.779	182.56
450	199.56
450.221	186.56
450.442	195.56
450.662	178.56
450.883	170.56
451.104	185.56
451.324	178.56
451.545	183.56
451.766	190.56
451.986	180.56
452.207	175.56
452.428	178.56
452.648	182.56
452.869	188.56
453.089	196.56
453.31	196.56
453.53	175.56
453.751	175.56
453.971	188.56
454.192	180.56
454.412	175.56
454.633	193.56
454.853	187.56
455.073	171.56
455.294	178.56
455.514	164.56
455.734	187.56
455.955	180.56
456.175	183.56
456.395	166.56
456.616	163.56
456.836	162.56
457.056	172.56
457.276	160.56
457.497	162.56
457.717	152.56
457.937	178.56
458.157	167.56
458.377	171.56
458.598	171.56
458.818	172.56
459.038	185.56
459.258	188.56
459.478	206.56
459.698	202.56
459.918	204.56
460.138	202.56
460.358	207.56
460.578	183.56
460.798	197.56
461.018	202.56
461.238	188.56
461.458	196.56
461.678	217.56
461.898	222.56
462.118	196.56
462.338	187.56
462.558	212.56
462.777	215.56
462.997	227.56
463.217	229.56
463.437	227.56
463.657	234.56
463.876	220.56
464.096	204.56
464.316	206.56
464.536	231.56
464.755	245.56
464.975	233.56
465.195	232.56
465.414	245.56
465.634	219.56
465.854	205.56
466.073	194.56
466.293	183.56
466.512	213.56
466.732	228.56
466.951	241.56
467.171	205.56
467.391	186.56
467.61	184.56
467.829	214.56
468.049	198.56
468.268	192.56
468.488	187.56
468.707	202.56
468.927	215.56
469.146	227.56
469.365	215.56
469.585	205.56
469.804	216.56
470.023	219.56
470.243	222.56
470.462	196.56
470.681	201.56
470.901	203.56
471.12	208.56
471.339	219.56
471.558	196.56
471.777	199.56
471.997	213.56
472.216	222.56
472.435	217.56
472.654	208.56
472.873	224.56
473.092	223.56
473.311	208.56
473.53	196.56
473.749	195.56
473.968	224.56
474.187	213.56
474.406	209.56
474.625	190.56
474.844	195.56
475.063	215.56
475.282	230.56
475.501	244.56
475.72	262.56
475.939	224.56
476.158	232.56
476.377	271.56
476.596	275.56
476.814	293.56
477.033	250.56
477.252	235.56
477.471	212.56
477.69	204.56
477.908	226.56
478.127	238.56
478.346	229.56
478.564	266.56
478.783	224.56
479.002	237.56
479.22	250.56
479.439	292.56
479.658	266.56
479.876	224.56
480.095	246.56
480.313	242.56
480.532	244.56
480.751	238.56
480.969	243.56
481.188	244.56
481.406	267.56
481.624	243.56
481.843	220.56
482.061	230.56
482.28	244.56
482.498	328.56
482.717	324.56
482.935	264.56
483.153	226.56
483.372	227.56
483.59	219.56
483.808	190.56
484.027	205.56
484.245	213.56
484.463	195.56
484.681	211.56
484.9	238.56
485.118	230.56
485.336	222.56
485.554	217.56
485.772	210.56
485.99	245.56
486.209	254.56
486.427	244.56
486.645	235.56
486.863	250.56
487.081	236.56
487.299	264.56
487.517	262.56
487.735	226.56
487.953	248.56
488.171	238.56
488.389	228.56
488.607	230.56
488.825	246.56
489.043	249.56
489.261	281.56
489.479	320.56
489.696	245.56
489.914	226.56
490.132	233.56
490.35	232.56
490.568	217.56
490.786	229.56
491.003	221.56
491.221	236.56
491.439	204.56
491.657	222.56
491.874	231.56
492.092	299.56
492.31	360.56
492.527	327.56
492.745	292.56
492.963	249.56
493.18	252.56
493.398	270.56
493.615	254.56
493.833	255.56
494.05	256.56
494.268	232.56
494.485	240.56
494.703	227.56
494.92	227.56
495.138	235.56
495.355	244.56
495.573	266.56
495.79	276.56
496.008	359.56
496.225	297.56
496.442	260.56
496.66	262.56
496.877	286.56
497.094	259.56
497.312	255.56
497.529	261.56
497.746	260.56
497.963	252.56
498.181	293.56
498.398	291.56
498.615	319.56
498.832	314.56
499.049	338.56
499.267	322.56
499.484	308.56
499.701	313.56
499.918	349.56
500.135	365.56
500.352	423.56
500.569	430.56
500.786	427.56
501.003	413.56
501.22	388.56
501.437	374.56
501.654	348.56
501.871	327.56
502.088	311.56
502.305	290.56
502.522	300.56
