Data from NickelSpatula_HRD10591_16-35-15-126.txt Node
Date: Mon Jul 22 16:35:15 EDT 2019
User: cochatt
Spectrometer: HR+D1059
Trigger mode: 1
Integration Time (sec): 1.000000E-1
Scans to average: 1
Electric dark correction enabled: true
Nonlinearity correction enabled: false
Boxcar width: 0
XAxis mode: Wavelengths
Number of Pixels in Spectrum: 2048
>>>>>Begin Spectral Data<<<<<
223.165	-20.44
223.4	-20.44
223.635	-20.44
223.869	-0.44
224.104	-8.44
224.338	-16.44
224.573	-17.44
224.808	-24.44
225.042	-11.44
225.277	-6.44
225.511	5.56
225.746	-7.44
225.98	3.56
226.215	7.56
226.449	21.56
226.683	15.56
226.918	31.56
227.152	27.56
227.387	54.56
227.621	39.56
227.856	29.56
228.09	50.56
228.324	59.56
228.559	70.56
228.793	59.56
229.027	74.56
229.262	88.56
229.496	73.56
229.73	93.56
229.964	82.56
230.199	77.56
230.433	100.56
230.667	104.56
230.901	108.56
231.136	93.56
231.37	108.56
231.604	113.56
231.838	102.56
232.072	117.56
232.306	107.56
232.541	117.56
232.775	112.56
233.009	110.56
233.243	125.56
233.477	131.56
233.711	135.56
233.945	118.56
234.179	123.56
234.413	128.56
234.647	141.56
234.881	163.56
235.115	142.56
235.349	142.56
235.583	127.56
235.817	140.56
236.051	136.56
236.285	142.56
236.519	164.56
236.753	139.56
236.987	164.56
237.221	143.56
237.455	139.56
237.689	143.56
237.922	147.56
238.156	156.56
238.39	171.56
238.624	187.56
238.858	174.56
239.091	154.56
239.325	158.56
239.559	159.56
239.793	183.56
240.027	192.56
240.26	166.56
240.494	179.56
240.728	180.56
240.961	175.56
241.195	174.56
241.429	185.56
241.662	189.56
241.896	163.56
242.13	149.56
242.363	150.56
242.597	152.56
242.83	171.56
243.064	172.56
243.298	176.56
243.531	204.56
243.765	188.56
243.998	170.56
244.232	199.56
244.465	165.56
244.699	181.56
244.932	187.56
245.166	191.56
245.399	164.56
245.633	169.56
245.866	172.56
246.099	186.56
246.333	204.56
246.566	213.56
246.8	215.56
247.033	209.56
247.266	198.56
247.5	190.56
247.733	186.56
247.966	199.56
248.2	187.56
248.433	204.56
248.666	198.56
248.899	206.56
249.133	226.56
249.366	245.56
249.599	268.56
249.832	236.56
250.066	225.56
250.299	223.56
250.532	214.56
250.765	220.56
250.998	179.56
251.231	188.56
251.465	205.56
251.698	215.56
251.931	223.56
252.164	213.56
252.397	236.56
252.63	261.56
252.863	289.56
253.096	286.56
253.329	291.56
253.562	260.56
253.795	306.56
254.028	299.56
254.261	340.56
254.494	320.56
254.727	268.56
254.96	272.56
255.193	282.56
255.426	272.56
255.659	228.56
255.892	216.56
256.124	225.56
256.357	241.56
256.59	303.56
256.823	272.56
257.056	245.56
257.289	233.56
257.521	228.56
257.754	260.56
257.987	289.56
258.22	261.56
258.452	239.56
258.685	275.56
258.918	294.56
259.151	277.56
259.383	303.56
259.616	345.56
259.849	344.56
260.081	352.56
260.314	384.56
260.547	349.56
260.779	323.56
261.012	370.56
261.244	355.56
261.477	359.56
261.71	357.56
261.942	292.56
262.175	303.56
262.407	291.56
262.64	305.56
262.872	329.56
263.105	368.56
263.337	376.56
263.57	366.56
263.802	247.56
264.035	232.56
264.267	215.56
264.499	202.56
264.732	188.56
264.964	195.56
265.197	186.56
265.429	197.56
265.661	211.56
265.894	216.56
266.126	225.56
266.358	244.56
266.591	284.56
266.823	333.56
267.055	321.56
267.287	295.56
267.52	274.56
267.752	297.56
267.984	316.56
268.216	280.56
268.448	257.56
268.681	269.56
268.913	297.56
269.145	287.56
269.377	323.56
269.609	295.56
269.841	283.56
270.073	293.56
270.306	301.56
270.538	315.56
270.77	311.56
271.002	336.56
271.234	341.56
271.466	349.56
271.698	335.56
271.93	312.56
272.162	323.56
272.394	315.56
272.626	301.56
272.858	330.56
273.09	349.56
273.322	313.56
273.553	278.56
273.785	332.56
274.017	428.56
274.249	501.56
274.481	523.56
274.713	577.56
274.945	616.56
275.176	641.56
275.408	591.56
275.64	534.56
275.872	523.56
276.104	480.56
276.335	407.56
276.567	398.56
276.799	409.56
277.031	444.56
277.262	344.56
277.494	289.56
277.726	276.56
277.957	292.56
278.189	336.56
278.421	335.56
278.652	324.56
278.884	325.56
279.115	282.56
279.347	286.56
279.579	280.56
279.81	266.56
280.042	264.56
280.273	280.56
280.505	261.56
280.736	228.56
280.968	240.56
281.199	242.56
281.431	257.56
281.662	252.56
281.894	235.56
282.125	277.56
282.356	291.56
282.588	294.56
282.819	278.56
283.051	303.56
283.282	365.56
283.513	405.56
283.745	448.56
283.976	429.56
284.207	416.56
284.439	419.56
284.67	410.56
284.901	374.56
285.132	415.56
285.364	414.56
285.595	390.56
285.826	413.56
286.057	420.56
286.288	400.56
286.52	383.56
286.751	417.56
286.982	437.56
287.213	381.56
287.444	381.56
287.675	393.56
287.906	386.56
288.138	311.56
288.369	299.56
288.6	289.56
288.831	290.56
289.062	316.56
289.293	352.56
289.524	326.56
289.755	327.56
289.986	358.56
290.217	300.56
290.448	223.56
290.679	211.56
290.91	211.56
291.141	220.56
291.371	221.56
291.602	208.56
291.833	224.56
292.064	236.56
292.295	267.56
292.526	308.56
292.757	305.56
292.987	329.56
293.218	321.56
293.449	341.56
293.68	344.56
293.91	333.56
294.141	335.56
294.372	332.56
294.603	298.56
294.833	323.56
295.064	366.56
295.295	380.56
295.525	286.56
295.756	240.56
295.987	222.56
296.217	215.56
296.448	241.56
296.679	213.56
296.909	256.56
297.14	272.56
297.37	300.56
297.601	287.56
297.831	247.56
298.062	268.56
298.292	316.56
298.523	334.56
298.753	361.56
298.984	335.56
299.214	272.56
299.445	242.56
299.675	216.56
299.905	227.56
300.136	234.56
300.366	261.56
300.597	237.56
300.827	230.56
301.057	227.56
301.288	228.56
301.518	233.56
301.748	273.56
301.979	284.56
302.209	298.56
302.439	279.56
302.669	264.56
302.9	270.56
303.13	260.56
303.36	228.56
303.59	234.56
303.82	246.56
304.051	257.56
304.281	278.56
304.511	279.56
304.741	257.56
304.971	261.56
305.201	276.56
305.431	256.56
305.661	238.56
305.891	219.56
306.121	223.56
306.352	219.56
306.582	196.56
306.812	198.56
307.042	189.56
307.272	170.56
307.502	183.56
307.731	198.56
307.961	217.56
308.191	206.56
308.421	191.56
308.651	179.56
308.881	187.56
309.111	170.56
309.341	182.56
309.571	195.56
309.8	213.56
310.03	202.56
310.26	212.56
310.49	212.56
310.72	195.56
310.949	199.56
311.179	199.56
311.409	206.56
311.639	232.56
311.868	257.56
312.098	347.56
312.328	380.56
312.557	376.56
312.787	349.56
313.017	350.56
313.246	334.56
313.476	384.56
313.706	318.56
313.935	279.56
314.165	232.56
314.394	212.56
314.624	202.56
314.853	215.56
315.083	218.56
315.312	223.56
315.542	225.56
315.771	225.56
316.001	189.56
316.23	187.56
316.46	180.56
316.689	187.56
316.919	192.56
317.148	175.56
317.377	191.56
317.607	193.56
317.836	198.56
318.065	227.56
318.295	254.56
318.524	230.56
318.753	203.56
318.983	215.56
319.212	218.56
319.441	224.56
319.67	239.56
319.9	253.56
320.129	245.56
320.358	220.56
320.587	216.56
320.816	225.56
321.046	228.56
321.275	264.56
321.504	267.56
321.733	275.56
321.962	272.56
322.191	237.56
322.42	230.56
322.649	254.56
322.878	244.56
323.108	244.56
323.337	254.56
323.566	212.56
323.795	216.56
324.024	218.56
324.253	211.56
324.482	218.56
324.71	234.56
324.939	240.56
325.168	228.56
325.397	196.56
325.626	222.56
325.855	203.56
326.084	201.56
326.313	187.56
326.542	166.56
326.77	181.56
326.999	201.56
327.228	199.56
327.457	206.56
327.686	212.56
327.914	167.56
328.143	191.56
328.372	187.56
328.6	173.56
328.829	191.56
329.058	196.56
329.287	190.56
329.515	204.56
329.744	188.56
329.972	163.56
330.201	176.56
330.43	173.56
330.658	207.56
330.887	215.56
331.115	227.56
331.344	202.56
331.572	205.56
331.801	204.56
332.03	193.56
332.258	197.56
332.486	222.56
332.715	210.56
332.943	202.56
333.172	185.56
333.4	204.56
333.629	220.56
333.857	229.56
334.085	233.56
334.314	209.56
334.542	234.56
334.771	209.56
334.999	189.56
335.227	196.56
335.455	191.56
335.684	214.56
335.912	232.56
336.14	239.56
336.369	239.56
336.597	223.56
336.825	267.56
337.053	286.56
337.281	251.56
337.51	205.56
337.738	204.56
337.966	198.56
338.194	210.56
338.422	230.56
338.65	196.56
338.878	192.56
339.106	184.56
339.334	204.56
339.562	224.56
339.79	210.56
340.018	204.56
340.246	204.56
340.474	222.56
340.702	249.56
340.93	261.56
341.158	263.56
341.386	224.56
341.614	211.56
341.842	214.56
342.07	233.56
342.298	271.56
342.526	272.56
342.754	235.56
342.981	222.56
343.209	198.56
343.437	230.56
343.665	227.56
343.893	234.56
344.12	260.56
344.348	317.56
344.576	282.56
344.804	245.56
345.031	203.56
345.259	205.56
345.487	208.56
345.714	207.56
345.942	231.56
346.17	242.56
346.397	220.56
346.625	206.56
346.853	201.56
347.08	197.56
347.308	210.56
347.535	237.56
347.763	237.56
347.99	204.56
348.218	190.56
348.445	177.56
348.673	195.56
348.9	213.56
349.128	215.56
349.355	223.56
349.583	223.56
349.81	214.56
350.037	202.56
350.265	172.56
350.492	170.56
350.72	170.56
350.947	182.56
351.174	192.56
351.402	184.56
351.629	211.56
351.856	206.56
352.083	195.56
352.311	210.56
352.538	219.56
352.765	236.56
352.992	223.56
353.22	217.56
353.447	217.56
353.674	209.56
353.901	203.56
354.128	211.56
354.355	208.56
354.583	186.56
354.81	204.56
355.037	209.56
355.264	220.56
355.491	221.56
355.718	231.56
355.945	232.56
356.172	245.56
356.399	245.56
356.626	263.56
356.853	312.56
357.08	320.56
357.307	341.56
357.534	270.56
357.761	265.56
357.988	332.56
358.215	363.56
358.441	353.56
358.668	304.56
358.895	301.56
359.122	251.56
359.349	223.56
359.576	275.56
359.802	221.56
360.029	205.56
360.256	215.56
360.483	245.56
360.709	312.56
360.936	318.56
361.163	284.56
361.39	218.56
361.616	208.56
361.843	253.56
362.07	278.56
362.296	264.56
362.523	232.56
362.749	211.56
362.976	219.56
363.203	233.56
363.429	272.56
363.656	233.56
363.882	206.56
364.109	207.56
364.335	200.56
364.562	208.56
364.788	226.56
365.015	254.56
365.241	232.56
365.468	227.56
365.694	179.56
365.92	179.56
366.147	187.56
366.373	167.56
366.599	164.56
366.826	171.56
367.052	185.56
367.278	181.56
367.505	165.56
367.731	199.56
367.957	216.56
368.184	215.56
368.41	193.56
368.636	216.56
368.862	211.56
369.089	217.56
369.315	198.56
369.541	191.56
369.767	181.56
369.993	181.56
370.219	174.56
370.445	207.56
370.672	214.56
370.898	231.56
371.124	229.56
371.35	195.56
371.576	201.56
371.802	211.56
372.028	219.56
372.254	246.56
372.48	216.56
372.706	218.56
372.932	217.56
373.158	225.56
373.384	252.56
373.61	323.56
373.835	339.56
374.061	259.56
374.287	229.56
374.513	255.56
374.739	303.56
374.965	317.56
375.191	304.56
375.416	223.56
375.642	211.56
375.868	236.56
376.094	258.56
376.319	241.56
376.545	248.56
376.771	265.56
376.997	218.56
377.222	196.56
377.448	179.56
377.674	169.56
377.899	161.56
378.125	159.56
378.35	149.56
378.576	168.56
378.802	201.56
379.027	209.56
379.253	196.56
379.478	209.56
379.704	222.56
379.929	229.56
380.155	227.56
380.38	199.56
380.606	199.56
380.831	224.56
381.057	200.56
381.282	181.56
381.507	233.56
381.733	273.56
381.958	283.56
382.184	297.56
382.409	313.56
382.634	315.56
382.86	332.56
383.085	294.56
383.31	235.56
383.535	240.56
383.761	250.56
383.986	225.56
384.211	251.56
384.436	271.56
384.662	223.56
384.887	209.56
385.112	215.56
385.337	223.56
385.562	214.56
385.787	217.56
386.013	239.56
386.238	239.56
386.463	209.56
386.688	208.56
386.913	209.56
387.138	186.56
387.363	214.56
387.588	219.56
387.813	226.56
388.038	243.56
388.263	193.56
388.488	211.56
388.713	229.56
388.938	244.56
389.163	208.56
389.387	200.56
389.612	204.56
389.837	200.56
390.062	204.56
390.287	205.56
390.512	206.56
390.736	192.56
390.961	196.56
391.186	184.56
391.411	197.56
391.636	190.56
391.86	193.56
392.085	213.56
392.31	209.56
392.534	197.56
392.759	201.56
392.984	213.56
393.208	210.56
393.433	194.56
393.658	182.56
393.882	186.56
394.107	196.56
394.331	171.56
394.556	191.56
394.78	166.56
395.005	193.56
395.229	192.56
395.454	187.56
395.678	175.56
395.903	189.56
396.127	185.56
396.352	186.56
396.576	205.56
396.801	203.56
397.025	242.56
397.249	256.56
397.474	209.56
397.698	189.56
397.922	189.56
398.147	192.56
398.371	191.56
398.595	189.56
398.82	204.56
399.044	197.56
399.268	216.56
399.492	233.56
399.717	215.56
399.941	235.56
400.165	200.56
400.389	218.56
400.613	224.56
400.837	211.56
401.062	179.56
401.286	199.56
401.51	191.56
401.734	184.56
401.958	191.56
402.182	205.56
402.406	196.56
402.63	201.56
402.854	213.56
403.078	231.56
403.302	282.56
403.526	288.56
403.75	258.56
403.974	226.56
404.198	247.56
404.422	259.56
404.645	282.56
404.869	282.56
405.093	241.56
405.317	207.56
405.541	227.56
405.765	220.56
405.988	217.56
406.212	220.56
406.436	247.56
406.66	273.56
406.883	223.56
407.107	217.56
407.331	269.56
407.555	256.56
407.778	215.56
408.002	224.56
408.226	229.56
408.449	219.56
408.673	218.56
408.896	203.56
409.12	200.56
409.344	187.56
409.567	214.56
409.791	197.56
410.014	191.56
410.238	193.56
410.461	181.56
410.685	188.56
410.908	183.56
411.132	198.56
411.355	194.56
411.578	220.56
411.802	184.56
412.025	206.56
412.249	232.56
412.472	203.56
412.695	213.56
412.919	215.56
413.142	211.56
413.365	213.56
413.589	219.56
413.812	197.56
414.035	208.56
414.258	202.56
414.482	217.56
414.705	224.56
414.928	199.56
415.151	195.56
415.374	179.56
415.597	184.56
415.821	197.56
416.044	182.56
416.267	176.56
416.49	191.56
416.713	183.56
416.936	185.56
417.159	191.56
417.382	199.56
417.605	204.56
417.828	216.56
418.051	193.56
418.274	205.56
418.497	208.56
418.72	195.56
418.943	208.56
419.166	228.56
419.389	221.56
419.611	216.56
419.834	213.56
420.057	226.56
420.28	220.56
420.503	215.56
420.726	188.56
420.948	193.56
421.171	186.56
421.394	192.56
421.617	200.56
421.839	191.56
422.062	194.56
422.285	201.56
422.507	203.56
422.73	209.56
422.953	213.56
423.175	203.56
423.398	207.56
423.621	211.56
423.843	229.56
424.066	188.56
424.288	206.56
424.511	202.56
424.733	179.56
424.956	195.56
425.178	227.56
425.401	247.56
425.623	276.56
425.846	248.56
426.068	224.56
426.291	236.56
426.513	214.56
426.735	198.56
426.958	207.56
427.18	238.56
427.402	296.56
427.625	287.56
427.847	244.56
428.069	197.56
428.292	190.56
428.514	202.56
428.736	196.56
428.958	211.56
429.181	217.56
429.403	206.56
429.625	193.56
429.847	196.56
430.069	208.56
430.292	217.56
430.514	182.56
430.736	204.56
430.958	232.56
431.18	229.56
431.402	183.56
431.624	177.56
431.846	185.56
432.068	159.56
432.29	187.56
432.512	196.56
432.734	236.56
432.956	222.56
433.178	189.56
433.4	196.56
433.622	194.56
433.844	197.56
434.066	211.56
434.287	215.56
434.509	195.56
434.731	185.56
434.953	181.56
435.175	202.56
435.397	221.56
435.618	200.56
435.84	179.56
436.062	204.56
436.284	186.56
436.505	168.56
436.727	194.56
436.949	183.56
437.17	198.56
437.392	169.56
437.614	171.56
437.835	190.56
438.057	186.56
438.278	210.56
438.5	265.56
438.721	273.56
438.943	206.56
439.165	174.56
439.386	164.56
439.608	182.56
439.829	185.56
440.05	186.56
440.272	177.56
440.493	207.56
440.715	242.56
440.936	202.56
441.158	195.56
441.379	196.56
441.6	214.56
441.822	217.56
442.043	195.56
442.264	189.56
442.486	207.56
442.707	205.56
442.928	192.56
443.149	187.56
443.371	208.56
443.592	205.56
443.813	201.56
444.034	180.56
444.255	190.56
444.476	218.56
444.698	195.56
444.919	214.56
445.14	345.56
445.361	264.56
445.582	208.56
445.803	194.56
446.024	218.56
446.245	204.56
446.466	195.56
446.687	186.56
446.908	199.56
447.129	191.56
447.35	182.56
447.571	163.56
447.792	168.56
448.013	173.56
448.234	160.56
448.455	195.56
448.675	174.56
448.896	172.56
449.117	183.56
449.338	190.56
449.559	189.56
449.779	202.56
450	203.56
450.221	190.56
450.442	192.56
450.662	188.56
450.883	175.56
451.104	181.56
451.324	181.56
451.545	167.56
451.766	177.56
451.986	185.56
452.207	166.56
452.428	181.56
452.648	200.56
452.869	180.56
453.089	193.56
453.31	178.56
453.53	174.56
453.751	183.56
453.971	173.56
454.192	189.56
454.412	175.56
454.633	187.56
454.853	173.56
455.073	175.56
455.294	162.56
455.514	172.56
455.734	172.56
455.955	182.56
456.175	193.56
456.395	175.56
456.616	160.56
456.836	170.56
457.056	165.56
457.276	161.56
457.497	157.56
457.717	161.56
457.937	157.56
458.157	162.56
458.377	167.56
458.598	172.56
458.818	173.56
459.038	185.56
459.258	183.56
459.478	199.56
459.698	190.56
459.918	198.56
460.138	182.56
460.358	200.56
460.578	203.56
460.798	202.56
461.018	201.56
461.238	173.56
461.458	187.56
461.678	193.56
461.898	208.56
462.118	198.56
462.338	203.56
462.558	215.56
462.777	211.56
462.997	226.56
463.217	234.56
463.437	204.56
463.657	222.56
463.876	199.56
464.096	204.56
464.316	207.56
464.536	208.56
464.755	240.56
464.975	227.56
465.195	221.56
465.414	219.56
465.634	220.56
465.854	221.56
466.073	193.56
466.293	190.56
466.512	207.56
466.732	221.56
466.951	220.56
467.171	223.56
467.391	203.56
467.61	191.56
467.829	208.56
468.049	210.56
468.268	208.56
468.488	185.56
468.707	206.56
468.927	224.56
469.146	241.56
469.365	221.56
469.585	203.56
469.804	245.56
470.023	238.56
470.243	206.56
470.462	225.56
470.681	206.56
470.901	197.56
471.12	197.56
471.339	212.56
471.558	213.56
471.777	212.56
471.997	216.56
472.216	238.56
472.435	235.56
472.654	218.56
472.873	209.56
473.092	219.56
473.311	248.56
473.53	221.56
473.749	207.56
473.968	220.56
474.187	210.56
474.406	205.56
474.625	204.56
474.844	212.56
475.063	214.56
475.282	238.56
475.501	224.56
475.72	267.56
475.939	257.56
476.158	247.56
476.377	278.56
476.596	309.56
476.814	293.56
477.033	273.56
477.252	224.56
477.471	189.56
477.69	216.56
477.908	212.56
478.127	239.56
478.346	205.56
478.564	253.56
478.783	243.56
479.002	233.56
479.22	255.56
479.439	288.56
479.658	263.56
479.876	242.56
480.095	232.56
480.313	257.56
480.532	248.56
480.751	234.56
480.969	245.56
481.188	254.56
481.406	253.56
481.624	254.56
481.843	246.56
482.061	222.56
482.28	249.56
482.498	303.56
482.717	279.56
482.935	264.56
483.153	233.56
483.372	218.56
483.59	213.56
483.808	203.56
484.027	202.56
484.245	214.56
484.463	207.56
484.681	211.56
484.9	220.56
485.118	259.56
485.336	232.56
485.554	219.56
485.772	208.56
485.99	253.56
486.209	256.56
486.427	254.56
486.645	242.56
486.863	259.56
487.081	257.56
487.299	276.56
487.517	283.56
487.735	227.56
487.953	255.56
488.171	247.56
488.389	248.56
488.607	226.56
488.825	235.56
489.043	263.56
489.261	303.56
489.479	326.56
489.696	285.56
489.914	235.56
490.132	227.56
490.35	223.56
490.568	233.56
490.786	225.56
491.003	247.56
491.221	220.56
491.439	213.56
491.657	233.56
491.874	246.56
492.092	302.56
492.31	353.56
492.527	331.56
492.745	294.56
492.963	285.56
493.18	257.56
493.398	264.56
493.615	248.56
493.833	252.56
494.05	256.56
494.268	240.56
494.485	247.56
494.703	245.56
494.92	248.56
495.138	240.56
495.355	222.56
495.573	238.56
495.79	274.56
496.008	368.56
496.225	309.56
496.442	279.56
496.66	262.56
496.877	267.56
497.094	269.56
497.312	255.56
497.529	277.56
497.746	271.56
497.963	237.56
498.181	291.56
498.398	304.56
498.615	319.56
498.832	327.56
499.049	336.56
499.267	313.56
499.484	319.56
499.701	310.56
499.918	346.56
500.135	382.56
500.352	374.56
500.569	392.56
500.786	417.56
501.003	437.56
501.22	381.56
501.437	342.56
501.654	335.56
501.871	317.56
502.088	314.56
502.305	285.56
502.522	307.56
