Data from NickelSpatula_HRD10591_16-33-25-126.txt Node
Date: Mon Jul 22 16:33:25 EDT 2019
User: cochatt
Spectrometer: HR+D1059
Trigger mode: 1
Integration Time (sec): 1.000000E-1
Scans to average: 1
Electric dark correction enabled: true
Nonlinearity correction enabled: false
Boxcar width: 0
XAxis mode: Wavelengths
Number of Pixels in Spectrum: 2048
>>>>>Begin Spectral Data<<<<<
223.165	-16.25
223.4	-16.25
223.635	-16.25
223.869	-25.25
224.104	-22.25
224.338	-22.25
224.573	-4.25
224.808	-23.25
225.042	-15.25
225.277	-23.25
225.511	18.75
225.746	11.75
225.98	6.75
226.215	13.75
226.449	7.75
226.683	26.75
226.918	38.75
227.152	27.75
227.387	37.75
227.621	39.75
227.856	50.75
228.09	54.75
228.324	49.75
228.559	54.75
228.793	54.75
229.027	64.75
229.262	77.75
229.496	75.75
229.73	68.75
229.964	72.75
230.199	88.75
230.433	100.75
230.667	105.75
230.901	80.75
231.136	90.75
231.37	94.75
231.604	105.75
231.838	90.75
232.072	101.75
232.306	104.75
232.541	103.75
232.775	118.75
233.009	107.75
233.243	118.75
233.477	114.75
233.711	132.75
233.945	102.75
234.179	111.75
234.413	118.75
234.647	119.75
234.881	122.75
235.115	117.75
235.349	126.75
235.583	112.75
235.817	113.75
236.051	115.75
236.285	121.75
236.519	133.75
236.753	113.75
236.987	115.75
237.221	119.75
237.455	120.75
237.689	135.75
237.922	127.75
238.156	118.75
238.39	151.75
238.624	155.75
238.858	147.75
239.091	138.75
239.325	116.75
239.559	124.75
239.793	130.75
240.027	154.75
240.26	152.75
240.494	153.75
240.728	156.75
240.961	155.75
241.195	163.75
241.429	167.75
241.662	136.75
241.896	135.75
242.13	146.75
242.363	133.75
242.597	128.75
242.83	135.75
243.064	141.75
243.298	154.75
243.531	152.75
243.765	164.75
243.998	169.75
244.232	152.75
244.465	160.75
244.699	155.75
244.932	163.75
245.166	168.75
245.399	139.75
245.633	138.75
245.866	146.75
246.099	162.75
246.333	181.75
246.566	198.75
246.8	199.75
247.033	162.75
247.266	150.75
247.5	180.75
247.733	158.75
247.966	156.75
248.2	175.75
248.433	190.75
248.666	190.75
248.899	197.75
249.133	183.75
249.366	211.75
249.599	222.75
249.832	214.75
250.066	186.75
250.299	201.75
250.532	191.75
250.765	183.75
250.998	170.75
251.231	166.75
251.465	180.75
251.698	204.75
251.931	193.75
252.164	194.75
252.397	226.75
252.63	216.75
252.863	240.75
253.096	254.75
253.329	252.75
253.562	204.75
253.795	261.75
254.028	290.75
254.261	290.75
254.494	274.75
254.727	247.75
254.96	227.75
255.193	256.75
255.426	231.75
255.659	187.75
255.892	195.75
256.124	202.75
256.357	248.75
256.59	252.75
256.823	237.75
257.056	222.75
257.289	208.75
257.521	214.75
257.754	271.75
257.987	276.75
258.22	265.75
258.452	239.75
258.685	225.75
258.918	255.75
259.151	288.75
259.383	281.75
259.616	322.75
259.849	318.75
260.081	329.75
260.314	346.75
260.547	313.75
260.779	318.75
261.012	352.75
261.244	331.75
261.477	343.75
261.71	298.75
261.942	251.75
262.175	280.75
262.407	258.75
262.64	250.75
262.872	314.75
263.105	326.75
263.337	337.75
263.57	308.75
263.802	233.75
264.035	205.75
264.267	213.75
264.499	181.75
264.732	179.75
264.964	174.75
265.197	183.75
265.429	183.75
265.661	202.75
265.894	200.75
266.126	213.75
266.358	222.75
266.591	246.75
266.823	330.75
267.055	292.75
267.287	271.75
267.52	264.75
267.752	284.75
267.984	316.75
268.216	296.75
268.448	243.75
268.681	239.75
268.913	257.75
269.145	282.75
269.377	289.75
269.609	294.75
269.841	263.75
270.073	301.75
270.306	304.75
270.538	292.75
270.77	313.75
271.002	286.75
271.234	309.75
271.466	340.75
271.698	305.75
271.93	287.75
272.162	290.75
272.394	279.75
272.626	281.75
272.858	275.75
273.09	306.75
273.322	266.75
273.553	255.75
273.785	290.75
274.017	352.75
274.249	424.75
274.481	441.75
274.713	458.75
274.945	564.75
275.176	564.75
275.408	486.75
275.64	473.75
275.872	485.75
276.104	431.75
276.335	375.75
276.567	371.75
276.799	360.75
277.031	396.75
277.262	328.75
277.494	259.75
277.726	247.75
277.957	272.75
278.189	304.75
278.421	305.75
278.652	290.75
278.884	296.75
279.115	260.75
279.347	236.75
279.579	262.75
279.81	261.75
280.042	250.75
280.273	279.75
280.505	258.75
280.736	208.75
280.968	223.75
281.199	230.75
281.431	273.75
281.662	267.75
281.894	271.75
282.125	263.75
282.356	276.75
282.588	299.75
282.819	264.75
283.051	269.75
283.282	342.75
283.513	380.75
283.745	416.75
283.976	400.75
284.207	398.75
284.439	420.75
284.67	396.75
284.901	315.75
285.132	377.75
285.364	387.75
285.595	365.75
285.826	388.75
286.057	406.75
286.288	382.75
286.52	391.75
286.751	404.75
286.982	410.75
287.213	380.75
287.444	356.75
287.675	363.75
287.906	387.75
288.138	316.75
288.369	296.75
288.6	268.75
288.831	273.75
289.062	350.75
289.293	372.75
289.524	343.75
289.755	346.75
289.986	345.75
290.217	316.75
290.448	239.75
290.679	214.75
290.91	200.75
291.141	201.75
291.371	218.75
291.602	229.75
291.833	222.75
292.064	225.75
292.295	268.75
292.526	284.75
292.757	288.75
292.987	321.75
293.218	339.75
293.449	333.75
293.68	359.75
293.91	349.75
294.141	357.75
294.372	344.75
294.603	297.75
294.833	317.75
295.064	382.75
295.295	406.75
295.525	307.75
295.756	270.75
295.987	226.75
296.217	214.75
296.448	211.75
296.679	235.75
296.909	243.75
297.14	278.75
297.37	302.75
297.601	271.75
297.831	250.75
298.062	268.75
298.292	278.75
298.523	295.75
298.753	342.75
298.984	326.75
299.214	261.75
299.445	230.75
299.675	240.75
299.905	234.75
300.136	201.75
300.366	234.75
300.597	218.75
300.827	212.75
301.057	215.75
301.288	208.75
301.518	222.75
301.748	252.75
301.979	262.75
302.209	288.75
302.439	290.75
302.669	250.75
302.9	259.75
303.13	242.75
303.36	231.75
303.59	218.75
303.82	254.75
304.051	265.75
304.281	262.75
304.511	257.75
304.741	251.75
304.971	247.75
305.201	268.75
305.431	247.75
305.661	232.75
305.891	223.75
306.121	226.75
306.352	198.75
306.582	179.75
306.812	193.75
307.042	186.75
307.272	179.75
307.502	176.75
307.731	187.75
307.961	196.75
308.191	206.75
308.421	180.75
308.651	191.75
308.881	181.75
309.111	171.75
309.341	164.75
309.571	197.75
309.8	203.75
310.03	200.75
310.26	214.75
310.49	215.75
310.72	198.75
310.949	202.75
311.179	214.75
311.409	204.75
311.639	219.75
311.868	270.75
312.098	359.75
312.328	383.75
312.557	375.75
312.787	352.75
313.017	318.75
313.246	366.75
313.476	392.75
313.706	337.75
313.935	270.75
314.165	225.75
314.394	224.75
314.624	212.75
314.853	214.75
315.083	209.75
315.312	219.75
315.542	219.75
315.771	202.75
316.001	201.75
316.23	183.75
316.46	180.75
316.689	181.75
316.919	180.75
317.148	196.75
317.377	192.75
317.607	180.75
317.836	186.75
318.065	216.75
318.295	247.75
318.524	234.75
318.753	194.75
318.983	188.75
319.212	204.75
319.441	217.75
319.67	202.75
319.9	242.75
320.129	235.75
320.358	194.75
320.587	201.75
320.816	194.75
321.046	220.75
321.275	255.75
321.504	266.75
321.733	251.75
321.962	230.75
322.191	247.75
322.42	222.75
322.649	228.75
322.878	241.75
323.108	233.75
323.337	217.75
323.566	213.75
323.795	214.75
324.024	214.75
324.253	207.75
324.482	203.75
324.71	222.75
324.939	246.75
325.168	220.75
325.397	190.75
325.626	184.75
325.855	197.75
326.084	199.75
326.313	202.75
326.542	186.75
326.77	180.75
326.999	181.75
327.228	203.75
327.457	211.75
327.686	206.75
327.914	182.75
328.143	176.75
328.372	177.75
328.6	186.75
328.829	192.75
329.058	202.75
329.287	184.75
329.515	176.75
329.744	181.75
329.972	182.75
330.201	182.75
330.43	184.75
330.658	189.75
330.887	232.75
331.115	222.75
331.344	217.75
331.572	203.75
331.801	201.75
332.03	180.75
332.258	190.75
332.486	229.75
332.715	239.75
332.943	208.75
333.172	210.75
333.4	208.75
333.629	203.75
333.857	234.75
334.085	233.75
334.314	249.75
334.542	230.75
334.771	216.75
334.999	212.75
335.227	211.75
335.455	206.75
335.684	224.75
335.912	268.75
336.14	281.75
336.369	267.75
336.597	262.75
336.825	284.75
337.053	304.75
337.281	262.75
337.51	211.75
337.738	201.75
337.966	214.75
338.194	246.75
338.422	230.75
338.65	196.75
338.878	181.75
339.106	203.75
339.334	203.75
339.562	240.75
339.79	198.75
340.018	198.75
340.246	216.75
340.474	233.75
340.702	253.75
340.93	262.75
341.158	251.75
341.386	204.75
341.614	221.75
341.842	211.75
342.07	226.75
342.298	247.75
342.526	276.75
342.754	231.75
342.981	214.75
343.209	211.75
343.437	263.75
343.665	232.75
343.893	227.75
344.12	262.75
344.348	354.75
344.576	322.75
344.804	267.75
345.031	220.75
345.259	202.75
345.487	210.75
345.714	201.75
345.942	228.75
346.17	246.75
346.397	243.75
346.625	213.75
346.853	209.75
347.08	205.75
347.308	216.75
347.535	235.75
347.763	234.75
347.99	209.75
348.218	208.75
348.445	204.75
348.673	211.75
348.9	202.75
349.128	212.75
349.355	228.75
349.583	216.75
349.81	220.75
350.037	199.75
350.265	178.75
350.492	165.75
350.72	171.75
350.947	170.75
351.174	192.75
351.402	204.75
351.629	198.75
351.856	186.75
352.083	194.75
352.311	192.75
352.538	220.75
352.765	220.75
352.992	217.75
353.22	192.75
353.447	213.75
353.674	212.75
353.901	195.75
354.128	216.75
354.355	201.75
354.583	207.75
354.81	221.75
355.037	232.75
355.264	205.75
355.491	220.75
355.718	223.75
355.945	228.75
356.172	199.75
356.399	223.75
356.626	235.75
356.853	281.75
357.08	289.75
357.307	323.75
357.534	257.75
357.761	249.75
357.988	309.75
358.215	352.75
358.441	338.75
358.668	306.75
358.895	282.75
359.122	225.75
359.349	225.75
359.576	269.75
359.802	192.75
360.029	187.75
360.256	202.75
360.483	238.75
360.709	294.75
360.936	293.75
361.163	263.75
361.39	212.75
361.616	193.75
361.843	209.75
362.07	260.75
362.296	258.75
362.523	211.75
362.749	182.75
362.976	213.75
363.203	246.75
363.429	260.75
363.656	235.75
363.882	195.75
364.109	193.75
364.335	210.75
364.562	207.75
364.788	213.75
365.015	252.75
365.241	227.75
365.468	202.75
365.694	171.75
365.92	169.75
366.147	163.75
366.373	177.75
366.599	166.75
366.826	182.75
367.052	176.75
367.278	180.75
367.505	181.75
367.731	182.75
367.957	200.75
368.184	210.75
368.41	192.75
368.636	193.75
368.862	210.75
369.089	204.75
369.315	179.75
369.541	167.75
369.767	182.75
369.993	172.75
370.219	183.75
370.445	175.75
370.672	205.75
370.898	224.75
371.124	218.75
371.35	199.75
371.576	196.75
371.802	196.75
372.028	215.75
372.254	244.75
372.48	224.75
372.706	204.75
372.932	248.75
373.158	212.75
373.384	246.75
373.61	288.75
373.835	308.75
374.061	255.75
374.287	219.75
374.513	258.75
374.739	294.75
374.965	301.75
375.191	307.75
375.416	225.75
375.642	191.75
375.868	228.75
376.094	247.75
376.319	233.75
376.545	243.75
376.771	233.75
376.997	220.75
377.222	185.75
377.448	165.75
377.674	153.75
377.899	171.75
378.125	179.75
378.35	164.75
378.576	183.75
378.802	197.75
379.027	206.75
379.253	205.75
379.478	201.75
379.704	211.75
379.929	217.75
380.155	216.75
380.38	200.75
380.606	205.75
380.831	218.75
381.057	218.75
381.282	208.75
381.507	238.75
381.733	273.75
381.958	270.75
382.184	291.75
382.409	301.75
382.634	292.75
382.86	327.75
383.085	251.75
383.31	223.75
383.535	236.75
383.761	238.75
383.986	247.75
384.211	274.75
384.436	262.75
384.662	213.75
384.887	200.75
385.112	217.75
385.337	198.75
385.562	211.75
385.787	219.75
386.013	241.75
386.238	255.75
386.463	201.75
386.688	203.75
386.913	197.75
387.138	192.75
387.363	209.75
387.588	205.75
387.813	203.75
388.038	220.75
388.263	206.75
388.488	202.75
388.713	238.75
388.938	245.75
389.163	221.75
389.387	194.75
389.612	183.75
389.837	168.75
390.062	195.75
390.287	217.75
390.512	209.75
390.736	193.75
390.961	195.75
391.186	191.75
391.411	198.75
391.636	190.75
391.86	197.75
392.085	227.75
392.31	230.75
392.534	206.75
392.759	217.75
392.984	218.75
393.208	217.75
393.433	206.75
393.658	190.75
393.882	171.75
394.107	162.75
394.331	173.75
394.556	178.75
394.78	189.75
395.005	182.75
395.229	189.75
395.454	205.75
395.678	190.75
395.903	180.75
396.127	187.75
396.352	201.75
396.576	196.75
396.801	203.75
397.025	225.75
397.249	261.75
397.474	202.75
397.698	200.75
397.922	207.75
398.147	194.75
398.371	201.75
398.595	223.75
398.82	203.75
399.044	193.75
399.268	222.75
399.492	214.75
399.717	238.75
399.941	235.75
400.165	239.75
400.389	238.75
400.613	225.75
400.837	229.75
401.062	217.75
401.286	202.75
401.51	195.75
401.734	201.75
401.958	203.75
402.182	208.75
402.406	212.75
402.63	207.75
402.854	225.75
403.078	231.75
403.302	285.75
403.526	304.75
403.75	281.75
403.974	229.75
404.198	249.75
404.422	257.75
404.645	272.75
404.869	311.75
405.093	255.75
405.317	231.75
405.541	214.75
405.765	220.75
405.988	214.75
406.212	214.75
406.436	255.75
406.66	276.75
406.883	232.75
407.107	242.75
407.331	259.75
407.555	268.75
407.778	246.75
408.002	218.75
408.226	247.75
408.449	237.75
408.673	242.75
408.896	223.75
409.12	194.75
409.344	225.75
409.567	204.75
409.791	196.75
410.014	203.75
410.238	211.75
410.461	188.75
410.685	200.75
410.908	192.75
411.132	209.75
411.355	201.75
411.578	197.75
411.802	209.75
412.025	215.75
412.249	222.75
412.472	204.75
412.695	199.75
412.919	187.75
413.142	219.75
413.365	235.75
413.589	237.75
413.812	210.75
414.035	195.75
414.258	216.75
414.482	215.75
414.705	224.75
414.928	212.75
415.151	198.75
415.374	196.75
415.597	194.75
415.821	212.75
416.044	192.75
416.267	208.75
416.49	199.75
416.713	181.75
416.936	200.75
417.159	183.75
417.382	209.75
417.605	200.75
417.828	204.75
418.051	209.75
418.274	206.75
418.497	204.75
418.72	190.75
418.943	227.75
419.166	232.75
419.389	224.75
419.611	207.75
419.834	226.75
420.057	234.75
420.28	234.75
420.503	220.75
420.726	218.75
420.948	195.75
421.171	202.75
421.394	198.75
421.617	209.75
421.839	201.75
422.062	205.75
422.285	204.75
422.507	204.75
422.73	203.75
422.953	207.75
423.175	209.75
423.398	202.75
423.621	216.75
423.843	233.75
424.066	208.75
424.288	203.75
424.511	211.75
424.733	214.75
424.956	191.75
425.178	224.75
425.401	253.75
425.623	289.75
425.846	260.75
426.068	232.75
426.291	246.75
426.513	235.75
426.735	212.75
426.958	220.75
427.18	241.75
427.402	286.75
427.625	285.75
427.847	257.75
428.069	201.75
428.292	192.75
428.514	196.75
428.736	195.75
428.958	210.75
429.181	238.75
429.403	220.75
429.625	195.75
429.847	191.75
430.069	185.75
430.292	222.75
430.514	192.75
430.736	188.75
430.958	233.75
431.18	225.75
431.402	182.75
431.624	180.75
431.846	160.75
432.068	184.75
432.29	187.75
432.512	199.75
432.734	243.75
432.956	224.75
433.178	189.75
433.4	183.75
433.622	192.75
433.844	208.75
434.066	191.75
434.287	207.75
434.509	201.75
434.731	197.75
434.953	190.75
435.175	195.75
435.397	227.75
435.618	194.75
435.84	189.75
436.062	162.75
436.284	190.75
436.505	184.75
436.727	180.75
436.949	178.75
437.17	184.75
437.392	186.75
437.614	170.75
437.835	182.75
438.057	194.75
438.278	196.75
438.5	239.75
438.721	260.75
438.943	201.75
439.165	193.75
439.386	182.75
439.608	178.75
439.829	171.75
440.05	163.75
440.272	181.75
440.493	217.75
440.715	231.75
440.936	222.75
441.158	194.75
441.379	200.75
441.6	235.75
441.822	223.75
442.043	200.75
442.264	187.75
442.486	199.75
442.707	186.75
442.928	195.75
443.149	203.75
443.371	208.75
443.592	192.75
443.813	197.75
444.034	194.75
444.255	189.75
444.476	224.75
444.698	208.75
444.919	205.75
445.14	295.75
445.361	262.75
445.582	208.75
445.803	197.75
446.024	216.75
446.245	210.75
446.466	207.75
446.687	203.75
446.908	191.75
447.129	188.75
447.35	196.75
447.571	187.75
447.792	182.75
448.013	175.75
448.234	166.75
448.455	170.75
448.675	176.75
448.896	192.75
449.117	184.75
449.338	188.75
449.559	187.75
449.779	199.75
450	194.75
450.221	204.75
450.442	189.75
450.662	174.75
450.883	192.75
451.104	183.75
451.324	170.75
451.545	195.75
451.766	186.75
451.986	186.75
452.207	166.75
452.428	162.75
452.648	185.75
452.869	204.75
453.089	182.75
453.31	183.75
453.53	166.75
453.751	174.75
453.971	165.75
454.192	164.75
454.412	188.75
454.633	175.75
454.853	158.75
455.073	156.75
455.294	174.75
455.514	168.75
455.734	175.75
455.955	187.75
456.175	184.75
456.395	171.75
456.616	151.75
456.836	180.75
457.056	166.75
457.276	155.75
457.497	155.75
457.717	167.75
457.937	160.75
458.157	181.75
458.377	167.75
458.598	174.75
458.818	190.75
459.038	169.75
459.258	188.75
459.478	199.75
459.698	187.75
459.918	194.75
460.138	194.75
460.358	209.75
460.578	220.75
460.798	220.75
461.018	206.75
461.238	205.75
461.458	210.75
461.678	198.75
461.898	234.75
462.118	203.75
462.338	209.75
462.558	207.75
462.777	211.75
462.997	207.75
463.217	231.75
463.437	241.75
463.657	223.75
463.876	224.75
464.096	214.75
464.316	240.75
464.536	227.75
464.755	239.75
464.975	234.75
465.195	224.75
465.414	227.75
465.634	209.75
465.854	193.75
466.073	193.75
466.293	183.75
466.512	197.75
466.732	230.75
466.951	214.75
467.171	192.75
467.391	189.75
467.61	176.75
467.829	180.75
468.049	206.75
468.268	186.75
468.488	187.75
468.707	193.75
468.927	222.75
469.146	232.75
469.365	216.75
469.585	215.75
469.804	224.75
470.023	231.75
470.243	218.75
470.462	197.75
470.681	208.75
470.901	212.75
471.12	209.75
471.339	221.75
471.558	197.75
471.777	194.75
471.997	216.75
472.216	247.75
472.435	214.75
472.654	199.75
472.873	207.75
473.092	209.75
473.311	213.75
473.53	200.75
473.749	202.75
473.968	213.75
474.187	217.75
474.406	200.75
474.625	186.75
474.844	192.75
475.063	205.75
475.282	214.75
475.501	225.75
475.72	244.75
475.939	226.75
476.158	210.75
476.377	261.75
476.596	276.75
476.814	316.75
477.033	268.75
477.252	209.75
477.471	206.75
477.69	215.75
477.908	227.75
478.127	242.75
478.346	229.75
478.564	246.75
478.783	252.75
479.002	228.75
479.22	261.75
479.439	278.75
479.658	256.75
479.876	221.75
480.095	239.75
480.313	258.75
480.532	242.75
480.751	220.75
480.969	226.75
481.188	266.75
481.406	254.75
481.624	250.75
481.843	235.75
482.061	205.75
482.28	234.75
482.498	303.75
482.717	311.75
482.935	249.75
483.153	230.75
483.372	222.75
483.59	224.75
483.808	198.75
484.027	207.75
484.245	208.75
484.463	198.75
484.681	215.75
484.9	214.75
485.118	239.75
485.336	210.75
485.554	195.75
485.772	214.75
485.99	228.75
486.209	240.75
486.427	262.75
486.645	242.75
486.863	247.75
487.081	235.75
487.299	267.75
487.517	274.75
487.735	242.75
487.953	238.75
488.171	246.75
488.389	224.75
488.607	208.75
488.825	227.75
489.043	248.75
489.261	277.75
489.479	296.75
489.696	222.75
489.914	230.75
490.132	217.75
490.35	216.75
490.568	234.75
490.786	234.75
491.003	228.75
491.221	240.75
491.439	215.75
491.657	213.75
491.874	241.75
492.092	289.75
492.31	351.75
492.527	316.75
492.745	284.75
492.963	247.75
493.18	256.75
493.398	233.75
493.615	254.75
493.833	241.75
494.05	226.75
494.268	233.75
494.485	242.75
494.703	233.75
494.92	229.75
495.138	234.75
495.355	246.75
495.573	255.75
495.79	267.75
496.008	355.75
496.225	289.75
496.442	244.75
496.66	266.75
496.877	278.75
497.094	268.75
497.312	262.75
497.529	248.75
497.746	266.75
497.963	258.75
498.181	283.75
498.398	307.75
498.615	317.75
498.832	337.75
499.049	329.75
499.267	306.75
499.484	312.75
499.701	343.75
499.918	362.75
500.135	422.75
500.352	431.75
500.569	448.75
500.786	436.75
501.003	469.75
501.22	384.75
501.437	354.75
501.654	337.75
501.871	328.75
502.088	330.75
502.305	301.75
502.522	295.75
