Data from NickelSpatula.Lamp.E10.P2_HRD10591_11-57-24-532.txt Node
Date: Tue Jul 23 11:57:24 EDT 2019
User: cochatt
Spectrometer: HR+D1059
Trigger mode: 1
Integration Time (sec): 1.000000E-1
Scans to average: 1
Electric dark correction enabled: true
Nonlinearity correction enabled: false
Boxcar width: 0
XAxis mode: Wavelengths
Number of Pixels in Spectrum: 2048
>>>>>Begin Spectral Data<<<<<
223.165	-32.81
223.4	-32.81
223.635	-32.81
223.869	-4.81
224.104	-23.81
224.338	-1.81
224.573	-16.81
224.808	-14.81
225.042	-15.81
225.277	-1.81
225.511	0.19
225.746	2.19
225.98	9.19
226.215	20.19
226.449	12.19
226.683	15.19
226.918	21.19
227.152	32.19
227.387	30.19
227.621	31.19
227.856	45.19
228.09	41.19
228.324	52.19
228.559	37.19
228.793	72.19
229.027	150.19
229.262	159.19
229.496	144.19
229.73	174.19
229.964	193.19
230.199	244.19
230.433	208.19
230.667	215.19
230.901	218.19
231.136	183.19
231.37	186.19
231.604	222.19
231.838	229.19
232.072	254.19
232.306	263.19
232.541	249.19
232.775	253.19
233.009	253.19
233.243	292.19
233.477	300.19
233.711	337.19
233.945	316.19
234.179	327.19
234.413	347.19
234.647	380.19
234.881	467.19
235.115	430.19
235.349	390.19
235.583	354.19
235.817	340.19
236.051	377.19
236.285	405.19
236.519	434.19
236.753	444.19
236.987	430.19
237.221	377.19
237.455	410.19
237.689	415.19
237.922	461.19
238.156	470.19
238.39	535.19
238.624	637.19
238.858	584.19
239.091	494.19
239.325	486.19
239.559	475.19
239.793	538.19
240.027	634.19
240.26	608.19
240.494	582.19
240.728	593.19
240.961	678.19
241.195	614.19
241.429	610.19
241.662	622.19
241.896	528.19
242.13	484.19
242.363	446.19
242.597	466.19
242.83	536.19
243.064	531.19
243.298	596.19
243.531	630.19
243.765	638.19
243.998	605.19
244.232	625.19
244.465	585.19
244.699	592.19
244.932	672.19
245.166	610.19
245.399	541.19
245.633	546.19
245.866	552.19
246.099	610.19
246.333	697.19
246.566	755.19
246.8	746.19
247.033	711.19
247.266	688.19
247.5	681.19
247.733	678.19
247.966	654.19
248.2	668.19
248.433	768.19
248.666	825.19
248.899	827.19
249.133	855.19
249.366	977.19
249.599	1070.19
249.832	948.19
250.066	795.19
250.299	818.19
250.532	819.19
250.765	800.19
250.998	715.19
251.231	694.19
251.465	809.19
251.698	844.19
251.931	766.19
252.164	818.19
252.397	910.19
252.63	1026.19
252.863	1158.19
253.096	1188.19
253.329	1136.19
253.562	1109.19
253.795	1219.19
254.028	1359.19
254.261	1349.19
254.494	1217.19
254.727	1115.19
254.96	1110.19
255.193	1140.19
255.426	1138.19
255.659	854.19
255.892	826.19
256.124	834.19
256.357	1019.19
256.59	1202.19
256.823	1142.19
257.056	973.19
257.289	911.19
257.521	950.19
257.754	1132.19
257.987	1280.19
258.22	1109.19
258.452	990.19
258.685	1141.19
258.918	1247.19
259.151	1270.19
259.383	1282.19
259.616	1463.19
259.849	1535.19
260.081	1693.19
260.314	1882.19
260.547	1462.19
260.779	1473.19
261.012	1680.19
261.244	1575.19
261.477	1614.19
261.71	1537.19
261.942	1284.19
262.175	1308.19
262.407	1246.19
262.64	1303.19
262.872	1490.19
263.105	1639.19
263.337	1683.19
263.57	1529.19
263.802	1016.19
264.035	912.19
264.267	857.19
264.499	772.19
264.732	716.19
264.964	697.19
265.197	711.19
265.429	774.19
265.661	798.19
265.894	855.19
266.126	924.19
266.358	1028.19
266.591	1236.19
266.823	1446.19
267.055	1383.19
267.287	1225.19
267.52	1217.19
267.752	1337.19
267.984	1420.19
268.216	1389.19
268.448	1100.19
268.681	1118.19
268.913	1185.19
269.145	1245.19
269.377	1295.19
269.609	1298.19
269.841	1221.19
270.073	1287.19
270.306	1368.19
270.538	1388.19
270.77	1382.19
271.002	1420.19
271.234	1444.19
271.466	1490.19
271.698	1462.19
271.93	1392.19
272.162	1424.19
272.394	1415.19
272.626	1352.19
272.858	1446.19
273.09	1459.19
273.322	1296.19
273.553	1252.19
273.785	1484.19
274.017	1946.19
274.249	2416.19
274.481	2486.19
274.713	2702.19
274.945	3095.19
275.176	3199.19
275.408	2826.19
275.64	2604.19
275.872	2544.19
276.104	2212.19
276.335	1877.19
276.567	1858.19
276.799	1940.19
277.031	2058.19
277.262	1584.19
277.494	1245.19
277.726	1179.19
277.957	1278.19
278.189	1460.19
278.421	1472.19
278.652	1415.19
278.884	1340.19
279.115	1253.19
279.347	1169.19
279.579	1196.19
279.81	1177.19
280.042	1233.19
280.273	1242.19
280.505	1121.19
280.736	972.19
280.968	978.19
281.199	1084.19
281.431	1244.19
281.662	1178.19
281.894	1180.19
282.125	1292.19
282.356	1311.19
282.588	1377.19
282.819	1239.19
283.051	1390.19
283.282	1680.19
283.513	1963.19
283.745	2156.19
283.976	2149.19
284.207	1934.19
284.439	2097.19
284.67	1998.19
284.901	1776.19
285.132	1922.19
285.364	1996.19
285.595	1846.19
285.826	1912.19
286.057	2036.19
286.288	1943.19
286.52	1957.19
286.751	2093.19
286.982	2072.19
287.213	1768.19
287.444	1757.19
287.675	1809.19
287.906	1792.19
288.138	1519.19
288.369	1372.19
288.6	1268.19
288.831	1345.19
289.062	1545.19
289.293	1719.19
289.524	1619.19
289.755	1590.19
289.986	1609.19
290.217	1434.19
290.448	1104.19
290.679	984.19
290.91	924.19
291.141	945.19
291.371	958.19
291.602	976.19
291.833	972.19
292.064	1056.19
292.295	1216.19
292.526	1362.19
292.757	1432.19
292.987	1560.19
293.218	1561.19
293.449	1573.19
293.68	1678.19
293.91	1588.19
294.141	1594.19
294.372	1512.19
294.603	1392.19
294.833	1564.19
295.064	1810.19
295.295	1698.19
295.525	1329.19
295.756	1140.19
295.987	990.19
296.217	1019.19
296.448	1029.19
296.679	1089.19
296.909	1209.19
297.14	1304.19
297.37	1380.19
297.601	1314.19
297.831	1142.19
298.062	1250.19
298.292	1432.19
298.523	1561.19
298.753	1732.19
298.984	1576.19
299.214	1237.19
299.445	1051.19
299.675	1022.19
299.905	1024.19
300.136	1038.19
300.366	1141.19
300.597	1095.19
300.827	1010.19
301.057	1000.19
301.288	982.19
301.518	1072.19
301.748	1169.19
301.979	1266.19
302.209	1364.19
302.439	1416.19
302.669	1225.19
302.9	1234.19
303.13	1126.19
303.36	1078.19
303.59	1050.19
303.82	1097.19
304.051	1233.19
304.281	1324.19
304.511	1295.19
304.741	1126.19
304.971	1192.19
305.201	1244.19
305.431	1187.19
305.661	1018.19
305.891	1050.19
306.121	1053.19
306.352	950.19
306.582	884.19
306.812	876.19
307.042	859.19
307.272	794.19
307.502	802.19
307.731	872.19
307.961	880.19
308.191	864.19
308.421	781.19
308.651	792.19
308.881	753.19
309.111	774.19
309.341	827.19
309.571	884.19
309.8	888.19
310.03	905.19
310.26	983.19
310.49	936.19
310.72	871.19
310.949	888.19
311.179	869.19
311.409	916.19
311.639	1052.19
311.868	1365.19
312.098	1774.19
312.328	1927.19
312.557	1804.19
312.787	1831.19
313.017	1621.19
313.246	1774.19
313.476	1964.19
313.706	1580.19
313.935	1270.19
314.165	1042.19
314.394	937.19
314.624	962.19
314.853	1017.19
315.083	1052.19
315.312	1000.19
315.542	1022.19
315.771	926.19
316.001	853.19
316.23	848.19
316.46	829.19
316.689	852.19
316.919	866.19
317.148	882.19
317.377	853.19
317.607	869.19
317.836	946.19
318.065	1065.19
318.295	1213.19
318.524	1143.19
318.753	949.19
318.983	941.19
319.212	919.19
319.441	997.19
319.67	1100.19
319.9	1207.19
320.129	1112.19
320.358	961.19
320.587	911.19
320.816	998.19
321.046	1170.19
321.275	1327.19
321.504	1296.19
321.733	1260.19
321.962	1196.19
322.191	1127.19
322.42	1048.19
322.649	1069.19
322.878	1151.19
323.108	1164.19
323.337	1058.19
323.566	1111.19
323.795	1009.19
324.024	1006.19
324.253	941.19
324.482	965.19
324.71	1062.19
324.939	1193.19
325.168	1136.19
325.397	919.19
325.626	892.19
325.855	906.19
326.084	901.19
326.313	896.19
326.542	812.19
326.77	873.19
326.999	910.19
327.228	948.19
327.457	1022.19
327.686	991.19
327.914	860.19
328.143	849.19
328.372	828.19
328.6	820.19
328.829	858.19
329.058	909.19
329.287	860.19
329.515	902.19
329.744	848.19
329.972	835.19
330.201	779.19
330.43	865.19
330.658	945.19
330.887	1086.19
331.115	1022.19
331.344	1013.19
331.572	961.19
331.801	891.19
332.03	835.19
332.258	868.19
332.486	978.19
332.715	966.19
332.943	905.19
333.172	917.19
333.4	898.19
333.629	1006.19
333.857	1099.19
334.085	1106.19
334.314	1102.19
334.542	1037.19
334.771	964.19
334.999	950.19
335.227	947.19
335.455	929.19
335.684	1024.19
335.912	1177.19
336.14	1296.19
336.369	1270.19
336.597	1234.19
336.825	1368.19
337.053	1493.19
337.281	1222.19
337.51	964.19
337.738	977.19
337.966	1060.19
338.194	1159.19
338.422	1086.19
338.65	942.19
338.878	889.19
339.106	916.19
339.334	992.19
339.562	1071.19
339.79	944.19
340.018	983.19
340.246	1054.19
340.474	1171.19
340.702	1233.19
340.93	1264.19
341.158	1300.19
341.386	1109.19
341.614	1083.19
341.842	1088.19
342.07	1138.19
342.298	1300.19
342.526	1347.19
342.754	1182.19
342.981	1074.19
343.209	1053.19
343.437	1110.19
343.665	1172.19
343.893	1166.19
344.12	1322.19
344.348	1549.19
344.576	1404.19
344.804	1166.19
345.031	1012.19
345.259	972.19
345.487	990.19
345.714	1012.19
345.942	1078.19
346.17	1206.19
346.397	1116.19
346.625	978.19
346.853	977.19
347.08	944.19
347.308	983.19
347.535	1068.19
347.763	1113.19
347.99	995.19
348.218	903.19
348.445	949.19
348.673	967.19
348.9	942.19
349.128	1018.19
349.355	1046.19
349.583	1062.19
349.81	973.19
350.037	926.19
350.265	817.19
350.492	800.19
350.72	793.19
350.947	829.19
351.174	871.19
351.402	903.19
351.629	944.19
351.856	937.19
352.083	864.19
352.311	971.19
352.538	1040.19
352.765	1100.19
352.992	997.19
353.22	930.19
353.447	988.19
353.674	939.19
353.901	913.19
354.128	914.19
354.355	960.19
354.583	974.19
354.81	967.19
355.037	979.19
355.264	1020.19
355.491	1028.19
355.718	1124.19
355.945	1097.19
356.172	1074.19
356.399	1063.19
356.626	1271.19
356.853	1547.19
357.08	1660.19
357.307	1692.19
357.534	1348.19
357.761	1366.19
357.988	1698.19
358.215	1950.19
358.441	1870.19
358.668	1554.19
358.895	1464.19
359.122	1151.19
359.349	1169.19
359.576	1280.19
359.802	1057.19
360.029	899.19
360.256	1009.19
360.483	1229.19
360.709	1533.19
360.936	1612.19
361.163	1398.19
361.39	1098.19
361.616	1014.19
361.843	1224.19
362.07	1432.19
362.296	1319.19
362.523	1062.19
362.749	907.19
362.976	1012.19
363.203	1156.19
363.429	1281.19
363.656	1067.19
363.882	955.19
364.109	986.19
364.335	982.19
364.562	930.19
364.788	1093.19
365.015	1256.19
365.241	1116.19
365.468	935.19
365.694	842.19
365.92	820.19
366.147	765.19
366.373	768.19
366.599	777.19
366.826	778.19
367.052	803.19
367.278	837.19
367.505	812.19
367.731	887.19
367.957	979.19
368.184	1005.19
368.41	979.19
368.636	1037.19
368.862	1029.19
369.089	976.19
369.315	922.19
369.541	879.19
369.767	873.19
369.993	832.19
370.219	842.19
370.445	907.19
370.672	982.19
370.898	1054.19
371.124	1078.19
371.35	942.19
371.576	891.19
371.802	965.19
372.028	1136.19
372.254	1283.19
372.48	1090.19
372.706	999.19
372.932	1068.19
373.158	1122.19
373.384	1334.19
373.61	1780.19
373.835	1785.19
374.061	1355.19
374.287	1138.19
374.513	1330.19
374.739	1578.19
374.965	1642.19
375.191	1619.19
375.416	1151.19
375.642	990.19
375.868	1170.19
376.094	1320.19
376.319	1132.19
376.545	1255.19
376.771	1332.19
376.997	1117.19
377.222	844.19
377.448	741.19
377.674	743.19
377.899	735.19
378.125	738.19
378.35	773.19
378.576	760.19
378.802	836.19
379.027	903.19
379.253	869.19
379.478	889.19
379.704	997.19
379.929	1046.19
380.155	1052.19
380.38	916.19
380.606	973.19
380.831	1080.19
381.057	1006.19
381.282	966.19
381.507	1136.19
381.733	1396.19
381.958	1471.19
382.184	1580.19
382.409	1631.19
382.634	1628.19
382.86	1627.19
383.085	1368.19
383.31	1086.19
383.535	1183.19
383.761	1228.19
383.986	1166.19
384.211	1363.19
384.436	1302.19
384.662	1027.19
384.887	978.19
385.112	1016.19
385.337	1001.19
385.562	971.19
385.787	1061.19
386.013	1200.19
386.238	1214.19
386.463	997.19
386.688	959.19
386.913	950.19
387.138	879.19
387.363	931.19
387.588	961.19
387.813	975.19
388.038	1070.19
388.263	956.19
388.488	944.19
388.713	1057.19
388.938	1177.19
389.163	993.19
389.387	893.19
389.612	903.19
389.837	930.19
390.062	905.19
390.287	1001.19
390.512	1001.19
390.736	930.19
390.961	898.19
391.186	824.19
391.411	826.19
391.636	866.19
391.86	908.19
392.085	989.19
392.31	977.19
392.534	946.19
392.759	923.19
392.984	972.19
393.208	929.19
393.433	871.19
393.658	834.19
393.882	780.19
394.107	800.19
394.331	796.19
394.556	782.19
394.78	812.19
395.005	826.19
395.229	870.19
395.454	884.19
395.678	872.19
395.903	897.19
396.127	858.19
396.352	896.19
396.576	998.19
396.801	960.19
397.025	1096.19
397.249	1121.19
397.474	924.19
397.698	914.19
397.922	969.19
398.147	924.19
398.371	934.19
398.595	981.19
398.82	965.19
399.044	968.19
399.268	1028.19
399.492	1055.19
399.717	1060.19
399.941	1099.19
400.165	1046.19
400.389	1024.19
400.613	1040.19
400.837	1013.19
401.062	931.19
401.286	916.19
401.51	892.19
401.734	916.19
401.958	909.19
402.182	895.19
402.406	952.19
402.63	946.19
402.854	980.19
403.078	1046.19
403.302	1292.19
403.526	1308.19
403.75	1170.19
403.974	1007.19
404.198	1081.19
404.422	1230.19
404.645	1429.19
404.869	1531.19
405.093	1152.19
405.317	1024.19
405.541	992.19
405.765	977.19
405.988	993.19
406.212	1089.19
406.436	1245.19
406.66	1369.19
406.883	1129.19
407.107	1148.19
407.331	1348.19
407.555	1286.19
407.778	1085.19
408.002	1049.19
408.226	1040.19
408.449	1032.19
408.673	1038.19
408.896	932.19
409.12	932.19
409.344	931.19
409.567	888.19
409.791	921.19
410.014	895.19
410.238	904.19
410.461	882.19
410.685	896.19
410.908	901.19
411.132	914.19
411.355	926.19
411.578	936.19
411.802	948.19
412.025	984.19
412.249	981.19
412.472	919.19
412.695	970.19
412.919	979.19
413.142	953.19
413.365	1041.19
413.589	1044.19
413.812	986.19
414.035	921.19
414.258	919.19
414.482	1034.19
414.705	1049.19
414.928	916.19
415.151	900.19
415.374	873.19
415.597	905.19
415.821	901.19
416.044	887.19
416.267	879.19
416.49	854.19
416.713	842.19
416.936	868.19
417.159	868.19
417.382	903.19
417.605	904.19
417.828	911.19
418.051	933.19
418.274	900.19
418.497	937.19
418.72	953.19
418.943	950.19
419.166	982.19
419.389	1036.19
419.611	1018.19
419.834	1021.19
420.057	1100.19
420.28	1092.19
420.503	1031.19
420.726	929.19
420.948	894.19
421.171	902.19
421.394	886.19
421.617	847.19
421.839	914.19
422.062	910.19
422.285	904.19
422.507	967.19
422.73	940.19
422.953	973.19
423.175	945.19
423.398	945.19
423.621	991.19
423.843	1014.19
424.066	989.19
424.288	949.19
424.511	929.19
424.733	930.19
424.956	940.19
425.178	1055.19
425.401	1197.19
425.623	1384.19
425.846	1132.19
426.068	984.19
426.291	1097.19
426.513	1026.19
426.735	943.19
426.958	999.19
427.18	1159.19
427.402	1440.19
427.625	1422.19
427.847	1157.19
428.069	890.19
428.292	918.19
428.514	924.19
428.736	884.19
428.958	958.19
429.181	1106.19
429.403	985.19
429.625	883.19
429.847	869.19
430.069	903.19
430.292	907.19
430.514	880.19
430.736	961.19
430.958	1192.19
431.18	1070.19
431.402	850.19
431.624	765.19
431.846	815.19
432.068	803.19
432.29	828.19
432.512	914.19
432.734	1225.19
432.956	1104.19
433.178	882.19
433.4	851.19
433.622	862.19
433.844	866.19
434.066	923.19
434.287	918.19
434.509	902.19
434.731	914.19
434.953	861.19
435.175	914.19
435.397	1040.19
435.618	894.19
435.84	846.19
436.062	836.19
436.284	847.19
436.505	810.19
436.727	817.19
436.949	819.19
437.17	837.19
437.392	848.19
437.614	839.19
437.835	831.19
438.057	854.19
438.278	964.19
438.5	1344.19
438.721	1348.19
438.943	943.19
439.165	835.19
439.386	803.19
439.608	799.19
439.829	780.19
440.05	802.19
440.272	855.19
440.493	1012.19
440.715	1188.19
440.936	976.19
441.158	854.19
441.379	861.19
441.6	976.19
441.822	994.19
442.043	915.19
442.264	877.19
442.486	875.19
442.707	863.19
442.928	844.19
443.149	896.19
443.371	892.19
443.592	938.19
443.813	923.19
444.034	900.19
444.255	914.19
444.476	946.19
444.698	955.19
444.919	958.19
445.14	1081.19
445.361	1040.19
445.582	972.19
445.803	926.19
446.024	936.19
446.245	955.19
446.466	937.19
446.687	889.19
446.908	877.19
447.129	848.19
447.35	824.19
447.571	788.19
447.792	796.19
448.013	797.19
448.234	784.19
448.455	785.19
448.675	769.19
448.896	816.19
449.117	774.19
449.338	809.19
449.559	831.19
449.779	854.19
450	864.19
450.221	837.19
450.442	834.19
450.662	790.19
450.883	831.19
451.104	818.19
451.324	797.19
451.545	801.19
451.766	818.19
451.986	780.19
452.207	772.19
452.428	789.19
452.648	776.19
452.869	829.19
453.089	831.19
453.31	814.19
453.53	742.19
453.751	749.19
453.971	737.19
454.192	782.19
454.412	800.19
454.633	737.19
454.853	752.19
455.073	738.19
455.294	714.19
455.514	751.19
455.734	794.19
455.955	810.19
456.175	823.19
456.395	758.19
456.616	730.19
456.836	699.19
457.056	674.19
457.276	693.19
457.497	694.19
457.717	718.19
457.937	735.19
458.157	737.19
458.377	693.19
458.598	748.19
458.818	750.19
459.038	817.19
459.258	843.19
459.478	862.19
459.698	899.19
459.918	900.19
460.138	856.19
460.358	892.19
460.578	851.19
460.798	888.19
461.018	907.19
461.238	842.19
461.458	869.19
461.678	884.19
461.898	957.19
462.118	934.19
462.338	958.19
462.558	937.19
462.777	1016.19
462.997	996.19
463.217	994.19
463.437	1044.19
463.657	1040.19
463.876	986.19
464.096	969.19
464.316	939.19
464.536	984.19
464.755	1024.19
464.975	1014.19
465.195	941.19
465.414	1000.19
465.634	942.19
465.854	960.19
466.073	860.19
466.293	856.19
466.512	947.19
466.732	1022.19
466.951	1054.19
467.171	926.19
467.391	888.19
467.61	870.19
467.829	929.19
468.049	946.19
468.268	880.19
468.488	863.19
468.707	920.19
468.927	1048.19
469.146	1152.19
469.365	1005.19
469.585	958.19
469.804	998.19
470.023	1112.19
470.243	982.19
470.462	916.19
470.681	919.19
470.901	930.19
471.12	977.19
471.339	964.19
471.558	932.19
471.777	925.19
471.997	1027.19
472.216	1146.19
472.435	1078.19
472.654	968.19
472.873	949.19
473.092	1018.19
473.311	1050.19
473.53	952.19
473.749	939.19
473.968	971.19
474.187	1000.19
474.406	945.19
474.625	907.19
474.844	988.19
475.063	1025.19
475.282	1022.19
475.501	1057.19
475.72	1144.19
475.939	1076.19
476.158	1085.19
476.377	1269.19
476.596	1450.19
476.814	1474.19
477.033	1208.19
477.252	1063.19
477.471	1006.19
477.69	1019.19
477.908	1099.19
478.127	1148.19
478.346	1046.19
478.564	1140.19
478.783	1096.19
479.002	1119.19
479.22	1284.19
479.439	1460.19
479.658	1213.19
479.876	1113.19
480.095	1200.19
480.313	1195.19
480.532	1122.19
480.751	1103.19
480.969	1121.19
481.188	1288.19
481.406	1308.19
481.624	1239.19
481.843	1108.19
482.061	1081.19
482.28	1190.19
482.498	1441.19
482.717	1349.19
482.935	1184.19
483.153	1120.19
483.372	1042.19
483.59	1084.19
483.808	1080.19
484.027	1053.19
484.245	1012.19
484.463	986.19
484.681	1011.19
484.9	1111.19
485.118	1200.19
485.336	1117.19
485.554	1052.19
485.772	1086.19
485.99	1173.19
486.209	1200.19
486.427	1206.19
486.645	1221.19
486.863	1242.19
487.081	1242.19
487.299	1332.19
487.517	1306.19
487.735	1208.19
487.953	1209.19
488.171	1237.19
488.389	1183.19
488.607	1104.19
488.825	1146.19
489.043	1249.19
489.261	1416.19
489.479	1507.19
489.696	1236.19
489.914	1182.19
490.132	1138.19
490.35	1137.19
490.568	1126.19
490.786	1121.19
491.003	1140.19
491.221	1177.19
491.439	1156.19
491.657	1138.19
491.874	1240.19
492.092	1464.19
492.31	1733.19
492.527	1733.19
492.745	1530.19
492.963	1344.19
493.18	1279.19
493.398	1332.19
493.615	1299.19
493.833	1247.19
494.05	1204.19
494.268	1246.19
494.485	1251.19
