Data from NickelSpatula.Lamp.E10.P2_HRD10591_11-57-19-532.txt Node
Date: Tue Jul 23 11:57:19 EDT 2019
User: cochatt
Spectrometer: HR+D1059
Trigger mode: 1
Integration Time (sec): 1.000000E-1
Scans to average: 1
Electric dark correction enabled: true
Nonlinearity correction enabled: false
Boxcar width: 0
XAxis mode: Wavelengths
Number of Pixels in Spectrum: 2048
>>>>>Begin Spectral Data<<<<<
223.165	-15.81
223.4	-15.81
223.635	-15.81
223.869	-17.81
224.104	-17.81
224.338	-13.81
224.573	-25.81
224.808	-1.81
225.042	-7.81
225.277	-5.81
225.511	-0.81
225.746	-9.81
225.98	4.19
226.215	22.19
226.449	15.19
226.683	15.19
226.918	33.19
227.152	27.19
227.387	27.19
227.621	34.19
227.856	37.19
228.09	41.19
228.324	47.19
228.559	62.19
228.793	84.19
229.027	142.19
229.262	155.19
229.496	156.19
229.73	170.19
229.964	174.19
230.199	210.19
230.433	222.19
230.667	207.19
230.901	205.19
231.136	207.19
231.37	190.19
231.604	209.19
231.838	249.19
232.072	234.19
232.306	238.19
232.541	244.19
232.775	226.19
233.009	268.19
233.243	296.19
233.477	297.19
233.711	340.19
233.945	308.19
234.179	329.19
234.413	336.19
234.647	373.19
234.881	458.19
235.115	404.19
235.349	394.19
235.583	350.19
235.817	340.19
236.051	351.19
236.285	399.19
236.519	461.19
236.753	415.19
236.987	412.19
237.221	403.19
237.455	401.19
237.689	450.19
237.922	465.19
238.156	458.19
238.39	530.19
238.624	642.19
238.858	579.19
239.091	498.19
239.325	483.19
239.559	445.19
239.793	528.19
240.027	628.19
240.26	588.19
240.494	565.19
240.728	582.19
240.961	674.19
241.195	659.19
241.429	599.19
241.662	622.19
241.896	495.19
242.13	472.19
242.363	428.19
242.597	458.19
242.83	516.19
243.064	545.19
243.298	564.19
243.531	606.19
243.765	632.19
243.998	628.19
244.232	601.19
244.465	584.19
244.699	560.19
244.932	644.19
245.166	609.19
245.399	527.19
245.633	547.19
245.866	553.19
246.099	619.19
246.333	705.19
246.566	758.19
246.8	747.19
247.033	725.19
247.266	692.19
247.5	659.19
247.733	675.19
247.966	654.19
248.2	669.19
248.433	741.19
248.666	827.19
248.899	824.19
249.133	836.19
249.366	972.19
249.599	1039.19
249.832	914.19
250.066	786.19
250.299	816.19
250.532	786.19
250.765	784.19
250.998	718.19
251.231	712.19
251.465	765.19
251.698	804.19
251.931	818.19
252.164	784.19
252.397	892.19
252.63	1036.19
252.863	1129.19
253.096	1166.19
253.329	1106.19
253.562	1080.19
253.795	1209.19
254.028	1334.19
254.261	1374.19
254.494	1221.19
254.727	1121.19
254.96	1068.19
255.193	1152.19
255.426	1080.19
255.659	843.19
255.892	771.19
256.124	852.19
256.357	1006.19
256.59	1210.19
256.823	1146.19
257.056	949.19
257.289	918.19
257.521	961.19
257.754	1110.19
257.987	1300.19
258.22	1084.19
258.452	981.19
258.685	1142.19
258.918	1264.19
259.151	1214.19
259.383	1276.19
259.616	1492.19
259.849	1540.19
260.081	1690.19
260.314	1870.19
260.547	1443.19
260.779	1458.19
261.012	1709.19
261.244	1587.19
261.477	1630.19
261.71	1536.19
261.942	1249.19
262.175	1241.19
262.407	1202.19
262.64	1223.19
262.872	1497.19
263.105	1620.19
263.337	1682.19
263.57	1502.19
263.802	995.19
264.035	906.19
264.267	863.19
264.499	750.19
264.732	704.19
264.964	677.19
265.197	686.19
265.429	750.19
265.661	781.19
265.894	853.19
266.126	867.19
266.358	997.19
266.591	1249.19
266.823	1449.19
267.055	1417.19
267.287	1217.19
267.52	1227.19
267.752	1304.19
267.984	1408.19
268.216	1378.19
268.448	1132.19
268.681	1103.19
268.913	1192.19
269.145	1247.19
269.377	1300.19
269.609	1306.19
269.841	1202.19
270.073	1288.19
270.306	1376.19
270.538	1388.19
270.77	1390.19
271.002	1397.19
271.234	1449.19
271.466	1498.19
271.698	1389.19
271.93	1411.19
272.162	1390.19
272.394	1391.19
272.626	1359.19
272.858	1411.19
273.09	1424.19
273.322	1286.19
273.553	1252.19
273.785	1474.19
274.017	1915.19
274.249	2343.19
274.481	2424.19
274.713	2679.19
274.945	3058.19
275.176	3165.19
275.408	2833.19
275.64	2557.19
275.872	2581.19
276.104	2193.19
276.335	1861.19
276.567	1872.19
276.799	1923.19
277.031	2004.19
277.262	1572.19
277.494	1246.19
277.726	1140.19
277.957	1283.19
278.189	1442.19
278.421	1430.19
278.652	1399.19
278.884	1347.19
279.115	1240.19
279.347	1156.19
279.579	1158.19
279.81	1182.19
280.042	1181.19
280.273	1242.19
280.505	1150.19
280.736	995.19
280.968	987.19
281.199	1086.19
281.431	1216.19
281.662	1208.19
281.894	1159.19
282.125	1236.19
282.356	1344.19
282.588	1390.19
282.819	1230.19
283.051	1368.19
283.282	1662.19
283.513	1896.19
283.745	2146.19
283.976	2146.19
284.207	1962.19
284.439	2079.19
284.67	1938.19
284.901	1745.19
285.132	1841.19
285.364	1964.19
285.595	1826.19
285.826	1898.19
286.057	1985.19
286.288	1942.19
286.52	1962.19
286.751	2064.19
286.982	2044.19
287.213	1804.19
287.444	1732.19
287.675	1826.19
287.906	1785.19
288.138	1501.19
288.369	1333.19
288.6	1260.19
288.831	1313.19
289.062	1590.19
289.293	1713.19
289.524	1550.19
289.755	1578.19
289.986	1622.19
290.217	1437.19
290.448	1098.19
290.679	933.19
290.91	912.19
291.141	878.19
291.371	949.19
291.602	953.19
291.833	952.19
292.064	1031.19
292.295	1189.19
292.526	1390.19
292.757	1398.19
292.987	1529.19
293.218	1543.19
293.449	1587.19
293.68	1667.19
293.91	1544.19
294.141	1598.19
294.372	1498.19
294.603	1364.19
294.833	1554.19
295.064	1817.19
295.295	1713.19
295.525	1309.19
295.756	1113.19
295.987	990.19
296.217	968.19
296.448	1004.19
296.679	1028.19
296.909	1169.19
297.14	1234.19
297.37	1390.19
297.601	1330.19
297.831	1156.19
298.062	1198.19
298.292	1359.19
298.523	1475.19
298.753	1732.19
298.984	1550.19
299.214	1228.19
299.445	1060.19
299.675	1022.19
299.905	1001.19
300.136	1030.19
300.366	1136.19
300.597	1089.19
300.827	989.19
301.057	940.19
301.288	948.19
301.518	1024.19
301.748	1154.19
301.979	1245.19
302.209	1333.19
302.439	1329.19
302.669	1178.19
302.9	1197.19
303.13	1112.19
303.36	1068.19
303.59	1009.19
303.82	1052.19
304.051	1206.19
304.281	1282.19
304.511	1249.19
304.741	1134.19
304.971	1142.19
305.201	1265.19
305.431	1175.19
305.661	1038.19
305.891	992.19
306.121	1001.19
306.352	927.19
306.582	872.19
306.812	828.19
307.042	826.19
307.272	753.19
307.502	766.19
307.731	852.19
307.961	908.19
308.191	850.19
308.421	789.19
308.651	745.19
308.881	736.19
309.111	751.19
309.341	802.19
309.571	880.19
309.8	908.19
310.03	877.19
310.26	942.19
310.49	913.19
310.72	816.19
310.949	844.19
311.179	853.19
311.409	901.19
311.639	1061.19
311.868	1321.19
312.098	1709.19
312.328	1871.19
312.557	1812.19
312.787	1873.19
313.017	1649.19
313.246	1743.19
313.476	1881.19
313.706	1572.19
313.935	1253.19
314.165	1018.19
314.394	919.19
314.624	930.19
314.853	1006.19
315.083	991.19
315.312	990.19
315.542	970.19
315.771	912.19
316.001	838.19
316.23	802.19
316.46	813.19
316.689	851.19
316.919	849.19
317.148	848.19
317.377	878.19
317.607	853.19
317.836	933.19
318.065	1053.19
318.295	1205.19
318.524	1106.19
318.753	967.19
318.983	916.19
319.212	901.19
319.441	949.19
319.67	1070.19
319.9	1145.19
320.129	1078.19
320.358	956.19
320.587	910.19
320.816	986.19
321.046	1126.19
321.275	1244.19
321.504	1250.19
321.733	1206.19
321.962	1146.19
322.191	1096.19
322.42	1038.19
322.649	1050.19
322.878	1101.19
323.108	1123.19
323.337	1054.19
323.566	1063.19
323.795	1042.19
324.024	933.19
324.253	944.19
324.482	913.19
324.71	1013.19
324.939	1141.19
325.168	1086.19
325.397	893.19
325.626	876.19
325.855	873.19
326.084	902.19
326.313	844.19
326.542	818.19
326.77	838.19
326.999	864.19
327.228	914.19
327.457	947.19
327.686	954.19
327.914	824.19
328.143	799.19
328.372	792.19
328.6	812.19
328.829	846.19
329.058	849.19
329.287	847.19
329.515	857.19
329.744	861.19
329.972	800.19
330.201	788.19
330.43	806.19
330.658	896.19
330.887	993.19
331.115	1004.19
331.344	945.19
331.572	926.19
331.801	873.19
332.03	813.19
332.258	858.19
332.486	913.19
332.715	946.19
332.943	895.19
333.172	881.19
333.4	918.19
333.629	983.19
333.857	1083.19
334.085	1103.19
334.314	1111.19
334.542	1024.19
334.771	946.19
334.999	897.19
335.227	884.19
335.455	935.19
335.684	1016.19
335.912	1170.19
336.14	1274.19
336.369	1220.19
336.597	1171.19
336.825	1314.19
337.053	1462.19
337.281	1166.19
337.51	979.19
337.738	944.19
337.966	1026.19
338.194	1111.19
338.422	1085.19
338.65	944.19
338.878	870.19
339.106	894.19
339.334	978.19
339.562	1026.19
339.79	965.19
340.018	923.19
340.246	993.19
340.474	1136.19
340.702	1218.19
340.93	1234.19
341.158	1249.19
341.386	1072.19
341.614	1060.19
341.842	1049.19
342.07	1104.19
342.298	1305.19
342.526	1334.19
342.754	1113.19
342.981	1038.19
343.209	993.19
343.437	1078.19
343.665	1128.19
343.893	1108.19
344.12	1294.19
344.348	1481.19
344.576	1346.19
344.804	1133.19
345.031	985.19
345.259	912.19
345.487	985.19
345.714	994.19
345.942	1062.19
346.17	1147.19
346.397	1066.19
346.625	956.19
346.853	930.19
347.08	896.19
347.308	984.19
347.535	1062.19
347.763	1093.19
347.99	936.19
348.218	894.19
348.445	950.19
348.673	934.19
348.9	917.19
349.128	992.19
349.355	1046.19
349.583	1028.19
349.81	971.19
350.037	885.19
350.265	816.19
350.492	762.19
350.72	769.19
350.947	775.19
351.174	831.19
351.402	895.19
351.629	934.19
351.856	877.19
352.083	843.19
352.311	904.19
352.538	991.19
352.765	1045.19
352.992	960.19
353.22	940.19
353.447	962.19
353.674	924.19
353.901	890.19
354.128	900.19
354.355	928.19
354.583	910.19
354.81	938.19
355.037	940.19
355.264	934.19
355.491	1021.19
355.718	1078.19
355.945	1058.19
356.172	1033.19
356.399	1007.19
356.626	1242.19
356.853	1473.19
357.08	1552.19
357.307	1621.19
357.534	1282.19
357.761	1304.19
357.988	1597.19
358.215	1876.19
358.441	1760.19
358.668	1476.19
358.895	1351.19
359.122	1122.19
359.349	1128.19
359.576	1248.19
359.802	999.19
360.029	900.19
360.256	980.19
360.483	1176.19
360.709	1460.19
360.936	1500.19
361.163	1313.19
361.39	1037.19
361.616	1010.19
361.843	1168.19
362.07	1326.19
362.296	1243.19
362.523	1020.19
362.749	904.19
362.976	935.19
363.203	1135.19
363.429	1241.19
363.656	1015.19
363.882	918.19
364.109	912.19
364.335	927.19
364.562	933.19
364.788	1055.19
365.015	1222.19
365.241	1102.19
365.468	887.19
365.694	809.19
365.92	774.19
366.147	756.19
366.373	753.19
366.599	764.19
366.826	787.19
367.052	777.19
367.278	811.19
367.505	788.19
367.731	845.19
367.957	949.19
368.184	981.19
368.41	930.19
368.636	966.19
368.862	969.19
369.089	928.19
369.315	874.19
369.541	839.19
369.767	862.19
369.993	813.19
370.219	825.19
370.445	850.19
370.672	953.19
370.898	997.19
371.124	996.19
371.35	916.19
371.576	854.19
371.802	938.19
372.028	1087.19
372.254	1223.19
372.48	1042.19
372.706	936.19
372.932	1001.19
373.158	1076.19
373.384	1230.19
373.61	1629.19
373.835	1664.19
374.061	1248.19
374.287	1078.19
374.513	1284.19
374.739	1484.19
374.965	1558.19
375.191	1505.19
375.416	1090.19
375.642	951.19
375.868	1110.19
376.094	1248.19
376.319	1088.19
376.545	1196.19
376.771	1256.19
376.997	1072.19
377.222	837.19
377.448	726.19
377.674	731.19
377.899	738.19
378.125	734.19
378.35	729.19
378.576	725.19
378.802	818.19
379.027	853.19
379.253	840.19
379.478	854.19
379.704	964.19
379.929	1052.19
380.155	994.19
380.38	913.19
380.606	928.19
380.831	1030.19
381.057	969.19
381.282	927.19
381.507	1087.19
381.733	1318.19
381.958	1379.19
382.184	1508.19
382.409	1552.19
382.634	1534.19
382.86	1613.19
383.085	1300.19
383.31	1054.19
383.535	1135.19
383.761	1160.19
383.986	1076.19
384.211	1300.19
384.436	1238.19
384.662	979.19
384.887	944.19
385.112	980.19
385.337	986.19
385.562	942.19
385.787	1030.19
386.013	1136.19
386.238	1145.19
386.463	968.19
386.688	919.19
386.913	894.19
387.138	869.19
387.363	903.19
387.588	960.19
387.813	952.19
388.038	1034.19
388.263	924.19
388.488	927.19
388.713	1051.19
388.938	1134.19
389.163	949.19
389.387	874.19
389.612	859.19
389.837	926.19
390.062	924.19
390.287	960.19
390.512	956.19
390.736	897.19
390.961	876.19
391.186	840.19
391.411	812.19
391.636	845.19
391.86	862.19
392.085	946.19
392.31	966.19
392.534	920.19
392.759	899.19
392.984	934.19
393.208	924.19
393.433	840.19
393.658	792.19
393.882	794.19
394.107	797.19
394.331	788.19
394.556	752.19
394.78	783.19
395.005	830.19
395.229	825.19
395.454	849.19
395.678	845.19
395.903	869.19
396.127	841.19
396.352	852.19
396.576	949.19
396.801	941.19
397.025	1050.19
397.249	1054.19
397.474	915.19
397.698	886.19
397.922	930.19
398.147	868.19
398.371	918.19
398.595	944.19
398.82	914.19
399.044	901.19
399.268	983.19
399.492	1032.19
399.717	1057.19
399.941	1071.19
400.165	1032.19
400.389	991.19
400.613	1032.19
400.837	993.19
401.062	900.19
401.286	881.19
401.51	886.19
401.734	885.19
401.958	910.19
402.182	892.19
402.406	882.19
402.63	893.19
402.854	908.19
403.078	1038.19
403.302	1231.19
403.526	1285.19
403.75	1170.19
403.974	1013.19
404.198	1060.19
404.422	1194.19
404.645	1361.19
404.869	1452.19
405.093	1144.19
405.317	959.19
405.541	964.19
405.765	984.19
405.988	977.19
406.212	1049.19
406.436	1225.19
406.66	1340.19
406.883	1109.19
407.107	1141.19
407.331	1315.19
407.555	1218.19
407.778	1078.19
408.002	1068.19
408.226	1065.19
408.449	1020.19
408.673	972.19
408.896	888.19
409.12	942.19
409.344	889.19
409.567	877.19
409.791	888.19
410.014	872.19
410.238	841.19
410.461	843.19
410.685	850.19
410.908	884.19
411.132	917.19
411.355	912.19
411.578	936.19
411.802	936.19
412.025	958.19
412.249	957.19
412.472	924.19
412.695	926.19
412.919	920.19
413.142	944.19
413.365	1005.19
413.589	1005.19
413.812	923.19
414.035	872.19
414.258	900.19
414.482	1014.19
414.705	994.19
414.928	907.19
415.151	842.19
415.374	874.19
415.597	873.19
415.821	901.19
416.044	887.19
416.267	864.19
416.49	868.19
416.713	856.19
416.936	849.19
417.159	864.19
417.382	852.19
417.605	849.19
417.828	889.19
418.051	908.19
418.274	901.19
418.497	892.19
418.72	896.19
418.943	921.19
419.166	959.19
419.389	1016.19
419.611	950.19
419.834	988.19
420.057	1066.19
420.28	1067.19
420.503	1000.19
420.726	901.19
420.948	829.19
421.171	876.19
421.394	865.19
421.617	854.19
421.839	865.19
422.062	888.19
422.285	888.19
422.507	891.19
422.73	922.19
422.953	935.19
423.175	927.19
423.398	912.19
423.621	953.19
423.843	995.19
424.066	959.19
424.288	890.19
424.511	899.19
424.733	898.19
424.956	948.19
425.178	1045.19
425.401	1188.19
425.623	1290.19
425.846	1135.19
426.068	976.19
426.291	1033.19
426.513	975.19
426.735	907.19
426.958	954.19
427.18	1135.19
427.402	1405.19
427.625	1370.19
427.847	1161.19
428.069	884.19
428.292	893.19
428.514	865.19
428.736	838.19
428.958	905.19
429.181	1060.19
429.403	941.19
429.625	870.19
429.847	844.19
430.069	898.19
430.292	861.19
430.514	846.19
430.736	930.19
430.958	1109.19
431.18	986.19
431.402	816.19
431.624	800.19
431.846	798.19
432.068	775.19
432.29	803.19
432.512	904.19
432.734	1148.19
432.956	1095.19
433.178	868.19
433.4	827.19
433.622	852.19
433.844	894.19
434.066	910.19
434.287	888.19
434.509	861.19
434.731	892.19
434.953	863.19
435.175	904.19
435.397	1001.19
435.618	878.19
435.84	816.19
436.062	830.19
436.284	817.19
436.505	796.19
436.727	750.19
436.949	789.19
437.17	806.19
437.392	837.19
437.614	820.19
437.835	797.19
438.057	850.19
438.278	914.19
438.5	1284.19
438.721	1313.19
438.943	920.19
439.165	800.19
439.386	791.19
439.608	771.19
439.829	756.19
440.05	785.19
440.272	831.19
440.493	947.19
440.715	1143.19
440.936	953.19
441.158	826.19
441.379	833.19
441.6	941.19
441.822	987.19
442.043	891.19
442.264	834.19
442.486	861.19
442.707	870.19
442.928	861.19
443.149	882.19
443.371	893.19
443.592	902.19
443.813	898.19
444.034	868.19
444.255	902.19
444.476	952.19
444.698	914.19
444.919	934.19
445.14	1033.19
445.361	965.19
445.582	923.19
445.803	916.19
446.024	897.19
446.245	947.19
446.466	890.19
446.687	855.19
446.908	858.19
447.129	830.19
447.35	790.19
447.571	783.19
447.792	744.19
448.013	773.19
448.234	756.19
448.455	777.19
448.675	784.19
448.896	813.19
449.117	795.19
449.338	796.19
449.559	832.19
449.779	848.19
450	846.19
450.221	809.19
450.442	827.19
450.662	768.19
450.883	784.19
451.104	805.19
451.324	816.19
451.545	816.19
451.766	773.19
451.986	763.19
452.207	756.19
452.428	734.19
452.648	769.19
452.869	822.19
453.089	851.19
453.31	802.19
453.53	705.19
453.751	743.19
453.971	730.19
454.192	779.19
454.412	765.19
454.633	737.19
454.853	733.19
455.073	755.19
455.294	709.19
455.514	714.19
455.734	779.19
455.955	778.19
456.175	817.19
456.395	740.19
456.616	720.19
456.836	693.19
457.056	704.19
457.276	693.19
457.497	694.19
457.717	727.19
457.937	721.19
458.157	689.19
458.377	689.19
458.598	721.19
458.818	759.19
459.038	805.19
459.258	826.19
459.478	820.19
459.698	895.19
459.918	862.19
460.138	861.19
460.358	877.19
460.578	817.19
460.798	878.19
461.018	910.19
461.238	841.19
461.458	848.19
461.678	884.19
461.898	908.19
462.118	930.19
462.338	901.19
462.558	946.19
462.777	979.19
462.997	993.19
463.217	1006.19
463.437	1028.19
463.657	986.19
463.876	958.19
464.096	960.19
464.316	957.19
464.536	944.19
464.755	983.19
464.975	986.19
465.195	950.19
465.414	983.19
465.634	969.19
465.854	933.19
466.073	842.19
466.293	844.19
466.512	927.19
466.732	1032.19
466.951	1006.19
467.171	909.19
467.391	863.19
467.61	865.19
467.829	905.19
468.049	937.19
468.268	893.19
468.488	877.19
468.707	904.19
468.927	1040.19
469.146	1121.19
469.365	981.19
469.585	946.19
469.804	985.19
470.023	1087.19
470.243	954.19
470.462	900.19
470.681	912.19
470.901	912.19
471.12	959.19
471.339	961.19
471.558	911.19
471.777	954.19
471.997	1012.19
472.216	1091.19
472.435	1078.19
472.654	981.19
472.873	914.19
473.092	961.19
473.311	1020.19
473.53	958.19
473.749	933.19
473.968	958.19
474.187	971.19
474.406	928.19
474.625	890.19
474.844	955.19
475.063	1036.19
475.282	1017.19
475.501	1041.19
475.72	1102.19
475.939	1082.19
476.158	1046.19
476.377	1255.19
476.596	1408.19
476.814	1471.19
477.033	1222.19
477.252	1051.19
477.471	950.19
477.69	997.19
477.908	1102.19
478.127	1102.19
478.346	1036.19
478.564	1150.19
478.783	1078.19
479.002	1088.19
479.22	1260.19
479.439	1410.19
479.658	1209.19
479.876	1121.19
480.095	1210.19
480.313	1197.19
480.532	1133.19
480.751	1092.19
480.969	1104.19
481.188	1235.19
481.406	1296.19
481.624	1192.19
481.843	1105.19
482.061	1030.19
482.28	1206.19
482.498	1414.19
482.717	1344.19
482.935	1164.19
483.153	1111.19
483.372	1055.19
483.59	1036.19
483.808	1050.19
484.027	1017.19
484.245	979.19
484.463	953.19
484.681	1005.19
484.9	1080.19
485.118	1184.19
485.336	1098.19
485.554	1013.19
485.772	1071.19
485.99	1136.19
486.209	1233.19
486.427	1234.19
486.645	1180.19
486.863	1224.19
487.081	1203.19
487.299	1343.19
487.517	1324.19
487.735	1205.19
487.953	1212.19
488.171	1244.19
488.389	1172.19
488.607	1084.19
488.825	1119.19
489.043	1201.19
489.261	1365.19
489.479	1433.19
489.696	1241.19
489.914	1148.19
490.132	1106.19
490.35	1078.19
490.568	1142.19
490.786	1110.19
491.003	1122.19
491.221	1145.19
491.439	1134.19
491.657	1100.19
491.874	1201.19
492.092	1439.19
492.31	1626.19
492.527	1683.19
492.745	1491.19
492.963	1308.19
493.18	1278.19
493.398	1280.19
493.615	1268.19
493.833	1232.19
494.05	1222.19
494.268	1241.19
494.485	1214.19
494.703	1150.19
494.92	1217.19
495.138	1170.19
495.355	1201.19
