Data from NickelSpatula.Lamp.E10.P2_HRD10591_11-58-18-528.txt Node
Date: Tue Jul 23 11:58:18 EDT 2019
User: cochatt
Spectrometer: HR+D1059
Trigger mode: 1
Integration Time (sec): 1.000000E-1
Scans to average: 1
Electric dark correction enabled: true
Nonlinearity correction enabled: false
Boxcar width: 0
XAxis mode: Wavelengths
Number of Pixels in Spectrum: 2048
>>>>>Begin Spectral Data<<<<<
223.165	-10.44
223.4	-10.44
223.635	-10.44
223.869	-13.44
224.104	-24.44
224.338	1.56
224.573	-2.44
224.808	-18.44
225.042	-8.44
225.277	-2.44
225.511	-15.44
225.746	17.56
225.98	1.56
226.215	5.56
226.449	9.56
226.683	8.56
226.918	21.56
227.152	29.56
227.387	29.56
227.621	33.56
227.856	37.56
228.09	57.56
228.324	35.56
228.559	51.56
228.793	65.56
229.027	147.56
229.262	147.56
229.496	170.56
229.73	161.56
229.964	187.56
230.199	214.56
230.433	207.56
230.667	211.56
230.901	190.56
231.136	193.56
231.37	206.56
231.604	239.56
231.838	236.56
232.072	262.56
232.306	247.56
232.541	228.56
232.775	250.56
233.009	257.56
233.243	289.56
233.477	306.56
233.711	352.56
233.945	333.56
234.179	352.56
234.413	350.56
234.647	377.56
234.881	459.56
235.115	428.56
235.349	405.56
235.583	342.56
235.817	356.56
236.051	361.56
236.285	431.56
236.519	474.56
236.753	447.56
236.987	422.56
237.221	434.56
237.455	419.56
237.689	429.56
237.922	466.56
238.156	482.56
238.39	569.56
238.624	660.56
238.858	577.56
239.091	491.56
239.325	512.56
239.559	474.56
239.793	550.56
240.027	661.56
240.26	619.56
240.494	587.56
240.728	619.56
240.961	690.56
241.195	663.56
241.429	632.56
241.662	631.56
241.896	545.56
242.13	474.56
242.363	441.56
242.597	488.56
242.83	530.56
243.064	534.56
243.298	598.56
243.531	614.56
243.765	626.56
243.998	625.56
244.232	606.56
244.465	599.56
244.699	595.56
244.932	677.56
245.166	617.56
245.399	546.56
245.633	533.56
245.866	561.56
246.099	595.56
246.333	698.56
246.566	738.56
246.8	796.56
247.033	750.56
247.266	700.56
247.5	693.56
247.733	698.56
247.966	655.56
248.2	671.56
248.433	785.56
248.666	846.56
248.899	839.56
249.133	877.56
249.366	1008.56
249.599	1059.56
249.832	986.56
250.066	844.56
250.299	835.56
250.532	809.56
250.765	823.56
250.998	722.56
251.231	705.56
251.465	798.56
251.698	850.56
251.931	779.56
252.164	835.56
252.397	940.56
252.63	1070.56
252.863	1173.56
253.096	1227.56
253.329	1145.56
253.562	1120.56
253.795	1278.56
254.028	1377.56
254.261	1403.56
254.494	1229.56
254.727	1149.56
254.96	1142.56
255.193	1179.56
255.426	1143.56
255.659	882.56
255.892	787.56
256.124	831.56
256.357	999.56
256.59	1209.56
256.823	1177.56
257.056	985.56
257.289	914.56
257.521	949.56
257.754	1132.56
257.987	1337.56
258.22	1122.56
258.452	1015.56
258.685	1151.56
258.918	1277.56
259.151	1265.56
259.383	1293.56
259.616	1517.56
259.849	1574.56
260.081	1722.56
260.314	1939.56
260.547	1467.56
260.779	1485.56
261.012	1747.56
261.244	1585.56
261.477	1651.56
261.71	1545.56
261.942	1295.56
262.175	1282.56
262.407	1216.56
262.64	1265.56
262.872	1507.56
263.105	1657.56
263.337	1747.56
263.57	1575.56
263.802	1042.56
264.035	917.56
264.267	881.56
264.499	749.56
264.732	697.56
264.964	689.56
265.197	728.56
265.429	760.56
265.661	811.56
265.894	857.56
266.126	902.56
266.358	1017.56
266.591	1247.56
266.823	1515.56
267.055	1419.56
267.287	1257.56
267.52	1263.56
267.752	1325.56
267.984	1472.56
268.216	1361.56
268.448	1149.56
268.681	1099.56
268.913	1202.56
269.145	1286.56
269.377	1278.56
269.609	1297.56
269.841	1258.56
270.073	1314.56
270.306	1376.56
270.538	1381.56
270.77	1437.56
271.002	1441.56
271.234	1460.56
271.466	1527.56
271.698	1474.56
271.93	1422.56
272.162	1424.56
272.394	1416.56
272.626	1416.56
272.858	1488.56
273.09	1498.56
273.322	1316.56
273.553	1285.56
273.785	1525.56
274.017	1974.56
274.249	2501.56
274.481	2554.56
274.713	2808.56
274.945	3158.56
275.176	3292.56
275.408	2891.56
275.64	2661.56
275.872	2646.56
276.104	2210.56
276.335	1942.56
276.567	1932.56
276.799	2013.56
277.031	2061.56
277.262	1628.56
277.494	1252.56
277.726	1212.56
277.957	1316.56
278.189	1475.56
278.421	1467.56
278.652	1445.56
278.884	1375.56
279.115	1272.56
279.347	1218.56
279.579	1196.56
279.81	1211.56
280.042	1219.56
280.273	1254.56
280.505	1151.56
280.736	1005.56
280.968	998.56
281.199	1100.56
281.431	1248.56
281.662	1251.56
281.894	1190.56
282.125	1261.56
282.356	1388.56
282.588	1410.56
282.819	1233.56
283.051	1374.56
283.282	1689.56
283.513	1977.56
283.745	2195.56
283.976	2162.56
284.207	2045.56
284.439	2118.56
284.67	2015.56
284.901	1824.56
285.132	1981.56
285.364	2055.56
285.595	1874.56
285.826	1993.56
286.057	2038.56
286.288	1971.56
286.52	2046.56
286.751	2133.56
286.982	2087.56
287.213	1829.56
287.444	1802.56
287.675	1852.56
287.906	1822.56
288.138	1526.56
288.369	1374.56
288.6	1311.56
288.831	1333.56
289.062	1534.56
289.293	1715.56
289.524	1593.56
289.755	1623.56
289.986	1657.56
290.217	1444.56
290.448	1108.56
290.679	984.56
290.91	893.56
291.141	938.56
291.371	948.56
291.602	984.56
291.833	989.56
292.064	1060.56
292.295	1246.56
292.526	1413.56
292.757	1481.56
292.987	1562.56
293.218	1521.56
293.449	1600.56
293.68	1690.56
293.91	1577.56
294.141	1615.56
294.372	1504.56
294.603	1443.56
294.833	1582.56
295.064	1830.56
295.295	1751.56
295.525	1321.56
295.756	1122.56
295.987	988.56
296.217	983.56
296.448	1014.56
296.679	1109.56
296.909	1249.56
297.14	1333.56
297.37	1423.56
297.601	1358.56
297.831	1153.56
298.062	1251.56
298.292	1421.56
298.523	1561.56
298.753	1788.56
298.984	1561.56
299.214	1263.56
299.445	1074.56
299.675	1045.56
299.905	1023.56
300.136	1062.56
300.366	1224.56
300.597	1145.56
300.827	1023.56
301.057	992.56
301.288	1032.56
301.518	1078.56
301.748	1233.56
301.979	1333.56
302.209	1459.56
302.439	1461.56
302.669	1227.56
302.9	1234.56
303.13	1125.56
303.36	1110.56
303.59	1051.56
303.82	1091.56
304.051	1224.56
304.281	1352.56
304.511	1287.56
304.741	1136.56
304.971	1172.56
305.201	1274.56
305.431	1181.56
305.661	1054.56
305.891	1045.56
306.121	1092.56
306.352	966.56
306.582	860.56
306.812	853.56
307.042	852.56
307.272	802.56
307.502	814.56
307.731	876.56
307.961	910.56
308.191	849.56
308.421	807.56
308.651	805.56
308.881	776.56
309.111	771.56
309.341	833.56
309.571	891.56
309.8	895.56
310.03	942.56
310.26	988.56
310.49	979.56
310.72	870.56
310.949	841.56
311.179	869.56
311.409	929.56
311.639	1093.56
311.868	1406.56
312.098	1789.56
312.328	1972.56
312.557	1819.56
312.787	1860.56
313.017	1699.56
313.246	1811.56
313.476	1967.56
313.706	1622.56
313.935	1283.56
314.165	1067.56
314.394	927.56
314.624	978.56
314.853	1012.56
315.083	1041.56
315.312	987.56
315.542	1017.56
315.771	944.56
316.001	855.56
316.23	832.56
316.46	812.56
316.689	870.56
316.919	911.56
317.148	889.56
317.377	895.56
317.607	832.56
317.836	982.56
318.065	1123.56
318.295	1203.56
318.524	1140.56
318.753	961.56
318.983	900.56
319.212	917.56
319.441	993.56
319.67	1128.56
319.9	1232.56
320.129	1134.56
320.358	966.56
320.587	955.56
320.816	1035.56
321.046	1163.56
321.275	1305.56
321.504	1338.56
321.733	1269.56
321.962	1227.56
322.191	1168.56
322.42	1089.56
322.649	1116.56
322.878	1194.56
323.108	1219.56
323.337	1123.56
323.566	1085.56
323.795	1056.56
324.024	1003.56
324.253	970.56
324.482	976.56
324.71	1103.56
324.939	1209.56
325.168	1110.56
325.397	939.56
325.626	881.56
325.855	883.56
326.084	918.56
326.313	870.56
326.542	844.56
326.77	893.56
326.999	891.56
327.228	966.56
327.457	1023.56
327.686	996.56
327.914	882.56
328.143	854.56
328.372	828.56
328.6	837.56
328.829	867.56
329.058	894.56
329.287	907.56
329.515	909.56
329.744	852.56
329.972	821.56
330.201	801.56
330.43	842.56
330.658	932.56
330.887	1047.56
331.115	1039.56
331.344	1030.56
331.572	964.56
331.801	879.56
332.03	842.56
332.258	859.56
332.486	962.56
332.715	996.56
332.943	917.56
333.172	922.56
333.4	933.56
333.629	1048.56
333.857	1124.56
334.085	1105.56
334.314	1113.56
334.542	1054.56
334.771	963.56
334.999	939.56
335.227	923.56
335.455	942.56
335.684	1022.56
335.912	1205.56
336.14	1302.56
336.369	1273.56
336.597	1201.56
336.825	1367.56
337.053	1491.56
337.281	1237.56
337.51	995.56
337.738	981.56
337.966	1054.56
338.194	1175.56
338.422	1107.56
338.65	961.56
338.878	871.56
339.106	885.56
339.334	996.56
339.562	1098.56
339.79	996.56
340.018	950.56
340.246	1015.56
340.474	1206.56
340.702	1279.56
340.93	1307.56
341.158	1329.56
341.386	1131.56
341.614	1123.56
341.842	1109.56
342.07	1159.56
342.298	1351.56
342.526	1382.56
342.754	1230.56
342.981	1134.56
343.209	1028.56
343.437	1153.56
343.665	1186.56
343.893	1177.56
344.12	1369.56
344.348	1607.56
344.576	1429.56
344.804	1193.56
345.031	1013.56
345.259	961.56
345.487	990.56
345.714	996.56
345.942	1100.56
346.17	1205.56
346.397	1121.56
346.625	999.56
346.853	955.56
347.08	946.56
347.308	987.56
347.535	1098.56
347.763	1107.56
347.99	981.56
348.218	907.56
348.445	939.56
348.673	960.56
348.9	978.56
349.128	1076.56
349.355	1089.56
349.583	1076.56
349.81	992.56
350.037	917.56
350.265	823.56
350.492	780.56
350.72	786.56
350.947	798.56
351.174	892.56
351.402	927.56
351.629	986.56
351.856	912.56
352.083	900.56
352.311	981.56
352.538	1061.56
352.765	1133.56
352.992	1026.56
353.22	991.56
353.447	1017.56
353.674	965.56
353.901	930.56
354.128	970.56
354.355	1010.56
354.583	984.56
354.81	995.56
355.037	1011.56
355.264	999.56
355.491	1100.56
355.718	1195.56
355.945	1128.56
356.172	1053.56
356.399	1083.56
356.626	1337.56
356.853	1614.56
357.08	1731.56
357.307	1746.56
357.534	1370.56
357.761	1385.56
357.988	1727.56
358.215	2049.56
358.441	1971.56
358.668	1601.56
358.895	1503.56
359.122	1236.56
359.349	1185.56
359.576	1312.56
359.802	1097.56
360.029	942.56
360.256	1026.56
360.483	1288.56
360.709	1628.56
360.936	1651.56
361.163	1467.56
361.39	1107.56
361.616	1057.56
361.843	1219.56
362.07	1511.56
362.296	1368.56
362.523	1060.56
362.749	913.56
362.976	1000.56
363.203	1237.56
363.429	1351.56
363.656	1059.56
363.882	989.56
364.109	986.56
364.335	993.56
364.562	974.56
364.788	1120.56
365.015	1297.56
365.241	1147.56
365.468	946.56
365.694	843.56
365.92	817.56
366.147	758.56
366.373	782.56
366.599	787.56
366.826	798.56
367.052	813.56
367.278	826.56
367.505	839.56
367.731	892.56
367.957	1019.56
368.184	1007.56
368.41	1025.56
368.636	1013.56
368.862	1019.56
369.089	1020.56
369.315	917.56
369.541	923.56
369.767	883.56
369.993	835.56
370.219	838.56
370.445	890.56
370.672	1004.56
370.898	1101.56
371.124	1081.56
371.35	942.56
371.576	901.56
371.802	973.56
372.028	1150.56
372.254	1361.56
372.48	1116.56
372.706	1041.56
372.932	1086.56
373.158	1138.56
373.384	1361.56
373.61	1766.56
373.835	1817.56
374.061	1392.56
374.287	1158.56
374.513	1395.56
374.739	1643.56
374.965	1718.56
375.191	1686.56
375.416	1159.56
375.642	998.56
375.868	1192.56
376.094	1350.56
376.319	1168.56
376.545	1277.56
376.771	1359.56
376.997	1146.56
377.222	847.56
377.448	762.56
377.674	752.56
377.899	757.56
378.125	766.56
378.35	754.56
378.576	769.56
378.802	846.56
379.027	897.56
379.253	891.56
379.478	941.56
379.704	1070.56
379.929	1067.56
380.155	1051.56
380.38	957.56
380.606	997.56
380.831	1104.56
381.057	1031.56
381.282	1001.56
381.507	1183.56
381.733	1446.56
381.958	1529.56
382.184	1637.56
382.409	1710.56
382.634	1627.56
382.86	1711.56
383.085	1422.56
383.31	1120.56
383.535	1195.56
383.761	1219.56
383.986	1160.56
384.211	1429.56
384.436	1363.56
384.662	1039.56
384.887	979.56
385.112	1017.56
385.337	1049.56
385.562	976.56
385.787	1100.56
386.013	1236.56
386.238	1251.56
386.463	1030.56
386.688	971.56
386.913	948.56
387.138	892.56
387.363	972.56
387.588	987.56
387.813	988.56
388.038	1111.56
388.263	976.56
388.488	937.56
388.713	1123.56
388.938	1193.56
389.163	1035.56
389.387	911.56
389.612	912.56
389.837	937.56
390.062	956.56
390.287	994.56
390.512	1022.56
390.736	944.56
390.961	889.56
391.186	846.56
391.411	842.56
391.636	866.56
391.86	956.56
392.085	1009.56
392.31	1003.56
392.534	959.56
392.759	934.56
392.984	977.56
393.208	954.56
393.433	862.56
393.658	814.56
393.882	772.56
394.107	775.56
394.331	812.56
394.556	769.56
394.78	789.56
395.005	858.56
395.229	888.56
395.454	879.56
395.678	903.56
395.903	877.56
396.127	873.56
396.352	878.56
396.576	987.56
396.801	1011.56
397.025	1120.56
397.249	1142.56
397.474	945.56
397.698	915.56
397.922	957.56
398.147	924.56
398.371	899.56
398.595	985.56
398.82	953.56
399.044	927.56
399.268	998.56
399.492	1041.56
399.717	1069.56
399.941	1052.56
400.165	1052.56
400.389	1023.56
400.613	1034.56
400.837	1027.56
401.062	946.56
401.286	902.56
401.51	924.56
401.734	887.56
401.958	885.56
402.182	909.56
402.406	914.56
402.63	895.56
402.854	945.56
403.078	1065.56
403.302	1297.56
403.526	1325.56
403.75	1195.56
403.974	1071.56
404.198	1073.56
404.422	1221.56
404.645	1456.56
404.869	1571.56
405.093	1160.56
405.317	948.56
405.541	1035.56
405.765	1010.56
405.988	994.56
406.212	1067.56
406.436	1293.56
406.66	1417.56
406.883	1123.56
407.107	1145.56
407.331	1367.56
407.555	1287.56
407.778	1084.56
408.002	1060.56
408.226	1012.56
408.449	1021.56
408.673	1011.56
408.896	954.56
409.12	933.56
409.344	913.56
409.567	883.56
409.791	893.56
410.014	897.56
410.238	874.56
410.461	883.56
410.685	887.56
410.908	900.56
411.132	909.56
411.355	958.56
411.578	922.56
411.802	944.56
412.025	996.56
412.249	990.56
412.472	948.56
412.695	928.56
412.919	973.56
413.142	986.56
413.365	1053.56
413.589	1060.56
413.812	964.56
414.035	909.56
414.258	930.56
414.482	1045.56
414.705	1056.56
414.928	912.56
415.151	880.56
415.374	890.56
415.597	941.56
415.821	915.56
416.044	897.56
416.267	883.56
416.49	870.56
416.713	836.56
416.936	837.56
417.159	858.56
417.382	879.56
417.605	931.56
417.828	894.56
418.051	899.56
418.274	925.56
418.497	950.56
418.72	907.56
418.943	929.56
419.166	965.56
419.389	1029.56
419.611	963.56
419.834	1008.56
420.057	1141.56
420.28	1102.56
420.503	1017.56
420.726	909.56
420.948	861.56
421.171	906.56
421.394	886.56
421.617	858.56
421.839	886.56
422.062	932.56
422.285	916.56
422.507	949.56
422.73	962.56
422.953	971.56
423.175	965.56
423.398	948.56
423.621	1039.56
423.843	1004.56
424.066	973.56
424.288	950.56
424.511	921.56
424.733	897.56
424.956	958.56
425.178	1085.56
425.401	1263.56
425.623	1430.56
425.846	1153.56
426.068	1006.56
426.291	1138.56
426.513	1021.56
426.735	951.56
426.958	975.56
427.18	1176.56
427.402	1485.56
427.625	1508.56
427.847	1202.56
428.069	889.56
428.292	901.56
428.514	893.56
428.736	875.56
428.958	946.56
429.181	1105.56
429.403	975.56
429.625	886.56
429.847	877.56
430.069	885.56
430.292	921.56
430.514	849.56
430.736	966.56
430.958	1191.56
431.18	1081.56
431.402	853.56
431.624	807.56
431.846	842.56
432.068	807.56
432.29	805.56
432.512	911.56
432.734	1217.56
432.956	1125.56
433.178	862.56
433.4	848.56
433.622	829.56
433.844	877.56
434.066	920.56
434.287	925.56
434.509	886.56
434.731	921.56
434.953	866.56
435.175	921.56
435.397	1031.56
435.618	861.56
435.84	854.56
436.062	802.56
436.284	835.56
436.505	813.56
436.727	767.56
436.949	811.56
437.17	829.56
437.392	864.56
437.614	822.56
437.835	823.56
438.057	819.56
438.278	976.56
438.5	1423.56
438.721	1383.56
438.943	919.56
439.165	835.56
439.386	801.56
439.608	774.56
439.829	772.56
440.05	805.56
440.272	875.56
440.493	999.56
440.715	1234.56
440.936	978.56
441.158	868.56
441.379	857.56
441.6	981.56
441.822	996.56
442.043	866.56
442.264	866.56
442.486	866.56
442.707	845.56
442.928	883.56
443.149	897.56
443.371	879.56
443.592	906.56
443.813	914.56
444.034	887.56
444.255	887.56
444.476	952.56
444.698	966.56
444.919	963.56
445.14	1025.56
445.361	1016.56
445.582	951.56
445.803	965.56
446.024	958.56
446.245	952.56
446.466	898.56
446.687	865.56
446.908	893.56
447.129	857.56
447.35	830.56
447.571	803.56
447.792	810.56
448.013	791.56
448.234	789.56
448.455	795.56
448.675	786.56
448.896	813.56
449.117	810.56
449.338	825.56
449.559	842.56
449.779	876.56
450	875.56
450.221	837.56
450.442	839.56
450.662	818.56
450.883	799.56
451.104	847.56
451.324	802.56
451.545	810.56
451.766	814.56
451.986	773.56
452.207	801.56
452.428	762.56
452.648	763.56
452.869	829.56
453.089	847.56
453.31	834.56
453.53	758.56
453.751	747.56
453.971	736.56
454.192	785.56
454.412	782.56
454.633	742.56
454.853	770.56
455.073	739.56
455.294	703.56
455.514	732.56
455.734	789.56
455.955	809.56
456.175	819.56
456.395	757.56
456.616	725.56
456.836	719.56
457.056	719.56
457.276	709.56
457.497	723.56
457.717	718.56
457.937	704.56
458.157	724.56
458.377	748.56
458.598	746.56
458.818	778.56
459.038	827.56
459.258	812.56
459.478	858.56
459.698	902.56
459.918	885.56
460.138	877.56
460.358	903.56
460.578	862.56
460.798	873.56
461.018	891.56
461.238	865.56
461.458	873.56
461.678	897.56
461.898	958.56
462.118	897.56
462.338	947.56
462.558	963.56
462.777	982.56
462.997	1021.56
463.217	1031.56
463.437	1018.56
463.657	993.56
463.876	977.56
464.096	961.56
464.316	969.56
464.536	965.56
464.755	1016.56
464.975	1033.56
465.195	954.56
465.414	997.56
465.634	971.56
465.854	946.56
466.073	890.56
466.293	875.56
466.512	951.56
466.732	987.56
466.951	1037.56
467.171	927.56
467.391	892.56
467.61	875.56
467.829	934.56
468.049	983.56
468.268	904.56
468.488	894.56
468.707	895.56
468.927	1057.56
469.146	1135.56
469.365	1018.56
469.585	960.56
469.804	1003.56
470.023	1072.56
470.243	979.56
470.462	927.56
470.681	963.56
470.901	911.56
471.12	979.56
471.339	949.56
471.558	945.56
471.777	965.56
471.997	1012.56
472.216	1130.56
472.435	1083.56
472.654	1012.56
472.873	961.56
473.092	980.56
473.311	1059.56
473.53	983.56
473.749	937.56
473.968	990.56
474.187	959.56
474.406	928.56
474.625	919.56
474.844	976.56
475.063	1038.56
475.282	1016.56
475.501	1060.56
475.72	1129.56
475.939	1106.56
476.158	1087.56
476.377	1243.56
476.596	1450.56
476.814	1514.56
477.033	1263.56
477.252	1066.56
477.471	996.56
477.69	1028.56
477.908	1110.56
478.127	1129.56
478.346	1035.56
478.564	1153.56
478.783	1116.56
479.002	1105.56
479.22	1237.56
479.439	1440.56
479.658	1243.56
479.876	1133.56
480.095	1206.56
480.313	1235.56
480.532	1112.56
480.751	1085.56
480.969	1132.56
481.188	1277.56
481.406	1343.56
481.624	1246.56
481.843	1136.56
482.061	1091.56
482.28	1205.56
482.498	1459.56
482.717	1387.56
482.935	1221.56
483.153	1138.56
483.372	1079.56
483.59	1065.56
483.808	1030.56
484.027	1048.56
484.245	1010.56
484.463	1006.56
484.681	1018.56
484.9	1125.56
485.118	1205.56
485.336	1116.56
485.554	1058.56
485.772	1074.56
485.99	1171.56
486.209	1260.56
486.427	1240.56
486.645	1181.56
486.863	1234.56
487.081	1244.56
487.299	1422.56
487.517	1358.56
487.735	1221.56
487.953	1233.56
488.171	1282.56
488.389	1183.56
488.607	1071.56
488.825	1158.56
489.043	1288.56
489.261	1465.56
489.479	1559.56
489.696	1283.56
489.914	1159.56
490.132	1107.56
490.35	1117.56
490.568	1128.56
490.786	1144.56
491.003	1140.56
491.221	1168.56
491.439	1149.56
491.657	1135.56
491.874	1237.56
492.092	1488.56
492.31	1810.56
492.527	1764.56
492.745	1514.56
492.963	1337.56
493.18	1294.56
493.398	1285.56
493.615	1326.56
493.833	1240.56
494.05	1259.56
494.268	1265.56
494.485	1233.56
