Data from NickelSpatula_HRD10591_16-34-33-126.txt Node
Date: Mon Jul 22 16:34:33 EDT 2019
User: cochatt
Spectrometer: HR+D1059
Trigger mode: 1
Integration Time (sec): 1.000000E-1
Scans to average: 1
Electric dark correction enabled: true
Nonlinearity correction enabled: false
Boxcar width: 0
XAxis mode: Wavelengths
Number of Pixels in Spectrum: 2048
>>>>>Begin Spectral Data<<<<<
223.165	-24.06
223.4	-24.06
223.635	-24.06
223.869	-17.06
224.104	-15.06
224.338	-19.06
224.573	-9.06
224.808	-11.06
225.042	-5.06
225.277	-2.06
225.511	2.94
225.746	-6.06
225.98	11.94
226.215	11.94
226.449	4.94
226.683	18.94
226.918	30.94
227.152	26.94
227.387	45.94
227.621	29.94
227.856	50.94
228.09	59.94
228.324	41.94
228.559	60.94
228.793	58.94
229.027	79.94
229.262	75.94
229.496	62.94
229.73	84.94
229.964	93.94
230.199	90.94
230.433	93.94
230.667	81.94
230.901	93.94
231.136	94.94
231.37	97.94
231.604	99.94
231.838	108.94
232.072	109.94
232.306	109.94
232.541	119.94
232.775	124.94
233.009	109.94
233.243	97.94
233.477	116.94
233.711	132.94
233.945	119.94
234.179	115.94
234.413	113.94
234.647	135.94
234.881	128.94
235.115	127.94
235.349	131.94
235.583	116.94
235.817	120.94
236.051	107.94
236.285	130.94
236.519	131.94
236.753	148.94
236.987	138.94
237.221	146.94
237.455	130.94
237.689	129.94
237.922	135.94
238.156	140.94
238.39	146.94
238.624	149.94
238.858	169.94
239.091	147.94
239.325	136.94
239.559	133.94
239.793	161.94
240.027	154.94
240.26	140.94
240.494	162.94
240.728	141.94
240.961	179.94
241.195	170.94
241.429	151.94
241.662	159.94
241.896	150.94
242.13	151.94
242.363	130.94
242.597	132.94
242.83	147.94
243.064	155.94
243.298	152.94
243.531	170.94
243.765	171.94
243.998	172.94
244.232	146.94
244.465	155.94
244.699	156.94
244.932	173.94
245.166	178.94
245.399	176.94
245.633	158.94
245.866	150.94
246.099	168.94
246.333	207.94
246.566	201.94
246.8	198.94
247.033	183.94
247.266	181.94
247.5	179.94
247.733	180.94
247.966	169.94
248.2	178.94
248.433	198.94
248.666	186.94
248.899	206.94
249.133	194.94
249.366	223.94
249.599	230.94
249.832	228.94
250.066	192.94
250.299	202.94
250.532	203.94
250.765	211.94
250.998	189.94
251.231	170.94
251.465	191.94
251.698	199.94
251.931	198.94
252.164	188.94
252.397	215.94
252.63	257.94
252.863	267.94
253.096	267.94
253.329	270.94
253.562	260.94
253.795	289.94
254.028	299.94
254.261	292.94
254.494	259.94
254.727	257.94
254.96	264.94
255.193	265.94
255.426	261.94
255.659	214.94
255.892	195.94
256.124	198.94
256.357	250.94
256.59	268.94
256.823	258.94
257.056	217.94
257.289	230.94
257.521	215.94
257.754	250.94
257.987	288.94
258.22	258.94
258.452	242.94
258.685	254.94
258.918	279.94
259.151	294.94
259.383	300.94
259.616	315.94
259.849	332.94
260.081	340.94
260.314	364.94
260.547	313.94
260.779	331.94
261.012	354.94
261.244	350.94
261.477	343.94
261.71	332.94
261.942	292.94
262.175	284.94
262.407	266.94
262.64	266.94
262.872	312.94
263.105	349.94
263.337	351.94
263.57	337.94
263.802	244.94
264.035	217.94
264.267	208.94
264.499	189.94
264.732	179.94
264.964	163.94
265.197	157.94
265.429	183.94
265.661	192.94
265.894	189.94
266.126	231.94
266.358	245.94
266.591	282.94
266.823	323.94
267.055	314.94
267.287	285.94
267.52	301.94
267.752	285.94
267.984	325.94
268.216	307.94
268.448	259.94
268.681	246.94
268.913	267.94
269.145	273.94
269.377	284.94
269.609	306.94
269.841	275.94
270.073	286.94
270.306	297.94
270.538	298.94
270.77	313.94
271.002	322.94
271.234	313.94
271.466	329.94
271.698	318.94
271.93	307.94
272.162	292.94
272.394	294.94
272.626	302.94
272.858	301.94
273.09	300.94
273.322	272.94
273.553	273.94
273.785	288.94
274.017	368.94
274.249	459.94
274.481	480.94
274.713	531.94
274.945	591.94
275.176	577.94
275.408	566.94
275.64	506.94
275.872	492.94
276.104	448.94
276.335	407.94
276.567	378.94
276.799	397.94
277.031	419.94
277.262	351.94
277.494	268.94
277.726	266.94
277.957	270.94
278.189	323.94
278.421	310.94
278.652	304.94
278.884	312.94
279.115	273.94
279.347	268.94
279.579	260.94
279.81	250.94
280.042	273.94
280.273	276.94
280.505	272.94
280.736	223.94
280.968	221.94
281.199	228.94
281.431	278.94
281.662	273.94
281.894	273.94
282.125	264.94
282.356	290.94
282.588	282.94
282.819	283.94
283.051	289.94
283.282	341.94
283.513	380.94
283.745	428.94
283.976	440.94
284.207	404.94
284.439	402.94
284.67	409.94
284.901	346.94
285.132	378.94
285.364	404.94
285.595	373.94
285.826	390.94
286.057	407.94
286.288	395.94
286.52	378.94
286.751	420.94
286.982	420.94
287.213	362.94
287.444	353.94
287.675	358.94
287.906	388.94
288.138	306.94
288.369	299.94
288.6	279.94
288.831	283.94
289.062	322.94
289.293	348.94
289.524	339.94
289.755	328.94
289.986	342.94
290.217	304.94
290.448	249.94
290.679	220.94
290.91	208.94
291.141	218.94
291.371	232.94
291.602	210.94
291.833	201.94
292.064	228.94
292.295	266.94
292.526	280.94
292.757	293.94
292.987	324.94
293.218	309.94
293.449	322.94
293.68	345.94
293.91	323.94
294.141	352.94
294.372	325.94
294.603	294.94
294.833	321.94
295.064	374.94
295.295	375.94
295.525	271.94
295.756	244.94
295.987	231.94
296.217	221.94
296.448	226.94
296.679	234.94
296.909	229.94
297.14	254.94
297.37	284.94
297.601	280.94
297.831	250.94
298.062	279.94
298.292	290.94
298.523	336.94
298.753	359.94
298.984	319.94
299.214	263.94
299.445	227.94
299.675	231.94
299.905	226.94
300.136	232.94
300.366	252.94
300.597	232.94
300.827	214.94
301.057	217.94
301.288	219.94
301.518	226.94
301.748	242.94
301.979	279.94
302.209	278.94
302.439	302.94
302.669	273.94
302.9	270.94
303.13	237.94
303.36	263.94
303.59	240.94
303.82	236.94
304.051	256.94
304.281	263.94
304.511	267.94
304.741	235.94
304.971	245.94
305.201	274.94
305.431	252.94
305.661	230.94
305.891	232.94
306.121	225.94
306.352	222.94
306.582	205.94
306.812	197.94
307.042	190.94
307.272	169.94
307.502	186.94
307.731	189.94
307.961	179.94
308.191	198.94
308.421	181.94
308.651	200.94
308.881	184.94
309.111	179.94
309.341	170.94
309.571	196.94
309.8	188.94
310.03	193.94
310.26	202.94
310.49	228.94
310.72	204.94
310.949	187.94
311.179	202.94
311.409	197.94
311.639	234.94
311.868	286.94
312.098	334.94
312.328	394.94
312.557	346.94
312.787	363.94
313.017	334.94
313.246	348.94
313.476	392.94
313.706	318.94
313.935	274.94
314.165	218.94
314.394	210.94
314.624	213.94
314.853	225.94
315.083	205.94
315.312	210.94
315.542	220.94
315.771	193.94
316.001	190.94
316.23	195.94
316.46	187.94
316.689	211.94
316.919	188.94
317.148	184.94
317.377	173.94
317.607	188.94
317.836	195.94
318.065	222.94
318.295	249.94
318.524	227.94
318.753	209.94
318.983	215.94
319.212	191.94
319.441	206.94
319.67	234.94
319.9	253.94
320.129	229.94
320.358	203.94
320.587	188.94
320.816	188.94
321.046	230.94
321.275	277.94
321.504	266.94
321.733	243.94
321.962	256.94
322.191	244.94
322.42	210.94
322.649	231.94
322.878	252.94
323.108	241.94
323.337	233.94
323.566	229.94
323.795	219.94
324.024	204.94
324.253	201.94
324.482	207.94
324.71	224.94
324.939	252.94
325.168	216.94
325.397	208.94
325.626	199.94
325.855	200.94
326.084	205.94
326.313	194.94
326.542	197.94
326.77	190.94
326.999	194.94
327.228	196.94
327.457	223.94
327.686	200.94
327.914	195.94
328.143	185.94
328.372	186.94
328.6	177.94
328.829	192.94
329.058	192.94
329.287	189.94
329.515	179.94
329.744	194.94
329.972	185.94
330.201	172.94
330.43	189.94
330.658	209.94
330.887	222.94
331.115	216.94
331.344	226.94
331.572	206.94
331.801	194.94
332.03	193.94
332.258	202.94
332.486	198.94
332.715	205.94
332.943	183.94
333.172	207.94
333.4	215.94
333.629	226.94
333.857	234.94
334.085	241.94
334.314	225.94
334.542	227.94
334.771	226.94
334.999	222.94
335.227	181.94
335.455	197.94
335.684	202.94
335.912	243.94
336.14	246.94
336.369	253.94
336.597	254.94
336.825	282.94
337.053	294.94
337.281	244.94
337.51	210.94
337.738	201.94
337.966	194.94
338.194	233.94
338.422	238.94
338.65	203.94
338.878	202.94
339.106	203.94
339.334	212.94
339.562	221.94
339.79	214.94
340.018	192.94
340.246	220.94
340.474	235.94
340.702	247.94
340.93	251.94
341.158	266.94
341.386	237.94
341.614	217.94
341.842	242.94
342.07	205.94
342.298	260.94
342.526	286.94
342.754	241.94
342.981	204.94
343.209	210.94
343.437	231.94
343.665	259.94
343.893	230.94
344.12	263.94
344.348	331.94
344.576	291.94
344.804	245.94
345.031	226.94
345.259	194.94
345.487	206.94
345.714	203.94
345.942	214.94
346.17	233.94
346.397	222.94
346.625	196.94
346.853	211.94
347.08	191.94
347.308	214.94
347.535	227.94
347.763	243.94
347.99	223.94
348.218	198.94
348.445	216.94
348.673	210.94
348.9	192.94
349.128	218.94
349.355	211.94
349.583	208.94
349.81	212.94
350.037	207.94
350.265	170.94
350.492	180.94
350.72	169.94
350.947	172.94
351.174	189.94
351.402	190.94
351.629	203.94
351.856	193.94
352.083	197.94
352.311	194.94
352.538	217.94
352.765	217.94
352.992	211.94
353.22	209.94
353.447	203.94
353.674	200.94
353.901	215.94
354.128	166.94
354.355	204.94
354.583	202.94
354.81	225.94
355.037	223.94
355.264	191.94
355.491	211.94
355.718	234.94
355.945	226.94
356.172	215.94
356.399	220.94
356.626	252.94
356.853	305.94
357.08	320.94
357.307	340.94
357.534	273.94
357.761	280.94
357.988	310.94
358.215	354.94
358.441	340.94
358.668	297.94
358.895	292.94
359.122	241.94
359.349	254.94
359.576	267.94
359.802	229.94
360.029	199.94
360.256	205.94
360.483	236.94
360.709	291.94
360.936	320.94
361.163	275.94
361.39	211.94
361.616	191.94
361.843	251.94
362.07	256.94
362.296	243.94
362.523	218.94
362.749	198.94
362.976	194.94
363.203	238.94
363.429	264.94
363.656	222.94
363.882	196.94
364.109	213.94
364.335	196.94
364.562	202.94
364.788	201.94
365.015	237.94
365.241	203.94
365.468	204.94
365.694	175.94
365.92	192.94
366.147	188.94
366.373	169.94
366.599	172.94
366.826	182.94
367.052	170.94
367.278	174.94
367.505	162.94
367.731	199.94
367.957	209.94
368.184	210.94
368.41	211.94
368.636	208.94
368.862	225.94
369.089	202.94
369.315	200.94
369.541	182.94
369.767	195.94
369.993	187.94
370.219	181.94
370.445	192.94
370.672	210.94
370.898	215.94
371.124	233.94
371.35	196.94
371.576	185.94
371.802	199.94
372.028	218.94
372.254	243.94
372.48	230.94
372.706	200.94
372.932	219.94
373.158	222.94
373.384	238.94
373.61	307.94
373.835	313.94
374.061	267.94
374.287	202.94
374.513	248.94
374.739	275.94
374.965	318.94
375.191	313.94
375.416	228.94
375.642	210.94
375.868	206.94
376.094	249.94
376.319	218.94
376.545	237.94
376.771	245.94
376.997	225.94
377.222	195.94
377.448	174.94
377.674	163.94
377.899	169.94
378.125	156.94
378.35	161.94
378.576	182.94
378.802	167.94
379.027	209.94
379.253	214.94
379.478	187.94
379.704	215.94
379.929	204.94
380.155	215.94
380.38	176.94
380.606	202.94
380.831	223.94
381.057	225.94
381.282	202.94
381.507	224.94
381.733	277.94
381.958	274.94
382.184	280.94
382.409	302.94
382.634	316.94
382.86	326.94
383.085	278.94
383.31	226.94
383.535	249.94
383.761	260.94
383.986	233.94
384.211	265.94
384.436	252.94
384.662	220.94
384.887	220.94
385.112	235.94
385.337	218.94
385.562	205.94
385.787	225.94
386.013	234.94
386.238	245.94
386.463	216.94
386.688	201.94
386.913	188.94
387.138	199.94
387.363	188.94
387.588	210.94
387.813	181.94
388.038	219.94
388.263	212.94
388.488	193.94
388.713	220.94
388.938	254.94
389.163	205.94
389.387	210.94
389.612	189.94
389.837	194.94
390.062	192.94
390.287	212.94
390.512	199.94
390.736	203.94
390.961	195.94
391.186	201.94
391.411	172.94
391.636	192.94
391.86	199.94
392.085	215.94
392.31	235.94
392.534	202.94
392.759	210.94
392.984	208.94
393.208	201.94
393.433	203.94
393.658	181.94
393.882	180.94
394.107	164.94
394.331	180.94
394.556	172.94
394.78	173.94
395.005	180.94
395.229	178.94
395.454	180.94
395.678	186.94
395.903	199.94
396.127	180.94
396.352	195.94
396.576	206.94
396.801	200.94
397.025	218.94
397.249	237.94
397.474	210.94
397.698	200.94
397.922	203.94
398.147	200.94
398.371	182.94
398.595	213.94
398.82	206.94
399.044	207.94
399.268	218.94
399.492	230.94
399.717	246.94
399.941	224.94
400.165	223.94
400.389	215.94
400.613	202.94
400.837	219.94
401.062	187.94
401.286	191.94
401.51	204.94
401.734	204.94
401.958	195.94
402.182	195.94
402.406	190.94
402.63	184.94
402.854	206.94
403.078	238.94
403.302	259.94
403.526	297.94
403.75	264.94
403.974	233.94
404.198	228.94
404.422	258.94
404.645	273.94
404.869	285.94
405.093	241.94
405.317	190.94
405.541	218.94
405.765	212.94
405.988	205.94
406.212	228.94
406.436	266.94
406.66	272.94
406.883	220.94
407.107	236.94
407.331	271.94
407.555	269.94
407.778	233.94
408.002	230.94
408.226	229.94
408.449	209.94
408.673	236.94
408.896	202.94
409.12	204.94
409.344	202.94
409.567	193.94
409.791	205.94
410.014	221.94
410.238	186.94
410.461	184.94
410.685	205.94
410.908	195.94
411.132	194.94
411.355	201.94
411.578	212.94
411.802	194.94
412.025	222.94
412.249	212.94
412.472	195.94
412.695	204.94
412.919	199.94
413.142	206.94
413.365	220.94
413.589	231.94
413.812	204.94
414.035	211.94
414.258	190.94
414.482	242.94
414.705	232.94
414.928	181.94
415.151	182.94
415.374	186.94
415.597	198.94
415.821	206.94
416.044	210.94
416.267	187.94
416.49	189.94
416.713	169.94
416.936	193.94
417.159	193.94
417.382	202.94
417.605	207.94
417.828	186.94
418.051	204.94
418.274	202.94
418.497	186.94
418.72	209.94
418.943	217.94
419.166	219.94
419.389	199.94
419.611	205.94
419.834	219.94
420.057	229.94
420.28	235.94
420.503	216.94
420.726	192.94
420.948	185.94
421.171	182.94
421.394	185.94
421.617	198.94
421.839	186.94
422.062	196.94
422.285	181.94
422.507	197.94
422.73	223.94
422.953	206.94
423.175	213.94
423.398	187.94
423.621	205.94
423.843	230.94
424.066	209.94
424.288	203.94
424.511	206.94
424.733	198.94
424.956	212.94
425.178	227.94
425.401	237.94
425.623	277.94
425.846	246.94
426.068	219.94
426.291	255.94
426.513	210.94
426.735	194.94
426.958	205.94
427.18	224.94
427.402	287.94
427.625	289.94
427.847	230.94
428.069	194.94
428.292	193.94
428.514	190.94
428.736	186.94
428.958	212.94
429.181	251.94
429.403	218.94
429.625	192.94
429.847	201.94
430.069	207.94
430.292	183.94
430.514	184.94
430.736	184.94
430.958	224.94
431.18	211.94
431.402	194.94
431.624	180.94
431.846	180.94
432.068	171.94
432.29	188.94
432.512	186.94
432.734	240.94
432.956	228.94
433.178	203.94
433.4	204.94
433.622	184.94
433.844	192.94
434.066	212.94
434.287	221.94
434.509	203.94
434.731	210.94
434.953	191.94
435.175	206.94
435.397	225.94
435.618	210.94
435.84	177.94
436.062	168.94
436.284	183.94
436.505	191.94
436.727	180.94
436.949	179.94
437.17	184.94
437.392	170.94
437.614	184.94
437.835	193.94
438.057	190.94
438.278	186.94
438.5	247.94
438.721	268.94
438.943	201.94
439.165	176.94
439.386	192.94
439.608	171.94
439.829	171.94
440.05	174.94
440.272	188.94
440.493	198.94
440.715	245.94
440.936	197.94
441.158	187.94
441.379	190.94
441.6	224.94
441.822	208.94
442.043	184.94
442.264	186.94
442.486	207.94
442.707	193.94
442.928	176.94
443.149	208.94
443.371	205.94
443.592	194.94
443.813	190.94
444.034	197.94
444.255	200.94
444.476	208.94
444.698	201.94
444.919	231.94
445.14	319.94
445.361	276.94
445.582	222.94
445.803	204.94
446.024	205.94
446.245	210.94
446.466	196.94
446.687	181.94
446.908	200.94
447.129	182.94
447.35	189.94
447.571	180.94
447.792	174.94
448.013	159.94
448.234	164.94
448.455	184.94
448.675	180.94
448.896	182.94
449.117	174.94
449.338	171.94
449.559	189.94
449.779	193.94
450	197.94
450.221	185.94
450.442	182.94
450.662	178.94
450.883	179.94
451.104	171.94
451.324	182.94
451.545	186.94
451.766	172.94
451.986	158.94
452.207	178.94
452.428	182.94
452.648	173.94
452.869	194.94
453.089	200.94
453.31	189.94
453.53	171.94
453.751	175.94
453.971	178.94
454.192	168.94
454.412	184.94
454.633	177.94
454.853	186.94
455.073	170.94
455.294	178.94
455.514	168.94
455.734	170.94
455.955	177.94
456.175	188.94
456.395	171.94
456.616	171.94
456.836	165.94
457.056	149.94
457.276	161.94
457.497	161.94
457.717	173.94
457.937	156.94
458.157	179.94
458.377	172.94
458.598	170.94
458.818	184.94
459.038	183.94
459.258	195.94
459.478	202.94
459.698	180.94
459.918	192.94
460.138	186.94
460.358	197.94
460.578	184.94
460.798	188.94
461.018	184.94
461.238	195.94
461.458	174.94
461.678	209.94
461.898	242.94
462.118	217.94
462.338	201.94
462.558	208.94
462.777	218.94
462.997	225.94
463.217	200.94
463.437	239.94
463.657	220.94
463.876	200.94
464.096	218.94
464.316	217.94
464.536	200.94
464.755	224.94
464.975	220.94
465.195	222.94
465.414	224.94
465.634	213.94
465.854	214.94
466.073	189.94
466.293	190.94
466.512	189.94
466.732	217.94
466.951	218.94
467.171	186.94
467.391	200.94
467.61	198.94
467.829	191.94
468.049	199.94
468.268	187.94
468.488	177.94
468.707	204.94
468.927	199.94
469.146	218.94
469.365	219.94
469.585	226.94
469.804	228.94
470.023	232.94
470.243	200.94
470.462	209.94
470.681	192.94
470.901	188.94
471.12	211.94
471.339	204.94
471.558	205.94
471.777	196.94
471.997	228.94
472.216	229.94
472.435	212.94
472.654	220.94
472.873	203.94
473.092	204.94
473.311	210.94
473.53	203.94
473.749	190.94
473.968	204.94
474.187	209.94
474.406	181.94
474.625	191.94
474.844	196.94
475.063	202.94
475.282	209.94
475.501	221.94
475.72	238.94
475.939	220.94
476.158	232.94
476.377	261.94
476.596	273.94
476.814	274.94
477.033	257.94
477.252	213.94
477.471	206.94
477.69	200.94
477.908	222.94
478.127	243.94
478.346	226.94
478.564	246.94
478.783	245.94
479.002	221.94
479.22	248.94
479.439	271.94
479.658	264.94
479.876	223.94
480.095	234.94
480.313	254.94
480.532	240.94
480.751	247.94
480.969	231.94
481.188	246.94
481.406	264.94
481.624	238.94
481.843	218.94
482.061	210.94
482.28	235.94
482.498	297.94
482.717	297.94
482.935	241.94
483.153	224.94
483.372	214.94
483.59	197.94
483.808	226.94
484.027	222.94
484.245	213.94
484.463	205.94
484.681	235.94
484.9	214.94
485.118	235.94
485.336	234.94
485.554	223.94
485.772	213.94
485.99	260.94
486.209	244.94
486.427	243.94
486.645	224.94
486.863	258.94
487.081	249.94
487.299	267.94
487.517	261.94
487.735	229.94
487.953	246.94
488.171	258.94
488.389	244.94
488.607	218.94
488.825	235.94
489.043	249.94
489.261	283.94
489.479	286.94
489.696	248.94
489.914	242.94
490.132	217.94
490.35	220.94
490.568	232.94
490.786	225.94
491.003	213.94
491.221	230.94
491.439	229.94
491.657	230.94
491.874	258.94
492.092	291.94
492.31	336.94
492.527	323.94
492.745	278.94
492.963	262.94
493.18	249.94
493.398	262.94
493.615	269.94
493.833	247.94
494.05	248.94
494.268	253.94
494.485	256.94
494.703	230.94
494.92	240.94
495.138	236.94
495.355	247.94
495.573	246.94
495.79	261.94
496.008	355.94
496.225	282.94
496.442	254.94
496.66	256.94
496.877	250.94
497.094	267.94
497.312	262.94
497.529	250.94
497.746	250.94
497.963	256.94
498.181	290.94
498.398	284.94
498.615	313.94
498.832	321.94
499.049	341.94
499.267	306.94
499.484	286.94
499.701	316.94
499.918	343.94
500.135	379.94
500.352	396.94
500.569	426.94
500.786	433.94
501.003	439.94
501.22	377.94
501.437	353.94
501.654	340.94
501.871	314.94
502.088	295.94
502.305	285.94
502.522	285.94
502.739	308.94
