Data from NickelSpatula.Lamp.E5.5.P2_HRD10591_11-53-21-549.txt Node
Date: Tue Jul 23 11:53:21 EDT 2019
User: cochatt
Spectrometer: HR+D1059
Trigger mode: 1
Integration Time (sec): 1.000000E-1
Scans to average: 1
Electric dark correction enabled: true
Nonlinearity correction enabled: false
Boxcar width: 0
XAxis mode: Wavelengths
Number of Pixels in Spectrum: 2048
>>>>>Begin Spectral Data<<<<<
223.165	-18.56
223.4	-18.56
223.635	-18.56
223.869	-19.56
224.104	-27.56
224.338	-3.56
224.573	-13.56
224.808	-14.56
225.042	-1.56
225.277	-6.56
225.511	-7.56
225.746	5.44
225.98	4.44
226.215	21.44
226.449	13.44
226.683	22.44
226.918	22.44
227.152	23.44
227.387	35.44
227.621	53.44
227.856	44.44
228.09	48.44
228.324	60.44
228.559	58.44
228.793	68.44
229.027	65.44
229.262	80.44
229.496	91.44
229.73	77.44
229.964	74.44
230.199	96.44
230.433	92.44
230.667	85.44
230.901	96.44
231.136	98.44
231.37	104.44
231.604	86.44
231.838	95.44
232.072	102.44
232.306	98.44
232.541	104.44
232.775	99.44
233.009	94.44
233.243	103.44
233.477	112.44
233.711	107.44
233.945	113.44
234.179	128.44
234.413	128.44
234.647	123.44
234.881	158.44
235.115	124.44
235.349	112.44
235.583	131.44
235.817	117.44
236.051	120.44
236.285	122.44
236.519	137.44
236.753	121.44
236.987	147.44
237.221	121.44
237.455	122.44
237.689	135.44
237.922	143.44
238.156	132.44
238.39	160.44
238.624	157.44
238.858	172.44
239.091	139.44
239.325	140.44
239.559	137.44
239.793	158.44
240.027	165.44
240.26	176.44
240.494	149.44
240.728	165.44
240.961	167.44
241.195	168.44
241.429	160.44
241.662	174.44
241.896	137.44
242.13	138.44
242.363	133.44
242.597	146.44
242.83	135.44
243.064	148.44
243.298	167.44
243.531	162.44
243.765	181.44
243.998	166.44
244.232	177.44
244.465	171.44
244.699	153.44
244.932	169.44
245.166	173.44
245.399	141.44
245.633	164.44
245.866	165.44
246.099	173.44
246.333	176.44
246.566	213.44
246.8	188.44
247.033	193.44
247.266	169.44
247.5	177.44
247.733	156.44
247.966	154.44
248.2	183.44
248.433	180.44
248.666	201.44
248.899	203.44
249.133	205.44
249.366	235.44
249.599	240.44
249.832	216.44
250.066	199.44
250.299	200.44
250.532	195.44
250.765	182.44
250.998	170.44
251.231	170.44
251.465	192.44
251.698	194.44
251.931	185.44
252.164	191.44
252.397	223.44
252.63	253.44
252.863	269.44
253.096	265.44
253.329	268.44
253.562	242.44
253.795	268.44
254.028	302.44
254.261	302.44
254.494	284.44
254.727	258.44
254.96	237.44
255.193	265.44
255.426	250.44
255.659	201.44
255.892	192.44
256.124	196.44
256.357	233.44
256.59	268.44
256.823	277.44
257.056	221.44
257.289	208.44
257.521	218.44
257.754	265.44
257.987	289.44
258.22	269.44
258.452	238.44
258.685	257.44
258.918	286.44
259.151	272.44
259.383	311.44
259.616	328.44
259.849	350.44
260.081	352.44
260.314	408.44
260.547	325.44
260.779	336.44
261.012	388.44
261.244	365.44
261.477	344.44
261.71	324.44
261.942	294.44
262.175	280.44
262.407	272.44
262.64	277.44
262.872	322.44
263.105	361.44
263.337	371.44
263.57	329.44
263.802	244.44
264.035	217.44
264.267	221.44
264.499	180.44
264.732	167.44
264.964	178.44
265.197	190.44
265.429	189.44
265.661	189.44
265.894	194.44
266.126	216.44
266.358	233.44
266.591	281.44
266.823	330.44
267.055	311.44
267.287	261.44
267.52	269.44
267.752	299.44
267.984	326.44
268.216	300.44
268.448	266.44
268.681	230.44
268.913	256.44
269.145	279.44
269.377	294.44
269.609	293.44
269.841	262.44
270.073	275.44
270.306	302.44
270.538	291.44
270.77	288.44
271.002	307.44
271.234	308.44
271.466	321.44
271.698	313.44
271.93	296.44
272.162	295.44
272.394	304.44
272.626	282.44
272.858	310.44
273.09	316.44
273.322	274.44
273.553	249.44
273.785	296.44
274.017	370.44
274.249	452.44
274.481	468.44
274.713	516.44
274.945	592.44
275.176	631.44
275.408	540.44
275.64	507.44
275.872	510.44
276.104	439.44
276.335	382.44
276.567	383.44
276.799	387.44
277.031	428.44
277.262	338.44
277.494	271.44
277.726	237.44
277.957	271.44
278.189	325.44
278.421	312.44
278.652	300.44
278.884	284.44
279.115	267.44
279.347	264.44
279.579	276.44
279.81	260.44
280.042	257.44
280.273	282.44
280.505	268.44
280.736	234.44
280.968	218.44
281.199	240.44
281.431	260.44
281.662	276.44
281.894	264.44
282.125	281.44
282.356	302.44
282.588	302.44
282.819	257.44
283.051	271.44
283.282	340.44
283.513	389.44
283.745	428.44
283.976	447.44
284.207	399.44
284.439	433.44
284.67	389.44
284.901	364.44
285.132	377.44
285.364	393.44
285.595	380.44
285.826	404.44
286.057	407.44
286.288	399.44
286.52	388.44
286.751	416.44
286.982	410.44
287.213	364.44
287.444	372.44
287.675	377.44
287.906	369.44
288.138	326.44
288.369	291.44
288.6	265.44
288.831	288.44
289.062	346.44
289.293	373.44
289.524	351.44
289.755	322.44
289.986	355.44
290.217	326.44
290.448	243.44
290.679	237.44
290.91	207.44
291.141	224.44
291.371	230.44
291.602	228.44
291.833	219.44
292.064	227.44
292.295	243.44
292.526	300.44
292.757	292.44
292.987	315.44
293.218	341.44
293.449	349.44
293.68	370.44
293.91	347.44
294.141	374.44
294.372	341.44
294.603	308.44
294.833	323.44
295.064	406.44
295.295	385.44
295.525	300.44
295.756	266.44
295.987	220.44
296.217	230.44
296.448	242.44
296.679	231.44
296.909	257.44
297.14	267.44
297.37	291.44
297.601	294.44
297.831	241.44
298.062	279.44
298.292	311.44
298.523	331.44
298.753	366.44
298.984	323.44
299.214	284.44
299.445	250.44
299.675	240.44
299.905	225.44
300.136	236.44
300.366	254.44
300.597	257.44
300.827	222.44
301.057	221.44
301.288	234.44
301.518	249.44
301.748	275.44
301.979	290.44
302.209	308.44
302.439	312.44
302.669	268.44
302.9	280.44
303.13	269.44
303.36	233.44
303.59	236.44
303.82	240.44
304.051	263.44
304.281	291.44
304.511	290.44
304.741	242.44
304.971	244.44
305.201	285.44
305.431	271.44
305.661	217.44
305.891	225.44
306.121	248.44
306.352	223.44
306.582	204.44
306.812	197.44
307.042	200.44
307.272	202.44
307.502	190.44
307.731	204.44
307.961	231.44
308.191	211.44
308.421	196.44
308.651	202.44
308.881	169.44
309.111	174.44
309.341	192.44
309.571	208.44
309.8	193.44
310.03	202.44
310.26	225.44
310.49	210.44
310.72	208.44
310.949	196.44
311.179	205.44
311.409	215.44
311.639	231.44
311.868	288.44
312.098	359.44
312.328	384.44
312.557	372.44
312.787	376.44
313.017	334.44
313.246	363.44
313.476	400.44
313.706	325.44
313.935	288.44
314.165	261.44
314.394	232.44
314.624	213.44
314.853	224.44
315.083	229.44
315.312	219.44
315.542	217.44
315.771	221.44
316.001	196.44
316.23	188.44
316.46	209.44
316.689	181.44
316.919	198.44
317.148	198.44
317.377	211.44
317.607	204.44
317.836	198.44
318.065	219.44
318.295	255.44
318.524	248.44
318.753	227.44
318.983	213.44
319.212	207.44
319.441	202.44
319.67	240.44
319.9	261.44
320.129	244.44
320.358	208.44
320.587	207.44
320.816	225.44
321.046	242.44
321.275	262.44
321.504	260.44
321.733	262.44
321.962	248.44
322.191	244.44
322.42	224.44
322.649	238.44
322.878	257.44
323.108	266.44
323.337	244.44
323.566	241.44
323.795	228.44
324.024	224.44
324.253	232.44
324.482	215.44
324.71	213.44
324.939	249.44
325.168	252.44
325.397	226.44
325.626	214.44
325.855	189.44
326.084	210.44
326.313	206.44
326.542	199.44
326.77	196.44
326.999	204.44
327.228	213.44
327.457	222.44
327.686	228.44
327.914	196.44
328.143	200.44
328.372	185.44
328.6	183.44
328.829	197.44
329.058	204.44
329.287	202.44
329.515	206.44
329.744	213.44
329.972	204.44
330.201	198.44
330.43	184.44
330.658	205.44
330.887	218.44
331.115	225.44
331.344	218.44
331.572	219.44
331.801	206.44
332.03	211.44
332.258	196.44
332.486	214.44
332.715	214.44
332.943	205.44
333.172	202.44
333.4	203.44
333.629	240.44
333.857	238.44
334.085	243.44
334.314	256.44
334.542	244.44
334.771	233.44
334.999	238.44
335.227	224.44
335.455	206.44
335.684	232.44
335.912	248.44
336.14	291.44
336.369	256.44
336.597	275.44
336.825	275.44
337.053	321.44
337.281	252.44
337.51	214.44
337.738	230.44
337.966	220.44
338.194	257.44
338.422	224.44
338.65	219.44
338.878	219.44
339.106	202.44
339.334	217.44
339.562	226.44
339.79	224.44
340.018	218.44
340.246	225.44
340.474	247.44
340.702	257.44
340.93	257.44
341.158	265.44
341.386	229.44
341.614	218.44
341.842	240.44
342.07	233.44
342.298	254.44
342.526	274.44
342.754	239.44
342.981	221.44
343.209	233.44
343.437	236.44
343.665	265.44
343.893	266.44
344.12	302.44
344.348	348.44
344.576	338.44
344.804	263.44
345.031	229.44
345.259	227.44
345.487	218.44
345.714	229.44
345.942	256.44
346.17	271.44
346.397	256.44
346.625	223.44
346.853	215.44
347.08	208.44
347.308	235.44
347.535	258.44
347.763	259.44
347.99	252.44
348.218	213.44
348.445	222.44
348.673	247.44
348.9	246.44
349.128	231.44
349.355	225.44
349.583	239.44
349.81	229.44
350.037	210.44
350.265	208.44
350.492	201.44
350.72	192.44
350.947	197.44
351.174	219.44
351.402	198.44
351.629	216.44
351.856	224.44
352.083	210.44
352.311	205.44
352.538	246.44
352.765	248.44
352.992	229.44
353.22	230.44
353.447	238.44
353.674	221.44
353.901	211.44
354.128	221.44
354.355	222.44
354.583	211.44
354.81	227.44
355.037	231.44
355.264	220.44
355.491	228.44
355.718	253.44
355.945	242.44
356.172	226.44
356.399	227.44
356.626	281.44
356.853	340.44
357.08	347.44
357.307	330.44
357.534	288.44
357.761	293.44
357.988	341.44
358.215	407.44
358.441	358.44
358.668	312.44
358.895	309.44
359.122	263.44
359.349	276.44
359.576	306.44
359.802	264.44
360.029	223.44
360.256	238.44
360.483	266.44
360.709	341.44
360.936	323.44
361.163	304.44
361.39	225.44
361.616	226.44
361.843	237.44
362.07	300.44
362.296	276.44
362.523	242.44
362.749	226.44
362.976	224.44
363.203	262.44
363.429	276.44
363.656	239.44
363.882	224.44
364.109	232.44
364.335	224.44
364.562	219.44
364.788	241.44
365.015	265.44
365.241	244.44
365.468	206.44
365.694	200.44
365.92	186.44
366.147	190.44
366.373	195.44
366.599	192.44
366.826	203.44
367.052	190.44
367.278	201.44
367.505	182.44
367.731	213.44
367.957	220.44
368.184	223.44
368.41	224.44
368.636	240.44
368.862	260.44
369.089	233.44
369.315	215.44
369.541	191.44
369.767	199.44
369.993	192.44
370.219	210.44
370.445	207.44
370.672	227.44
370.898	231.44
371.124	245.44
371.35	218.44
371.576	218.44
371.802	223.44
372.028	253.44
372.254	286.44
372.48	263.44
372.706	221.44
372.932	245.44
373.158	238.44
373.384	277.44
373.61	373.44
373.835	370.44
374.061	293.44
374.287	265.44
374.513	307.44
374.739	334.44
374.965	343.44
375.191	347.44
375.416	257.44
375.642	257.44
375.868	266.44
376.094	275.44
376.319	248.44
376.545	259.44
376.771	273.44
376.997	255.44
377.222	216.44
377.448	198.44
377.674	192.44
377.899	190.44
378.125	198.44
378.35	169.44
378.576	197.44
378.802	197.44
379.027	216.44
379.253	222.44
379.478	228.44
379.704	233.44
379.929	268.44
380.155	240.44
380.38	225.44
380.606	238.44
380.831	249.44
381.057	232.44
381.282	218.44
381.507	252.44
381.733	292.44
381.958	305.44
382.184	316.44
382.409	344.44
382.634	348.44
382.86	345.44
383.085	301.44
383.31	241.44
383.535	268.44
383.761	274.44
383.986	264.44
384.211	302.44
384.436	293.44
384.662	221.44
384.887	260.44
385.112	253.44
385.337	226.44
385.562	236.44
385.787	252.44
386.013	284.44
386.238	269.44
386.463	264.44
386.688	238.44
386.913	222.44
387.138	212.44
387.363	229.44
387.588	232.44
387.813	228.44
388.038	256.44
388.263	236.44
388.488	230.44
388.713	259.44
388.938	267.44
389.163	243.44
389.387	213.44
389.612	215.44
389.837	224.44
390.062	214.44
390.287	212.44
390.512	233.44
390.736	232.44
390.961	229.44
391.186	208.44
391.411	213.44
391.636	197.44
391.86	222.44
392.085	218.44
392.31	227.44
392.534	225.44
392.759	231.44
392.984	242.44
393.208	227.44
393.433	224.44
393.658	203.44
393.882	210.44
394.107	199.44
394.331	200.44
394.556	201.44
394.78	215.44
395.005	209.44
395.229	205.44
395.454	209.44
395.678	208.44
395.903	203.44
396.127	201.44
396.352	229.44
396.576	230.44
396.801	253.44
397.025	232.44
397.249	264.44
397.474	245.44
397.698	228.44
397.922	227.44
398.147	220.44
398.371	223.44
398.595	232.44
398.82	242.44
399.044	223.44
399.268	257.44
399.492	272.44
399.717	284.44
399.941	280.44
400.165	268.44
400.389	236.44
400.613	250.44
400.837	265.44
401.062	239.44
401.286	219.44
401.51	218.44
401.734	226.44
401.958	223.44
402.182	246.44
402.406	233.44
402.63	241.44
402.854	242.44
403.078	276.44
403.302	345.44
403.526	370.44
403.75	347.44
403.974	292.44
404.198	264.44
404.422	302.44
404.645	312.44
404.869	378.44
405.093	272.44
405.317	273.44
405.541	249.44
405.765	260.44
405.988	256.44
406.212	260.44
406.436	288.44
406.66	310.44
406.883	272.44
407.107	272.44
407.331	330.44
407.555	306.44
407.778	278.44
408.002	295.44
408.226	277.44
408.449	247.44
408.673	253.44
408.896	241.44
409.12	234.44
409.344	234.44
409.567	236.44
409.791	220.44
410.014	241.44
410.238	231.44
410.461	217.44
410.685	224.44
410.908	248.44
411.132	216.44
411.355	239.44
411.578	241.44
411.802	219.44
412.025	227.44
412.249	236.44
412.472	255.44
412.695	244.44
412.919	216.44
413.142	247.44
413.365	253.44
413.589	252.44
413.812	225.44
414.035	238.44
414.258	232.44
414.482	238.44
414.705	269.44
414.928	238.44
415.151	207.44
415.374	228.44
415.597	221.44
415.821	233.44
416.044	245.44
416.267	223.44
416.49	218.44
416.713	220.44
416.936	218.44
417.159	220.44
417.382	221.44
417.605	244.44
417.828	219.44
418.051	221.44
418.274	237.44
418.497	237.44
418.72	239.44
418.943	233.44
419.166	225.44
419.389	255.44
419.611	240.44
419.834	256.44
420.057	261.44
420.28	252.44
420.503	257.44
420.726	224.44
420.948	214.44
421.171	218.44
421.394	200.44
421.617	207.44
421.839	229.44
422.062	211.44
422.285	224.44
422.507	230.44
422.73	230.44
422.953	239.44
423.175	231.44
423.398	232.44
423.621	257.44
423.843	272.44
424.066	242.44
424.288	235.44
424.511	233.44
424.733	239.44
424.956	229.44
425.178	256.44
425.401	303.44
425.623	361.44
425.846	299.44
426.068	256.44
426.291	244.44
426.513	224.44
426.735	229.44
426.958	237.44
427.18	268.44
427.402	329.44
427.625	336.44
427.847	318.44
428.069	242.44
428.292	240.44
428.514	222.44
428.736	215.44
428.958	244.44
429.181	304.44
429.403	262.44
429.625	217.44
429.847	213.44
430.069	228.44
430.292	237.44
430.514	217.44
430.736	217.44
430.958	275.44
431.18	257.44
431.402	212.44
431.624	196.44
431.846	193.44
432.068	223.44
432.29	211.44
432.512	228.44
432.734	274.44
432.956	272.44
433.178	224.44
433.4	232.44
433.622	210.44
433.844	225.44
434.066	247.44
434.287	233.44
434.509	240.44
434.731	244.44
434.953	241.44
435.175	242.44
435.397	270.44
435.618	230.44
435.84	232.44
436.062	223.44
436.284	232.44
436.505	211.44
436.727	208.44
436.949	216.44
437.17	204.44
437.392	228.44
437.614	226.44
437.835	214.44
438.057	210.44
438.278	247.44
438.5	302.44
438.721	318.44
438.943	256.44
439.165	209.44
439.386	213.44
439.608	205.44
439.829	214.44
440.05	204.44
440.272	211.44
440.493	242.44
440.715	293.44
440.936	244.44
441.158	203.44
441.379	225.44
441.6	240.44
441.822	252.44
442.043	252.44
442.264	219.44
442.486	229.44
442.707	237.44
442.928	223.44
443.149	232.44
443.371	217.44
443.592	239.44
443.813	235.44
444.034	216.44
444.255	243.44
444.476	242.44
444.698	241.44
444.919	262.44
445.14	356.44
445.361	298.44
445.582	243.44
445.803	233.44
446.024	232.44
446.245	225.44
446.466	231.44
446.687	215.44
446.908	191.44
447.129	209.44
447.35	202.44
447.571	203.44
447.792	175.44
448.013	212.44
448.234	207.44
448.455	192.44
448.675	194.44
448.896	202.44
449.117	197.44
449.338	207.44
449.559	206.44
449.779	221.44
450	236.44
450.221	215.44
450.442	196.44
450.662	205.44
450.883	201.44
451.104	229.44
451.324	210.44
451.545	207.44
451.766	207.44
451.986	220.44
452.207	200.44
452.428	202.44
452.648	197.44
452.869	215.44
453.089	234.44
453.31	212.44
453.53	217.44
453.751	198.44
453.971	209.44
454.192	200.44
454.412	206.44
454.633	197.44
454.853	202.44
455.073	194.44
455.294	187.44
455.514	198.44
455.734	218.44
455.955	193.44
456.175	202.44
456.395	188.44
456.616	185.44
456.836	200.44
457.056	197.44
457.276	182.44
457.497	192.44
457.717	194.44
457.937	193.44
458.157	199.44
458.377	190.44
458.598	203.44
458.818	198.44
459.038	213.44
459.258	214.44
459.478	244.44
459.698	241.44
459.918	231.44
460.138	228.44
460.358	230.44
460.578	233.44
460.798	232.44
461.018	242.44
461.238	227.44
461.458	224.44
461.678	218.44
461.898	251.44
462.118	244.44
462.338	246.44
462.558	248.44
462.777	261.44
462.997	266.44
463.217	272.44
463.437	275.44
463.657	264.44
463.876	264.44
464.096	261.44
464.316	264.44
464.536	271.44
464.755	260.44
464.975	266.44
465.195	255.44
465.414	271.44
465.634	253.44
465.854	233.44
466.073	223.44
466.293	224.44
466.512	216.44
466.732	227.44
466.951	260.44
467.171	231.44
467.391	213.44
467.61	229.44
467.829	222.44
468.049	236.44
468.268	208.44
468.488	220.44
468.707	210.44
468.927	243.44
469.146	279.44
469.365	265.44
469.585	225.44
469.804	231.44
470.023	271.44
470.243	242.44
470.462	227.44
470.681	230.44
470.901	228.44
471.12	237.44
471.339	237.44
471.558	234.44
471.777	228.44
471.997	236.44
472.216	234.44
472.435	237.44
472.654	236.44
472.873	224.44
473.092	252.44
473.311	264.44
473.53	224.44
473.749	218.44
473.968	240.44
474.187	242.44
474.406	230.44
474.625	223.44
474.844	229.44
475.063	230.44
475.282	243.44
475.501	258.44
475.72	278.44
475.939	253.44
476.158	257.44
476.377	295.44
476.596	343.44
476.814	344.44
477.033	292.44
477.252	258.44
477.471	231.44
477.69	242.44
477.908	262.44
478.127	274.44
478.346	270.44
478.564	286.44
478.783	273.44
479.002	285.44
479.22	301.44
479.439	331.44
479.658	268.44
479.876	263.44
480.095	283.44
480.313	278.44
480.532	280.44
480.751	285.44
480.969	270.44
481.188	278.44
481.406	283.44
481.624	298.44
481.843	264.44
482.061	253.44
482.28	269.44
482.498	330.44
482.717	316.44
482.935	285.44
483.153	276.44
483.372	254.44
483.59	227.44
483.808	240.44
484.027	233.44
484.245	236.44
484.463	232.44
484.681	237.44
484.9	291.44
485.118	288.44
485.336	238.44
485.554	254.44
485.772	253.44
485.99	274.44
486.209	293.44
486.427	276.44
486.645	271.44
486.863	283.44
487.081	293.44
487.299	312.44
487.517	273.44
487.735	256.44
487.953	284.44
488.171	307.44
488.389	270.44
488.607	270.44
488.825	251.44
489.043	275.44
489.261	300.44
489.479	328.44
489.696	304.44
489.914	289.44
490.132	256.44
490.35	245.44
490.568	248.44
490.786	257.44
491.003	259.44
491.221	262.44
491.439	265.44
491.657	282.44
491.874	268.44
492.092	304.44
492.31	375.44
492.527	366.44
492.745	326.44
492.963	291.44
493.18	284.44
493.398	287.44
493.615	289.44
493.833	291.44
494.05	272.44
494.268	280.44
494.485	283.44
494.703	274.44
494.92	274.44
495.138	269.44
495.355	266.44
495.573	278.44
495.79	297.44
496.008	360.44
496.225	327.44
496.442	310.44
496.66	276.44
496.877	300.44
497.094	297.44
497.312	284.44
497.529	290.44
497.746	294.44
497.963	312.44
498.181	322.44
498.398	337.44
498.615	365.44
498.832	382.44
499.049	391.44
499.267	339.44
499.484	364.44
499.701	400.44
499.918	438.44
500.135	475.44
500.352	514.44
500.569	531.44
500.786	534.44
501.003	523.44
501.22	454.44
501.437	403.44
501.654	386.44
501.871	371.44
502.088	369.44
502.305	336.44
502.522	345.44
