Data from NickelSpatula.Lamp.E5.5.P2_HRD10591_11-52-30-554.txt Node
Date: Tue Jul 23 11:52:30 EDT 2019
User: cochatt
Spectrometer: HR+D1059
Trigger mode: 1
Integration Time (sec): 1.000000E-1
Scans to average: 1
Electric dark correction enabled: true
Nonlinearity correction enabled: false
Boxcar width: 0
XAxis mode: Wavelengths
Number of Pixels in Spectrum: 2048
>>>>>Begin Spectral Data<<<<<
223.165	-17.75
223.4	-17.75
223.635	-17.75
223.869	-12.75
224.104	-27.75
224.338	-16.75
224.573	-22.75
224.808	-1.75
225.042	-12.75
225.277	-3.75
225.511	4.25
225.746	6.25
225.98	12.25
226.215	5.25
226.449	21.25
226.683	16.25
226.918	18.25
227.152	32.25
227.387	44.25
227.621	47.25
227.856	45.25
228.09	48.25
228.324	39.25
228.559	59.25
228.793	67.25
229.027	67.25
229.262	83.25
229.496	81.25
229.73	74.25
229.964	95.25
230.199	93.25
230.433	85.25
230.667	105.25
230.901	106.25
231.136	94.25
231.37	99.25
231.604	111.25
231.838	110.25
232.072	110.25
232.306	117.25
232.541	108.25
232.775	108.25
233.009	109.25
233.243	112.25
233.477	117.25
233.711	117.25
233.945	125.25
234.179	131.25
234.413	128.25
234.647	141.25
234.881	132.25
235.115	124.25
235.349	138.25
235.583	126.25
235.817	121.25
236.051	132.25
236.285	140.25
236.519	142.25
236.753	128.25
236.987	136.25
237.221	135.25
237.455	120.25
237.689	141.25
237.922	141.25
238.156	133.25
238.39	168.25
238.624	160.25
238.858	156.25
239.091	138.25
239.325	124.25
239.559	150.25
239.793	135.25
240.027	166.25
240.26	174.25
240.494	173.25
240.728	160.25
240.961	176.25
241.195	168.25
241.429	181.25
241.662	163.25
241.896	152.25
242.13	134.25
242.363	127.25
242.597	141.25
242.83	163.25
243.064	157.25
243.298	173.25
243.531	165.25
243.765	176.25
243.998	184.25
244.232	182.25
244.465	175.25
244.699	176.25
244.932	167.25
245.166	173.25
245.399	160.25
245.633	166.25
245.866	153.25
246.099	169.25
246.333	183.25
246.566	185.25
246.8	196.25
247.033	179.25
247.266	177.25
247.5	178.25
247.733	160.25
247.966	165.25
248.2	188.25
248.433	188.25
248.666	207.25
248.899	210.25
249.133	200.25
249.366	216.25
249.599	238.25
249.832	216.25
250.066	184.25
250.299	192.25
250.532	222.25
250.765	190.25
250.998	188.25
251.231	197.25
251.465	206.25
251.698	192.25
251.931	187.25
252.164	198.25
252.397	215.25
252.63	240.25
252.863	254.25
253.096	266.25
253.329	261.25
253.562	242.25
253.795	295.25
254.028	318.25
254.261	317.25
254.494	288.25
254.727	263.25
254.96	259.25
255.193	271.25
255.426	277.25
255.659	216.25
255.892	206.25
256.124	233.25
256.357	242.25
256.59	281.25
256.823	271.25
257.056	245.25
257.289	208.25
257.521	247.25
257.754	279.25
257.987	318.25
258.22	266.25
258.452	253.25
258.685	276.25
258.918	288.25
259.151	308.25
259.383	282.25
259.616	331.25
259.849	345.25
260.081	367.25
260.314	393.25
260.547	336.25
260.779	340.25
261.012	386.25
261.244	344.25
261.477	365.25
261.71	354.25
261.942	308.25
262.175	308.25
262.407	302.25
262.64	280.25
262.872	324.25
263.105	369.25
263.337	351.25
263.57	336.25
263.802	253.25
264.035	244.25
264.267	207.25
264.499	202.25
264.732	191.25
264.964	180.25
265.197	179.25
265.429	217.25
265.661	208.25
265.894	208.25
266.126	240.25
266.358	249.25
266.591	286.25
266.823	343.25
267.055	318.25
267.287	309.25
267.52	304.25
267.752	296.25
267.984	342.25
268.216	348.25
268.448	280.25
268.681	265.25
268.913	295.25
269.145	293.25
269.377	290.25
269.609	316.25
269.841	284.25
270.073	322.25
270.306	327.25
270.538	339.25
270.77	347.25
271.002	321.25
271.234	355.25
271.466	329.25
271.698	328.25
271.93	320.25
272.162	335.25
272.394	312.25
272.626	320.25
272.858	319.25
273.09	327.25
273.322	290.25
273.553	284.25
273.785	312.25
274.017	423.25
274.249	493.25
274.481	508.25
274.713	552.25
274.945	598.25
275.176	615.25
275.408	576.25
275.64	560.25
275.872	540.25
276.104	469.25
276.335	416.25
276.567	427.25
276.799	425.25
277.031	448.25
277.262	377.25
277.494	288.25
277.726	268.25
277.957	307.25
278.189	336.25
278.421	316.25
278.652	323.25
278.884	305.25
279.115	278.25
279.347	300.25
279.579	279.25
279.81	279.25
280.042	300.25
280.273	284.25
280.505	268.25
280.736	254.25
280.968	254.25
281.199	272.25
281.431	297.25
281.662	295.25
281.894	287.25
282.125	305.25
282.356	295.25
282.588	333.25
282.819	302.25
283.051	313.25
283.282	382.25
283.513	412.25
283.745	445.25
283.976	464.25
284.207	425.25
284.439	447.25
284.67	422.25
284.901	389.25
285.132	417.25
285.364	440.25
285.595	415.25
285.826	428.25
286.057	445.25
286.288	442.25
286.52	420.25
286.751	433.25
286.982	451.25
287.213	386.25
287.444	370.25
287.675	400.25
287.906	392.25
288.138	339.25
288.369	325.25
288.6	304.25
288.831	343.25
289.062	362.25
289.293	396.25
289.524	368.25
289.755	396.25
289.986	360.25
290.217	343.25
290.448	270.25
290.679	239.25
290.91	232.25
291.141	244.25
291.371	243.25
291.602	259.25
291.833	245.25
292.064	240.25
292.295	295.25
292.526	322.25
292.757	325.25
292.987	351.25
293.218	376.25
293.449	364.25
293.68	413.25
293.91	394.25
294.141	372.25
294.372	378.25
294.603	314.25
294.833	360.25
295.064	439.25
295.295	422.25
295.525	321.25
295.756	282.25
295.987	253.25
296.217	237.25
296.448	243.25
296.679	241.25
296.909	285.25
297.14	310.25
297.37	325.25
297.601	326.25
297.831	255.25
298.062	307.25
298.292	336.25
298.523	322.25
298.753	385.25
298.984	360.25
299.214	301.25
299.445	262.25
299.675	252.25
299.905	252.25
300.136	252.25
300.366	284.25
300.597	266.25
300.827	237.25
301.057	231.25
301.288	240.25
301.518	262.25
301.748	288.25
301.979	305.25
302.209	326.25
302.439	333.25
302.669	296.25
302.9	289.25
303.13	268.25
303.36	268.25
303.59	263.25
303.82	272.25
304.051	289.25
304.281	319.25
304.511	305.25
304.741	280.25
304.971	295.25
305.201	313.25
305.431	309.25
305.661	262.25
305.891	251.25
306.121	254.25
306.352	248.25
306.582	210.25
306.812	205.25
307.042	205.25
307.272	205.25
307.502	210.25
307.731	247.25
307.961	224.25
308.191	218.25
308.421	201.25
308.651	217.25
308.881	196.25
309.111	194.25
309.341	197.25
309.571	210.25
309.8	223.25
310.03	223.25
310.26	234.25
310.49	228.25
310.72	211.25
310.949	215.25
311.179	215.25
311.409	229.25
311.639	274.25
311.868	326.25
312.098	394.25
312.328	400.25
312.557	400.25
312.787	391.25
313.017	356.25
313.246	372.25
313.476	442.25
313.706	380.25
313.935	301.25
314.165	257.25
314.394	232.25
314.624	230.25
314.853	245.25
315.083	229.25
315.312	239.25
315.542	233.25
315.771	225.25
316.001	207.25
316.23	223.25
316.46	219.25
316.689	201.25
316.919	215.25
317.148	216.25
317.377	216.25
317.607	220.25
317.836	228.25
318.065	254.25
318.295	295.25
318.524	272.25
318.753	216.25
318.983	217.25
319.212	217.25
319.441	226.25
319.67	254.25
319.9	272.25
320.129	253.25
320.358	227.25
320.587	222.25
320.816	217.25
321.046	256.25
321.275	284.25
321.504	281.25
321.733	272.25
321.962	290.25
322.191	257.25
322.42	260.25
322.649	223.25
322.878	256.25
323.108	261.25
323.337	254.25
323.566	259.25
323.795	239.25
324.024	240.25
324.253	241.25
324.482	215.25
324.71	249.25
324.939	262.25
325.168	262.25
325.397	230.25
325.626	218.25
325.855	221.25
326.084	232.25
326.313	217.25
326.542	200.25
326.77	221.25
326.999	230.25
327.228	225.25
327.457	229.25
327.686	233.25
327.914	218.25
328.143	210.25
328.372	218.25
328.6	202.25
328.829	206.25
329.058	197.25
329.287	208.25
329.515	213.25
329.744	230.25
329.972	212.25
330.201	203.25
330.43	201.25
330.658	227.25
330.887	220.25
331.115	230.25
331.344	246.25
331.572	229.25
331.801	231.25
332.03	207.25
332.258	205.25
332.486	247.25
332.715	230.25
332.943	219.25
333.172	237.25
333.4	241.25
333.629	255.25
333.857	264.25
334.085	273.25
334.314	279.25
334.542	272.25
334.771	241.25
334.999	221.25
335.227	229.25
335.455	241.25
335.684	250.25
335.912	276.25
336.14	295.25
336.369	285.25
336.597	274.25
336.825	304.25
337.053	329.25
337.281	280.25
337.51	254.25
337.738	242.25
337.966	247.25
338.194	272.25
338.422	267.25
338.65	221.25
338.878	206.25
339.106	221.25
339.334	264.25
339.562	243.25
339.79	226.25
340.018	218.25
340.246	237.25
340.474	271.25
340.702	276.25
340.93	300.25
341.158	304.25
341.386	266.25
341.614	247.25
341.842	246.25
342.07	252.25
342.298	288.25
342.526	308.25
342.754	271.25
342.981	252.25
343.209	248.25
343.437	265.25
343.665	288.25
343.893	280.25
344.12	322.25
344.348	367.25
344.576	348.25
344.804	292.25
345.031	242.25
345.259	239.25
345.487	251.25
345.714	241.25
345.942	266.25
346.17	263.25
346.397	259.25
346.625	248.25
346.853	247.25
347.08	218.25
347.308	239.25
347.535	282.25
347.763	278.25
347.99	252.25
348.218	251.25
348.445	252.25
348.673	240.25
348.9	232.25
349.128	260.25
349.355	258.25
349.583	236.25
349.81	237.25
350.037	232.25
350.265	214.25
350.492	195.25
350.72	189.25
350.947	201.25
351.174	209.25
351.402	208.25
351.629	238.25
351.856	216.25
352.083	212.25
352.311	225.25
352.538	250.25
352.765	265.25
352.992	231.25
353.22	230.25
353.447	229.25
353.674	247.25
353.901	229.25
354.128	237.25
354.355	241.25
354.583	236.25
354.81	236.25
355.037	254.25
355.264	224.25
355.491	240.25
355.718	252.25
355.945	272.25
356.172	252.25
356.399	249.25
356.626	302.25
356.853	343.25
357.08	372.25
357.307	375.25
357.534	311.25
357.761	306.25
357.988	394.25
358.215	436.25
358.441	412.25
358.668	361.25
358.895	342.25
359.122	277.25
359.349	285.25
359.576	342.25
359.802	274.25
360.029	243.25
360.256	257.25
360.483	286.25
360.709	349.25
360.936	361.25
361.163	325.25
361.39	235.25
361.616	227.25
361.843	273.25
362.07	312.25
362.296	286.25
362.523	236.25
362.749	243.25
362.976	232.25
363.203	277.25
363.429	285.25
363.656	249.25
363.882	256.25
364.109	233.25
364.335	252.25
364.562	236.25
364.788	240.25
365.015	273.25
365.241	258.25
365.468	249.25
365.694	205.25
365.92	205.25
366.147	192.25
366.373	206.25
366.599	186.25
366.826	204.25
367.052	206.25
367.278	206.25
367.505	201.25
367.731	227.25
367.957	254.25
368.184	243.25
368.41	241.25
368.636	238.25
368.862	256.25
369.089	240.25
369.315	216.25
369.541	213.25
369.767	207.25
369.993	206.25
370.219	200.25
370.445	209.25
370.672	248.25
370.898	236.25
371.124	239.25
371.35	229.25
371.576	212.25
371.802	232.25
372.028	274.25
372.254	289.25
372.48	271.25
372.706	230.25
372.932	230.25
373.158	260.25
373.384	308.25
373.61	374.25
373.835	399.25
374.061	302.25
374.287	270.25
374.513	329.25
374.739	365.25
374.965	351.25
375.191	361.25
375.416	274.25
375.642	242.25
375.868	258.25
376.094	321.25
376.319	262.25
376.545	285.25
376.771	288.25
376.997	263.25
377.222	212.25
377.448	215.25
377.674	198.25
377.899	186.25
378.125	198.25
378.35	212.25
378.576	201.25
378.802	208.25
379.027	224.25
379.253	225.25
379.478	230.25
379.704	244.25
379.929	249.25
380.155	250.25
380.38	247.25
380.606	222.25
380.831	276.25
381.057	248.25
381.282	230.25
381.507	275.25
381.733	312.25
381.958	328.25
382.184	357.25
382.409	378.25
382.634	371.25
382.86	369.25
383.085	308.25
383.31	287.25
383.535	284.25
383.761	290.25
383.986	277.25
384.211	309.25
384.436	314.25
384.662	259.25
384.887	237.25
385.112	236.25
385.337	243.25
385.562	238.25
385.787	279.25
386.013	284.25
386.238	324.25
386.463	265.25
386.688	242.25
386.913	237.25
387.138	222.25
387.363	231.25
387.588	253.25
387.813	248.25
388.038	258.25
388.263	248.25
388.488	224.25
388.713	246.25
388.938	274.25
389.163	243.25
389.387	224.25
389.612	233.25
389.837	228.25
390.062	229.25
390.287	245.25
390.512	253.25
390.736	230.25
390.961	208.25
391.186	232.25
391.411	226.25
391.636	223.25
391.86	260.25
392.085	239.25
392.31	269.25
392.534	249.25
392.759	242.25
392.984	252.25
393.208	242.25
393.433	215.25
393.658	225.25
393.882	210.25
394.107	206.25
394.331	212.25
394.556	221.25
394.78	223.25
395.005	236.25
395.229	207.25
395.454	215.25
395.678	228.25
395.903	233.25
396.127	231.25
396.352	225.25
396.576	264.25
396.801	236.25
397.025	249.25
397.249	270.25
397.474	230.25
397.698	220.25
397.922	238.25
398.147	243.25
398.371	247.25
398.595	247.25
398.82	258.25
399.044	242.25
399.268	264.25
399.492	279.25
399.717	279.25
399.941	267.25
400.165	288.25
400.389	263.25
400.613	273.25
400.837	241.25
401.062	232.25
401.286	229.25
401.51	220.25
401.734	228.25
401.958	249.25
402.182	235.25
402.406	249.25
402.63	234.25
402.854	258.25
403.078	303.25
403.302	370.25
403.526	381.25
403.75	351.25
403.974	300.25
404.198	284.25
404.422	320.25
404.645	342.25
404.869	376.25
405.093	288.25
405.317	256.25
405.541	262.25
405.765	264.25
405.988	280.25
406.212	277.25
406.436	306.25
406.66	329.25
406.883	277.25
407.107	276.25
407.331	332.25
407.555	326.25
407.778	276.25
408.002	277.25
408.226	260.25
408.449	271.25
408.673	270.25
408.896	244.25
409.12	232.25
409.344	234.25
409.567	244.25
409.791	267.25
410.014	252.25
410.238	237.25
410.461	240.25
410.685	257.25
410.908	255.25
411.132	231.25
411.355	244.25
411.578	250.25
411.802	244.25
412.025	231.25
412.249	228.25
412.472	248.25
412.695	242.25
412.919	229.25
413.142	230.25
413.365	261.25
413.589	271.25
413.812	260.25
414.035	236.25
414.258	248.25
414.482	233.25
414.705	266.25
414.928	238.25
415.151	216.25
415.374	229.25
415.597	221.25
415.821	241.25
416.044	240.25
416.267	226.25
416.49	223.25
416.713	225.25
416.936	214.25
417.159	227.25
417.382	231.25
417.605	240.25
417.828	217.25
418.051	225.25
418.274	252.25
418.497	254.25
418.72	238.25
418.943	240.25
419.166	249.25
419.389	256.25
419.611	256.25
419.834	262.25
420.057	283.25
420.28	288.25
420.503	241.25
420.726	229.25
420.948	241.25
421.171	240.25
421.394	234.25
421.617	231.25
421.839	222.25
422.062	246.25
422.285	237.25
422.507	241.25
422.73	266.25
422.953	245.25
423.175	242.25
423.398	256.25
423.621	270.25
423.843	284.25
424.066	264.25
424.288	252.25
424.511	239.25
424.733	238.25
424.956	248.25
425.178	264.25
425.401	305.25
425.623	356.25
425.846	307.25
426.068	256.25
426.291	276.25
426.513	256.25
426.735	244.25
426.958	255.25
427.18	287.25
427.402	341.25
427.625	376.25
427.847	329.25
428.069	252.25
428.292	237.25
428.514	232.25
428.736	225.25
428.958	259.25
429.181	318.25
429.403	271.25
429.625	235.25
429.847	230.25
430.069	250.25
430.292	225.25
430.514	218.25
430.736	240.25
430.958	291.25
431.18	259.25
431.402	217.25
431.624	226.25
431.846	218.25
432.068	210.25
432.29	238.25
432.512	222.25
432.734	292.25
432.956	263.25
433.178	196.25
433.4	233.25
433.622	239.25
433.844	239.25
434.066	233.25
434.287	239.25
434.509	234.25
434.731	259.25
434.953	253.25
435.175	258.25
435.397	289.25
435.618	238.25
435.84	224.25
436.062	220.25
436.284	218.25
436.505	197.25
436.727	193.25
436.949	216.25
437.17	216.25
437.392	212.25
437.614	227.25
437.835	199.25
438.057	221.25
438.278	242.25
438.5	320.25
438.721	318.25
438.943	235.25
439.165	206.25
439.386	225.25
439.608	226.25
439.829	229.25
440.05	208.25
440.272	224.25
440.493	246.25
440.715	301.25
440.936	248.25
441.158	229.25
441.379	234.25
441.6	244.25
441.822	257.25
442.043	254.25
442.264	238.25
442.486	233.25
442.707	238.25
442.928	228.25
443.149	228.25
443.371	243.25
443.592	262.25
443.813	252.25
444.034	253.25
444.255	228.25
444.476	258.25
444.698	241.25
444.919	260.25
445.14	344.25
445.361	307.25
445.582	260.25
445.803	239.25
446.024	241.25
446.245	258.25
446.466	242.25
446.687	221.25
446.908	218.25
447.129	227.25
447.35	229.25
447.571	214.25
447.792	247.25
448.013	215.25
448.234	224.25
448.455	219.25
448.675	206.25
448.896	213.25
449.117	213.25
449.338	199.25
449.559	210.25
449.779	222.25
450	212.25
450.221	218.25
450.442	245.25
450.662	220.25
450.883	221.25
451.104	238.25
451.324	241.25
451.545	228.25
451.766	212.25
451.986	201.25
452.207	198.25
452.428	206.25
452.648	206.25
452.869	230.25
453.089	231.25
453.31	224.25
453.53	203.25
453.751	228.25
453.971	200.25
454.192	224.25
454.412	224.25
454.633	205.25
454.853	210.25
455.073	199.25
455.294	217.25
455.514	205.25
455.734	203.25
455.955	216.25
456.175	206.25
456.395	198.25
456.616	183.25
456.836	198.25
457.056	191.25
457.276	189.25
457.497	199.25
457.717	197.25
457.937	192.25
458.157	204.25
458.377	207.25
458.598	212.25
458.818	203.25
459.038	210.25
459.258	217.25
459.478	233.25
459.698	231.25
459.918	231.25
460.138	225.25
460.358	229.25
460.578	236.25
460.798	208.25
461.018	246.25
461.238	252.25
461.458	214.25
461.678	242.25
461.898	240.25
462.118	240.25
462.338	272.25
462.558	253.25
462.777	266.25
462.997	276.25
463.217	298.25
463.437	296.25
463.657	271.25
463.876	272.25
464.096	270.25
464.316	281.25
464.536	266.25
464.755	266.25
464.975	277.25
465.195	261.25
465.414	254.25
465.634	246.25
465.854	241.25
466.073	218.25
466.293	223.25
466.512	224.25
466.732	256.25
466.951	276.25
467.171	247.25
467.391	229.25
467.61	231.25
467.829	232.25
468.049	245.25
468.268	216.25
468.488	238.25
468.707	228.25
468.927	243.25
469.146	282.25
469.365	247.25
469.585	237.25
469.804	254.25
470.023	257.25
470.243	240.25
470.462	223.25
470.681	240.25
470.901	235.25
471.12	248.25
471.339	260.25
471.558	248.25
471.777	230.25
471.997	250.25
472.216	278.25
472.435	258.25
472.654	225.25
472.873	239.25
473.092	256.25
473.311	254.25
473.53	260.25
473.749	233.25
473.968	236.25
474.187	233.25
474.406	216.25
474.625	237.25
474.844	223.25
475.063	248.25
475.282	249.25
475.501	273.25
475.72	289.25
475.939	275.25
476.158	266.25
476.377	306.25
476.596	343.25
476.814	370.25
477.033	294.25
477.252	270.25
477.471	257.25
477.69	234.25
477.908	269.25
478.127	281.25
478.346	272.25
478.564	288.25
478.783	277.25
479.002	265.25
479.22	306.25
479.439	348.25
479.658	300.25
479.876	276.25
480.095	296.25
480.313	294.25
480.532	287.25
480.751	270.25
480.969	258.25
481.188	300.25
481.406	316.25
481.624	297.25
481.843	260.25
482.061	280.25
482.28	276.25
482.498	322.25
482.717	328.25
482.935	284.25
483.153	281.25
483.372	252.25
483.59	278.25
483.808	252.25
484.027	239.25
484.245	264.25
484.463	244.25
484.681	254.25
484.9	286.25
485.118	300.25
485.336	290.25
485.554	244.25
485.772	270.25
485.99	279.25
486.209	300.25
486.427	292.25
486.645	279.25
486.863	295.25
487.081	302.25
487.299	335.25
487.517	308.25
487.735	277.25
487.953	292.25
488.171	302.25
488.389	272.25
488.607	262.25
488.825	293.25
489.043	285.25
489.261	325.25
489.479	329.25
489.696	307.25
489.914	284.25
490.132	268.25
490.35	266.25
490.568	274.25
490.786	272.25
491.003	273.25
491.221	275.25
491.439	272.25
491.657	263.25
491.874	291.25
492.092	327.25
492.31	375.25
492.527	380.25
492.745	331.25
492.963	306.25
493.18	295.25
493.398	303.25
493.615	306.25
493.833	301.25
494.05	283.25
494.268	312.25
494.485	293.25
494.703	280.25
494.92	287.25
495.138	284.25
495.355	310.25
495.573	302.25
495.79	301.25
496.008	384.25
496.225	327.25
496.442	314.25
496.66	309.25
496.877	326.25
497.094	317.25
497.312	309.25
497.529	311.25
497.746	298.25
497.963	336.25
498.181	338.25
498.398	351.25
498.615	366.25
498.832	386.25
499.049	386.25
499.267	376.25
499.484	394.25
499.701	407.25
499.918	444.25
500.135	489.25
500.352	528.25
500.569	537.25
500.786	532.25
501.003	513.25
501.22	464.25
501.437	421.25
501.654	414.25
501.871	390.25
502.088	376.25
502.305	364.25
502.522	372.25
