Data from NickelSpatula_HRD10591_16-33-46-125.txt Node
Date: Mon Jul 22 16:33:46 EDT 2019
User: cochatt
Spectrometer: HR+D1059
Trigger mode: 1
Integration Time (sec): 1.000000E-1
Scans to average: 1
Electric dark correction enabled: true
Nonlinearity correction enabled: false
Boxcar width: 0
XAxis mode: Wavelengths
Number of Pixels in Spectrum: 2048
>>>>>Begin Spectral Data<<<<<
223.165	-27.5
223.4	-27.5
223.635	-27.5
223.869	-14.5
224.104	-23.5
224.338	-11.5
224.573	-5.5
224.808	-11.5
225.042	-6.5
225.277	-5.5
225.511	0.5
225.746	3.5
225.98	10.5
226.215	10.5
226.449	21.5
226.683	15.5
226.918	17.5
227.152	26.5
227.387	38.5
227.621	28.5
227.856	42.5
228.09	33.5
228.324	67.5
228.559	55.5
228.793	63.5
229.027	66.5
229.262	82.5
229.496	75.5
229.73	73.5
229.964	83.5
230.199	98.5
230.433	79.5
230.667	98.5
230.901	97.5
231.136	102.5
231.37	97.5
231.604	97.5
231.838	114.5
232.072	101.5
232.306	93.5
232.541	106.5
232.775	116.5
233.009	116.5
233.243	111.5
233.477	116.5
233.711	132.5
233.945	106.5
234.179	114.5
234.413	119.5
234.647	120.5
234.881	123.5
235.115	127.5
235.349	132.5
235.583	131.5
235.817	105.5
236.051	105.5
236.285	128.5
236.519	137.5
236.753	123.5
236.987	149.5
237.221	112.5
237.455	126.5
237.689	138.5
237.922	124.5
238.156	136.5
238.39	139.5
238.624	161.5
238.858	153.5
239.091	143.5
239.325	135.5
239.559	136.5
239.793	138.5
240.027	161.5
240.26	148.5
240.494	180.5
240.728	151.5
240.961	182.5
241.195	164.5
241.429	167.5
241.662	167.5
241.896	152.5
242.13	128.5
242.363	136.5
242.597	134.5
242.83	144.5
243.064	146.5
243.298	162.5
243.531	145.5
243.765	194.5
243.998	162.5
244.232	161.5
244.465	156.5
244.699	164.5
244.932	170.5
245.166	177.5
245.399	155.5
245.633	149.5
245.866	141.5
246.099	169.5
246.333	168.5
246.566	187.5
246.8	186.5
247.033	189.5
247.266	186.5
247.5	180.5
247.733	177.5
247.966	189.5
248.2	177.5
248.433	182.5
248.666	193.5
248.899	194.5
249.133	203.5
249.366	212.5
249.599	230.5
249.832	209.5
250.066	194.5
250.299	205.5
250.532	186.5
250.765	190.5
250.998	189.5
251.231	179.5
251.465	190.5
251.698	190.5
251.931	193.5
252.164	186.5
252.397	207.5
252.63	228.5
252.863	252.5
253.096	261.5
253.329	252.5
253.562	258.5
253.795	266.5
254.028	294.5
254.261	301.5
254.494	285.5
254.727	250.5
254.96	239.5
255.193	273.5
255.426	247.5
255.659	219.5
255.892	200.5
256.124	203.5
256.357	243.5
256.59	257.5
256.823	256.5
257.056	236.5
257.289	219.5
257.521	236.5
257.754	256.5
257.987	306.5
258.22	255.5
258.452	230.5
258.685	251.5
258.918	274.5
259.151	258.5
259.383	276.5
259.616	327.5
259.849	323.5
260.081	349.5
260.314	352.5
260.547	315.5
260.779	307.5
261.012	350.5
261.244	349.5
261.477	321.5
261.71	309.5
261.942	282.5
262.175	274.5
262.407	281.5
262.64	262.5
262.872	314.5
263.105	319.5
263.337	360.5
263.57	328.5
263.802	236.5
264.035	222.5
264.267	230.5
264.499	199.5
264.732	175.5
264.964	174.5
265.197	159.5
265.429	195.5
265.661	207.5
265.894	205.5
266.126	215.5
266.358	232.5
266.591	279.5
266.823	318.5
267.055	307.5
267.287	284.5
267.52	263.5
267.752	300.5
267.984	305.5
268.216	303.5
268.448	258.5
268.681	249.5
268.913	281.5
269.145	274.5
269.377	305.5
269.609	312.5
269.841	280.5
270.073	304.5
270.306	303.5
270.538	315.5
270.77	323.5
271.002	316.5
271.234	308.5
271.466	314.5
271.698	306.5
271.93	296.5
272.162	321.5
272.394	322.5
272.626	297.5
272.858	291.5
273.09	313.5
273.322	280.5
273.553	256.5
273.785	292.5
274.017	378.5
274.249	439.5
274.481	465.5
274.713	498.5
274.945	559.5
275.176	576.5
275.408	531.5
275.64	497.5
275.872	489.5
276.104	449.5
276.335	407.5
276.567	381.5
276.799	389.5
277.031	434.5
277.262	327.5
277.494	275.5
277.726	262.5
277.957	294.5
278.189	305.5
278.421	317.5
278.652	311.5
278.884	297.5
279.115	268.5
279.347	263.5
279.579	265.5
279.81	275.5
280.042	265.5
280.273	255.5
280.505	273.5
280.736	243.5
280.968	228.5
281.199	241.5
281.431	290.5
281.662	287.5
281.894	261.5
282.125	292.5
282.356	300.5
282.588	305.5
282.819	261.5
283.051	299.5
283.282	349.5
283.513	389.5
283.745	411.5
283.976	433.5
284.207	411.5
284.439	399.5
284.67	422.5
284.901	352.5
285.132	389.5
285.364	417.5
285.595	387.5
285.826	389.5
286.057	415.5
286.288	396.5
286.52	376.5
286.751	432.5
286.982	416.5
287.213	385.5
287.444	367.5
287.675	368.5
287.906	375.5
288.138	337.5
288.369	305.5
288.6	296.5
288.831	310.5
289.062	347.5
289.293	362.5
289.524	358.5
289.755	334.5
289.986	354.5
290.217	312.5
290.448	250.5
290.679	229.5
290.91	225.5
291.141	227.5
291.371	222.5
291.602	225.5
291.833	221.5
292.064	243.5
292.295	233.5
292.526	277.5
292.757	306.5
292.987	324.5
293.218	335.5
293.449	347.5
293.68	360.5
293.91	349.5
294.141	364.5
294.372	333.5
294.603	292.5
294.833	345.5
295.064	383.5
295.295	367.5
295.525	285.5
295.756	238.5
295.987	226.5
296.217	225.5
296.448	232.5
296.679	230.5
296.909	247.5
297.14	256.5
297.37	299.5
297.601	291.5
297.831	241.5
298.062	269.5
298.292	283.5
298.523	322.5
298.753	376.5
298.984	338.5
299.214	265.5
299.445	228.5
299.675	235.5
299.905	228.5
300.136	238.5
300.366	262.5
300.597	259.5
300.827	218.5
301.057	220.5
301.288	227.5
301.518	231.5
301.748	266.5
301.979	284.5
302.209	321.5
302.439	299.5
302.669	266.5
302.9	251.5
303.13	262.5
303.36	244.5
303.59	231.5
303.82	257.5
304.051	276.5
304.281	295.5
304.511	288.5
304.741	265.5
304.971	261.5
305.201	280.5
305.431	276.5
305.661	253.5
305.891	239.5
306.121	229.5
306.352	203.5
306.582	191.5
306.812	212.5
307.042	187.5
307.272	201.5
307.502	192.5
307.731	183.5
307.961	208.5
308.191	186.5
308.421	184.5
308.651	202.5
308.881	175.5
309.111	167.5
309.341	176.5
309.571	206.5
309.8	210.5
310.03	214.5
310.26	221.5
310.49	211.5
310.72	171.5
310.949	191.5
311.179	204.5
311.409	211.5
311.639	226.5
311.868	285.5
312.098	360.5
312.328	386.5
312.557	362.5
312.787	375.5
313.017	348.5
313.246	370.5
313.476	386.5
313.706	322.5
313.935	275.5
314.165	224.5
314.394	220.5
314.624	229.5
314.853	227.5
315.083	227.5
315.312	231.5
315.542	223.5
315.771	195.5
316.001	196.5
316.23	194.5
316.46	197.5
316.689	188.5
316.919	194.5
317.148	191.5
317.377	203.5
317.607	187.5
317.836	188.5
318.065	237.5
318.295	275.5
318.524	232.5
318.753	219.5
318.983	195.5
319.212	213.5
319.441	225.5
319.67	215.5
319.9	255.5
320.129	241.5
320.358	205.5
320.587	202.5
320.816	207.5
321.046	258.5
321.275	271.5
321.504	262.5
321.733	278.5
321.962	245.5
322.191	234.5
322.42	255.5
322.649	234.5
322.878	264.5
323.108	255.5
323.337	222.5
323.566	229.5
323.795	217.5
324.024	219.5
324.253	225.5
324.482	208.5
324.71	226.5
324.939	250.5
325.168	206.5
325.397	204.5
325.626	211.5
325.855	199.5
326.084	196.5
326.313	200.5
326.542	184.5
326.77	196.5
326.999	208.5
327.228	191.5
327.457	199.5
327.686	210.5
327.914	202.5
328.143	187.5
328.372	185.5
328.6	172.5
328.829	186.5
329.058	193.5
329.287	212.5
329.515	186.5
329.744	205.5
329.972	181.5
330.201	183.5
330.43	187.5
330.658	220.5
330.887	225.5
331.115	216.5
331.344	217.5
331.572	215.5
331.801	212.5
332.03	199.5
332.258	182.5
332.486	217.5
332.715	218.5
332.943	212.5
333.172	215.5
333.4	204.5
333.629	207.5
333.857	243.5
334.085	239.5
334.314	234.5
334.542	228.5
334.771	207.5
334.999	191.5
335.227	224.5
335.455	204.5
335.684	213.5
335.912	241.5
336.14	266.5
336.369	257.5
336.597	267.5
336.825	285.5
337.053	330.5
337.281	271.5
337.51	205.5
337.738	212.5
337.966	212.5
338.194	229.5
338.422	231.5
338.65	207.5
338.878	188.5
339.106	195.5
339.334	203.5
339.562	223.5
339.79	219.5
340.018	197.5
340.246	225.5
340.474	246.5
340.702	251.5
340.93	275.5
341.158	274.5
341.386	234.5
341.614	234.5
341.842	219.5
342.07	242.5
342.298	281.5
342.526	291.5
342.754	244.5
342.981	227.5
343.209	224.5
343.437	245.5
343.665	255.5
343.893	256.5
344.12	281.5
344.348	337.5
344.576	300.5
344.804	247.5
345.031	219.5
345.259	211.5
345.487	205.5
345.714	208.5
345.942	217.5
346.17	246.5
346.397	241.5
346.625	209.5
346.853	205.5
347.08	195.5
347.308	195.5
347.535	232.5
347.763	253.5
347.99	206.5
348.218	201.5
348.445	232.5
348.673	212.5
348.9	210.5
349.128	226.5
349.355	213.5
349.583	214.5
349.81	208.5
350.037	222.5
350.265	181.5
350.492	155.5
350.72	177.5
350.947	175.5
351.174	194.5
351.402	220.5
351.629	205.5
351.856	187.5
352.083	183.5
352.311	213.5
352.538	226.5
352.765	239.5
352.992	222.5
353.22	232.5
353.447	222.5
353.674	216.5
353.901	220.5
354.128	204.5
354.355	211.5
354.583	217.5
354.81	200.5
355.037	233.5
355.264	211.5
355.491	225.5
355.718	231.5
355.945	249.5
356.172	225.5
356.399	236.5
356.626	260.5
356.853	300.5
357.08	338.5
357.307	338.5
357.534	290.5
357.761	266.5
357.988	341.5
358.215	379.5
358.441	352.5
358.668	320.5
358.895	292.5
359.122	245.5
359.349	243.5
359.576	270.5
359.802	234.5
360.029	200.5
360.256	215.5
360.483	257.5
360.709	291.5
360.936	304.5
361.163	265.5
361.39	227.5
361.616	214.5
361.843	232.5
362.07	273.5
362.296	273.5
362.523	231.5
362.749	192.5
362.976	185.5
363.203	233.5
363.429	263.5
363.656	227.5
363.882	210.5
364.109	211.5
364.335	211.5
364.562	209.5
364.788	217.5
365.015	271.5
365.241	248.5
365.468	208.5
365.694	190.5
365.92	195.5
366.147	155.5
366.373	168.5
366.599	175.5
366.826	188.5
367.052	177.5
367.278	196.5
367.505	182.5
367.731	187.5
367.957	212.5
368.184	230.5
368.41	208.5
368.636	202.5
368.862	211.5
369.089	223.5
369.315	202.5
369.541	191.5
369.767	189.5
369.993	181.5
370.219	187.5
370.445	179.5
370.672	215.5
370.898	221.5
371.124	234.5
371.35	203.5
371.576	194.5
371.802	211.5
372.028	229.5
372.254	241.5
372.48	223.5
372.706	192.5
372.932	227.5
373.158	223.5
373.384	259.5
373.61	313.5
373.835	330.5
374.061	247.5
374.287	239.5
374.513	270.5
374.739	317.5
374.965	300.5
375.191	297.5
375.416	246.5
375.642	214.5
375.868	242.5
376.094	273.5
376.319	232.5
376.545	243.5
376.771	249.5
376.997	218.5
377.222	175.5
377.448	185.5
377.674	172.5
377.899	180.5
378.125	181.5
378.35	176.5
378.576	163.5
378.802	181.5
379.027	205.5
379.253	205.5
379.478	187.5
379.704	211.5
379.929	237.5
380.155	227.5
380.38	226.5
380.606	214.5
380.831	242.5
381.057	219.5
381.282	209.5
381.507	217.5
381.733	261.5
381.958	271.5
382.184	307.5
382.409	313.5
382.634	314.5
382.86	315.5
383.085	272.5
383.31	231.5
383.535	241.5
383.761	239.5
383.986	234.5
384.211	283.5
384.436	280.5
384.662	217.5
384.887	217.5
385.112	186.5
385.337	226.5
385.562	224.5
385.787	228.5
386.013	277.5
386.238	245.5
386.463	222.5
386.688	212.5
386.913	192.5
387.138	190.5
387.363	198.5
387.588	205.5
387.813	207.5
388.038	235.5
388.263	223.5
388.488	206.5
388.713	225.5
388.938	252.5
389.163	239.5
389.387	209.5
389.612	188.5
389.837	215.5
390.062	217.5
390.287	202.5
390.512	209.5
390.736	197.5
390.961	189.5
391.186	187.5
391.411	192.5
391.636	196.5
391.86	198.5
392.085	217.5
392.31	240.5
392.534	197.5
392.759	204.5
392.984	217.5
393.208	205.5
393.433	202.5
393.658	190.5
393.882	163.5
394.107	165.5
394.331	197.5
394.556	173.5
394.78	172.5
395.005	187.5
395.229	179.5
395.454	192.5
395.678	180.5
395.903	197.5
396.127	188.5
396.352	194.5
396.576	209.5
396.801	221.5
397.025	241.5
397.249	236.5
397.474	202.5
397.698	205.5
397.922	225.5
398.147	198.5
398.371	217.5
398.595	215.5
398.82	198.5
399.044	207.5
399.268	223.5
399.492	248.5
399.717	237.5
399.941	212.5
400.165	235.5
400.389	222.5
400.613	225.5
400.837	230.5
401.062	193.5
401.286	186.5
401.51	202.5
401.734	209.5
401.958	213.5
402.182	203.5
402.406	211.5
402.63	192.5
402.854	199.5
403.078	242.5
403.302	295.5
403.526	309.5
403.75	281.5
403.974	230.5
404.198	259.5
404.422	277.5
404.645	279.5
404.869	312.5
405.093	244.5
405.317	213.5
405.541	215.5
405.765	224.5
405.988	209.5
406.212	218.5
406.436	275.5
406.66	274.5
406.883	236.5
407.107	237.5
407.331	264.5
407.555	260.5
407.778	228.5
408.002	230.5
408.226	239.5
408.449	219.5
408.673	242.5
408.896	202.5
409.12	210.5
409.344	198.5
409.567	177.5
409.791	199.5
410.014	184.5
410.238	198.5
410.461	201.5
410.685	202.5
410.908	199.5
411.132	197.5
411.355	196.5
411.578	202.5
411.802	211.5
412.025	209.5
412.249	207.5
412.472	193.5
412.695	205.5
412.919	218.5
413.142	212.5
413.365	217.5
413.589	220.5
413.812	213.5
414.035	201.5
414.258	202.5
414.482	224.5
414.705	227.5
414.928	213.5
415.151	201.5
415.374	194.5
415.597	204.5
415.821	202.5
416.044	203.5
416.267	191.5
416.49	186.5
416.713	190.5
416.936	188.5
417.159	200.5
417.382	196.5
417.605	190.5
417.828	197.5
418.051	195.5
418.274	206.5
418.497	208.5
418.72	202.5
418.943	212.5
419.166	214.5
419.389	213.5
419.611	231.5
419.834	228.5
420.057	230.5
420.28	233.5
420.503	217.5
420.726	196.5
420.948	188.5
421.171	207.5
421.394	188.5
421.617	189.5
421.839	185.5
422.062	211.5
422.285	201.5
422.507	188.5
422.73	219.5
422.953	213.5
423.175	205.5
423.398	208.5
423.621	234.5
423.843	245.5
424.066	208.5
424.288	190.5
424.511	202.5
424.733	198.5
424.956	199.5
425.178	212.5
425.401	257.5
425.623	266.5
425.846	259.5
426.068	227.5
426.291	255.5
426.513	211.5
426.735	189.5
426.958	226.5
427.18	237.5
427.402	296.5
427.625	293.5
427.847	266.5
428.069	213.5
428.292	198.5
428.514	199.5
428.736	183.5
428.958	220.5
429.181	249.5
429.403	225.5
429.625	210.5
429.847	189.5
430.069	201.5
430.292	203.5
430.514	182.5
430.736	184.5
430.958	239.5
431.18	236.5
431.402	181.5
431.624	166.5
431.846	176.5
432.068	196.5
432.29	178.5
432.512	186.5
432.734	246.5
432.956	255.5
433.178	195.5
433.4	181.5
433.622	192.5
433.844	196.5
434.066	228.5
434.287	205.5
434.509	196.5
434.731	214.5
434.953	205.5
435.175	209.5
435.397	225.5
435.618	199.5
435.84	193.5
436.062	197.5
436.284	175.5
436.505	175.5
436.727	182.5
436.949	184.5
437.17	198.5
437.392	193.5
437.614	185.5
437.835	183.5
438.057	181.5
438.278	212.5
438.5	269.5
438.721	285.5
438.943	200.5
439.165	181.5
439.386	177.5
439.608	192.5
439.829	172.5
440.05	183.5
440.272	191.5
440.493	204.5
440.715	245.5
440.936	207.5
441.158	179.5
441.379	189.5
441.6	217.5
441.822	204.5
442.043	187.5
442.264	203.5
442.486	176.5
442.707	205.5
442.928	195.5
443.149	193.5
443.371	196.5
443.592	204.5
443.813	188.5
444.034	195.5
444.255	193.5
444.476	206.5
444.698	197.5
444.919	216.5
445.14	330.5
445.361	280.5
445.582	213.5
445.803	226.5
446.024	202.5
446.245	205.5
446.466	211.5
446.687	191.5
446.908	206.5
447.129	183.5
447.35	187.5
447.571	185.5
447.792	172.5
448.013	188.5
448.234	175.5
448.455	187.5
448.675	195.5
448.896	182.5
449.117	168.5
449.338	189.5
449.559	174.5
449.779	202.5
450	201.5
450.221	195.5
450.442	181.5
450.662	187.5
450.883	170.5
451.104	168.5
451.324	180.5
451.545	173.5
451.766	185.5
451.986	173.5
452.207	163.5
452.428	175.5
452.648	180.5
452.869	178.5
453.089	195.5
453.31	193.5
453.53	157.5
453.751	187.5
453.971	168.5
454.192	177.5
454.412	169.5
454.633	185.5
454.853	183.5
455.073	181.5
455.294	159.5
455.514	157.5
455.734	175.5
455.955	179.5
456.175	194.5
456.395	168.5
456.616	152.5
456.836	178.5
457.056	185.5
457.276	146.5
457.497	161.5
457.717	163.5
457.937	165.5
458.157	153.5
458.377	170.5
458.598	180.5
458.818	181.5
459.038	192.5
459.258	172.5
459.478	189.5
459.698	203.5
459.918	208.5
460.138	201.5
460.358	208.5
460.578	213.5
460.798	188.5
461.018	212.5
461.238	203.5
461.458	200.5
461.678	197.5
461.898	219.5
462.118	215.5
462.338	203.5
462.558	220.5
462.777	236.5
462.997	230.5
463.217	229.5
463.437	229.5
463.657	223.5
463.876	222.5
464.096	223.5
464.316	211.5
464.536	215.5
464.755	223.5
464.975	223.5
465.195	192.5
465.414	226.5
465.634	219.5
465.854	214.5
466.073	201.5
466.293	181.5
466.512	217.5
466.732	217.5
466.951	216.5
467.171	191.5
467.391	187.5
467.61	171.5
467.829	204.5
468.049	206.5
468.268	181.5
468.488	179.5
468.707	193.5
468.927	226.5
469.146	227.5
469.365	201.5
469.585	199.5
469.804	200.5
470.023	220.5
470.243	211.5
470.462	199.5
470.681	191.5
470.901	190.5
471.12	216.5
471.339	196.5
471.558	191.5
471.777	208.5
471.997	210.5
472.216	231.5
472.435	216.5
472.654	204.5
472.873	206.5
473.092	216.5
473.311	216.5
473.53	204.5
473.749	192.5
473.968	214.5
474.187	189.5
474.406	224.5
474.625	197.5
474.844	202.5
475.063	209.5
475.282	228.5
475.501	226.5
475.72	237.5
475.939	225.5
476.158	218.5
476.377	264.5
476.596	300.5
476.814	292.5
477.033	267.5
477.252	228.5
477.471	217.5
477.69	201.5
477.908	222.5
478.127	238.5
478.346	230.5
478.564	248.5
478.783	235.5
479.002	226.5
479.22	257.5
479.439	266.5
479.658	231.5
479.876	228.5
480.095	236.5
480.313	265.5
480.532	244.5
480.751	227.5
480.969	216.5
481.188	248.5
481.406	255.5
481.624	259.5
481.843	224.5
482.061	219.5
482.28	243.5
482.498	299.5
482.717	305.5
482.935	253.5
483.153	226.5
483.372	214.5
483.59	227.5
483.808	215.5
484.027	209.5
484.245	203.5
484.463	201.5
484.681	226.5
484.9	218.5
485.118	232.5
485.336	227.5
485.554	203.5
485.772	212.5
485.99	228.5
486.209	248.5
486.427	253.5
486.645	232.5
486.863	227.5
487.081	240.5
487.299	268.5
487.517	269.5
487.735	235.5
487.953	252.5
488.171	248.5
488.389	240.5
488.607	217.5
488.825	258.5
489.043	260.5
489.261	276.5
489.479	312.5
489.696	250.5
489.914	230.5
490.132	227.5
490.35	229.5
490.568	216.5
490.786	216.5
491.003	231.5
491.221	214.5
491.439	224.5
491.657	217.5
491.874	249.5
492.092	302.5
492.31	348.5
492.527	347.5
492.745	297.5
492.963	257.5
493.18	243.5
493.398	256.5
493.615	272.5
493.833	260.5
494.05	248.5
494.268	253.5
494.485	245.5
494.703	245.5
494.92	245.5
495.138	236.5
495.355	224.5
495.573	247.5
495.79	270.5
496.008	374.5
496.225	297.5
496.442	252.5
496.66	264.5
496.877	263.5
497.094	266.5
497.312	250.5
497.529	259.5
497.746	262.5
497.963	252.5
498.181	275.5
498.398	301.5
498.615	309.5
498.832	343.5
499.049	311.5
499.267	327.5
499.484	318.5
499.701	335.5
499.918	373.5
500.135	385.5
500.352	408.5
500.569	423.5
500.786	439.5
501.003	421.5
501.22	382.5
501.437	344.5
501.654	345.5
501.871	324.5
502.088	330.5
502.305	303.5
502.522	308.5
502.739	307.5
502.956	271.5
503.172	293.5
503.389	273.5
503.606	258.5
503.823	266.5
504.04	280.5
504.256	276.5
504.473	264.5
504.69	273.5
504.907	269.5
505.123	282.5
505.34	286.5
505.557	264.5
505.773	278.5
505.99	255.5
506.207	275.5
506.423	266.5
506.64	241.5
506.856	260.5
507.073	282.5
507.289	274.5
507.506	272.5
507.722	295.5
507.939	279.5
508.155	283.5
508.372	258.5
508.588	261.5
508.805	253.5
509.021	234.5
509.238	217.5
509.454	241.5
509.67	250.5
509.887	260.5
510.103	268.5
510.319	266.5
510.536	241.5
510.752	232.5
510.968	220.5
511.184	214.5
511.401	213.5
511.617	226.5
511.833	214.5
512.049	226.5
512.265	224.5
512.481	221.5
512.698	241.5
512.914	269.5
513.13	235.5
513.346	236.5
513.562	244.5
513.778	251.5
513.994	238.5
514.21	267.5
514.426	236.5
514.642	239.5
514.858	225.5
515.074	234.5
515.29	258.5
515.506	289.5
515.721	278.5
515.937	259.5
516.153	247.5
516.369	222.5
516.585	265.5
516.801	266.5
517.016	325.5
517.232	311.5
517.448	310.5
517.664	288.5
517.879	268.5
518.095	255.5
518.311	269.5
518.527	262.5
518.742	290.5
518.958	284.5
519.173	291.5
519.389	270.5
519.605	292.5
519.82	295.5
520.036	328.5
520.251	339.5
520.467	326.5
520.682	491.5
