Data from NickelSpatula_HRD10591_16-34-53-125.txt Node
Date: Mon Jul 22 16:34:53 EDT 2019
User: cochatt
Spectrometer: HR+D1059
Trigger mode: 1
Integration Time (sec): 1.000000E-1
Scans to average: 1
Electric dark correction enabled: true
Nonlinearity correction enabled: false
Boxcar width: 0
XAxis mode: Wavelengths
Number of Pixels in Spectrum: 2048
>>>>>Begin Spectral Data<<<<<
223.165	-20.69
223.4	-20.69
223.635	-20.69
223.869	-22.69
224.104	-18.69
224.338	-10.69
224.573	-21.69
224.808	-3.69
225.042	-8.69
225.277	-10.69
225.511	7.31
225.746	13.31
225.98	0.31
226.215	1.31
226.449	12.31
226.683	21.31
226.918	22.31
227.152	39.31
227.387	31.31
227.621	45.31
227.856	45.31
228.09	54.31
228.324	49.31
228.559	59.31
228.793	53.31
229.027	72.31
229.262	79.31
229.496	90.31
229.73	68.31
229.964	77.31
230.199	91.31
230.433	98.31
230.667	81.31
230.901	91.31
231.136	94.31
231.37	88.31
231.604	91.31
231.838	114.31
232.072	101.31
232.306	105.31
232.541	109.31
232.775	100.31
233.009	109.31
233.243	110.31
233.477	125.31
233.711	129.31
233.945	121.31
234.179	126.31
234.413	131.31
234.647	117.31
234.881	141.31
235.115	140.31
235.349	131.31
235.583	102.31
235.817	117.31
236.051	121.31
236.285	125.31
236.519	130.31
236.753	138.31
236.987	122.31
237.221	128.31
237.455	133.31
237.689	138.31
237.922	135.31
238.156	129.31
238.39	132.31
238.624	173.31
238.858	155.31
239.091	150.31
239.325	156.31
239.559	149.31
239.793	133.31
240.027	166.31
240.26	156.31
240.494	137.31
240.728	154.31
240.961	166.31
241.195	175.31
241.429	160.31
241.662	153.31
241.896	153.31
242.13	133.31
242.363	149.31
242.597	132.31
242.83	156.31
243.064	149.31
243.298	171.31
243.531	179.31
243.765	174.31
243.998	166.31
244.232	170.31
244.465	152.31
244.699	153.31
244.932	162.31
245.166	159.31
245.399	161.31
245.633	149.31
245.866	159.31
246.099	163.31
246.333	181.31
246.566	193.31
246.8	178.31
247.033	187.31
247.266	169.31
247.5	179.31
247.733	200.31
247.966	179.31
248.2	155.31
248.433	168.31
248.666	187.31
248.899	200.31
249.133	185.31
249.366	227.31
249.599	234.31
249.832	210.31
250.066	201.31
250.299	207.31
250.532	202.31
250.765	203.31
250.998	181.31
251.231	172.31
251.465	182.31
251.698	197.31
251.931	198.31
252.164	204.31
252.397	229.31
252.63	243.31
252.863	264.31
253.096	255.31
253.329	249.31
253.562	248.31
253.795	273.31
254.028	299.31
254.261	288.31
254.494	263.31
254.727	255.31
254.96	256.31
255.193	269.31
255.426	245.31
255.659	194.31
255.892	195.31
256.124	195.31
256.357	233.31
256.59	267.31
256.823	255.31
257.056	214.31
257.289	224.31
257.521	230.31
257.754	255.31
257.987	281.31
258.22	251.31
258.452	233.31
258.685	240.31
258.918	272.31
259.151	264.31
259.383	282.31
259.616	314.31
259.849	319.31
260.081	331.31
260.314	357.31
260.547	300.31
260.779	299.31
261.012	338.31
261.244	335.31
261.477	318.31
261.71	318.31
261.942	286.31
262.175	295.31
262.407	282.31
262.64	279.31
262.872	305.31
263.105	332.31
263.337	347.31
263.57	314.31
263.802	229.31
264.035	205.31
264.267	217.31
264.499	190.31
264.732	182.31
264.964	172.31
265.197	174.31
265.429	186.31
265.661	196.31
265.894	200.31
266.126	215.31
266.358	229.31
266.591	265.31
266.823	314.31
267.055	292.31
267.287	286.31
267.52	279.31
267.752	284.31
267.984	319.31
268.216	312.31
268.448	274.31
268.681	253.31
268.913	274.31
269.145	275.31
269.377	298.31
269.609	281.31
269.841	273.31
270.073	293.31
270.306	312.31
270.538	318.31
270.77	311.31
271.002	322.31
271.234	319.31
271.466	299.31
271.698	302.31
271.93	289.31
272.162	293.31
272.394	278.31
272.626	285.31
272.858	294.31
273.09	299.31
273.322	273.31
273.553	270.31
273.785	292.31
274.017	329.31
274.249	433.31
274.481	443.31
274.713	479.31
274.945	549.31
275.176	552.31
275.408	522.31
275.64	483.31
275.872	475.31
276.104	428.31
276.335	380.31
276.567	380.31
276.799	383.31
277.031	407.31
277.262	340.31
277.494	269.31
277.726	244.31
277.957	270.31
278.189	313.31
278.421	291.31
278.652	297.31
278.884	291.31
279.115	279.31
279.347	261.31
279.579	271.31
279.81	285.31
280.042	271.31
280.273	281.31
280.505	260.31
280.736	234.31
280.968	234.31
281.199	229.31
281.431	277.31
281.662	262.31
281.894	256.31
282.125	266.31
282.356	291.31
282.588	295.31
282.819	277.31
283.051	286.31
283.282	351.31
283.513	383.31
283.745	421.31
283.976	422.31
284.207	381.31
284.439	413.31
284.67	399.31
284.901	351.31
285.132	372.31
285.364	419.31
285.595	374.31
285.826	391.31
286.057	398.31
286.288	389.31
286.52	408.31
286.751	426.31
286.982	421.31
287.213	353.31
287.444	352.31
287.675	365.31
287.906	371.31
288.138	323.31
288.369	276.31
288.6	269.31
288.831	290.31
289.062	337.31
289.293	371.31
289.524	339.31
289.755	334.31
289.986	344.31
290.217	290.31
290.448	247.31
290.679	223.31
290.91	193.31
291.141	203.31
291.371	208.31
291.602	219.31
291.833	205.31
292.064	234.31
292.295	266.31
292.526	281.31
292.757	313.31
292.987	321.31
293.218	327.31
293.449	330.31
293.68	357.31
293.91	333.31
294.141	355.31
294.372	338.31
294.603	289.31
294.833	314.31
295.064	354.31
295.295	355.31
295.525	273.31
295.756	241.31
295.987	222.31
296.217	205.31
296.448	228.31
296.679	230.31
296.909	246.31
297.14	266.31
297.37	293.31
297.601	289.31
297.831	253.31
298.062	257.31
298.292	287.31
298.523	309.31
298.753	329.31
298.984	329.31
299.214	268.31
299.445	227.31
299.675	217.31
299.905	220.31
300.136	230.31
300.366	234.31
300.597	228.31
300.827	210.31
301.057	216.31
301.288	211.31
301.518	230.31
301.748	260.31
301.979	266.31
302.209	281.31
302.439	274.31
302.669	259.31
302.9	266.31
303.13	242.31
303.36	244.31
303.59	226.31
303.82	236.31
304.051	256.31
304.281	273.31
304.511	270.31
304.741	261.31
304.971	245.31
305.201	264.31
305.431	258.31
305.661	251.31
305.891	238.31
306.121	205.31
306.352	198.31
306.582	184.31
306.812	190.31
307.042	188.31
307.272	187.31
307.502	168.31
307.731	197.31
307.961	193.31
308.191	177.31
308.421	183.31
308.651	191.31
308.881	179.31
309.111	190.31
309.341	174.31
309.571	198.31
309.8	185.31
310.03	184.31
310.26	213.31
310.49	200.31
310.72	175.31
310.949	190.31
311.179	199.31
311.409	204.31
311.639	222.31
311.868	278.31
312.098	357.31
312.328	383.31
312.557	362.31
312.787	363.31
313.017	332.31
313.246	362.31
313.476	368.31
313.706	321.31
313.935	255.31
314.165	225.31
314.394	218.31
314.624	198.31
314.853	213.31
315.083	243.31
315.312	219.31
315.542	203.31
315.771	198.31
316.001	170.31
316.23	174.31
316.46	186.31
316.689	185.31
316.919	185.31
317.148	177.31
317.377	204.31
317.607	185.31
317.836	207.31
318.065	197.31
318.295	242.31
318.524	231.31
318.753	213.31
318.983	211.31
319.212	208.31
319.441	204.31
319.67	222.31
319.9	226.31
320.129	226.31
320.358	196.31
320.587	195.31
320.816	228.31
321.046	229.31
321.275	267.31
321.504	245.31
321.733	250.31
321.962	237.31
322.191	220.31
322.42	219.31
322.649	222.31
322.878	250.31
323.108	250.31
323.337	229.31
323.566	228.31
323.795	244.31
324.024	218.31
324.253	204.31
324.482	219.31
324.71	225.31
324.939	232.31
325.168	233.31
325.397	203.31
325.626	193.31
325.855	203.31
326.084	191.31
326.313	189.31
326.542	169.31
326.77	201.31
326.999	190.31
327.228	202.31
327.457	213.31
327.686	200.31
327.914	200.31
328.143	170.31
328.372	184.31
328.6	177.31
328.829	190.31
329.058	197.31
329.287	182.31
329.515	186.31
329.744	204.31
329.972	175.31
330.201	153.31
330.43	189.31
330.658	199.31
330.887	207.31
331.115	227.31
331.344	197.31
331.572	210.31
331.801	193.31
332.03	169.31
332.258	195.31
332.486	193.31
332.715	203.31
332.943	181.31
333.172	195.31
333.4	198.31
333.629	211.31
333.857	247.31
334.085	231.31
334.314	219.31
334.542	210.31
334.771	199.31
334.999	193.31
335.227	204.31
335.455	182.31
335.684	200.31
335.912	223.31
336.14	259.31
336.369	269.31
336.597	250.31
336.825	278.31
337.053	289.31
337.281	237.31
337.51	209.31
337.738	203.31
337.966	214.31
338.194	243.31
338.422	216.31
338.65	207.31
338.878	171.31
339.106	181.31
339.334	206.31
339.562	219.31
339.79	204.31
340.018	189.31
340.246	205.31
340.474	242.31
340.702	259.31
340.93	258.31
341.158	259.31
341.386	218.31
341.614	201.31
341.842	210.31
342.07	227.31
342.298	247.31
342.526	275.31
342.754	224.31
342.981	219.31
343.209	197.31
343.437	219.31
343.665	233.31
343.893	247.31
344.12	275.31
344.348	309.31
344.576	278.31
344.804	257.31
345.031	211.31
345.259	197.31
345.487	190.31
345.714	197.31
345.942	210.31
346.17	239.31
346.397	231.31
346.625	207.31
346.853	196.31
347.08	204.31
347.308	212.31
347.535	226.31
347.763	233.31
347.99	212.31
348.218	194.31
348.445	187.31
348.673	186.31
348.9	191.31
349.128	210.31
349.355	198.31
349.583	197.31
349.81	198.31
350.037	199.31
350.265	182.31
350.492	169.31
350.72	170.31
350.947	167.31
351.174	184.31
351.402	191.31
351.629	192.31
351.856	183.31
352.083	171.31
352.311	190.31
352.538	199.31
352.765	228.31
352.992	200.31
353.22	207.31
353.447	220.31
353.674	222.31
353.901	193.31
354.128	214.31
354.355	200.31
354.583	207.31
354.81	212.31
355.037	234.31
355.264	210.31
355.491	214.31
355.718	233.31
355.945	217.31
356.172	203.31
356.399	218.31
356.626	243.31
356.853	304.31
357.08	338.31
357.307	332.31
357.534	265.31
357.761	274.31
357.988	308.31
358.215	345.31
358.441	338.31
358.668	325.31
358.895	281.31
359.122	241.31
359.349	223.31
359.576	260.31
359.802	227.31
360.029	204.31
360.256	220.31
360.483	205.31
360.709	298.31
360.936	319.31
361.163	255.31
361.39	210.31
361.616	211.31
361.843	238.31
362.07	259.31
362.296	255.31
362.523	213.31
362.749	182.31
362.976	197.31
363.203	218.31
363.429	248.31
363.656	224.31
363.882	195.31
364.109	205.31
364.335	203.31
364.562	189.31
364.788	221.31
365.015	244.31
365.241	234.31
365.468	191.31
365.694	199.31
365.92	177.31
366.147	173.31
366.373	174.31
366.599	174.31
366.826	169.31
367.052	168.31
367.278	175.31
367.505	169.31
367.731	190.31
367.957	199.31
368.184	216.31
368.41	190.31
368.636	207.31
368.862	226.31
369.089	206.31
369.315	193.31
369.541	186.31
369.767	189.31
369.993	164.31
370.219	197.31
370.445	185.31
370.672	197.31
370.898	206.31
371.124	223.31
371.35	182.31
371.576	184.31
371.802	193.31
372.028	231.31
372.254	246.31
372.48	216.31
372.706	181.31
372.932	211.31
373.158	201.31
373.384	229.31
373.61	299.31
373.835	309.31
374.061	244.31
374.287	198.31
374.513	249.31
374.739	285.31
374.965	308.31
375.191	289.31
375.416	225.31
375.642	205.31
375.868	215.31
376.094	237.31
376.319	211.31
376.545	237.31
376.771	250.31
376.997	211.31
377.222	181.31
377.448	167.31
377.674	174.31
377.899	181.31
378.125	149.31
378.35	180.31
378.576	179.31
378.802	165.31
379.027	188.31
379.253	199.31
379.478	199.31
379.704	214.31
379.929	228.31
380.155	219.31
380.38	202.31
380.606	180.31
380.831	227.31
381.057	205.31
381.282	197.31
381.507	228.31
381.733	253.31
381.958	284.31
382.184	282.31
382.409	284.31
382.634	300.31
382.86	308.31
383.085	273.31
383.31	227.31
383.535	243.31
383.761	234.31
383.986	225.31
384.211	263.31
384.436	281.31
384.662	219.31
384.887	197.31
385.112	211.31
385.337	215.31
385.562	199.31
385.787	217.31
386.013	246.31
386.238	243.31
386.463	218.31
386.688	202.31
386.913	199.31
387.138	179.31
387.363	205.31
387.588	173.31
387.813	195.31
388.038	220.31
388.263	204.31
388.488	201.31
388.713	231.31
388.938	220.31
389.163	230.31
389.387	187.31
389.612	199.31
389.837	186.31
390.062	187.31
390.287	210.31
390.512	202.31
390.736	191.31
390.961	174.31
391.186	179.31
391.411	179.31
391.636	192.31
391.86	212.31
392.085	219.31
392.31	203.31
392.534	218.31
392.759	193.31
392.984	203.31
393.208	230.31
393.433	204.31
393.658	185.31
393.882	173.31
394.107	180.31
394.331	172.31
394.556	163.31
394.78	171.31
395.005	152.31
395.229	181.31
395.454	192.31
395.678	176.31
395.903	191.31
396.127	200.31
396.352	198.31
396.576	207.31
396.801	211.31
397.025	238.31
397.249	235.31
397.474	186.31
397.698	190.31
397.922	204.31
398.147	190.31
398.371	195.31
398.595	216.31
398.82	204.31
399.044	202.31
399.268	214.31
399.492	228.31
399.717	238.31
399.941	203.31
400.165	217.31
400.389	205.31
400.613	216.31
400.837	208.31
401.062	201.31
401.286	191.31
401.51	193.31
401.734	194.31
401.958	194.31
402.182	191.31
402.406	181.31
402.63	193.31
402.854	187.31
403.078	221.31
403.302	293.31
403.526	314.31
403.75	298.31
403.974	229.31
404.198	226.31
404.422	275.31
404.645	269.31
404.869	289.31
405.093	244.31
405.317	203.31
405.541	207.31
405.765	212.31
405.988	227.31
406.212	222.31
406.436	256.31
406.66	267.31
406.883	234.31
407.107	210.31
407.331	260.31
407.555	262.31
407.778	240.31
408.002	234.31
408.226	233.31
408.449	233.31
408.673	232.31
408.896	210.31
409.12	198.31
409.344	197.31
409.567	182.31
409.791	203.31
410.014	198.31
410.238	190.31
410.461	185.31
410.685	188.31
410.908	193.31
411.132	183.31
411.355	219.31
411.578	208.31
411.802	206.31
412.025	189.31
412.249	209.31
412.472	197.31
412.695	198.31
412.919	190.31
413.142	196.31
413.365	211.31
413.589	221.31
413.812	195.31
414.035	195.31
414.258	206.31
414.482	212.31
414.705	218.31
414.928	186.31
415.151	187.31
415.374	206.31
415.597	185.31
415.821	202.31
416.044	167.31
416.267	175.31
416.49	178.31
416.713	189.31
416.936	164.31
417.159	188.31
417.382	193.31
417.605	182.31
417.828	202.31
418.051	195.31
418.274	191.31
418.497	209.31
418.72	190.31
418.943	207.31
419.166	210.31
419.389	211.31
419.611	206.31
419.834	237.31
420.057	238.31
420.28	237.31
420.503	213.31
420.726	192.31
420.948	178.31
421.171	201.31
421.394	201.31
421.617	183.31
421.839	180.31
422.062	193.31
422.285	193.31
422.507	181.31
422.73	209.31
422.953	213.31
423.175	196.31
423.398	218.31
423.621	216.31
423.843	225.31
424.066	214.31
424.288	214.31
424.511	201.31
424.733	182.31
424.956	193.31
425.178	221.31
425.401	239.31
425.623	299.31
425.846	252.31
426.068	222.31
426.291	242.31
426.513	216.31
426.735	193.31
426.958	204.31
427.18	222.31
427.402	289.31
427.625	312.31
427.847	249.31
428.069	199.31
428.292	215.31
428.514	198.31
428.736	175.31
428.958	197.31
429.181	248.31
429.403	204.31
429.625	201.31
429.847	182.31
430.069	194.31
430.292	191.31
430.514	178.31
430.736	192.31
430.958	233.31
431.18	222.31
431.402	185.31
431.624	185.31
431.846	183.31
432.068	187.31
432.29	178.31
432.512	183.31
432.734	228.31
432.956	210.31
433.178	190.31
433.4	185.31
433.622	180.31
433.844	203.31
434.066	205.31
434.287	197.31
434.509	202.31
434.731	197.31
434.953	184.31
435.175	202.31
435.397	229.31
435.618	181.31
435.84	180.31
436.062	183.31
436.284	193.31
436.505	188.31
436.727	185.31
436.949	165.31
437.17	185.31
437.392	185.31
437.614	188.31
437.835	174.31
438.057	169.31
438.278	196.31
438.5	273.31
438.721	262.31
438.943	185.31
439.165	170.31
439.386	177.31
439.608	181.31
439.829	164.31
440.05	166.31
440.272	182.31
440.493	213.31
440.715	244.31
440.936	212.31
441.158	191.31
441.379	191.31
441.6	215.31
441.822	216.31
442.043	195.31
442.264	167.31
442.486	197.31
442.707	192.31
442.928	197.31
443.149	183.31
443.371	187.31
443.592	181.31
443.813	196.31
444.034	195.31
444.255	194.31
444.476	225.31
444.698	203.31
444.919	193.31
445.14	329.31
445.361	290.31
445.582	221.31
445.803	206.31
446.024	222.31
446.245	213.31
446.466	210.31
446.687	201.31
446.908	179.31
447.129	185.31
447.35	176.31
447.571	169.31
447.792	171.31
448.013	172.31
448.234	157.31
448.455	180.31
448.675	180.31
448.896	182.31
449.117	169.31
449.338	177.31
449.559	189.31
449.779	205.31
450	200.31
450.221	182.31
450.442	185.31
450.662	194.31
450.883	203.31
451.104	166.31
451.324	169.31
451.545	185.31
451.766	185.31
451.986	177.31
452.207	171.31
452.428	167.31
452.648	166.31
452.869	182.31
453.089	198.31
453.31	188.31
453.53	173.31
453.751	172.31
453.971	167.31
454.192	176.31
454.412	190.31
454.633	168.31
454.853	189.31
455.073	162.31
455.294	162.31
455.514	178.31
455.734	181.31
455.955	174.31
456.175	190.31
456.395	169.31
456.616	163.31
456.836	157.31
457.056	171.31
457.276	155.31
457.497	159.31
457.717	172.31
457.937	172.31
458.157	161.31
458.377	159.31
458.598	180.31
458.818	170.31
459.038	173.31
459.258	183.31
459.478	188.31
459.698	191.31
459.918	197.31
460.138	199.31
460.358	201.31
460.578	178.31
460.798	187.31
461.018	188.31
461.238	201.31
461.458	198.31
461.678	201.31
461.898	216.31
462.118	192.31
462.338	207.31
462.558	226.31
462.777	200.31
462.997	218.31
463.217	221.31
463.437	219.31
463.657	216.31
463.876	217.31
464.096	213.31
464.316	205.31
464.536	216.31
464.755	235.31
464.975	224.31
465.195	207.31
465.414	222.31
465.634	201.31
465.854	204.31
466.073	195.31
466.293	205.31
466.512	200.31
466.732	225.31
466.951	235.31
467.171	198.31
467.391	186.31
467.61	180.31
467.829	204.31
468.049	198.31
468.268	188.31
468.488	187.31
468.707	187.31
468.927	220.31
469.146	231.31
469.365	207.31
469.585	210.31
469.804	199.31
470.023	218.31
470.243	206.31
470.462	195.31
470.681	204.31
470.901	199.31
471.12	212.31
471.339	195.31
471.558	209.31
471.777	191.31
471.997	204.31
472.216	212.31
472.435	214.31
472.654	202.31
472.873	205.31
473.092	221.31
473.311	223.31
473.53	203.31
473.749	210.31
473.968	206.31
474.187	215.31
474.406	181.31
474.625	184.31
474.844	205.31
475.063	214.31
475.282	214.31
475.501	214.31
475.72	264.31
475.939	241.31
476.158	226.31
476.377	263.31
476.596	300.31
476.814	303.31
477.033	261.31
477.252	209.31
477.471	207.31
477.69	211.31
477.908	204.31
478.127	228.31
478.346	219.31
478.564	267.31
478.783	236.31
479.002	225.31
479.22	259.31
479.439	277.31
479.658	237.31
479.876	217.31
480.095	234.31
480.313	245.31
480.532	221.31
480.751	219.31
480.969	228.31
481.188	261.31
481.406	267.31
481.624	247.31
481.843	232.31
482.061	221.31
482.28	241.31
482.498	325.31
482.717	302.31
482.935	257.31
483.153	218.31
483.372	215.31
483.59	212.31
483.808	196.31
484.027	213.31
484.245	204.31
484.463	203.31
484.681	198.31
484.9	218.31
485.118	216.31
485.336	222.31
485.554	227.31
485.772	214.31
485.99	222.31
486.209	246.31
486.427	233.31
486.645	234.31
486.863	251.31
487.081	267.31
487.299	274.31
487.517	268.31
487.735	228.31
487.953	238.31
488.171	262.31
488.389	235.31
488.607	233.31
488.825	232.31
489.043	245.31
489.261	289.31
489.479	302.31
489.696	262.31
489.914	224.31
490.132	228.31
490.35	218.31
490.568	227.31
490.786	198.31
491.003	212.31
491.221	214.31
491.439	229.31
491.657	213.31
491.874	237.31
492.092	284.31
492.31	340.31
492.527	330.31
492.745	275.31
492.963	237.31
493.18	251.31
493.398	253.31
493.615	253.31
493.833	257.31
494.05	250.31
494.268	242.31
494.485	231.31
494.703	248.31
494.92	232.31
495.138	239.31
495.355	229.31
495.573	242.31
495.79	269.31
496.008	363.31
496.225	297.31
496.442	268.31
496.66	239.31
496.877	262.31
497.094	271.31
497.312	257.31
497.529	246.31
497.746	238.31
497.963	250.31
498.181	273.31
498.398	299.31
498.615	309.31
498.832	319.31
499.049	322.31
499.267	292.31
499.484	313.31
499.701	330.31
499.918	343.31
500.135	396.31
500.352	393.31
500.569	399.31
500.786	412.31
501.003	397.31
501.22	364.31
501.437	344.31
501.654	322.31
501.871	283.31
502.088	308.31
502.305	313.31
502.522	279.31
502.739	287.31
