Data from NickelSpatula.Lamp.E5.5.P2_HRD10591_11-54-04-545.txt Node
Date: Tue Jul 23 11:54:04 EDT 2019
User: cochatt
Spectrometer: HR+D1059
Trigger mode: 1
Integration Time (sec): 1.000000E-1
Scans to average: 1
Electric dark correction enabled: true
Nonlinearity correction enabled: false
Boxcar width: 0
XAxis mode: Wavelengths
Number of Pixels in Spectrum: 2048
>>>>>Begin Spectral Data<<<<<
223.165	-25.75
223.4	-25.75
223.635	-25.75
223.869	-12.75
224.104	-16.75
224.338	-27.75
224.573	-18.75
224.808	-10.75
225.042	-20.75
225.277	8.25
225.511	-0.75
225.746	24.25
225.98	10.25
226.215	6.25
226.449	8.25
226.683	15.25
226.918	22.25
227.152	39.25
227.387	43.25
227.621	49.25
227.856	43.25
228.09	51.25
228.324	54.25
228.559	49.25
228.793	70.25
229.027	79.25
229.262	66.25
229.496	69.25
229.73	79.25
229.964	93.25
230.199	97.25
230.433	86.25
230.667	85.25
230.901	91.25
231.136	85.25
231.37	94.25
231.604	104.25
231.838	97.25
232.072	110.25
232.306	104.25
232.541	110.25
232.775	96.25
233.009	108.25
233.243	110.25
233.477	110.25
233.711	125.25
233.945	122.25
234.179	124.25
234.413	136.25
234.647	143.25
234.881	128.25
235.115	123.25
235.349	126.25
235.583	119.25
235.817	120.25
236.051	126.25
236.285	128.25
236.519	131.25
236.753	133.25
236.987	142.25
237.221	115.25
237.455	125.25
237.689	124.25
237.922	137.25
238.156	139.25
238.39	160.25
238.624	172.25
238.858	158.25
239.091	139.25
239.325	150.25
239.559	151.25
239.793	146.25
240.027	171.25
240.26	161.25
240.494	160.25
240.728	157.25
240.961	155.25
241.195	164.25
241.429	161.25
241.662	161.25
241.896	132.25
242.13	126.25
242.363	128.25
242.597	147.25
242.83	156.25
243.064	147.25
243.298	165.25
243.531	158.25
243.765	163.25
243.998	160.25
244.232	161.25
244.465	158.25
244.699	149.25
244.932	169.25
245.166	163.25
245.399	159.25
245.633	154.25
245.866	156.25
246.099	148.25
246.333	182.25
246.566	182.25
246.8	198.25
247.033	191.25
247.266	174.25
247.5	166.25
247.733	162.25
247.966	163.25
248.2	166.25
248.433	178.25
248.666	203.25
248.899	211.25
249.133	182.25
249.366	224.25
249.599	220.25
249.832	223.25
250.066	211.25
250.299	199.25
250.532	189.25
250.765	182.25
250.998	190.25
251.231	172.25
251.465	184.25
251.698	215.25
251.931	187.25
252.164	212.25
252.397	221.25
252.63	227.25
252.863	248.25
253.096	265.25
253.329	260.25
253.562	226.25
253.795	260.25
254.028	286.25
254.261	296.25
254.494	274.25
254.727	249.25
254.96	262.25
255.193	238.25
255.426	254.25
255.659	208.25
255.892	181.25
256.124	207.25
256.357	246.25
256.59	254.25
256.823	245.25
257.056	222.25
257.289	214.25
257.521	214.25
257.754	265.25
257.987	281.25
258.22	254.25
258.452	230.25
258.685	258.25
258.918	274.25
259.151	266.25
259.383	285.25
259.616	345.25
259.849	355.25
260.081	361.25
260.314	374.25
260.547	306.25
260.779	307.25
261.012	360.25
261.244	329.25
261.477	350.25
261.71	333.25
261.942	287.25
262.175	273.25
262.407	267.25
262.64	287.25
262.872	312.25
263.105	331.25
263.337	371.25
263.57	335.25
263.802	242.25
264.035	218.25
264.267	224.25
264.499	191.25
264.732	176.25
264.964	180.25
265.197	191.25
265.429	187.25
265.661	195.25
265.894	212.25
266.126	218.25
266.358	239.25
266.591	268.25
266.823	333.25
267.055	279.25
267.287	267.25
267.52	273.25
267.752	299.25
267.984	314.25
268.216	298.25
268.448	257.25
268.681	256.25
268.913	290.25
269.145	296.25
269.377	279.25
269.609	312.25
269.841	275.25
270.073	276.25
270.306	307.25
270.538	323.25
270.77	318.25
271.002	311.25
271.234	323.25
271.466	313.25
271.698	304.25
271.93	303.25
272.162	300.25
272.394	294.25
272.626	279.25
272.858	294.25
273.09	310.25
273.322	276.25
273.553	267.25
273.785	275.25
274.017	392.25
274.249	436.25
274.481	485.25
274.713	495.25
274.945	566.25
275.176	593.25
275.408	528.25
275.64	487.25
275.872	494.25
276.104	440.25
276.335	390.25
276.567	383.25
276.799	407.25
277.031	434.25
277.262	331.25
277.494	250.25
277.726	252.25
277.957	284.25
278.189	300.25
278.421	300.25
278.652	299.25
278.884	291.25
279.115	268.25
279.347	272.25
279.579	276.25
279.81	279.25
280.042	256.25
280.273	287.25
280.505	257.25
280.736	229.25
280.968	228.25
281.199	258.25
281.431	285.25
281.662	296.25
281.894	258.25
282.125	278.25
282.356	286.25
282.588	290.25
282.819	243.25
283.051	260.25
283.282	338.25
283.513	373.25
283.745	438.25
283.976	425.25
284.207	394.25
284.439	396.25
284.67	403.25
284.901	346.25
285.132	382.25
285.364	394.25
285.595	355.25
285.826	372.25
286.057	411.25
286.288	376.25
286.52	386.25
286.751	414.25
286.982	428.25
287.213	353.25
287.444	336.25
287.675	377.25
287.906	356.25
288.138	318.25
288.369	296.25
288.6	272.25
288.831	299.25
289.062	345.25
289.293	354.25
289.524	329.25
289.755	323.25
289.986	346.25
290.217	332.25
290.448	268.25
290.679	226.25
290.91	220.25
291.141	208.25
291.371	220.25
291.602	214.25
291.833	206.25
292.064	219.25
292.295	263.25
292.526	289.25
292.757	304.25
292.987	329.25
293.218	322.25
293.449	334.25
293.68	366.25
293.91	337.25
294.141	361.25
294.372	360.25
294.603	298.25
294.833	324.25
295.064	391.25
295.295	390.25
295.525	307.25
295.756	248.25
295.987	211.25
296.217	235.25
296.448	226.25
296.679	235.25
296.909	258.25
297.14	264.25
297.37	299.25
297.601	280.25
297.831	260.25
298.062	272.25
298.292	292.25
298.523	321.25
298.753	367.25
298.984	340.25
299.214	289.25
299.445	242.25
299.675	220.25
299.905	231.25
300.136	236.25
300.366	255.25
300.597	230.25
300.827	242.25
301.057	226.25
301.288	243.25
301.518	235.25
301.748	270.25
301.979	280.25
302.209	309.25
302.439	310.25
302.669	272.25
302.9	268.25
303.13	262.25
303.36	234.25
303.59	226.25
303.82	252.25
304.051	278.25
304.281	273.25
304.511	290.25
304.741	262.25
304.971	273.25
305.201	277.25
305.431	268.25
305.661	250.25
305.891	246.25
306.121	232.25
306.352	225.25
306.582	196.25
306.812	213.25
307.042	192.25
307.272	187.25
307.502	191.25
307.731	194.25
307.961	214.25
308.191	204.25
308.421	213.25
308.651	203.25
308.881	200.25
309.111	190.25
309.341	196.25
309.571	194.25
309.8	211.25
310.03	186.25
310.26	226.25
310.49	212.25
310.72	193.25
310.949	188.25
311.179	205.25
311.409	205.25
311.639	240.25
311.868	285.25
312.098	360.25
312.328	394.25
312.557	366.25
312.787	380.25
313.017	336.25
313.246	388.25
313.476	408.25
313.706	336.25
313.935	280.25
314.165	245.25
314.394	225.25
314.624	219.25
314.853	227.25
315.083	234.25
315.312	225.25
315.542	216.25
315.771	204.25
316.001	204.25
316.23	188.25
316.46	210.25
316.689	212.25
316.919	200.25
317.148	213.25
317.377	204.25
317.607	194.25
317.836	208.25
318.065	240.25
318.295	254.25
318.524	227.25
318.753	211.25
318.983	203.25
319.212	190.25
319.441	216.25
319.67	232.25
319.9	266.25
320.129	236.25
320.358	217.25
320.587	206.25
320.816	236.25
321.046	236.25
321.275	265.25
321.504	260.25
321.733	252.25
321.962	250.25
322.191	240.25
322.42	232.25
322.649	226.25
322.878	259.25
323.108	245.25
323.337	240.25
323.566	231.25
323.795	227.25
324.024	235.25
324.253	232.25
324.482	223.25
324.71	233.25
324.939	267.25
325.168	240.25
325.397	207.25
325.626	205.25
325.855	206.25
326.084	226.25
326.313	199.25
326.542	212.25
326.77	200.25
326.999	217.25
327.228	206.25
327.457	225.25
327.686	230.25
327.914	212.25
328.143	199.25
328.372	194.25
328.6	203.25
328.829	190.25
329.058	195.25
329.287	215.25
329.515	205.25
329.744	201.25
329.972	192.25
330.201	209.25
330.43	191.25
330.658	222.25
330.887	227.25
331.115	230.25
331.344	231.25
331.572	230.25
331.801	188.25
332.03	204.25
332.258	210.25
332.486	217.25
332.715	240.25
332.943	222.25
333.172	221.25
333.4	234.25
333.629	232.25
333.857	256.25
334.085	264.25
334.314	257.25
334.542	238.25
334.771	228.25
334.999	226.25
335.227	226.25
335.455	210.25
335.684	245.25
335.912	268.25
336.14	292.25
336.369	273.25
336.597	271.25
336.825	289.25
337.053	296.25
337.281	276.25
337.51	228.25
337.738	239.25
337.966	222.25
338.194	254.25
338.422	233.25
338.65	219.25
338.878	201.25
339.106	200.25
339.334	250.25
339.562	232.25
339.79	216.25
340.018	203.25
340.246	226.25
340.474	232.25
340.702	256.25
340.93	267.25
341.158	282.25
341.386	240.25
341.614	238.25
341.842	229.25
342.07	235.25
342.298	273.25
342.526	279.25
342.754	235.25
342.981	243.25
343.209	243.25
343.437	252.25
343.665	262.25
343.893	256.25
344.12	298.25
344.348	340.25
344.576	330.25
344.804	263.25
345.031	222.25
345.259	218.25
345.487	231.25
345.714	234.25
345.942	230.25
346.17	260.25
346.397	245.25
346.625	227.25
346.853	222.25
347.08	232.25
347.308	230.25
347.535	255.25
347.763	258.25
347.99	224.25
348.218	222.25
348.445	222.25
348.673	236.25
348.9	228.25
349.128	241.25
349.355	240.25
349.583	235.25
349.81	225.25
350.037	221.25
350.265	205.25
350.492	185.25
350.72	208.25
350.947	188.25
351.174	211.25
351.402	214.25
351.629	220.25
351.856	206.25
352.083	208.25
352.311	224.25
352.538	224.25
352.765	244.25
352.992	228.25
353.22	219.25
353.447	226.25
353.674	235.25
353.901	217.25
354.128	205.25
354.355	219.25
354.583	227.25
354.81	229.25
355.037	251.25
355.264	224.25
355.491	235.25
355.718	230.25
355.945	254.25
356.172	226.25
356.399	217.25
356.626	288.25
356.853	314.25
357.08	331.25
357.307	339.25
357.534	280.25
357.761	310.25
357.988	358.25
358.215	420.25
358.441	385.25
358.668	318.25
358.895	294.25
359.122	264.25
359.349	275.25
359.576	299.25
359.802	256.25
360.029	224.25
360.256	225.25
360.483	274.25
360.709	336.25
360.936	345.25
361.163	306.25
361.39	239.25
361.616	224.25
361.843	253.25
362.07	294.25
362.296	265.25
362.523	233.25
362.749	203.25
362.976	208.25
363.203	243.25
363.429	262.25
363.656	230.25
363.882	201.25
364.109	218.25
364.335	240.25
364.562	208.25
364.788	217.25
365.015	259.25
365.241	240.25
365.468	224.25
365.694	200.25
365.92	187.25
366.147	191.25
366.373	198.25
366.599	180.25
366.826	197.25
367.052	190.25
367.278	208.25
367.505	202.25
367.731	200.25
367.957	219.25
368.184	235.25
368.41	227.25
368.636	219.25
368.862	238.25
369.089	231.25
369.315	209.25
369.541	220.25
369.767	215.25
369.993	200.25
370.219	200.25
370.445	209.25
370.672	228.25
370.898	240.25
371.124	246.25
371.35	220.25
371.576	230.25
371.802	244.25
372.028	252.25
372.254	302.25
372.48	251.25
372.706	247.25
372.932	245.25
373.158	242.25
373.384	259.25
373.61	341.25
373.835	360.25
374.061	291.25
374.287	239.25
374.513	288.25
374.739	327.25
374.965	359.25
375.191	344.25
375.416	249.25
375.642	241.25
375.868	257.25
376.094	289.25
376.319	228.25
376.545	270.25
376.771	274.25
376.997	243.25
377.222	229.25
377.448	188.25
377.674	183.25
377.899	179.25
378.125	194.25
378.35	197.25
378.576	194.25
378.802	214.25
379.027	207.25
379.253	202.25
379.478	214.25
379.704	239.25
379.929	231.25
380.155	234.25
380.38	230.25
380.606	224.25
380.831	240.25
381.057	254.25
381.282	224.25
381.507	265.25
381.733	302.25
381.958	312.25
382.184	338.25
382.409	342.25
382.634	328.25
382.86	354.25
383.085	304.25
383.31	256.25
383.535	270.25
383.761	269.25
383.986	240.25
384.211	282.25
384.436	295.25
384.662	257.25
384.887	245.25
385.112	252.25
385.337	233.25
385.562	226.25
385.787	271.25
386.013	282.25
386.238	290.25
386.463	250.25
386.688	246.25
386.913	235.25
387.138	214.25
387.363	218.25
387.588	221.25
387.813	217.25
388.038	241.25
388.263	230.25
388.488	242.25
388.713	254.25
388.938	280.25
389.163	212.25
389.387	212.25
389.612	213.25
389.837	213.25
390.062	235.25
390.287	235.25
390.512	224.25
390.736	223.25
390.961	220.25
391.186	214.25
391.411	201.25
391.636	211.25
391.86	225.25
392.085	271.25
392.31	239.25
392.534	214.25
392.759	214.25
392.984	232.25
393.208	220.25
393.433	219.25
393.658	201.25
393.882	197.25
394.107	212.25
394.331	199.25
394.556	217.25
394.78	188.25
395.005	200.25
395.229	200.25
395.454	202.25
395.678	211.25
395.903	225.25
396.127	206.25
396.352	208.25
396.576	215.25
396.801	245.25
397.025	237.25
397.249	255.25
397.474	227.25
397.698	235.25
397.922	230.25
398.147	226.25
398.371	229.25
398.595	235.25
398.82	227.25
399.044	233.25
399.268	276.25
399.492	256.25
399.717	284.25
399.941	281.25
400.165	270.25
400.389	251.25
400.613	243.25
400.837	241.25
401.062	223.25
401.286	230.25
401.51	220.25
401.734	231.25
401.958	232.25
402.182	233.25
402.406	251.25
402.63	235.25
402.854	263.25
403.078	282.25
403.302	345.25
403.526	357.25
403.75	309.25
403.974	260.25
404.198	278.25
404.422	310.25
404.645	314.25
404.869	341.25
405.093	289.25
405.317	256.25
405.541	259.25
405.765	248.25
405.988	243.25
406.212	261.25
406.436	294.25
406.66	314.25
406.883	276.25
407.107	271.25
407.331	323.25
407.555	310.25
407.778	270.25
408.002	251.25
408.226	275.25
408.449	255.25
408.673	257.25
408.896	243.25
409.12	233.25
409.344	235.25
409.567	266.25
409.791	235.25
410.014	252.25
410.238	219.25
410.461	234.25
410.685	224.25
410.908	231.25
411.132	236.25
411.355	259.25
411.578	254.25
411.802	241.25
412.025	235.25
412.249	240.25
412.472	230.25
412.695	230.25
412.919	230.25
413.142	248.25
413.365	242.25
413.589	233.25
413.812	244.25
414.035	236.25
414.258	244.25
414.482	230.25
414.705	250.25
414.928	240.25
415.151	218.25
415.374	208.25
415.597	241.25
415.821	224.25
416.044	250.25
416.267	229.25
416.49	214.25
416.713	241.25
416.936	225.25
417.159	235.25
417.382	213.25
417.605	223.25
417.828	244.25
418.051	219.25
418.274	234.25
418.497	216.25
418.72	231.25
418.943	238.25
419.166	250.25
419.389	257.25
419.611	260.25
419.834	272.25
420.057	255.25
420.28	259.25
420.503	243.25
420.726	232.25
420.948	230.25
421.171	233.25
421.394	222.25
421.617	227.25
421.839	229.25
422.062	227.25
422.285	227.25
422.507	233.25
422.73	238.25
422.953	256.25
423.175	243.25
423.398	250.25
423.621	259.25
423.843	260.25
424.066	245.25
424.288	240.25
424.511	230.25
424.733	236.25
424.956	251.25
425.178	264.25
425.401	314.25
425.623	346.25
425.846	284.25
426.068	253.25
426.291	270.25
426.513	235.25
426.735	228.25
426.958	243.25
427.18	268.25
427.402	325.25
427.625	339.25
427.847	295.25
428.069	222.25
428.292	241.25
428.514	250.25
428.736	228.25
428.958	245.25
429.181	296.25
429.403	249.25
429.625	221.25
429.847	208.25
430.069	226.25
430.292	234.25
430.514	219.25
430.736	246.25
430.958	269.25
431.18	258.25
431.402	211.25
431.624	199.25
431.846	206.25
432.068	215.25
432.29	237.25
432.512	244.25
432.734	285.25
432.956	262.25
433.178	217.25
433.4	199.25
433.622	217.25
433.844	222.25
434.066	233.25
434.287	241.25
434.509	233.25
434.731	246.25
434.953	229.25
435.175	242.25
435.397	266.25
435.618	222.25
435.84	219.25
436.062	205.25
436.284	217.25
436.505	218.25
436.727	202.25
436.949	204.25
437.17	209.25
437.392	217.25
437.614	224.25
437.835	205.25
438.057	216.25
438.278	227.25
438.5	313.25
438.721	316.25
438.943	231.25
439.165	223.25
439.386	204.25
439.608	209.25
439.829	212.25
440.05	211.25
440.272	235.25
440.493	239.25
440.715	290.25
440.936	246.25
441.158	236.25
441.379	218.25
441.6	263.25
441.822	273.25
442.043	234.25
442.264	230.25
442.486	233.25
442.707	213.25
442.928	229.25
443.149	243.25
443.371	223.25
443.592	241.25
443.813	226.25
444.034	227.25
444.255	235.25
444.476	257.25
444.698	254.25
444.919	254.25
445.14	342.25
445.361	292.25
445.582	257.25
445.803	245.25
446.024	231.25
446.245	254.25
446.466	240.25
446.687	216.25
446.908	203.25
447.129	222.25
447.35	213.25
447.571	186.25
447.792	191.25
448.013	217.25
448.234	213.25
448.455	200.25
448.675	212.25
448.896	200.25
449.117	203.25
449.338	224.25
449.559	218.25
449.779	225.25
450	226.25
450.221	219.25
450.442	216.25
450.662	216.25
450.883	219.25
451.104	219.25
451.324	211.25
451.545	206.25
451.766	212.25
451.986	211.25
452.207	218.25
452.428	204.25
452.648	219.25
452.869	224.25
453.089	211.25
453.31	217.25
453.53	205.25
453.751	191.25
453.971	201.25
454.192	212.25
454.412	211.25
454.633	194.25
454.853	210.25
455.073	195.25
455.294	195.25
455.514	196.25
455.734	208.25
455.955	208.25
456.175	211.25
456.395	190.25
456.616	205.25
456.836	186.25
457.056	201.25
457.276	198.25
457.497	195.25
457.717	187.25
457.937	188.25
458.157	208.25
458.377	198.25
458.598	210.25
458.818	209.25
459.038	219.25
459.258	218.25
459.478	224.25
459.698	256.25
459.918	219.25
460.138	234.25
460.358	256.25
460.578	227.25
460.798	238.25
461.018	243.25
461.238	226.25
461.458	238.25
461.678	230.25
461.898	248.25
462.118	240.25
462.338	257.25
462.558	247.25
462.777	259.25
462.997	267.25
463.217	296.25
463.437	282.25
463.657	292.25
463.876	279.25
464.096	255.25
464.316	257.25
464.536	259.25
464.755	286.25
464.975	263.25
465.195	241.25
465.414	255.25
465.634	255.25
465.854	235.25
466.073	228.25
466.293	213.25
466.512	233.25
466.732	245.25
466.951	261.25
467.171	224.25
467.391	219.25
467.61	227.25
467.829	230.25
468.049	252.25
468.268	222.25
468.488	224.25
468.707	222.25
468.927	242.25
469.146	256.25
469.365	249.25
469.585	227.25
469.804	257.25
470.023	272.25
470.243	242.25
470.462	213.25
470.681	243.25
470.901	233.25
471.12	247.25
471.339	249.25
471.558	231.25
471.777	248.25
471.997	244.25
472.216	287.25
472.435	242.25
472.654	226.25
472.873	240.25
473.092	262.25
473.311	232.25
473.53	218.25
473.749	220.25
473.968	229.25
474.187	245.25
474.406	238.25
474.625	224.25
474.844	231.25
475.063	234.25
475.282	248.25
475.501	262.25
475.72	272.25
475.939	245.25
476.158	237.25
476.377	292.25
476.596	338.25
476.814	344.25
477.033	280.25
477.252	235.25
477.471	230.25
477.69	238.25
477.908	260.25
478.127	252.25
478.346	269.25
478.564	288.25
478.783	260.25
479.002	266.25
479.22	297.25
479.439	329.25
479.658	287.25
479.876	248.25
480.095	272.25
480.313	302.25
480.532	286.25
480.751	263.25
480.969	273.25
481.188	288.25
481.406	298.25
481.624	284.25
481.843	268.25
482.061	261.25
482.28	261.25
482.498	342.25
482.717	334.25
482.935	258.25
483.153	264.25
483.372	250.25
483.59	234.25
483.808	258.25
484.027	245.25
484.245	238.25
484.463	240.25
484.681	248.25
484.9	262.25
485.118	289.25
485.336	246.25
485.554	232.25
485.772	244.25
485.99	269.25
486.209	279.25
486.427	282.25
486.645	289.25
486.863	296.25
487.081	288.25
487.299	299.25
487.517	285.25
487.735	276.25
487.953	278.25
488.171	284.25
488.389	288.25
488.607	265.25
488.825	242.25
489.043	281.25
489.261	316.25
489.479	322.25
489.696	283.25
489.914	272.25
490.132	265.25
490.35	269.25
490.568	242.25
490.786	270.25
491.003	253.25
491.221	275.25
491.439	274.25
491.657	248.25
491.874	272.25
492.092	313.25
492.31	353.25
492.527	348.25
492.745	311.25
492.963	291.25
493.18	280.25
493.398	274.25
493.615	263.25
493.833	295.25
494.05	290.25
494.268	278.25
494.485	275.25
494.703	271.25
494.92	287.25
495.138	284.25
495.355	271.25
495.573	263.25
495.79	281.25
496.008	346.25
496.225	332.25
496.442	309.25
496.66	305.25
496.877	306.25
497.094	296.25
497.312	297.25
497.529	274.25
497.746	276.25
497.963	312.25
498.181	331.25
498.398	339.25
498.615	346.25
498.832	375.25
499.049	371.25
499.267	359.25
499.484	356.25
499.701	374.25
499.918	438.25
500.135	474.25
500.352	514.25
500.569	558.25
500.786	560.25
501.003	517.25
501.22	452.25
501.437	424.25
501.654	392.25
501.871	368.25
502.088	356.25
502.305	338.25
502.522	342.25
