Data from NickelSpatula.Lamp.E10.P2_HRD10591_11-57-08-533.txt Node
Date: Tue Jul 23 11:57:08 EDT 2019
User: cochatt
Spectrometer: HR+D1059
Trigger mode: 1
Integration Time (sec): 1.000000E-1
Scans to average: 1
Electric dark correction enabled: true
Nonlinearity correction enabled: false
Boxcar width: 0
XAxis mode: Wavelengths
Number of Pixels in Spectrum: 2048
>>>>>Begin Spectral Data<<<<<
223.165	6.19
223.4	6.19
223.635	6.19
223.869	-16.81
224.104	-8.81
224.338	-22.81
224.573	-22.81
224.808	-8.81
225.042	-6.81
225.277	-3.81
225.511	-4.81
225.746	3.19
225.98	17.19
226.215	-0.81
226.449	9.19
226.683	15.19
226.918	22.19
227.152	23.19
227.387	29.19
227.621	35.19
227.856	38.19
228.09	45.19
228.324	68.19
228.559	46.19
228.793	84.19
229.027	149.19
229.262	158.19
229.496	143.19
229.73	165.19
229.964	181.19
230.199	216.19
230.433	212.19
230.667	204.19
230.901	203.19
231.136	192.19
231.37	219.19
231.604	228.19
231.838	242.19
232.072	239.19
232.306	231.19
232.541	235.19
232.775	246.19
233.009	288.19
233.243	299.19
233.477	291.19
233.711	332.19
233.945	338.19
234.179	319.19
234.413	347.19
234.647	388.19
234.881	433.19
235.115	395.19
235.349	387.19
235.583	363.19
235.817	350.19
236.051	374.19
236.285	403.19
236.519	452.19
236.753	428.19
236.987	441.19
237.221	417.19
237.455	399.19
237.689	416.19
237.922	451.19
238.156	460.19
238.39	550.19
238.624	647.19
238.858	590.19
239.091	483.19
239.325	477.19
239.559	454.19
239.793	545.19
240.027	667.19
240.26	576.19
240.494	563.19
240.728	590.19
240.961	676.19
241.195	647.19
241.429	625.19
241.662	622.19
241.896	518.19
242.13	468.19
242.363	460.19
242.597	456.19
242.83	520.19
243.064	532.19
243.298	585.19
243.531	596.19
243.765	629.19
243.998	597.19
244.232	596.19
244.465	583.19
244.699	575.19
244.932	657.19
245.166	603.19
245.399	540.19
245.633	524.19
245.866	548.19
246.099	629.19
246.333	711.19
246.566	778.19
246.8	736.19
247.033	711.19
247.266	679.19
247.5	676.19
247.733	650.19
247.966	653.19
248.2	687.19
248.433	747.19
248.666	830.19
248.899	819.19
249.133	842.19
249.366	958.19
249.599	1010.19
249.832	951.19
250.066	812.19
250.299	836.19
250.532	776.19
250.765	788.19
250.998	721.19
251.231	700.19
251.465	740.19
251.698	815.19
251.931	779.19
252.164	804.19
252.397	927.19
252.63	1031.19
252.863	1135.19
253.096	1191.19
253.329	1128.19
253.562	1091.19
253.795	1216.19
254.028	1340.19
254.261	1367.19
254.494	1260.19
254.727	1106.19
254.96	1078.19
255.193	1154.19
255.426	1104.19
255.659	839.19
255.892	761.19
256.124	880.19
256.357	1014.19
256.59	1148.19
256.823	1107.19
257.056	951.19
257.289	911.19
257.521	956.19
257.754	1119.19
257.987	1265.19
258.22	1109.19
258.452	988.19
258.685	1153.19
258.918	1246.19
259.151	1251.19
259.383	1282.19
259.616	1495.19
259.849	1569.19
260.081	1688.19
260.314	1864.19
260.547	1487.19
260.779	1449.19
261.012	1680.19
261.244	1633.19
261.477	1615.19
261.71	1499.19
261.942	1296.19
262.175	1243.19
262.407	1219.19
262.64	1214.19
262.872	1455.19
263.105	1599.19
263.337	1688.19
263.57	1526.19
263.802	1044.19
264.035	904.19
264.267	885.19
264.499	782.19
264.732	717.19
264.964	696.19
265.197	713.19
265.429	755.19
265.661	800.19
265.894	865.19
266.126	902.19
266.358	1033.19
266.591	1246.19
266.823	1499.19
267.055	1403.19
267.287	1206.19
267.52	1248.19
267.752	1293.19
267.984	1455.19
268.216	1339.19
268.448	1119.19
268.681	1099.19
268.913	1197.19
269.145	1260.19
269.377	1277.19
269.609	1312.19
269.841	1187.19
270.073	1310.19
270.306	1344.19
270.538	1380.19
270.77	1407.19
271.002	1398.19
271.234	1452.19
271.466	1490.19
271.698	1428.19
271.93	1417.19
272.162	1395.19
272.394	1361.19
272.626	1382.19
272.858	1452.19
273.09	1427.19
273.322	1298.19
273.553	1209.19
273.785	1497.19
274.017	1920.19
274.249	2356.19
274.481	2449.19
274.713	2672.19
274.945	3078.19
275.176	3144.19
275.408	2767.19
275.64	2548.19
275.872	2533.19
276.104	2200.19
276.335	1883.19
276.567	1921.19
276.799	1947.19
277.031	2057.19
277.262	1590.19
277.494	1235.19
277.726	1165.19
277.957	1312.19
278.189	1467.19
278.421	1434.19
278.652	1396.19
278.884	1320.19
279.115	1254.19
279.347	1208.19
279.579	1149.19
279.81	1189.19
280.042	1165.19
280.273	1217.19
280.505	1146.19
280.736	973.19
280.968	974.19
281.199	1075.19
281.431	1222.19
281.662	1225.19
281.894	1162.19
282.125	1259.19
282.356	1311.19
282.588	1364.19
282.819	1242.19
283.051	1380.19
283.282	1668.19
283.513	1949.19
283.745	2162.19
283.976	2105.19
284.207	1937.19
284.439	2088.19
284.67	1934.19
284.901	1681.19
285.132	1941.19
285.364	2019.19
285.595	1818.19
285.826	1945.19
286.057	1991.19
286.288	1918.19
286.52	2006.19
286.751	2061.19
286.982	2014.19
287.213	1793.19
287.444	1724.19
287.675	1816.19
287.906	1813.19
288.138	1510.19
288.369	1352.19
288.6	1294.19
288.831	1361.19
289.062	1558.19
289.293	1665.19
289.524	1617.19
289.755	1570.19
289.986	1636.19
290.217	1446.19
290.448	1137.19
290.679	950.19
290.91	893.19
291.141	891.19
291.371	953.19
291.602	973.19
291.833	995.19
292.064	1041.19
292.295	1140.19
292.526	1387.19
292.757	1431.19
292.987	1522.19
293.218	1553.19
293.449	1612.19
293.68	1673.19
293.91	1571.19
294.141	1650.19
294.372	1509.19
294.603	1398.19
294.833	1549.19
295.064	1794.19
295.295	1736.19
295.525	1301.19
295.756	1114.19
295.987	977.19
296.217	970.19
296.448	1045.19
296.679	1034.19
296.909	1171.19
297.14	1237.19
297.37	1403.19
297.601	1339.19
297.831	1143.19
298.062	1236.19
298.292	1379.19
298.523	1518.19
298.753	1655.19
298.984	1549.19
299.214	1182.19
299.445	1025.19
299.675	973.19
299.905	992.19
300.136	1007.19
300.366	1124.19
300.597	1116.19
300.827	963.19
301.057	930.19
301.288	964.19
301.518	1051.19
301.748	1157.19
301.979	1273.19
302.209	1341.19
302.439	1341.19
302.669	1223.19
302.9	1183.19
303.13	1131.19
303.36	1062.19
303.59	1039.19
303.82	1045.19
304.051	1192.19
304.281	1265.19
304.511	1268.19
304.741	1111.19
304.971	1162.19
305.201	1248.19
305.431	1195.19
305.661	1007.19
305.891	981.19
306.121	1041.19
306.352	917.19
306.582	846.19
306.812	825.19
307.042	828.19
307.272	791.19
307.502	815.19
307.731	870.19
307.961	908.19
308.191	839.19
308.421	781.19
308.651	777.19
308.881	725.19
309.111	745.19
309.341	796.19
309.571	875.19
309.8	888.19
310.03	888.19
310.26	926.19
310.49	929.19
310.72	864.19
310.949	827.19
311.179	879.19
311.409	905.19
311.639	1068.19
311.868	1377.19
312.098	1803.19
312.328	1888.19
312.557	1833.19
312.787	1839.19
313.017	1640.19
313.246	1723.19
313.476	1915.19
313.706	1568.19
313.935	1250.19
314.165	1026.19
314.394	967.19
314.624	931.19
314.853	994.19
315.083	1017.19
315.312	971.19
315.542	953.19
315.771	919.19
316.001	823.19
316.23	820.19
316.46	832.19
316.689	828.19
316.919	853.19
317.148	859.19
317.377	868.19
317.607	854.19
317.836	923.19
318.065	1058.19
318.295	1185.19
318.524	1110.19
318.753	968.19
318.983	933.19
319.212	870.19
319.441	964.19
319.67	1056.19
319.9	1163.19
320.129	1085.19
320.358	963.19
320.587	911.19
320.816	1002.19
321.046	1103.19
321.275	1271.19
321.504	1245.19
321.733	1187.19
321.962	1159.19
322.191	1082.19
322.42	1021.19
322.649	1045.19
322.878	1145.19
323.108	1151.19
323.337	1070.19
323.566	1050.19
323.795	1003.19
324.024	969.19
324.253	933.19
324.482	944.19
324.71	1033.19
324.939	1165.19
325.168	1090.19
325.397	909.19
325.626	908.19
325.855	893.19
326.084	887.19
326.313	864.19
326.542	815.19
326.77	848.19
326.999	891.19
327.228	962.19
327.457	971.19
327.686	959.19
327.914	859.19
328.143	826.19
328.372	802.19
328.6	806.19
328.829	844.19
329.058	844.19
329.287	856.19
329.515	850.19
329.744	872.19
329.972	818.19
330.201	804.19
330.43	801.19
330.658	910.19
330.887	1028.19
331.115	996.19
331.344	996.19
331.572	943.19
331.801	878.19
332.03	837.19
332.258	856.19
332.486	926.19
332.715	959.19
332.943	863.19
333.172	910.19
333.4	953.19
333.629	1003.19
333.857	1111.19
334.085	1064.19
334.314	1060.19
334.542	1023.19
334.771	960.19
334.999	962.19
335.227	909.19
335.455	948.19
335.684	1034.19
335.912	1164.19
336.14	1308.19
336.369	1252.19
336.597	1187.19
336.825	1331.19
337.053	1484.19
337.281	1219.19
337.51	969.19
337.738	944.19
337.966	1009.19
338.194	1129.19
338.422	1059.19
338.65	905.19
338.878	856.19
339.106	887.19
339.334	974.19
339.562	1033.19
339.79	953.19
340.018	948.19
340.246	1006.19
340.474	1133.19
340.702	1223.19
340.93	1273.19
341.158	1264.19
341.386	1084.19
341.614	1051.19
341.842	1078.19
342.07	1116.19
342.298	1272.19
342.526	1353.19
342.754	1147.19
342.981	1042.19
343.209	1012.19
343.437	1094.19
343.665	1122.19
343.893	1132.19
344.12	1313.19
344.348	1519.19
344.576	1376.19
344.804	1131.19
345.031	1014.19
345.259	955.19
345.487	992.19
345.714	953.19
345.942	1060.19
346.17	1155.19
346.397	1092.19
346.625	970.19
346.853	913.19
347.08	939.19
347.308	961.19
347.535	1069.19
347.763	1099.19
347.99	939.19
348.218	885.19
348.445	920.19
348.673	949.19
348.9	967.19
349.128	1026.19
349.355	1025.19
349.583	998.19
349.81	953.19
350.037	906.19
350.265	821.19
350.492	761.19
350.72	777.19
350.947	793.19
351.174	873.19
351.402	914.19
351.629	945.19
351.856	912.19
352.083	857.19
352.311	944.19
352.538	1005.19
352.765	1094.19
352.992	997.19
353.22	944.19
353.447	929.19
353.674	918.19
353.901	921.19
354.128	908.19
354.355	931.19
354.583	928.19
354.81	963.19
355.037	968.19
355.264	943.19
355.491	1008.19
355.718	1064.19
355.945	1045.19
356.172	1029.19
356.399	1008.19
356.626	1219.19
356.853	1489.19
357.08	1603.19
357.307	1629.19
357.534	1269.19
357.761	1337.19
357.988	1597.19
358.215	1885.19
358.441	1776.19
358.668	1494.19
358.895	1407.19
359.122	1126.19
359.349	1157.19
359.576	1229.19
359.802	1018.19
360.029	915.19
360.256	977.19
360.483	1194.19
360.709	1481.19
360.936	1528.19
361.163	1336.19
361.39	1064.19
361.616	977.19
361.843	1139.19
362.07	1392.19
362.296	1259.19
362.523	1023.19
362.749	899.19
362.976	966.19
363.203	1147.19
363.429	1267.19
363.656	1030.19
363.882	948.19
364.109	950.19
364.335	939.19
364.562	948.19
364.788	1035.19
365.015	1238.19
365.241	1098.19
365.468	945.19
365.694	804.19
365.92	795.19
366.147	755.19
366.373	748.19
366.599	767.19
366.826	780.19
367.052	787.19
367.278	813.19
367.505	797.19
367.731	875.19
367.957	944.19
368.184	973.19
368.41	927.19
368.636	943.19
368.862	985.19
369.089	936.19
369.315	878.19
369.541	875.19
369.767	863.19
369.993	813.19
370.219	825.19
370.445	861.19
370.672	934.19
370.898	986.19
371.124	988.19
371.35	919.19
371.576	855.19
371.802	950.19
372.028	1104.19
372.254	1245.19
372.48	1055.19
372.706	953.19
372.932	1023.19
373.158	1055.19
373.384	1246.19
373.61	1669.19
373.835	1715.19
374.061	1275.19
374.287	1099.19
374.513	1264.19
374.739	1512.19
374.965	1570.19
375.191	1536.19
375.416	1071.19
375.642	973.19
375.868	1126.19
376.094	1283.19
376.319	1096.19
376.545	1213.19
376.771	1264.19
376.997	1100.19
377.222	860.19
377.448	758.19
377.674	752.19
377.899	739.19
378.125	724.19
378.35	737.19
378.576	736.19
378.802	815.19
379.027	885.19
379.253	856.19
379.478	875.19
379.704	981.19
379.929	989.19
380.155	1020.19
380.38	920.19
380.606	966.19
380.831	1038.19
381.057	996.19
381.282	931.19
381.507	1069.19
381.733	1340.19
381.958	1431.19
382.184	1483.19
382.409	1571.19
382.634	1531.19
382.86	1597.19
383.085	1351.19
383.31	1070.19
383.535	1156.19
383.761	1164.19
383.986	1106.19
384.211	1320.19
384.436	1260.19
384.662	979.19
384.887	937.19
385.112	1004.19
385.337	986.19
385.562	941.19
385.787	1004.19
386.013	1161.19
386.238	1170.19
386.463	959.19
386.688	966.19
386.913	905.19
387.138	856.19
387.363	952.19
387.588	950.19
387.813	946.19
388.038	1032.19
388.263	915.19
388.488	923.19
388.713	1048.19
388.938	1127.19
389.163	968.19
389.387	904.19
389.612	849.19
389.837	888.19
390.062	918.19
390.287	947.19
390.512	965.19
390.736	955.19
390.961	871.19
391.186	822.19
391.411	830.19
391.636	851.19
391.86	895.19
392.085	957.19
392.31	950.19
392.534	901.19
392.759	899.19
392.984	925.19
393.208	914.19
393.433	859.19
393.658	787.19
393.882	812.19
394.107	803.19
394.331	797.19
394.556	796.19
394.78	788.19
395.005	846.19
395.229	849.19
395.454	851.19
395.678	857.19
395.903	904.19
396.127	862.19
396.352	877.19
396.576	955.19
396.801	950.19
397.025	1050.19
397.249	1099.19
397.474	887.19
397.698	894.19
397.922	968.19
398.147	893.19
398.371	931.19
398.595	920.19
398.82	889.19
399.044	938.19
399.268	990.19
399.492	1031.19
399.717	1062.19
399.941	1068.19
400.165	1029.19
400.389	1033.19
400.613	1005.19
400.837	998.19
401.062	893.19
401.286	894.19
401.51	863.19
401.734	893.19
401.958	908.19
402.182	912.19
402.406	914.19
402.63	923.19
402.854	940.19
403.078	1053.19
403.302	1279.19
403.526	1277.19
403.75	1155.19
403.974	1023.19
404.198	1071.19
404.422	1152.19
404.645	1355.19
404.869	1492.19
405.093	1163.19
405.317	986.19
405.541	966.19
405.765	994.19
405.988	994.19
406.212	1032.19
406.436	1228.19
406.66	1334.19
406.883	1101.19
407.107	1133.19
407.331	1278.19
407.555	1270.19
407.778	1087.19
408.002	1038.19
408.226	1044.19
408.449	1029.19
408.673	968.19
408.896	949.19
409.12	920.19
409.344	909.19
409.567	896.19
409.791	875.19
410.014	877.19
410.238	875.19
410.461	915.19
410.685	912.19
410.908	887.19
411.132	942.19
411.355	928.19
411.578	933.19
411.802	933.19
412.025	956.19
412.249	985.19
412.472	964.19
412.695	942.19
412.919	949.19
413.142	943.19
413.365	1030.19
413.589	1021.19
413.812	941.19
414.035	909.19
414.258	913.19
414.482	1009.19
414.705	1036.19
414.928	884.19
415.151	872.19
415.374	877.19
415.597	889.19
415.821	923.19
416.044	880.19
416.267	861.19
416.49	873.19
416.713	869.19
416.936	850.19
417.159	856.19
417.382	886.19
417.605	887.19
417.828	883.19
418.051	913.19
418.274	923.19
418.497	904.19
418.72	900.19
418.943	930.19
419.166	958.19
419.389	999.19
419.611	997.19
419.834	1018.19
420.057	1054.19
420.28	1088.19
420.503	949.19
420.726	886.19
420.948	857.19
421.171	893.19
421.394	866.19
421.617	830.19
421.839	884.19
422.062	926.19
422.285	920.19
422.507	910.19
422.73	927.19
422.953	934.19
423.175	929.19
423.398	924.19
423.621	963.19
423.843	1025.19
424.066	950.19
424.288	926.19
424.511	918.19
424.733	888.19
424.956	947.19
425.178	1044.19
425.401	1135.19
425.623	1345.19
425.846	1089.19
426.068	971.19
426.291	1073.19
426.513	1019.19
426.735	922.19
426.958	994.19
427.18	1132.19
427.402	1416.19
427.625	1388.19
427.847	1158.19
428.069	887.19
428.292	899.19
428.514	886.19
428.736	850.19
428.958	963.19
429.181	1070.19
429.403	953.19
429.625	870.19
429.847	845.19
430.069	873.19
430.292	886.19
430.514	888.19
430.736	915.19
430.958	1133.19
431.18	1043.19
431.402	865.19
431.624	801.19
431.846	794.19
432.068	809.19
432.29	798.19
432.512	909.19
432.734	1139.19
432.956	1046.19
433.178	848.19
433.4	827.19
433.622	845.19
433.844	872.19
434.066	927.19
434.287	903.19
434.509	867.19
434.731	915.19
434.953	852.19
435.175	915.19
435.397	1011.19
435.618	876.19
435.84	827.19
436.062	851.19
436.284	813.19
436.505	789.19
436.727	788.19
436.949	796.19
437.17	823.19
437.392	823.19
437.614	814.19
437.835	801.19
438.057	817.19
438.278	967.19
438.5	1326.19
438.721	1307.19
438.943	928.19
439.165	807.19
439.386	777.19
439.608	763.19
439.829	771.19
440.05	778.19
440.272	824.19
440.493	961.19
440.715	1180.19
440.936	959.19
441.158	864.19
441.379	893.19
441.6	962.19
441.822	987.19
442.043	880.19
442.264	851.19
442.486	881.19
442.707	859.19
442.928	823.19
443.149	861.19
443.371	905.19
443.592	951.19
443.813	910.19
444.034	887.19
444.255	895.19
444.476	919.19
444.698	935.19
444.919	946.19
445.14	993.19
445.361	1010.19
445.582	961.19
445.803	943.19
446.024	935.19
446.245	920.19
446.466	902.19
446.687	888.19
446.908	854.19
447.129	813.19
447.35	820.19
447.571	789.19
447.792	791.19
448.013	786.19
448.234	747.19
448.455	783.19
448.675	817.19
448.896	792.19
449.117	792.19
449.338	820.19
449.559	799.19
449.779	876.19
450	842.19
450.221	829.19
450.442	823.19
450.662	793.19
450.883	796.19
451.104	805.19
451.324	781.19
451.545	798.19
451.766	794.19
451.986	786.19
452.207	785.19
452.428	755.19
452.648	765.19
452.869	813.19
453.089	840.19
453.31	831.19
453.53	734.19
453.751	751.19
453.971	773.19
454.192	772.19
454.412	793.19
454.633	744.19
454.853	724.19
455.073	747.19
455.294	735.19
455.514	732.19
455.734	778.19
455.955	806.19
456.175	823.19
456.395	743.19
456.616	718.19
456.836	702.19
457.056	699.19
457.276	698.19
457.497	702.19
457.717	700.19
457.937	690.19
458.157	718.19
458.377	722.19
458.598	748.19
458.818	724.19
459.038	793.19
459.258	792.19
459.478	856.19
459.698	901.19
459.918	905.19
460.138	867.19
460.358	882.19
460.578	877.19
460.798	889.19
461.018	875.19
461.238	862.19
461.458	867.19
461.678	894.19
461.898	899.19
462.118	941.19
462.338	904.19
462.558	916.19
462.777	976.19
462.997	1025.19
463.217	991.19
463.437	1030.19
463.657	1019.19
463.876	972.19
464.096	968.19
464.316	972.19
464.536	958.19
464.755	1003.19
464.975	992.19
465.195	960.19
465.414	954.19
465.634	948.19
465.854	928.19
466.073	865.19
466.293	872.19
466.512	939.19
466.732	979.19
466.951	1034.19
467.171	913.19
467.391	865.19
467.61	864.19
467.829	905.19
468.049	969.19
468.268	878.19
468.488	868.19
468.707	897.19
468.927	1045.19
469.146	1161.19
469.365	1049.19
469.585	969.19
469.804	995.19
470.023	1085.19
470.243	967.19
470.462	928.19
470.681	895.19
470.901	920.19
471.12	951.19
471.339	990.19
471.558	909.19
471.777	935.19
471.997	987.19
472.216	1103.19
472.435	1076.19
472.654	990.19
472.873	944.19
473.092	1006.19
473.311	1055.19
473.53	949.19
473.749	920.19
473.968	961.19
474.187	961.19
474.406	920.19
474.625	928.19
474.844	944.19
475.063	1050.19
475.282	1007.19
475.501	1062.19
475.72	1103.19
475.939	1090.19
476.158	1086.19
476.377	1217.19
476.596	1405.19
476.814	1424.19
477.033	1250.19
477.252	1060.19
477.471	1002.19
477.69	1013.19
477.908	1089.19
478.127	1117.19
478.346	1033.19
478.564	1128.19
478.783	1082.19
479.002	1107.19
479.22	1287.19
479.439	1403.19
479.658	1229.19
479.876	1093.19
480.095	1185.19
480.313	1207.19
480.532	1135.19
480.751	1060.19
480.969	1112.19
481.188	1270.19
481.406	1268.19
481.624	1242.19
481.843	1128.19
482.061	1090.19
482.28	1172.19
482.498	1414.19
482.717	1355.19
482.935	1184.19
483.153	1115.19
483.372	1044.19
483.59	1058.19
483.808	1039.19
484.027	1027.19
484.245	966.19
484.463	990.19
484.681	1028.19
484.9	1096.19
485.118	1189.19
485.336	1079.19
485.554	1045.19
485.772	1064.19
485.99	1145.19
486.209	1229.19
486.427	1177.19
486.645	1165.19
486.863	1253.19
487.081	1211.19
487.299	1341.19
487.517	1305.19
487.735	1185.19
487.953	1208.19
488.171	1227.19
488.389	1158.19
488.607	1111.19
488.825	1147.19
489.043	1261.19
489.261	1417.19
489.479	1479.19
489.696	1269.19
489.914	1176.19
490.132	1106.19
490.35	1123.19
490.568	1151.19
490.786	1127.19
491.003	1108.19
491.221	1139.19
491.439	1136.19
491.657	1137.19
491.874	1215.19
492.092	1404.19
492.31	1701.19
492.527	1711.19
492.745	1485.19
492.963	1307.19
493.18	1254.19
493.398	1254.19
493.615	1290.19
493.833	1261.19
494.05	1207.19
494.268	1229.19
494.485	1231.19
494.703	1164.19
494.92	1245.19
495.138	1201.19
