Data from NickelSpatula_HRD10591_16-35-52-126.txt Node
Date: Mon Jul 22 16:35:52 EDT 2019
User: cochatt
Spectrometer: HR+D1059
Trigger mode: 1
Integration Time (sec): 1.000000E-1
Scans to average: 1
Electric dark correction enabled: true
Nonlinearity correction enabled: false
Boxcar width: 0
XAxis mode: Wavelengths
Number of Pixels in Spectrum: 2048
>>>>>Begin Spectral Data<<<<<
223.165	-26.62
223.4	-26.62
223.635	-26.62
223.869	-15.62
224.104	-12.62
224.338	-12.62
224.573	-2.62
224.808	-12.62
225.042	-10.62
225.277	-4.62
225.511	6.38
225.746	-9.62
225.98	2.38
226.215	17.38
226.449	14.38
226.683	13.38
226.918	19.38
227.152	34.38
227.387	31.38
227.621	26.38
227.856	27.38
228.09	66.38
228.324	43.38
228.559	63.38
228.793	65.38
229.027	70.38
229.262	69.38
229.496	78.38
229.73	71.38
229.964	83.38
230.199	85.38
230.433	98.38
230.667	83.38
230.901	87.38
231.136	87.38
231.37	83.38
231.604	104.38
231.838	95.38
232.072	102.38
232.306	110.38
232.541	95.38
232.775	84.38
233.009	103.38
233.243	112.38
233.477	92.38
233.711	111.38
233.945	93.38
234.179	102.38
234.413	107.38
234.647	113.38
234.881	121.38
235.115	100.38
235.349	92.38
235.583	101.38
235.817	94.38
236.051	122.38
236.285	114.38
236.519	117.38
236.753	120.38
236.987	113.38
237.221	103.38
237.455	115.38
237.689	98.38
237.922	125.38
238.156	119.38
238.39	135.38
238.624	140.38
238.858	115.38
239.091	114.38
239.325	138.38
239.559	121.38
239.793	129.38
240.027	135.38
240.26	125.38
240.494	116.38
240.728	123.38
240.961	145.38
241.195	131.38
241.429	135.38
241.662	134.38
241.896	117.38
242.13	127.38
242.363	125.38
242.597	103.38
242.83	127.38
243.064	137.38
243.298	141.38
243.531	129.38
243.765	140.38
243.998	135.38
244.232	122.38
244.465	130.38
244.699	123.38
244.932	145.38
245.166	125.38
245.399	128.38
245.633	124.38
245.866	125.38
246.099	130.38
246.333	147.38
246.566	147.38
246.8	156.38
247.033	157.38
247.266	135.38
247.5	133.38
247.733	127.38
247.966	140.38
248.2	130.38
248.433	151.38
248.666	153.38
248.899	156.38
249.133	156.38
249.366	169.38
249.599	179.38
249.832	163.38
250.066	148.38
250.299	156.38
250.532	155.38
250.765	149.38
250.998	140.38
251.231	136.38
251.465	147.38
251.698	153.38
251.931	145.38
252.164	159.38
252.397	161.38
252.63	177.38
252.863	201.38
253.096	190.38
253.329	172.38
253.562	187.38
253.795	181.38
254.028	209.38
254.261	235.38
254.494	200.38
254.727	188.38
254.96	169.38
255.193	189.38
255.426	195.38
255.659	149.38
255.892	164.38
256.124	150.38
256.357	172.38
256.59	187.38
256.823	176.38
257.056	153.38
257.289	166.38
257.521	164.38
257.754	176.38
257.987	204.38
258.22	184.38
258.452	179.38
258.685	190.38
258.918	180.38
259.151	192.38
259.383	213.38
259.616	241.38
259.849	234.38
260.081	228.38
260.314	255.38
260.547	215.38
260.779	216.38
261.012	231.38
261.244	260.38
261.477	216.38
261.71	213.38
261.942	209.38
262.175	208.38
262.407	196.38
262.64	187.38
262.872	205.38
263.105	226.38
263.337	268.38
263.57	214.38
263.802	181.38
264.035	161.38
264.267	149.38
264.499	125.38
264.732	141.38
264.964	140.38
265.197	120.38
265.429	147.38
265.661	145.38
265.894	140.38
266.126	159.38
266.358	180.38
266.591	189.38
266.823	200.38
267.055	197.38
267.287	185.38
267.52	204.38
267.752	197.38
267.984	207.38
268.216	207.38
268.448	182.38
268.681	168.38
268.913	172.38
269.145	213.38
269.377	196.38
269.609	205.38
269.841	206.38
270.073	205.38
270.306	218.38
270.538	209.38
270.77	220.38
271.002	212.38
271.234	222.38
271.466	215.38
271.698	217.38
271.93	199.38
272.162	213.38
272.394	203.38
272.626	194.38
272.858	205.38
273.09	192.38
273.322	186.38
273.553	198.38
273.785	217.38
274.017	289.38
274.249	300.38
274.481	324.38
274.713	349.38
274.945	380.38
275.176	387.38
275.408	339.38
275.64	330.38
275.872	319.38
276.104	305.38
276.335	280.38
276.567	273.38
276.799	264.38
277.031	281.38
277.262	236.38
277.494	191.38
277.726	188.38
277.957	185.38
278.189	210.38
278.421	209.38
278.652	215.38
278.884	214.38
279.115	212.38
279.347	190.38
279.579	182.38
279.81	203.38
280.042	195.38
280.273	187.38
280.505	172.38
280.736	173.38
280.968	169.38
281.199	171.38
281.431	207.38
281.662	170.38
281.894	182.38
282.125	198.38
282.356	198.38
282.588	197.38
282.819	191.38
283.051	212.38
283.282	236.38
283.513	266.38
283.745	288.38
283.976	279.38
284.207	298.38
284.439	267.38
284.67	273.38
284.901	238.38
285.132	267.38
285.364	275.38
285.595	250.38
285.826	264.38
286.057	284.38
286.288	268.38
286.52	272.38
286.751	293.38
286.982	294.38
287.213	260.38
287.444	257.38
287.675	262.38
287.906	261.38
288.138	225.38
288.369	189.38
288.6	213.38
288.831	200.38
289.062	224.38
289.293	234.38
289.524	234.38
289.755	252.38
289.986	234.38
290.217	224.38
290.448	152.38
290.679	151.38
290.91	133.38
291.141	154.38
291.371	155.38
291.602	159.38
291.833	153.38
292.064	166.38
292.295	198.38
292.526	197.38
292.757	231.38
292.987	230.38
293.218	219.38
293.449	236.38
293.68	244.38
293.91	214.38
294.141	246.38
294.372	216.38
294.603	210.38
294.833	242.38
295.064	255.38
295.295	243.38
295.525	207.38
295.756	166.38
295.987	162.38
296.217	159.38
296.448	168.38
296.679	152.38
296.909	181.38
297.14	188.38
297.37	219.38
297.601	197.38
297.831	187.38
298.062	179.38
298.292	219.38
298.523	221.38
298.753	243.38
298.984	235.38
299.214	178.38
299.445	156.38
299.675	163.38
299.905	167.38
300.136	153.38
300.366	165.38
300.597	168.38
300.827	157.38
301.057	153.38
301.288	165.38
301.518	167.38
301.748	189.38
301.979	209.38
302.209	214.38
302.439	189.38
302.669	194.38
302.9	197.38
303.13	170.38
303.36	163.38
303.59	165.38
303.82	173.38
304.051	205.38
304.281	193.38
304.511	203.38
304.741	184.38
304.971	181.38
305.201	182.38
305.431	183.38
305.661	168.38
305.891	169.38
306.121	166.38
306.352	151.38
306.582	143.38
306.812	144.38
307.042	147.38
307.272	143.38
307.502	129.38
307.731	155.38
307.961	143.38
308.191	127.38
308.421	135.38
308.651	138.38
308.881	137.38
309.111	120.38
309.341	134.38
309.571	151.38
309.8	148.38
310.03	147.38
310.26	164.38
310.49	155.38
310.72	137.38
310.949	138.38
311.179	125.38
311.409	156.38
311.639	173.38
311.868	201.38
312.098	248.38
312.328	261.38
312.557	252.38
312.787	240.38
313.017	240.38
313.246	244.38
313.476	264.38
313.706	244.38
313.935	188.38
314.165	166.38
314.394	159.38
314.624	143.38
314.853	148.38
315.083	154.38
315.312	141.38
315.542	145.38
315.771	159.38
316.001	135.38
316.23	125.38
316.46	134.38
316.689	148.38
316.919	156.38
317.148	154.38
317.377	155.38
317.607	145.38
317.836	144.38
318.065	170.38
318.295	159.38
318.524	180.38
318.753	135.38
318.983	151.38
319.212	137.38
319.441	163.38
319.67	168.38
319.9	179.38
320.129	178.38
320.358	140.38
320.587	142.38
320.816	168.38
321.046	182.38
321.275	183.38
321.504	196.38
321.733	187.38
321.962	191.38
322.191	165.38
322.42	175.38
322.649	184.38
322.878	191.38
323.108	181.38
323.337	167.38
323.566	161.38
323.795	163.38
324.024	150.38
324.253	163.38
324.482	140.38
324.71	165.38
324.939	183.38
325.168	161.38
325.397	143.38
325.626	149.38
325.855	132.38
326.084	140.38
326.313	135.38
326.542	138.38
326.77	127.38
326.999	144.38
327.228	142.38
327.457	167.38
327.686	155.38
327.914	135.38
328.143	146.38
328.372	131.38
328.6	128.38
328.829	140.38
329.058	166.38
329.287	142.38
329.515	131.38
329.744	134.38
329.972	130.38
330.201	131.38
330.43	131.38
330.658	147.38
330.887	168.38
331.115	167.38
331.344	151.38
331.572	140.38
331.801	152.38
332.03	140.38
332.258	141.38
332.486	160.38
332.715	149.38
332.943	135.38
333.172	141.38
333.4	144.38
333.629	159.38
333.857	175.38
334.085	142.38
334.314	155.38
334.542	157.38
334.771	162.38
334.999	168.38
335.227	131.38
335.455	135.38
335.684	164.38
335.912	171.38
336.14	185.38
336.369	168.38
336.597	179.38
336.825	183.38
337.053	195.38
337.281	172.38
337.51	150.38
337.738	149.38
337.966	149.38
338.194	169.38
338.422	166.38
338.65	152.38
338.878	152.38
339.106	138.38
339.334	156.38
339.562	169.38
339.79	145.38
340.018	151.38
340.246	155.38
340.474	172.38
340.702	179.38
340.93	203.38
341.158	198.38
341.386	189.38
341.614	165.38
341.842	148.38
342.07	169.38
342.298	177.38
342.526	197.38
342.754	164.38
342.981	160.38
343.209	163.38
343.437	168.38
343.665	169.38
343.893	168.38
344.12	194.38
344.348	212.38
344.576	197.38
344.804	170.38
345.031	154.38
345.259	143.38
345.487	142.38
345.714	164.38
345.942	167.38
346.17	187.38
346.397	163.38
346.625	155.38
346.853	138.38
347.08	152.38
347.308	150.38
347.535	175.38
347.763	163.38
347.99	162.38
348.218	161.38
348.445	152.38
348.673	159.38
348.9	161.38
349.128	137.38
349.355	161.38
349.583	154.38
349.81	153.38
350.037	143.38
350.265	149.38
350.492	128.38
350.72	127.38
350.947	145.38
351.174	135.38
351.402	147.38
351.629	165.38
351.856	138.38
352.083	151.38
352.311	150.38
352.538	157.38
352.765	180.38
352.992	161.38
353.22	162.38
353.447	152.38
353.674	153.38
353.901	138.38
354.128	148.38
354.355	151.38
354.583	165.38
354.81	171.38
355.037	170.38
355.264	167.38
355.491	159.38
355.718	171.38
355.945	159.38
356.172	163.38
356.399	160.38
356.626	182.38
356.853	210.38
357.08	236.38
357.307	240.38
357.534	193.38
357.761	189.38
357.988	251.38
358.215	271.38
358.441	251.38
358.668	230.38
358.895	204.38
359.122	179.38
359.349	193.38
359.576	209.38
359.802	171.38
360.029	149.38
360.256	170.38
360.483	187.38
360.709	233.38
360.936	234.38
361.163	191.38
361.39	168.38
361.616	155.38
361.843	168.38
362.07	199.38
362.296	179.38
362.523	156.38
362.749	150.38
362.976	152.38
363.203	172.38
363.429	195.38
363.656	167.38
363.882	164.38
364.109	162.38
364.335	134.38
364.562	155.38
364.788	165.38
365.015	185.38
365.241	171.38
365.468	138.38
365.694	131.38
365.92	133.38
366.147	137.38
366.373	120.38
366.599	113.38
366.826	125.38
367.052	137.38
367.278	141.38
367.505	129.38
367.731	139.38
367.957	162.38
368.184	148.38
368.41	146.38
368.636	156.38
368.862	142.38
369.089	143.38
369.315	150.38
369.541	144.38
369.767	155.38
369.993	137.38
370.219	132.38
370.445	141.38
370.672	150.38
370.898	165.38
371.124	172.38
371.35	141.38
371.576	147.38
371.802	151.38
372.028	155.38
372.254	195.38
372.48	175.38
372.706	147.38
372.932	169.38
373.158	188.38
373.384	208.38
373.61	243.38
373.835	229.38
374.061	193.38
374.287	187.38
374.513	197.38
374.739	230.38
374.965	216.38
375.191	220.38
375.416	160.38
375.642	153.38
375.868	175.38
376.094	188.38
376.319	179.38
376.545	183.38
376.771	200.38
376.997	164.38
377.222	140.38
377.448	127.38
377.674	142.38
377.899	136.38
378.125	125.38
378.35	129.38
378.576	140.38
378.802	146.38
379.027	149.38
379.253	157.38
379.478	158.38
379.704	157.38
379.929	178.38
380.155	160.38
380.38	171.38
380.606	172.38
380.831	173.38
381.057	178.38
381.282	148.38
381.507	183.38
381.733	213.38
381.958	218.38
382.184	230.38
382.409	228.38
382.634	227.38
382.86	245.38
383.085	201.38
383.31	161.38
383.535	170.38
383.761	193.38
383.986	186.38
384.211	186.38
384.436	209.38
384.662	168.38
384.887	173.38
385.112	164.38
385.337	191.38
385.562	173.38
385.787	175.38
386.013	178.38
386.238	171.38
386.463	152.38
386.688	162.38
386.913	157.38
387.138	144.38
387.363	163.38
387.588	155.38
387.813	162.38
388.038	173.38
388.263	153.38
388.488	167.38
388.713	163.38
388.938	176.38
389.163	157.38
389.387	138.38
389.612	139.38
389.837	153.38
390.062	157.38
390.287	146.38
390.512	163.38
390.736	154.38
390.961	151.38
391.186	145.38
391.411	139.38
391.636	151.38
391.86	145.38
392.085	166.38
392.31	163.38
392.534	162.38
392.759	145.38
392.984	160.38
393.208	155.38
393.433	146.38
393.658	136.38
393.882	131.38
394.107	124.38
394.331	129.38
394.556	127.38
394.78	136.38
395.005	139.38
395.229	153.38
395.454	155.38
395.678	153.38
395.903	164.38
396.127	145.38
396.352	137.38
396.576	147.38
396.801	150.38
397.025	164.38
397.249	163.38
397.474	156.38
397.698	160.38
397.922	156.38
398.147	138.38
398.371	150.38
398.595	151.38
398.82	166.38
399.044	150.38
399.268	155.38
399.492	154.38
399.717	169.38
399.941	165.38
400.165	164.38
400.389	145.38
400.613	155.38
400.837	149.38
401.062	137.38
401.286	147.38
401.51	141.38
401.734	156.38
401.958	151.38
402.182	144.38
402.406	154.38
402.63	165.38
402.854	150.38
403.078	159.38
403.302	200.38
403.526	216.38
403.75	192.38
403.974	150.38
404.198	179.38
404.422	201.38
404.645	205.38
404.869	220.38
405.093	187.38
405.317	161.38
405.541	156.38
405.765	147.38
405.988	179.38
406.212	154.38
406.436	165.38
406.66	195.38
406.883	170.38
407.107	181.38
407.331	179.38
407.555	190.38
407.778	177.38
408.002	155.38
408.226	157.38
408.449	162.38
408.673	168.38
408.896	149.38
409.12	144.38
409.344	141.38
409.567	155.38
409.791	145.38
410.014	133.38
410.238	139.38
410.461	144.38
410.685	149.38
410.908	150.38
411.132	139.38
411.355	155.38
411.578	151.38
411.802	164.38
412.025	152.38
412.249	142.38
412.472	153.38
412.695	155.38
412.919	156.38
413.142	149.38
413.365	175.38
413.589	168.38
413.812	147.38
414.035	156.38
414.258	173.38
414.482	157.38
414.705	169.38
414.928	140.38
415.151	151.38
415.374	142.38
415.597	149.38
415.821	159.38
416.044	143.38
416.267	141.38
416.49	152.38
416.713	143.38
416.936	144.38
417.159	138.38
417.382	139.38
417.605	134.38
417.828	164.38
418.051	147.38
418.274	163.38
418.497	148.38
418.72	155.38
418.943	148.38
419.166	145.38
419.389	164.38
419.611	163.38
419.834	167.38
420.057	187.38
420.28	172.38
420.503	170.38
420.726	154.38
420.948	156.38
421.171	145.38
421.394	149.38
421.617	141.38
421.839	160.38
422.062	165.38
422.285	151.38
422.507	140.38
422.73	166.38
422.953	155.38
423.175	156.38
423.398	139.38
423.621	177.38
423.843	173.38
424.066	151.38
424.288	153.38
424.511	151.38
424.733	156.38
424.956	151.38
425.178	177.38
425.401	173.38
425.623	196.38
425.846	190.38
426.068	175.38
426.291	175.38
426.513	154.38
426.735	158.38
426.958	145.38
427.18	200.38
427.402	204.38
427.625	226.38
427.847	187.38
428.069	139.38
428.292	130.38
428.514	145.38
428.736	126.38
428.958	159.38
429.181	189.38
429.403	157.38
429.625	142.38
429.847	140.38
430.069	156.38
430.292	155.38
430.514	150.38
430.736	149.38
430.958	184.38
431.18	175.38
431.402	155.38
431.624	141.38
431.846	138.38
432.068	128.38
432.29	139.38
432.512	154.38
432.734	196.38
432.956	189.38
433.178	152.38
433.4	152.38
433.622	147.38
433.844	148.38
434.066	154.38
434.287	147.38
434.509	140.38
434.731	150.38
434.953	145.38
435.175	144.38
435.397	163.38
435.618	148.38
435.84	136.38
436.062	145.38
436.284	149.38
436.505	133.38
436.727	136.38
436.949	139.38
437.17	148.38
437.392	140.38
437.614	140.38
437.835	139.38
438.057	146.38
438.278	167.38
438.5	212.38
438.721	200.38
438.943	160.38
439.165	132.38
439.386	130.38
439.608	128.38
439.829	139.38
440.05	137.38
440.272	139.38
440.493	173.38
440.715	203.38
440.936	179.38
441.158	149.38
441.379	143.38
441.6	157.38
441.822	185.38
442.043	135.38
442.264	124.38
442.486	147.38
442.707	137.38
442.928	151.38
443.149	155.38
443.371	157.38
443.592	149.38
443.813	138.38
444.034	141.38
444.255	142.38
444.476	145.38
444.698	141.38
444.919	146.38
445.14	299.38
445.361	204.38
445.582	155.38
445.803	164.38
446.024	167.38
446.245	162.38
446.466	166.38
446.687	160.38
446.908	150.38
447.129	147.38
447.35	145.38
447.571	150.38
447.792	139.38
448.013	138.38
448.234	152.38
448.455	145.38
448.675	127.38
448.896	137.38
449.117	154.38
449.338	149.38
449.559	161.38
449.779	156.38
450	159.38
450.221	163.38
450.442	147.38
450.662	145.38
450.883	135.38
451.104	139.38
451.324	137.38
451.545	138.38
451.766	143.38
451.986	133.38
452.207	129.38
452.428	142.38
452.648	129.38
452.869	140.38
453.089	157.38
453.31	159.38
453.53	124.38
453.751	134.38
453.971	151.38
454.192	146.38
454.412	134.38
454.633	115.38
454.853	133.38
455.073	136.38
455.294	147.38
455.514	147.38
455.734	139.38
455.955	141.38
456.175	160.38
456.395	140.38
456.616	135.38
456.836	123.38
457.056	131.38
457.276	129.38
457.497	120.38
457.717	129.38
457.937	129.38
458.157	136.38
458.377	142.38
458.598	124.38
458.818	140.38
459.038	134.38
459.258	157.38
459.478	145.38
459.698	157.38
459.918	157.38
460.138	150.38
460.358	142.38
460.578	145.38
460.798	144.38
461.018	151.38
461.238	145.38
461.458	151.38
461.678	135.38
461.898	156.38
462.118	157.38
462.338	161.38
462.558	165.38
462.777	167.38
462.997	157.38
463.217	156.38
463.437	156.38
463.657	181.38
463.876	153.38
464.096	165.38
464.316	165.38
464.536	159.38
464.755	182.38
464.975	165.38
465.195	167.38
465.414	155.38
465.634	164.38
465.854	145.38
466.073	155.38
466.293	150.38
466.512	157.38
466.732	163.38
466.951	171.38
467.171	152.38
467.391	125.38
467.61	142.38
467.829	133.38
468.049	142.38
468.268	153.38
468.488	147.38
468.707	140.38
468.927	156.38
469.146	184.38
469.365	166.38
469.585	154.38
469.804	139.38
470.023	182.38
470.243	157.38
470.462	141.38
470.681	151.38
470.901	156.38
471.12	145.38
471.339	156.38
471.558	145.38
471.777	161.38
471.997	162.38
472.216	160.38
472.435	163.38
472.654	162.38
472.873	153.38
473.092	164.38
473.311	185.38
473.53	143.38
473.749	156.38
473.968	155.38
474.187	160.38
474.406	132.38
474.625	131.38
474.844	159.38
475.063	153.38
475.282	157.38
475.501	156.38
475.72	196.38
475.939	196.38
476.158	166.38
476.377	197.38
476.596	203.38
476.814	227.38
477.033	201.38
477.252	185.38
477.471	158.38
477.69	151.38
477.908	172.38
478.127	173.38
478.346	173.38
478.564	186.38
478.783	167.38
479.002	188.38
479.22	184.38
479.439	197.38
479.658	183.38
479.876	185.38
480.095	185.38
480.313	190.38
480.532	186.38
480.751	172.38
480.969	159.38
481.188	193.38
481.406	191.38
481.624	179.38
481.843	179.38
482.061	166.38
482.28	181.38
482.498	223.38
482.717	215.38
482.935	178.38
483.153	168.38
483.372	154.38
483.59	161.38
483.808	158.38
484.027	172.38
484.245	165.38
484.463	150.38
484.681	180.38
484.9	179.38
485.118	181.38
485.336	169.38
485.554	175.38
485.772	161.38
485.99	173.38
486.209	177.38
486.427	186.38
486.645	179.38
486.863	198.38
487.081	188.38
487.299	209.38
487.517	202.38
487.735	164.38
487.953	178.38
488.171	189.38
488.389	179.38
488.607	178.38
488.825	179.38
489.043	191.38
489.261	219.38
489.479	233.38
489.696	188.38
489.914	165.38
490.132	162.38
490.35	185.38
490.568	153.38
490.786	170.38
491.003	163.38
491.221	167.38
491.439	169.38
491.657	172.38
491.874	170.38
492.092	227.38
492.31	273.38
492.527	257.38
492.745	224.38
492.963	180.38
493.18	181.38
493.398	201.38
493.615	183.38
493.833	189.38
494.05	179.38
494.268	188.38
494.485	160.38
494.703	182.38
494.92	172.38
495.138	168.38
495.355	188.38
495.573	207.38
495.79	218.38
496.008	249.38
496.225	225.38
496.442	215.38
496.66	196.38
496.877	203.38
497.094	204.38
497.312	191.38
497.529	188.38
497.746	172.38
497.963	199.38
498.181	215.38
498.398	218.38
498.615	227.38
498.832	247.38
499.049	232.38
499.267	210.38
499.484	229.38
499.701	221.38
499.918	225.38
500.135	246.38
500.352	265.38
500.569	273.38
500.786	264.38
501.003	271.38
501.22	252.38
501.437	224.38
501.654	233.38
501.871	230.38
502.088	224.38
502.305	194.38
502.522	206.38
502.739	219.38
