Data from NickelSpatula_HRD10591_16-33-28-125.txt Node
Date: Mon Jul 22 16:33:28 EDT 2019
User: cochatt
Spectrometer: HR+D1059
Trigger mode: 1
Integration Time (sec): 1.000000E-1
Scans to average: 1
Electric dark correction enabled: true
Nonlinearity correction enabled: false
Boxcar width: 0
XAxis mode: Wavelengths
Number of Pixels in Spectrum: 2048
>>>>>Begin Spectral Data<<<<<
223.165	-17.31
223.4	-17.31
223.635	-17.31
223.869	-13.31
224.104	-10.31
224.338	-12.31
224.573	-20.31
224.808	-16.31
225.042	-5.31
225.277	-13.31
225.511	-7.31
225.746	1.69
225.98	2.69
226.215	25.69
226.449	18.69
226.683	5.69
226.918	22.69
227.152	38.69
227.387	33.69
227.621	33.69
227.856	58.69
228.09	57.69
228.324	46.69
228.559	54.69
228.793	61.69
229.027	73.69
229.262	83.69
229.496	86.69
229.73	83.69
229.964	84.69
230.199	99.69
230.433	101.69
230.667	99.69
230.901	90.69
231.136	104.69
231.37	86.69
231.604	105.69
231.838	108.69
232.072	97.69
232.306	109.69
232.541	114.69
232.775	111.69
233.009	111.69
233.243	107.69
233.477	110.69
233.711	104.69
233.945	119.69
234.179	110.69
234.413	121.69
234.647	104.69
234.881	148.69
235.115	122.69
235.349	130.69
235.583	114.69
235.817	125.69
236.051	110.69
236.285	130.69
236.519	121.69
236.753	135.69
236.987	118.69
237.221	116.69
237.455	126.69
237.689	134.69
237.922	121.69
238.156	142.69
238.39	147.69
238.624	152.69
238.858	154.69
239.091	134.69
239.325	136.69
239.559	131.69
239.793	132.69
240.027	142.69
240.26	141.69
240.494	155.69
240.728	145.69
240.961	160.69
241.195	154.69
241.429	142.69
241.662	153.69
241.896	154.69
242.13	138.69
242.363	128.69
242.597	134.69
242.83	140.69
243.064	142.69
243.298	151.69
243.531	144.69
243.765	154.69
243.998	152.69
244.232	162.69
244.465	152.69
244.699	148.69
244.932	160.69
245.166	154.69
245.399	145.69
245.633	142.69
245.866	154.69
246.099	163.69
246.333	175.69
246.566	170.69
246.8	174.69
247.033	175.69
247.266	164.69
247.5	159.69
247.733	147.69
247.966	144.69
248.2	156.69
248.433	194.69
248.666	193.69
248.899	188.69
249.133	169.69
249.366	194.69
249.599	221.69
249.832	198.69
250.066	188.69
250.299	178.69
250.532	181.69
250.765	167.69
250.998	170.69
251.231	162.69
251.465	175.69
251.698	182.69
251.931	184.69
252.164	192.69
252.397	213.69
252.63	203.69
252.863	220.69
253.096	246.69
253.329	208.69
253.562	231.69
253.795	236.69
254.028	271.69
254.261	266.69
254.494	261.69
254.727	252.69
254.96	241.69
255.193	249.69
255.426	243.69
255.659	193.69
255.892	182.69
256.124	200.69
256.357	219.69
256.59	238.69
256.823	227.69
257.056	211.69
257.289	211.69
257.521	221.69
257.754	233.69
257.987	286.69
258.22	260.69
258.452	214.69
258.685	235.69
258.918	233.69
259.151	257.69
259.383	272.69
259.616	295.69
259.849	302.69
260.081	317.69
260.314	363.69
260.547	288.69
260.779	310.69
261.012	309.69
261.244	323.69
261.477	325.69
261.71	295.69
261.942	249.69
262.175	257.69
262.407	250.69
262.64	249.69
262.872	286.69
263.105	308.69
263.337	315.69
263.57	299.69
263.802	231.69
264.035	198.69
264.267	207.69
264.499	192.69
264.732	164.69
264.964	164.69
265.197	175.69
265.429	181.69
265.661	182.69
265.894	195.69
266.126	192.69
266.358	222.69
266.591	266.69
266.823	301.69
267.055	295.69
267.287	256.69
267.52	280.69
267.752	269.69
267.984	299.69
268.216	288.69
268.448	264.69
268.681	247.69
268.913	249.69
269.145	255.69
269.377	288.69
269.609	275.69
269.841	271.69
270.073	280.69
270.306	302.69
270.538	302.69
270.77	287.69
271.002	294.69
271.234	306.69
271.466	301.69
271.698	283.69
271.93	261.69
272.162	269.69
272.394	306.69
272.626	278.69
272.858	282.69
273.09	297.69
273.322	265.69
273.553	236.69
273.785	266.69
274.017	351.69
274.249	413.69
274.481	421.69
274.713	460.69
274.945	514.69
275.176	559.69
275.408	503.69
275.64	446.69
275.872	445.69
276.104	390.69
276.335	346.69
276.567	346.69
276.799	372.69
277.031	386.69
277.262	323.69
277.494	272.69
277.726	251.69
277.957	275.69
278.189	306.69
278.421	299.69
278.652	281.69
278.884	282.69
279.115	251.69
279.347	257.69
279.579	247.69
279.81	259.69
280.042	269.69
280.273	277.69
280.505	237.69
280.736	228.69
280.968	224.69
281.199	237.69
281.431	252.69
281.662	263.69
281.894	254.69
282.125	261.69
282.356	268.69
282.588	298.69
282.819	227.69
283.051	262.69
283.282	318.69
283.513	382.69
283.745	388.69
283.976	412.69
284.207	388.69
284.439	376.69
284.67	373.69
284.901	321.69
285.132	358.69
285.364	392.69
285.595	339.69
285.826	360.69
286.057	372.69
286.288	367.69
286.52	370.69
286.751	404.69
286.982	409.69
287.213	354.69
287.444	337.69
287.675	343.69
287.906	365.69
288.138	319.69
288.369	278.69
288.6	270.69
288.831	276.69
289.062	313.69
289.293	341.69
289.524	319.69
289.755	325.69
289.986	310.69
290.217	313.69
290.448	229.69
290.679	211.69
290.91	212.69
291.141	189.69
291.371	218.69
291.602	221.69
291.833	232.69
292.064	207.69
292.295	242.69
292.526	278.69
292.757	277.69
292.987	307.69
293.218	318.69
293.449	313.69
293.68	334.69
293.91	330.69
294.141	331.69
294.372	317.69
294.603	285.69
294.833	302.69
295.064	347.69
295.295	363.69
295.525	292.69
295.756	261.69
295.987	226.69
296.217	219.69
296.448	238.69
296.679	238.69
296.909	231.69
297.14	262.69
297.37	287.69
297.601	262.69
297.831	235.69
298.062	262.69
298.292	270.69
298.523	314.69
298.753	332.69
298.984	301.69
299.214	260.69
299.445	218.69
299.675	218.69
299.905	218.69
300.136	222.69
300.366	265.69
300.597	236.69
300.827	214.69
301.057	212.69
301.288	211.69
301.518	231.69
301.748	231.69
301.979	242.69
302.209	274.69
302.439	261.69
302.669	244.69
302.9	251.69
303.13	246.69
303.36	234.69
303.59	221.69
303.82	247.69
304.051	246.69
304.281	284.69
304.511	269.69
304.741	236.69
304.971	239.69
305.201	259.69
305.431	248.69
305.661	222.69
305.891	229.69
306.121	231.69
306.352	215.69
306.582	194.69
306.812	202.69
307.042	186.69
307.272	191.69
307.502	176.69
307.731	194.69
307.961	193.69
308.191	195.69
308.421	193.69
308.651	180.69
308.881	175.69
309.111	170.69
309.341	202.69
309.571	207.69
309.8	218.69
310.03	212.69
310.26	202.69
310.49	211.69
310.72	182.69
310.949	190.69
311.179	198.69
311.409	182.69
311.639	234.69
311.868	288.69
312.098	350.69
312.328	371.69
312.557	371.69
312.787	362.69
313.017	312.69
313.246	328.69
313.476	373.69
313.706	322.69
313.935	274.69
314.165	224.69
314.394	209.69
314.624	206.69
314.853	236.69
315.083	220.69
315.312	235.69
315.542	202.69
315.771	204.69
316.001	186.69
316.23	185.69
316.46	189.69
316.689	196.69
316.919	198.69
317.148	197.69
317.377	190.69
317.607	196.69
317.836	183.69
318.065	227.69
318.295	263.69
318.524	237.69
318.753	222.69
318.983	203.69
319.212	207.69
319.441	222.69
319.67	214.69
319.9	252.69
320.129	231.69
320.358	206.69
320.587	201.69
320.816	229.69
321.046	226.69
321.275	258.69
321.504	250.69
321.733	256.69
321.962	232.69
322.191	245.69
322.42	226.69
322.649	232.69
322.878	237.69
323.108	247.69
323.337	237.69
323.566	226.69
323.795	216.69
324.024	229.69
324.253	206.69
324.482	208.69
324.71	228.69
324.939	240.69
325.168	241.69
325.397	203.69
325.626	204.69
325.855	193.69
326.084	197.69
326.313	197.69
326.542	190.69
326.77	199.69
326.999	194.69
327.228	188.69
327.457	215.69
327.686	220.69
327.914	191.69
328.143	196.69
328.372	175.69
328.6	193.69
328.829	196.69
329.058	210.69
329.287	205.69
329.515	204.69
329.744	198.69
329.972	194.69
330.201	177.69
330.43	210.69
330.658	224.69
330.887	216.69
331.115	215.69
331.344	228.69
331.572	216.69
331.801	207.69
332.03	214.69
332.258	192.69
332.486	216.69
332.715	218.69
332.943	205.69
333.172	204.69
333.4	226.69
333.629	255.69
333.857	240.69
334.085	259.69
334.314	250.69
334.542	238.69
334.771	233.69
334.999	224.69
335.227	213.69
335.455	182.69
335.684	220.69
335.912	250.69
336.14	263.69
336.369	279.69
336.597	259.69
336.825	287.69
337.053	297.69
337.281	281.69
337.51	225.69
337.738	195.69
337.966	210.69
338.194	239.69
338.422	222.69
338.65	225.69
338.878	211.69
339.106	218.69
339.334	212.69
339.562	230.69
339.79	200.69
340.018	202.69
340.246	232.69
340.474	236.69
340.702	270.69
340.93	265.69
341.158	276.69
341.386	226.69
341.614	221.69
341.842	226.69
342.07	226.69
342.298	252.69
342.526	267.69
342.754	234.69
342.981	221.69
343.209	214.69
343.437	247.69
343.665	259.69
343.893	245.69
344.12	271.69
344.348	310.69
344.576	295.69
344.804	258.69
345.031	229.69
345.259	215.69
345.487	208.69
345.714	229.69
345.942	216.69
346.17	245.69
346.397	242.69
346.625	198.69
346.853	192.69
347.08	211.69
347.308	198.69
347.535	230.69
347.763	232.69
347.99	198.69
348.218	197.69
348.445	202.69
348.673	195.69
348.9	213.69
349.128	218.69
349.355	221.69
349.583	217.69
349.81	231.69
350.037	212.69
350.265	180.69
350.492	169.69
350.72	175.69
350.947	181.69
351.174	175.69
351.402	186.69
351.629	205.69
351.856	198.69
352.083	189.69
352.311	199.69
352.538	213.69
352.765	240.69
352.992	223.69
353.22	199.69
353.447	221.69
353.674	201.69
353.901	220.69
354.128	200.69
354.355	224.69
354.583	212.69
354.81	217.69
355.037	233.69
355.264	211.69
355.491	217.69
355.718	240.69
355.945	233.69
356.172	206.69
356.399	216.69
356.626	246.69
356.853	289.69
357.08	314.69
357.307	331.69
357.534	266.69
357.761	266.69
357.988	299.69
358.215	334.69
358.441	317.69
358.668	307.69
358.895	300.69
359.122	229.69
359.349	243.69
359.576	249.69
359.802	223.69
360.029	189.69
360.256	216.69
360.483	238.69
360.709	277.69
360.936	319.69
361.163	283.69
361.39	235.69
361.616	229.69
361.843	223.69
362.07	286.69
362.296	247.69
362.523	221.69
362.749	201.69
362.976	210.69
363.203	218.69
363.429	246.69
363.656	221.69
363.882	204.69
364.109	211.69
364.335	196.69
364.562	197.69
364.788	211.69
365.015	245.69
365.241	223.69
365.468	208.69
365.694	186.69
365.92	185.69
366.147	166.69
366.373	180.69
366.599	166.69
366.826	178.69
367.052	173.69
367.278	190.69
367.505	186.69
367.731	194.69
367.957	194.69
368.184	217.69
368.41	203.69
368.636	204.69
368.862	211.69
369.089	221.69
369.315	192.69
369.541	199.69
369.767	206.69
369.993	169.69
370.219	189.69
370.445	195.69
370.672	203.69
370.898	219.69
371.124	234.69
371.35	186.69
371.576	204.69
371.802	207.69
372.028	215.69
372.254	239.69
372.48	225.69
372.706	212.69
372.932	222.69
373.158	221.69
373.384	232.69
373.61	288.69
373.835	308.69
374.061	254.69
374.287	229.69
374.513	267.69
374.739	294.69
374.965	311.69
375.191	296.69
375.416	227.69
375.642	206.69
375.868	235.69
376.094	236.69
376.319	224.69
376.545	229.69
376.771	243.69
376.997	244.69
377.222	198.69
377.448	184.69
377.674	187.69
377.899	162.69
378.125	160.69
378.35	184.69
378.576	170.69
378.802	173.69
379.027	193.69
379.253	195.69
379.478	182.69
379.704	211.69
379.929	230.69
380.155	223.69
380.38	215.69
380.606	208.69
380.831	243.69
381.057	218.69
381.282	201.69
381.507	229.69
381.733	253.69
381.958	258.69
382.184	280.69
382.409	290.69
382.634	308.69
382.86	307.69
383.085	272.69
383.31	226.69
383.535	223.69
383.761	237.69
383.986	240.69
384.211	261.69
384.436	266.69
384.662	213.69
384.887	237.69
385.112	205.69
385.337	218.69
385.562	205.69
385.787	234.69
386.013	265.69
386.238	249.69
386.463	222.69
386.688	214.69
386.913	200.69
387.138	204.69
387.363	195.69
387.588	210.69
387.813	211.69
388.038	235.69
388.263	204.69
388.488	200.69
388.713	224.69
388.938	255.69
389.163	228.69
389.387	202.69
389.612	201.69
389.837	228.69
390.062	196.69
390.287	198.69
390.512	210.69
390.736	208.69
390.961	219.69
391.186	180.69
391.411	199.69
391.636	192.69
391.86	209.69
392.085	232.69
392.31	223.69
392.534	215.69
392.759	223.69
392.984	226.69
393.208	220.69
393.433	206.69
393.658	216.69
393.882	187.69
394.107	182.69
394.331	196.69
394.556	202.69
394.78	199.69
395.005	196.69
395.229	206.69
395.454	206.69
395.678	197.69
395.903	215.69
396.127	199.69
396.352	214.69
396.576	219.69
396.801	224.69
397.025	266.69
397.249	251.69
397.474	210.69
397.698	207.69
397.922	222.69
398.147	203.69
398.371	202.69
398.595	212.69
398.82	219.69
399.044	234.69
399.268	235.69
399.492	252.69
399.717	264.69
399.941	238.69
400.165	249.69
400.389	241.69
400.613	230.69
400.837	215.69
401.062	206.69
401.286	199.69
401.51	219.69
401.734	207.69
401.958	217.69
402.182	211.69
402.406	222.69
402.63	221.69
402.854	219.69
403.078	246.69
403.302	300.69
403.526	310.69
403.75	287.69
403.974	231.69
404.198	251.69
404.422	281.69
404.645	283.69
404.869	311.69
405.093	260.69
405.317	246.69
405.541	224.69
405.765	226.69
405.988	231.69
406.212	251.69
406.436	256.69
406.66	295.69
406.883	267.69
407.107	244.69
407.331	288.69
407.555	282.69
407.778	256.69
408.002	237.69
408.226	265.69
408.449	239.69
408.673	237.69
408.896	227.69
409.12	208.69
409.344	224.69
409.567	223.69
409.791	214.69
410.014	218.69
410.238	219.69
410.461	205.69
410.685	216.69
410.908	207.69
411.132	214.69
411.355	216.69
411.578	227.69
411.802	202.69
412.025	213.69
412.249	226.69
412.472	211.69
412.695	203.69
412.919	215.69
413.142	211.69
413.365	239.69
413.589	236.69
413.812	239.69
414.035	212.69
414.258	205.69
414.482	226.69
414.705	231.69
414.928	215.69
415.151	201.69
415.374	199.69
415.597	204.69
415.821	224.69
416.044	201.69
416.267	206.69
416.49	222.69
416.713	224.69
416.936	198.69
417.159	213.69
417.382	206.69
417.605	214.69
417.828	219.69
418.051	191.69
418.274	219.69
418.497	208.69
418.72	206.69
418.943	230.69
419.166	225.69
419.389	238.69
419.611	226.69
419.834	239.69
420.057	253.69
420.28	242.69
420.503	231.69
420.726	201.69
420.948	206.69
421.171	206.69
421.394	205.69
421.617	206.69
421.839	198.69
422.062	228.69
422.285	210.69
422.507	206.69
422.73	211.69
422.953	213.69
423.175	208.69
423.398	210.69
423.621	231.69
423.843	262.69
424.066	226.69
424.288	232.69
424.511	196.69
424.733	226.69
424.956	221.69
425.178	223.69
425.401	259.69
425.623	273.69
425.846	253.69
426.068	220.69
426.291	230.69
426.513	228.69
426.735	206.69
426.958	210.69
427.18	236.69
427.402	277.69
427.625	285.69
427.847	256.69
428.069	214.69
428.292	203.69
428.514	211.69
428.736	200.69
428.958	230.69
429.181	260.69
429.403	228.69
429.625	195.69
429.847	206.69
430.069	211.69
430.292	214.69
430.514	190.69
430.736	214.69
430.958	234.69
431.18	219.69
431.402	192.69
431.624	187.69
431.846	176.69
432.068	200.69
432.29	175.69
432.512	223.69
432.734	247.69
432.956	237.69
433.178	204.69
433.4	185.69
433.622	188.69
433.844	194.69
434.066	220.69
434.287	224.69
434.509	196.69
434.731	212.69
434.953	202.69
435.175	215.69
435.397	244.69
435.618	216.69
435.84	199.69
436.062	199.69
436.284	190.69
436.505	178.69
436.727	179.69
436.949	193.69
437.17	198.69
437.392	180.69
437.614	192.69
437.835	169.69
438.057	196.69
438.278	211.69
438.5	286.69
438.721	274.69
438.943	197.69
439.165	194.69
439.386	184.69
439.608	173.69
439.829	175.69
440.05	188.69
440.272	201.69
440.493	219.69
440.715	245.69
440.936	229.69
441.158	209.69
441.379	206.69
441.6	222.69
441.822	238.69
442.043	214.69
442.264	196.69
442.486	203.69
442.707	196.69
442.928	202.69
443.149	207.69
443.371	206.69
443.592	209.69
443.813	211.69
444.034	186.69
444.255	196.69
444.476	218.69
444.698	218.69
444.919	217.69
445.14	311.69
445.361	270.69
445.582	227.69
445.803	213.69
446.024	218.69
446.245	207.69
446.466	221.69
446.687	202.69
446.908	216.69
447.129	197.69
447.35	188.69
447.571	188.69
447.792	187.69
448.013	202.69
448.234	190.69
448.455	180.69
448.675	190.69
448.896	204.69
449.117	190.69
449.338	184.69
449.559	191.69
449.779	195.69
450	198.69
450.221	187.69
450.442	192.69
450.662	195.69
450.883	191.69
451.104	175.69
451.324	198.69
451.545	190.69
451.766	187.69
451.986	192.69
452.207	166.69
452.428	182.69
452.648	166.69
452.869	188.69
453.089	193.69
453.31	192.69
453.53	175.69
453.751	187.69
453.971	178.69
454.192	190.69
454.412	183.69
454.633	175.69
454.853	195.69
455.073	167.69
455.294	180.69
455.514	169.69
455.734	186.69
455.955	203.69
456.175	183.69
456.395	163.69
456.616	159.69
456.836	169.69
457.056	169.69
457.276	170.69
457.497	170.69
457.717	159.69
457.937	168.69
458.157	173.69
458.377	187.69
458.598	158.69
458.818	170.69
459.038	179.69
459.258	188.69
459.478	203.69
459.698	203.69
459.918	191.69
460.138	207.69
460.358	209.69
460.578	206.69
460.798	212.69
461.018	188.69
461.238	199.69
461.458	199.69
461.678	198.69
461.898	220.69
462.118	213.69
462.338	211.69
462.558	230.69
462.777	228.69
462.997	250.69
463.217	244.69
463.437	232.69
463.657	228.69
463.876	229.69
464.096	251.69
464.316	234.69
464.536	232.69
464.755	237.69
464.975	245.69
465.195	210.69
465.414	249.69
465.634	233.69
465.854	215.69
466.073	194.69
466.293	206.69
466.512	215.69
466.732	216.69
466.951	208.69
467.171	202.69
467.391	204.69
467.61	200.69
467.829	197.69
468.049	190.69
468.268	195.69
468.488	178.69
468.707	191.69
468.927	212.69
469.146	235.69
469.365	222.69
469.585	213.69
469.804	207.69
470.023	226.69
470.243	221.69
470.462	200.69
470.681	204.69
470.901	199.69
471.12	220.69
471.339	217.69
471.558	206.69
471.777	202.69
471.997	213.69
472.216	223.69
472.435	242.69
472.654	208.69
472.873	204.69
473.092	217.69
473.311	216.69
473.53	205.69
473.749	198.69
473.968	217.69
474.187	222.69
474.406	219.69
474.625	204.69
474.844	199.69
475.063	221.69
475.282	211.69
475.501	236.69
475.72	266.69
475.939	218.69
476.158	229.69
476.377	255.69
476.596	294.69
476.814	296.69
477.033	257.69
477.252	220.69
477.471	213.69
477.69	210.69
477.908	226.69
478.127	231.69
478.346	229.69
478.564	264.69
478.783	245.69
479.002	225.69
479.22	254.69
479.439	272.69
479.658	252.69
479.876	232.69
480.095	242.69
480.313	247.69
480.532	233.69
480.751	243.69
480.969	235.69
481.188	263.69
481.406	254.69
481.624	242.69
481.843	246.69
482.061	235.69
482.28	240.69
482.498	301.69
482.717	290.69
482.935	257.69
483.153	235.69
483.372	209.69
483.59	226.69
483.808	228.69
484.027	218.69
484.245	177.69
484.463	190.69
484.681	219.69
484.9	235.69
485.118	243.69
485.336	232.69
485.554	214.69
485.772	223.69
485.99	243.69
486.209	238.69
486.427	239.69
486.645	243.69
486.863	270.69
487.081	260.69
487.299	269.69
487.517	272.69
487.735	249.69
487.953	266.69
488.171	220.69
488.389	222.69
488.607	223.69
488.825	243.69
489.043	250.69
489.261	284.69
489.479	301.69
489.696	264.69
489.914	245.69
490.132	229.69
490.35	222.69
490.568	238.69
490.786	238.69
491.003	239.69
491.221	256.69
491.439	224.69
491.657	230.69
491.874	233.69
492.092	288.69
492.31	341.69
492.527	339.69
492.745	297.69
492.963	273.69
493.18	252.69
493.398	264.69
493.615	260.69
493.833	250.69
494.05	244.69
494.268	259.69
494.485	251.69
494.703	245.69
494.92	238.69
495.138	248.69
495.355	239.69
495.573	260.69
495.79	275.69
496.008	347.69
496.225	294.69
496.442	254.69
496.66	259.69
496.877	266.69
497.094	282.69
497.312	263.69
497.529	275.69
497.746	260.69
497.963	258.69
498.181	292.69
498.398	303.69
498.615	310.69
498.832	321.69
499.049	356.69
499.267	312.69
499.484	306.69
499.701	342.69
499.918	343.69
500.135	407.69
500.352	438.69
500.569	462.69
500.786	463.69
501.003	442.69
501.22	406.69
501.437	372.69
501.654	357.69
501.871	342.69
502.088	346.69
502.305	291.69
502.522	307.69
