Data from NickelSpatula_HRD10591_16-34-20-126.txt Node
Date: Mon Jul 22 16:34:20 EDT 2019
User: cochatt
Spectrometer: HR+D1059
Trigger mode: 1
Integration Time (sec): 1.000000E-1
Scans to average: 1
Electric dark correction enabled: true
Nonlinearity correction enabled: false
Boxcar width: 0
XAxis mode: Wavelengths
Number of Pixels in Spectrum: 2048
>>>>>Begin Spectral Data<<<<<
223.165	-17.88
223.4	-17.88
223.635	-17.88
223.869	-26.88
224.104	-21.88
224.338	-18.88
224.573	-17.88
224.808	-7.88
225.042	-5.88
225.277	-5.88
225.511	1.12
225.746	11.12
225.98	7.12
226.215	21.12
226.449	1.12
226.683	21.12
226.918	34.12
227.152	26.12
227.387	26.12
227.621	31.12
227.856	41.12
228.09	37.12
228.324	43.12
228.559	58.12
228.793	65.12
229.027	74.12
229.262	71.12
229.496	74.12
229.73	73.12
229.964	93.12
230.199	100.12
230.433	101.12
230.667	98.12
230.901	92.12
231.136	97.12
231.37	102.12
231.604	107.12
231.838	100.12
232.072	115.12
232.306	94.12
232.541	101.12
232.775	97.12
233.009	90.12
233.243	107.12
233.477	111.12
233.711	117.12
233.945	116.12
234.179	120.12
234.413	118.12
234.647	121.12
234.881	130.12
235.115	139.12
235.349	134.12
235.583	124.12
235.817	113.12
236.051	113.12
236.285	116.12
236.519	131.12
236.753	135.12
236.987	133.12
237.221	117.12
237.455	107.12
237.689	137.12
237.922	134.12
238.156	138.12
238.39	155.12
238.624	137.12
238.858	180.12
239.091	126.12
239.325	137.12
239.559	129.12
239.793	151.12
240.027	137.12
240.26	165.12
240.494	147.12
240.728	139.12
240.961	162.12
241.195	163.12
241.429	160.12
241.662	155.12
241.896	131.12
242.13	134.12
242.363	123.12
242.597	129.12
242.83	143.12
243.064	140.12
243.298	165.12
243.531	149.12
243.765	166.12
243.998	172.12
244.232	138.12
244.465	151.12
244.699	155.12
244.932	167.12
245.166	162.12
245.399	131.12
245.633	149.12
245.866	142.12
246.099	159.12
246.333	182.12
246.566	189.12
246.8	182.12
247.033	187.12
247.266	159.12
247.5	148.12
247.733	174.12
247.966	156.12
248.2	165.12
248.433	184.12
248.666	181.12
248.899	183.12
249.133	187.12
249.366	219.12
249.599	216.12
249.832	204.12
250.066	201.12
250.299	197.12
250.532	172.12
250.765	187.12
250.998	172.12
251.231	160.12
251.465	181.12
251.698	207.12
251.931	189.12
252.164	180.12
252.397	207.12
252.63	213.12
252.863	234.12
253.096	243.12
253.329	215.12
253.562	219.12
253.795	262.12
254.028	275.12
254.261	286.12
254.494	263.12
254.727	230.12
254.96	214.12
255.193	269.12
255.426	252.12
255.659	201.12
255.892	193.12
256.124	193.12
256.357	227.12
256.59	270.12
256.823	246.12
257.056	214.12
257.289	205.12
257.521	220.12
257.754	243.12
257.987	287.12
258.22	237.12
258.452	224.12
258.685	230.12
258.918	266.12
259.151	250.12
259.383	271.12
259.616	305.12
259.849	327.12
260.081	325.12
260.314	341.12
260.547	294.12
260.779	312.12
261.012	337.12
261.244	327.12
261.477	327.12
261.71	303.12
261.942	275.12
262.175	290.12
262.407	274.12
262.64	270.12
262.872	287.12
263.105	323.12
263.337	337.12
263.57	307.12
263.802	236.12
264.035	206.12
264.267	205.12
264.499	201.12
264.732	188.12
264.964	181.12
265.197	175.12
265.429	184.12
265.661	211.12
265.894	212.12
266.126	191.12
266.358	237.12
266.591	259.12
266.823	308.12
267.055	309.12
267.287	286.12
267.52	251.12
267.752	297.12
267.984	301.12
268.216	296.12
268.448	271.12
268.681	264.12
268.913	265.12
269.145	282.12
269.377	293.12
269.609	278.12
269.841	287.12
270.073	296.12
270.306	295.12
270.538	295.12
270.77	316.12
271.002	306.12
271.234	315.12
271.466	326.12
271.698	312.12
271.93	291.12
272.162	286.12
272.394	274.12
272.626	278.12
272.858	305.12
273.09	294.12
273.322	270.12
273.553	258.12
273.785	291.12
274.017	363.12
274.249	414.12
274.481	435.12
274.713	463.12
274.945	515.12
275.176	547.12
275.408	507.12
275.64	463.12
275.872	460.12
276.104	433.12
276.335	377.12
276.567	359.12
276.799	377.12
277.031	398.12
277.262	337.12
277.494	267.12
277.726	252.12
277.957	272.12
278.189	287.12
278.421	314.12
278.652	291.12
278.884	289.12
279.115	266.12
279.347	270.12
279.579	263.12
279.81	269.12
280.042	260.12
280.273	284.12
280.505	264.12
280.736	238.12
280.968	243.12
281.199	251.12
281.431	271.12
281.662	258.12
281.894	252.12
282.125	285.12
282.356	293.12
282.588	277.12
282.819	261.12
283.051	281.12
283.282	342.12
283.513	382.12
283.745	411.12
283.976	410.12
284.207	382.12
284.439	388.12
284.67	398.12
284.901	343.12
285.132	377.12
285.364	378.12
285.595	344.12
285.826	381.12
286.057	403.12
286.288	376.12
286.52	380.12
286.751	418.12
286.982	402.12
287.213	368.12
287.444	349.12
287.675	363.12
287.906	364.12
288.138	336.12
288.369	296.12
288.6	281.12
288.831	278.12
289.062	318.12
289.293	374.12
289.524	339.12
289.755	349.12
289.986	340.12
290.217	301.12
290.448	258.12
290.679	207.12
290.91	200.12
291.141	213.12
291.371	217.12
291.602	235.12
291.833	206.12
292.064	208.12
292.295	263.12
292.526	277.12
292.757	298.12
292.987	319.12
293.218	335.12
293.449	345.12
293.68	363.12
293.91	347.12
294.141	362.12
294.372	334.12
294.603	292.12
294.833	326.12
295.064	366.12
295.295	363.12
295.525	295.12
295.756	251.12
295.987	225.12
296.217	224.12
296.448	234.12
296.679	235.12
296.909	246.12
297.14	267.12
297.37	273.12
297.601	277.12
297.831	239.12
298.062	264.12
298.292	297.12
298.523	293.12
298.753	351.12
298.984	325.12
299.214	271.12
299.445	237.12
299.675	222.12
299.905	219.12
300.136	222.12
300.366	245.12
300.597	250.12
300.827	211.12
301.057	219.12
301.288	222.12
301.518	232.12
301.748	256.12
301.979	273.12
302.209	267.12
302.439	270.12
302.669	255.12
302.9	269.12
303.13	249.12
303.36	264.12
303.59	251.12
303.82	246.12
304.051	257.12
304.281	294.12
304.511	269.12
304.741	244.12
304.971	250.12
305.201	263.12
305.431	257.12
305.661	228.12
305.891	222.12
306.121	235.12
306.352	214.12
306.582	206.12
306.812	196.12
307.042	188.12
307.272	190.12
307.502	182.12
307.731	194.12
307.961	204.12
308.191	213.12
308.421	191.12
308.651	188.12
308.881	178.12
309.111	184.12
309.341	186.12
309.571	196.12
309.8	207.12
310.03	206.12
310.26	213.12
310.49	220.12
310.72	196.12
310.949	201.12
311.179	215.12
311.409	227.12
311.639	232.12
311.868	279.12
312.098	377.12
312.328	386.12
312.557	353.12
312.787	377.12
313.017	315.12
313.246	351.12
313.476	397.12
313.706	339.12
313.935	283.12
314.165	234.12
314.394	202.12
314.624	211.12
314.853	236.12
315.083	227.12
315.312	213.12
315.542	215.12
315.771	205.12
316.001	179.12
316.23	177.12
316.46	186.12
316.689	198.12
316.919	208.12
317.148	199.12
317.377	195.12
317.607	188.12
317.836	211.12
318.065	242.12
318.295	249.12
318.524	239.12
318.753	212.12
318.983	205.12
319.212	193.12
319.441	209.12
319.67	226.12
319.9	245.12
320.129	232.12
320.358	213.12
320.587	194.12
320.816	219.12
321.046	222.12
321.275	260.12
321.504	253.12
321.733	250.12
321.962	261.12
322.191	226.12
322.42	235.12
322.649	237.12
322.878	254.12
323.108	217.12
323.337	217.12
323.566	223.12
323.795	226.12
324.024	233.12
324.253	192.12
324.482	220.12
324.71	226.12
324.939	223.12
325.168	215.12
325.397	202.12
325.626	195.12
325.855	206.12
326.084	201.12
326.313	212.12
326.542	199.12
326.77	201.12
326.999	177.12
327.228	197.12
327.457	219.12
327.686	199.12
327.914	192.12
328.143	197.12
328.372	193.12
328.6	195.12
328.829	193.12
329.058	194.12
329.287	199.12
329.515	217.12
329.744	201.12
329.972	211.12
330.201	182.12
330.43	190.12
330.658	201.12
330.887	245.12
331.115	212.12
331.344	212.12
331.572	205.12
331.801	209.12
332.03	194.12
332.258	189.12
332.486	205.12
332.715	211.12
332.943	211.12
333.172	211.12
333.4	213.12
333.629	249.12
333.857	249.12
334.085	232.12
334.314	259.12
334.542	226.12
334.771	220.12
334.999	195.12
335.227	216.12
335.455	207.12
335.684	225.12
335.912	255.12
336.14	281.12
336.369	268.12
336.597	231.12
336.825	268.12
337.053	307.12
337.281	246.12
337.51	212.12
337.738	218.12
337.966	219.12
338.194	239.12
338.422	223.12
338.65	205.12
338.878	189.12
339.106	205.12
339.334	222.12
339.562	213.12
339.79	201.12
340.018	218.12
340.246	218.12
340.474	248.12
340.702	254.12
340.93	268.12
341.158	260.12
341.386	225.12
341.614	235.12
341.842	218.12
342.07	206.12
342.298	258.12
342.526	284.12
342.754	239.12
342.981	226.12
343.209	200.12
343.437	249.12
343.665	253.12
343.893	240.12
344.12	278.12
344.348	325.12
344.576	301.12
344.804	251.12
345.031	229.12
345.259	219.12
345.487	208.12
345.714	226.12
345.942	228.12
346.17	246.12
346.397	246.12
346.625	219.12
346.853	206.12
347.08	201.12
347.308	216.12
347.535	238.12
347.763	249.12
347.99	225.12
348.218	207.12
348.445	230.12
348.673	209.12
348.9	203.12
349.128	212.12
349.355	215.12
349.583	211.12
349.81	210.12
350.037	207.12
350.265	188.12
350.492	170.12
350.72	191.12
350.947	175.12
351.174	195.12
351.402	185.12
351.629	200.12
351.856	187.12
352.083	196.12
352.311	191.12
352.538	215.12
352.765	225.12
352.992	209.12
353.22	208.12
353.447	217.12
353.674	207.12
353.901	206.12
354.128	199.12
354.355	213.12
354.583	207.12
354.81	199.12
355.037	211.12
355.264	213.12
355.491	229.12
355.718	225.12
355.945	216.12
356.172	214.12
356.399	207.12
356.626	257.12
356.853	263.12
357.08	303.12
357.307	320.12
357.534	257.12
357.761	251.12
357.988	294.12
358.215	329.12
358.441	303.12
358.668	311.12
358.895	279.12
359.122	252.12
359.349	231.12
359.576	244.12
359.802	229.12
360.029	199.12
360.256	201.12
360.483	227.12
360.709	305.12
360.936	296.12
361.163	261.12
361.39	213.12
361.616	197.12
361.843	224.12
362.07	267.12
362.296	249.12
362.523	199.12
362.749	212.12
362.976	203.12
363.203	226.12
363.429	260.12
363.656	201.12
363.882	214.12
364.109	213.12
364.335	211.12
364.562	200.12
364.788	212.12
365.015	250.12
365.241	227.12
365.468	202.12
365.694	172.12
365.92	181.12
366.147	187.12
366.373	176.12
366.599	180.12
366.826	191.12
367.052	182.12
367.278	186.12
367.505	187.12
367.731	187.12
367.957	207.12
368.184	214.12
368.41	206.12
368.636	205.12
368.862	228.12
369.089	209.12
369.315	198.12
369.541	195.12
369.767	171.12
369.993	172.12
370.219	174.12
370.445	173.12
370.672	204.12
370.898	202.12
371.124	227.12
371.35	198.12
371.576	187.12
371.802	186.12
372.028	219.12
372.254	242.12
372.48	233.12
372.706	209.12
372.932	230.12
373.158	242.12
373.384	261.12
373.61	289.12
373.835	298.12
374.061	253.12
374.287	214.12
374.513	230.12
374.739	313.12
374.965	315.12
375.191	282.12
375.416	222.12
375.642	210.12
375.868	223.12
376.094	251.12
376.319	223.12
376.545	228.12
376.771	238.12
376.997	210.12
377.222	168.12
377.448	162.12
377.674	162.12
377.899	179.12
378.125	174.12
378.35	158.12
378.576	170.12
378.802	214.12
379.027	199.12
379.253	204.12
379.478	192.12
379.704	204.12
379.929	213.12
380.155	206.12
380.38	197.12
380.606	230.12
380.831	231.12
381.057	223.12
381.282	196.12
381.507	213.12
381.733	260.12
381.958	267.12
382.184	292.12
382.409	303.12
382.634	306.12
382.86	299.12
383.085	265.12
383.31	225.12
383.535	241.12
383.761	233.12
383.986	220.12
384.211	257.12
384.436	263.12
384.662	208.12
384.887	206.12
385.112	215.12
385.337	222.12
385.562	207.12
385.787	230.12
386.013	240.12
386.238	243.12
386.463	225.12
386.688	201.12
386.913	200.12
387.138	200.12
387.363	193.12
387.588	203.12
387.813	201.12
388.038	222.12
388.263	207.12
388.488	208.12
388.713	229.12
388.938	245.12
389.163	229.12
389.387	196.12
389.612	192.12
389.837	210.12
390.062	204.12
390.287	224.12
390.512	200.12
390.736	203.12
390.961	188.12
391.186	182.12
391.411	199.12
391.636	206.12
391.86	199.12
392.085	239.12
392.31	205.12
392.534	218.12
392.759	218.12
392.984	214.12
393.208	224.12
393.433	217.12
393.658	231.12
393.882	200.12
394.107	190.12
394.331	199.12
394.556	179.12
394.78	215.12
395.005	198.12
395.229	178.12
395.454	189.12
395.678	202.12
395.903	205.12
396.127	201.12
396.352	205.12
396.576	223.12
396.801	221.12
397.025	238.12
397.249	257.12
397.474	217.12
397.698	203.12
397.922	212.12
398.147	204.12
398.371	203.12
398.595	211.12
398.82	217.12
399.044	200.12
399.268	227.12
399.492	250.12
399.717	263.12
399.941	236.12
400.165	236.12
400.389	255.12
400.613	216.12
400.837	236.12
401.062	207.12
401.286	206.12
401.51	195.12
401.734	216.12
401.958	213.12
402.182	205.12
402.406	203.12
402.63	214.12
402.854	211.12
403.078	214.12
403.302	284.12
403.526	299.12
403.75	278.12
403.974	248.12
404.198	257.12
404.422	273.12
404.645	270.12
404.869	311.12
405.093	265.12
405.317	212.12
405.541	220.12
405.765	224.12
405.988	237.12
406.212	245.12
406.436	258.12
406.66	281.12
406.883	218.12
407.107	241.12
407.331	270.12
407.555	261.12
407.778	245.12
408.002	231.12
408.226	249.12
408.449	250.12
408.673	245.12
408.896	211.12
409.12	203.12
409.344	209.12
409.567	205.12
409.791	220.12
410.014	235.12
410.238	219.12
410.461	220.12
410.685	213.12
410.908	209.12
411.132	219.12
411.355	206.12
411.578	193.12
411.802	206.12
412.025	205.12
412.249	222.12
412.472	211.12
412.695	214.12
412.919	211.12
413.142	215.12
413.365	230.12
413.589	217.12
413.812	206.12
414.035	196.12
414.258	216.12
414.482	220.12
414.705	222.12
414.928	216.12
415.151	204.12
415.374	212.12
415.597	196.12
415.821	199.12
416.044	195.12
416.267	209.12
416.49	199.12
416.713	219.12
416.936	205.12
417.159	196.12
417.382	195.12
417.605	196.12
417.828	196.12
418.051	202.12
418.274	209.12
418.497	207.12
418.72	206.12
418.943	223.12
419.166	213.12
419.389	228.12
419.611	234.12
419.834	226.12
420.057	233.12
420.28	241.12
420.503	243.12
420.726	207.12
420.948	204.12
421.171	201.12
421.394	187.12
421.617	199.12
421.839	195.12
422.062	214.12
422.285	211.12
422.507	213.12
422.73	211.12
422.953	202.12
423.175	212.12
423.398	204.12
423.621	235.12
423.843	225.12
424.066	227.12
424.288	215.12
424.511	231.12
424.733	200.12
424.956	205.12
425.178	210.12
425.401	255.12
425.623	297.12
425.846	257.12
426.068	224.12
426.291	236.12
426.513	228.12
426.735	250.12
426.958	206.12
427.18	231.12
427.402	270.12
427.625	283.12
427.847	261.12
428.069	187.12
428.292	209.12
428.514	198.12
428.736	195.12
428.958	202.12
429.181	268.12
429.403	231.12
429.625	223.12
429.847	190.12
430.069	201.12
430.292	212.12
430.514	199.12
430.736	200.12
430.958	219.12
431.18	226.12
431.402	183.12
431.624	190.12
431.846	197.12
432.068	185.12
432.29	194.12
432.512	198.12
432.734	231.12
432.956	245.12
433.178	207.12
433.4	187.12
433.622	200.12
433.844	200.12
434.066	228.12
434.287	216.12
434.509	218.12
434.731	223.12
434.953	199.12
435.175	198.12
435.397	238.12
435.618	219.12
435.84	203.12
436.062	195.12
436.284	198.12
436.505	189.12
436.727	187.12
436.949	182.12
437.17	192.12
437.392	198.12
437.614	199.12
437.835	194.12
438.057	190.12
438.278	205.12
438.5	270.12
438.721	282.12
438.943	193.12
439.165	193.12
439.386	166.12
439.608	163.12
439.829	177.12
440.05	188.12
440.272	186.12
440.493	220.12
440.715	246.12
440.936	219.12
441.158	197.12
441.379	204.12
441.6	225.12
441.822	228.12
442.043	191.12
442.264	190.12
442.486	186.12
442.707	198.12
442.928	205.12
443.149	203.12
443.371	186.12
443.592	227.12
443.813	205.12
444.034	201.12
444.255	185.12
444.476	219.12
444.698	213.12
444.919	206.12
445.14	352.12
445.361	281.12
445.582	217.12
445.803	195.12
446.024	225.12
446.245	240.12
446.466	200.12
446.687	204.12
446.908	211.12
447.129	195.12
447.35	180.12
447.571	186.12
447.792	177.12
448.013	178.12
448.234	185.12
448.455	172.12
448.675	187.12
448.896	183.12
449.117	194.12
449.338	181.12
449.559	174.12
449.779	185.12
450	208.12
450.221	194.12
450.442	178.12
450.662	177.12
450.883	166.12
451.104	193.12
451.324	174.12
451.545	197.12
451.766	187.12
451.986	167.12
452.207	170.12
452.428	176.12
452.648	174.12
452.869	173.12
453.089	183.12
453.31	187.12
453.53	182.12
453.751	175.12
453.971	171.12
454.192	177.12
454.412	181.12
454.633	185.12
454.853	179.12
455.073	180.12
455.294	185.12
455.514	185.12
455.734	187.12
455.955	197.12
456.175	198.12
456.395	169.12
456.616	167.12
456.836	170.12
457.056	162.12
457.276	172.12
457.497	177.12
457.717	177.12
457.937	179.12
458.157	170.12
458.377	184.12
458.598	166.12
458.818	181.12
459.038	189.12
459.258	186.12
459.478	196.12
459.698	193.12
459.918	214.12
460.138	203.12
460.358	223.12
460.578	188.12
460.798	218.12
461.018	198.12
461.238	196.12
461.458	214.12
461.678	211.12
461.898	223.12
462.118	215.12
462.338	206.12
462.558	214.12
462.777	227.12
462.997	249.12
463.217	238.12
463.437	249.12
463.657	229.12
463.876	233.12
464.096	217.12
464.316	227.12
464.536	222.12
464.755	239.12
464.975	244.12
465.195	222.12
465.414	233.12
465.634	227.12
465.854	200.12
466.073	183.12
466.293	202.12
466.512	200.12
466.732	213.12
466.951	221.12
467.171	203.12
467.391	192.12
467.61	205.12
467.829	213.12
468.049	207.12
468.268	182.12
468.488	187.12
468.707	193.12
468.927	215.12
469.146	224.12
469.365	230.12
469.585	196.12
469.804	207.12
470.023	238.12
470.243	201.12
470.462	198.12
470.681	206.12
470.901	196.12
471.12	207.12
471.339	215.12
471.558	207.12
471.777	207.12
471.997	200.12
472.216	225.12
472.435	227.12
472.654	212.12
472.873	216.12
473.092	215.12
473.311	225.12
473.53	204.12
473.749	206.12
473.968	226.12
474.187	207.12
474.406	211.12
474.625	190.12
474.844	197.12
475.063	201.12
475.282	217.12
475.501	230.12
475.72	263.12
475.939	226.12
476.158	236.12
476.377	270.12
476.596	291.12
476.814	285.12
477.033	257.12
477.252	218.12
477.471	214.12
477.69	223.12
477.908	197.12
478.127	204.12
478.346	242.12
478.564	263.12
478.783	232.12
479.002	236.12
479.22	250.12
479.439	258.12
479.658	266.12
479.876	245.12
480.095	241.12
480.313	266.12
480.532	233.12
480.751	236.12
480.969	227.12
481.188	238.12
481.406	264.12
481.624	241.12
481.843	237.12
482.061	221.12
482.28	260.12
482.498	274.12
482.717	302.12
482.935	250.12
483.153	247.12
483.372	229.12
483.59	221.12
483.808	219.12
484.027	226.12
484.245	224.12
484.463	206.12
484.681	218.12
484.9	227.12
485.118	244.12
485.336	248.12
485.554	219.12
485.772	219.12
485.99	234.12
486.209	242.12
486.427	263.12
486.645	233.12
486.863	252.12
487.081	246.12
487.299	287.12
487.517	262.12
487.735	244.12
487.953	253.12
488.171	234.12
488.389	239.12
488.607	225.12
488.825	238.12
489.043	259.12
489.261	274.12
489.479	292.12
489.696	257.12
489.914	232.12
490.132	234.12
490.35	242.12
490.568	231.12
490.786	243.12
491.003	246.12
491.221	247.12
491.439	230.12
491.657	225.12
491.874	231.12
492.092	289.12
492.31	339.12
492.527	330.12
492.745	280.12
492.963	262.12
493.18	248.12
493.398	249.12
493.615	245.12
493.833	244.12
494.05	247.12
494.268	242.12
494.485	233.12
494.703	250.12
494.92	249.12
495.138	228.12
495.355	229.12
495.573	245.12
495.79	285.12
496.008	366.12
496.225	307.12
496.442	277.12
496.66	262.12
496.877	259.12
497.094	266.12
497.312	261.12
497.529	262.12
497.746	243.12
497.963	292.12
498.181	281.12
498.398	298.12
498.615	317.12
498.832	354.12
499.049	349.12
499.267	325.12
499.484	348.12
499.701	332.12
499.918	369.12
500.135	423.12
500.352	430.12
500.569	439.12
500.786	482.12
501.003	447.12
501.22	414.12
501.437	382.12
501.654	347.12
501.871	350.12
502.088	366.12
502.305	304.12
502.522	289.12
502.739	318.12
