Data from NickelSpatula.Lamp.E5.5.P2_HRD10591_11-52-02-557.txt Node
Date: Tue Jul 23 11:52:02 EDT 2019
User: cochatt
Spectrometer: HR+D1059
Trigger mode: 1
Integration Time (sec): 1.000000E-1
Scans to average: 1
Electric dark correction enabled: true
Nonlinearity correction enabled: false
Boxcar width: 0
XAxis mode: Wavelengths
Number of Pixels in Spectrum: 2048
>>>>>Begin Spectral Data<<<<<
223.165	-10.94
223.4	-10.94
223.635	-10.94
223.869	-8.94
224.104	-11.94
224.338	-20.94
224.573	-6.94
224.808	-4.94
225.042	-15.94
225.277	-11.94
225.511	0.06
225.746	-0.94
225.98	-6.94
226.215	19.06
226.449	14.06
226.683	20.06
226.918	18.06
227.152	29.06
227.387	11.06
227.621	32.06
227.856	39.06
228.09	53.06
228.324	60.06
228.559	47.06
228.793	48.06
229.027	71.06
229.262	76.06
229.496	62.06
229.73	85.06
229.964	87.06
230.199	73.06
230.433	93.06
230.667	91.06
230.901	88.06
231.136	92.06
231.37	106.06
231.604	95.06
231.838	103.06
232.072	112.06
232.306	107.06
232.541	107.06
232.775	101.06
233.009	106.06
233.243	113.06
233.477	105.06
233.711	120.06
233.945	123.06
234.179	107.06
234.413	121.06
234.647	120.06
234.881	141.06
235.115	138.06
235.349	134.06
235.583	118.06
235.817	119.06
236.051	127.06
236.285	131.06
236.519	147.06
236.753	129.06
236.987	137.06
237.221	114.06
237.455	138.06
237.689	133.06
237.922	136.06
238.156	143.06
238.39	149.06
238.624	172.06
238.858	160.06
239.091	126.06
239.325	145.06
239.559	125.06
239.793	123.06
240.027	178.06
240.26	155.06
240.494	164.06
240.728	160.06
240.961	171.06
241.195	167.06
241.429	139.06
241.662	159.06
241.896	137.06
242.13	143.06
242.363	130.06
242.597	137.06
242.83	135.06
243.064	143.06
243.298	153.06
243.531	167.06
243.765	157.06
243.998	176.06
244.232	161.06
244.465	151.06
244.699	163.06
244.932	180.06
245.166	184.06
245.399	144.06
245.633	154.06
245.866	144.06
246.099	149.06
246.333	172.06
246.566	179.06
246.8	188.06
247.033	198.06
247.266	171.06
247.5	173.06
247.733	182.06
247.966	158.06
248.2	159.06
248.433	177.06
248.666	187.06
248.899	202.06
249.133	207.06
249.366	206.06
249.599	217.06
249.832	213.06
250.066	184.06
250.299	193.06
250.532	203.06
250.765	175.06
250.998	167.06
251.231	169.06
251.465	183.06
251.698	208.06
251.931	183.06
252.164	187.06
252.397	226.06
252.63	233.06
252.863	251.06
253.096	254.06
253.329	237.06
253.562	248.06
253.795	261.06
254.028	284.06
254.261	301.06
254.494	270.06
254.727	250.06
254.96	249.06
255.193	243.06
255.426	253.06
255.659	199.06
255.892	183.06
256.124	193.06
256.357	239.06
256.59	262.06
256.823	270.06
257.056	230.06
257.289	201.06
257.521	210.06
257.754	271.06
257.987	278.06
258.22	275.06
258.452	227.06
258.685	263.06
258.918	287.06
259.151	279.06
259.383	313.06
259.616	329.06
259.849	341.06
260.081	343.06
260.314	388.06
260.547	307.06
260.779	312.06
261.012	345.06
261.244	340.06
261.477	347.06
261.71	325.06
261.942	268.06
262.175	277.06
262.407	273.06
262.64	269.06
262.872	305.06
263.105	324.06
263.337	342.06
263.57	338.06
263.802	249.06
264.035	216.06
264.267	224.06
264.499	182.06
264.732	193.06
264.964	163.06
265.197	189.06
265.429	207.06
265.661	208.06
265.894	191.06
266.126	220.06
266.358	240.06
266.591	285.06
266.823	339.06
267.055	315.06
267.287	262.06
267.52	284.06
267.752	302.06
267.984	316.06
268.216	281.06
268.448	257.06
268.681	247.06
268.913	252.06
269.145	271.06
269.377	299.06
269.609	306.06
269.841	275.06
270.073	292.06
270.306	319.06
270.538	309.06
270.77	322.06
271.002	307.06
271.234	327.06
271.466	315.06
271.698	292.06
271.93	299.06
272.162	313.06
272.394	285.06
272.626	309.06
272.858	291.06
273.09	310.06
273.322	288.06
273.553	278.06
273.785	288.06
274.017	363.06
274.249	454.06
274.481	476.06
274.713	494.06
274.945	589.06
275.176	600.06
275.408	541.06
275.64	477.06
275.872	492.06
276.104	445.06
276.335	377.06
276.567	375.06
276.799	398.06
277.031	406.06
277.262	328.06
277.494	259.06
277.726	262.06
277.957	266.06
278.189	323.06
278.421	330.06
278.652	299.06
278.884	279.06
279.115	268.06
279.347	260.06
279.579	270.06
279.81	285.06
280.042	281.06
280.273	287.06
280.505	285.06
280.736	237.06
280.968	235.06
281.199	238.06
281.431	294.06
281.662	267.06
281.894	263.06
282.125	278.06
282.356	284.06
282.588	308.06
282.819	271.06
283.051	279.06
283.282	333.06
283.513	398.06
283.745	433.06
283.976	447.06
284.207	397.06
284.439	416.06
284.67	409.06
284.901	347.06
285.132	382.06
285.364	395.06
285.595	397.06
285.826	395.06
286.057	384.06
286.288	374.06
286.52	383.06
286.751	408.06
286.982	403.06
287.213	371.06
287.444	371.06
287.675	359.06
287.906	353.06
288.138	317.06
288.369	310.06
288.6	285.06
288.831	283.06
289.062	335.06
289.293	375.06
289.524	344.06
289.755	331.06
289.986	344.06
290.217	315.06
290.448	250.06
290.679	227.06
290.91	211.06
291.141	217.06
291.371	243.06
291.602	228.06
291.833	224.06
292.064	240.06
292.295	271.06
292.526	296.06
292.757	307.06
292.987	313.06
293.218	325.06
293.449	346.06
293.68	354.06
293.91	356.06
294.141	364.06
294.372	348.06
294.603	310.06
294.833	326.06
295.064	392.06
295.295	380.06
295.525	293.06
295.756	264.06
295.987	235.06
296.217	228.06
296.448	232.06
296.679	250.06
296.909	269.06
297.14	280.06
297.37	300.06
297.601	281.06
297.831	255.06
298.062	285.06
298.292	285.06
298.523	322.06
298.753	358.06
298.984	309.06
299.214	291.06
299.445	243.06
299.675	227.06
299.905	247.06
300.136	247.06
300.366	254.06
300.597	263.06
300.827	236.06
301.057	235.06
301.288	232.06
301.518	249.06
301.748	266.06
301.979	295.06
302.209	320.06
302.439	293.06
302.669	271.06
302.9	279.06
303.13	260.06
303.36	257.06
303.59	247.06
303.82	275.06
304.051	279.06
304.281	294.06
304.511	290.06
304.741	259.06
304.971	278.06
305.201	269.06
305.431	262.06
305.661	253.06
305.891	237.06
306.121	238.06
306.352	229.06
306.582	200.06
306.812	192.06
307.042	213.06
307.272	197.06
307.502	200.06
307.731	211.06
307.961	228.06
308.191	211.06
308.421	199.06
308.651	198.06
308.881	189.06
309.111	183.06
309.341	185.06
309.571	200.06
309.8	215.06
310.03	227.06
310.26	224.06
310.49	222.06
310.72	219.06
310.949	204.06
311.179	212.06
311.409	221.06
311.639	236.06
311.868	287.06
312.098	358.06
312.328	392.06
312.557	366.06
312.787	396.06
313.017	340.06
313.246	352.06
313.476	412.06
313.706	336.06
313.935	285.06
314.165	237.06
314.394	231.06
314.624	209.06
314.853	221.06
315.083	243.06
315.312	237.06
315.542	244.06
315.771	222.06
316.001	192.06
316.23	207.06
316.46	198.06
316.689	187.06
316.919	206.06
317.148	217.06
317.377	203.06
317.607	220.06
317.836	220.06
318.065	235.06
318.295	261.06
318.524	244.06
318.753	217.06
318.983	207.06
319.212	205.06
319.441	220.06
319.67	231.06
319.9	261.06
320.129	245.06
320.358	228.06
320.587	222.06
320.816	228.06
321.046	247.06
321.275	267.06
321.504	258.06
321.733	275.06
321.962	248.06
322.191	260.06
322.42	216.06
322.649	219.06
322.878	260.06
323.108	249.06
323.337	240.06
323.566	228.06
323.795	244.06
324.024	250.06
324.253	226.06
324.482	225.06
324.71	245.06
324.939	270.06
325.168	228.06
325.397	192.06
325.626	225.06
325.855	221.06
326.084	225.06
326.313	204.06
326.542	221.06
326.77	217.06
326.999	222.06
327.228	215.06
327.457	222.06
327.686	240.06
327.914	205.06
328.143	197.06
328.372	200.06
328.6	199.06
328.829	210.06
329.058	210.06
329.287	206.06
329.515	210.06
329.744	209.06
329.972	210.06
330.201	197.06
330.43	211.06
330.658	223.06
330.887	230.06
331.115	221.06
331.344	230.06
331.572	214.06
331.801	204.06
332.03	206.06
332.258	204.06
332.486	220.06
332.715	223.06
332.943	225.06
333.172	244.06
333.4	239.06
333.629	244.06
333.857	272.06
334.085	266.06
334.314	251.06
334.542	247.06
334.771	236.06
334.999	229.06
335.227	230.06
335.455	215.06
335.684	235.06
335.912	268.06
336.14	288.06
336.369	275.06
336.597	267.06
336.825	286.06
337.053	321.06
337.281	253.06
337.51	221.06
337.738	218.06
337.966	225.06
338.194	263.06
338.422	256.06
338.65	207.06
338.878	206.06
339.106	215.06
339.334	230.06
339.562	257.06
339.79	225.06
340.018	215.06
340.246	233.06
340.474	260.06
340.702	271.06
340.93	297.06
341.158	277.06
341.386	236.06
341.614	214.06
341.842	238.06
342.07	253.06
342.298	278.06
342.526	289.06
342.754	247.06
342.981	231.06
343.209	228.06
343.437	262.06
343.665	262.06
343.893	281.06
344.12	317.06
344.348	367.06
344.576	325.06
344.804	262.06
345.031	235.06
345.259	235.06
345.487	219.06
345.714	233.06
345.942	255.06
346.17	263.06
346.397	259.06
346.625	236.06
346.853	219.06
347.08	228.06
347.308	221.06
347.535	247.06
347.763	255.06
347.99	250.06
348.218	212.06
348.445	207.06
348.673	227.06
348.9	237.06
349.128	234.06
349.355	223.06
349.583	256.06
349.81	223.06
350.037	226.06
350.265	204.06
350.492	200.06
350.72	188.06
350.947	209.06
351.174	210.06
351.402	212.06
351.629	204.06
351.856	215.06
352.083	201.06
352.311	211.06
352.538	255.06
352.765	244.06
352.992	226.06
353.22	232.06
353.447	247.06
353.674	209.06
353.901	202.06
354.128	213.06
354.355	229.06
354.583	245.06
354.81	241.06
355.037	249.06
355.264	220.06
355.491	244.06
355.718	237.06
355.945	243.06
356.172	248.06
356.399	230.06
356.626	279.06
356.853	332.06
357.08	347.06
357.307	359.06
357.534	315.06
357.761	322.06
357.988	345.06
358.215	415.06
358.441	373.06
358.668	327.06
358.895	326.06
359.122	270.06
359.349	283.06
359.576	320.06
359.802	259.06
360.029	226.06
360.256	239.06
360.483	273.06
360.709	349.06
360.936	348.06
361.163	295.06
361.39	263.06
361.616	228.06
361.843	251.06
362.07	296.06
362.296	291.06
362.523	224.06
362.749	223.06
362.976	219.06
363.203	254.06
363.429	289.06
363.656	237.06
363.882	216.06
364.109	237.06
364.335	223.06
364.562	207.06
364.788	241.06
365.015	271.06
365.241	239.06
365.468	221.06
365.694	206.06
365.92	206.06
366.147	196.06
366.373	187.06
366.599	187.06
366.826	198.06
367.052	193.06
367.278	208.06
367.505	203.06
367.731	196.06
367.957	205.06
368.184	212.06
368.41	215.06
368.636	219.06
368.862	233.06
369.089	231.06
369.315	214.06
369.541	216.06
369.767	213.06
369.993	186.06
370.219	209.06
370.445	218.06
370.672	223.06
370.898	261.06
371.124	261.06
371.35	229.06
371.576	230.06
371.802	240.06
372.028	253.06
372.254	292.06
372.48	263.06
372.706	239.06
372.932	225.06
373.158	255.06
373.384	273.06
373.61	344.06
373.835	372.06
374.061	278.06
374.287	249.06
374.513	297.06
374.739	348.06
374.965	352.06
375.191	361.06
375.416	283.06
375.642	239.06
375.868	286.06
376.094	308.06
376.319	264.06
376.545	290.06
376.771	291.06
376.997	253.06
377.222	207.06
377.448	187.06
377.674	196.06
377.899	191.06
378.125	184.06
378.35	175.06
378.576	180.06
378.802	205.06
379.027	220.06
379.253	201.06
379.478	221.06
379.704	244.06
379.929	252.06
380.155	239.06
380.38	225.06
380.606	237.06
380.831	263.06
381.057	246.06
381.282	230.06
381.507	262.06
381.733	299.06
381.958	327.06
382.184	327.06
382.409	349.06
382.634	345.06
382.86	355.06
383.085	313.06
383.31	256.06
383.535	286.06
383.761	264.06
383.986	269.06
384.211	302.06
384.436	291.06
384.662	248.06
384.887	246.06
385.112	246.06
385.337	264.06
385.562	235.06
385.787	253.06
386.013	285.06
386.238	301.06
386.463	243.06
386.688	255.06
386.913	251.06
387.138	221.06
387.363	220.06
387.588	226.06
387.813	229.06
388.038	251.06
388.263	233.06
388.488	234.06
388.713	261.06
388.938	275.06
389.163	232.06
389.387	229.06
389.612	210.06
389.837	223.06
390.062	222.06
390.287	218.06
390.512	241.06
390.736	207.06
390.961	218.06
391.186	217.06
391.411	221.06
391.636	201.06
391.86	215.06
392.085	258.06
392.31	262.06
392.534	228.06
392.759	224.06
392.984	260.06
393.208	242.06
393.433	225.06
393.658	217.06
393.882	184.06
394.107	194.06
394.331	196.06
394.556	210.06
394.78	219.06
395.005	219.06
395.229	214.06
395.454	216.06
395.678	226.06
395.903	237.06
396.127	206.06
396.352	205.06
396.576	233.06
396.801	235.06
397.025	264.06
397.249	248.06
397.474	226.06
397.698	231.06
397.922	227.06
398.147	233.06
398.371	216.06
398.595	241.06
398.82	231.06
399.044	239.06
399.268	251.06
399.492	271.06
399.717	289.06
399.941	286.06
400.165	277.06
400.389	257.06
400.613	257.06
400.837	248.06
401.062	238.06
401.286	211.06
401.51	215.06
401.734	241.06
401.958	239.06
402.182	222.06
402.406	235.06
402.63	231.06
402.854	247.06
403.078	282.06
403.302	373.06
403.526	379.06
403.75	338.06
403.974	278.06
404.198	284.06
404.422	317.06
404.645	319.06
404.869	344.06
405.093	280.06
405.317	263.06
405.541	255.06
405.765	239.06
405.988	248.06
406.212	274.06
406.436	307.06
406.66	313.06
406.883	282.06
407.107	290.06
407.331	294.06
407.555	308.06
407.778	284.06
408.002	284.06
408.226	271.06
408.449	265.06
408.673	269.06
408.896	224.06
409.12	237.06
409.344	226.06
409.567	238.06
409.791	230.06
410.014	237.06
410.238	253.06
410.461	242.06
410.685	230.06
410.908	237.06
411.132	249.06
411.355	241.06
411.578	239.06
411.802	222.06
412.025	239.06
412.249	245.06
412.472	239.06
412.695	243.06
412.919	246.06
413.142	232.06
413.365	254.06
413.589	269.06
413.812	248.06
414.035	216.06
414.258	222.06
414.482	249.06
414.705	255.06
414.928	233.06
415.151	220.06
415.374	233.06
415.597	220.06
415.821	245.06
416.044	225.06
416.267	237.06
416.49	232.06
416.713	249.06
416.936	229.06
417.159	215.06
417.382	209.06
417.605	227.06
417.828	234.06
418.051	218.06
418.274	232.06
418.497	227.06
418.72	253.06
418.943	241.06
419.166	255.06
419.389	265.06
419.611	244.06
419.834	247.06
420.057	257.06
420.28	260.06
420.503	252.06
420.726	220.06
420.948	229.06
421.171	223.06
421.394	241.06
421.617	209.06
421.839	224.06
422.062	228.06
422.285	225.06
422.507	236.06
422.73	224.06
422.953	225.06
423.175	228.06
423.398	234.06
423.621	252.06
423.843	274.06
424.066	241.06
424.288	252.06
424.511	247.06
424.733	229.06
424.956	243.06
425.178	259.06
425.401	294.06
425.623	374.06
425.846	301.06
426.068	246.06
426.291	255.06
426.513	249.06
426.735	250.06
426.958	240.06
427.18	282.06
427.402	328.06
427.625	350.06
427.847	303.06
428.069	224.06
428.292	232.06
428.514	254.06
428.736	233.06
428.958	269.06
429.181	310.06
429.403	271.06
429.625	223.06
429.847	229.06
430.069	227.06
430.292	218.06
430.514	217.06
430.736	235.06
430.958	291.06
431.18	241.06
431.402	222.06
431.624	212.06
431.846	205.06
432.068	201.06
432.29	219.06
432.512	242.06
432.734	292.06
432.956	281.06
433.178	228.06
433.4	221.06
433.622	214.06
433.844	248.06
434.066	264.06
434.287	241.06
434.509	226.06
434.731	245.06
434.953	254.06
435.175	273.06
435.397	264.06
435.618	237.06
435.84	208.06
436.062	221.06
436.284	227.06
436.505	208.06
436.727	204.06
436.949	214.06
437.17	222.06
437.392	226.06
437.614	215.06
437.835	212.06
438.057	213.06
438.278	230.06
438.5	304.06
438.721	308.06
438.943	248.06
439.165	224.06
439.386	185.06
439.608	204.06
439.829	211.06
440.05	207.06
440.272	224.06
440.493	230.06
440.715	292.06
440.936	255.06
441.158	231.06
441.379	211.06
441.6	259.06
441.822	262.06
442.043	223.06
442.264	209.06
442.486	238.06
442.707	235.06
442.928	227.06
443.149	223.06
443.371	228.06
443.592	244.06
443.813	255.06
444.034	238.06
444.255	223.06
444.476	259.06
444.698	253.06
444.919	259.06
445.14	332.06
445.361	297.06
445.582	252.06
445.803	228.06
446.024	248.06
446.245	243.06
446.466	238.06
446.687	220.06
446.908	248.06
447.129	241.06
447.35	189.06
447.571	202.06
447.792	220.06
448.013	215.06
448.234	202.06
448.455	205.06
448.675	214.06
448.896	202.06
449.117	200.06
449.338	200.06
449.559	207.06
449.779	224.06
450	228.06
450.221	238.06
450.442	231.06
450.662	205.06
450.883	208.06
451.104	229.06
451.324	213.06
451.545	213.06
451.766	208.06
451.986	196.06
452.207	212.06
452.428	214.06
452.648	218.06
452.869	216.06
453.089	206.06
453.31	212.06
453.53	198.06
453.751	217.06
453.971	196.06
454.192	212.06
454.412	216.06
454.633	211.06
454.853	196.06
455.073	184.06
455.294	194.06
455.514	193.06
455.734	198.06
455.955	208.06
456.175	211.06
456.395	196.06
456.616	187.06
456.836	200.06
457.056	167.06
457.276	182.06
457.497	191.06
457.717	193.06
457.937	189.06
458.157	209.06
458.377	191.06
458.598	188.06
458.818	213.06
459.038	205.06
459.258	219.06
459.478	217.06
459.698	240.06
459.918	224.06
460.138	235.06
460.358	227.06
460.578	230.06
460.798	241.06
461.018	231.06
461.238	217.06
461.458	229.06
461.678	239.06
461.898	248.06
462.118	248.06
462.338	240.06
462.558	245.06
462.777	265.06
462.997	269.06
463.217	268.06
463.437	301.06
463.657	276.06
463.876	271.06
464.096	265.06
464.316	254.06
464.536	255.06
464.755	280.06
464.975	280.06
465.195	244.06
465.414	248.06
465.634	257.06
465.854	249.06
466.073	237.06
466.293	219.06
466.512	245.06
466.732	229.06
466.951	247.06
467.171	221.06
467.391	226.06
467.61	220.06
467.829	237.06
468.049	228.06
468.268	212.06
468.488	221.06
468.707	223.06
468.927	243.06
469.146	270.06
469.365	247.06
469.585	224.06
469.804	253.06
470.023	265.06
470.243	249.06
470.462	237.06
470.681	231.06
470.901	241.06
471.12	241.06
471.339	237.06
471.558	225.06
471.777	216.06
471.997	251.06
472.216	267.06
472.435	272.06
472.654	238.06
472.873	230.06
473.092	244.06
473.311	246.06
473.53	236.06
473.749	231.06
473.968	247.06
474.187	232.06
474.406	229.06
474.625	232.06
474.844	251.06
475.063	244.06
475.282	243.06
475.501	256.06
475.72	300.06
475.939	258.06
476.158	265.06
476.377	295.06
476.596	343.06
476.814	326.06
477.033	306.06
477.252	252.06
477.471	251.06
477.69	250.06
477.908	280.06
478.127	289.06
478.346	268.06
478.564	286.06
478.783	289.06
479.002	279.06
479.22	280.06
479.439	316.06
479.658	273.06
479.876	261.06
480.095	280.06
480.313	305.06
480.532	269.06
480.751	272.06
480.969	259.06
481.188	303.06
481.406	307.06
481.624	284.06
481.843	249.06
482.061	264.06
482.28	276.06
482.498	344.06
482.717	330.06
482.935	277.06
483.153	260.06
483.372	259.06
483.59	248.06
483.808	251.06
484.027	269.06
484.245	241.06
484.463	226.06
484.681	261.06
484.9	269.06
485.118	297.06
485.336	288.06
485.554	253.06
485.772	270.06
485.99	286.06
486.209	296.06
486.427	281.06
486.645	279.06
486.863	290.06
487.081	280.06
487.299	312.06
487.517	293.06
487.735	275.06
487.953	277.06
488.171	286.06
488.389	284.06
488.607	272.06
488.825	271.06
489.043	303.06
489.261	319.06
489.479	354.06
489.696	279.06
489.914	287.06
490.132	230.06
490.35	261.06
490.568	265.06
490.786	269.06
491.003	263.06
491.221	288.06
491.439	259.06
491.657	241.06
491.874	278.06
492.092	333.06
492.31	336.06
492.527	358.06
492.745	315.06
492.963	286.06
493.18	278.06
493.398	288.06
493.615	290.06
493.833	290.06
494.05	264.06
494.268	272.06
494.485	279.06
494.703	268.06
494.92	275.06
495.138	256.06
495.355	255.06
495.573	274.06
495.79	305.06
496.008	350.06
496.225	311.06
496.442	309.06
496.66	291.06
496.877	318.06
497.094	323.06
497.312	301.06
497.529	313.06
497.746	304.06
497.963	312.06
498.181	334.06
498.398	363.06
498.615	379.06
498.832	389.06
499.049	375.06
499.267	389.06
499.484	359.06
499.701	407.06
499.918	423.06
500.135	489.06
500.352	555.06
500.569	566.06
500.786	539.06
501.003	535.06
501.22	466.06
501.437	431.06
501.654	394.06
501.871	384.06
502.088	365.06
502.305	349.06
502.522	329.06
