Data from NickelSpatula.Lamp.E10.P2_HRD10591_11-59-03-526.txt Node
Date: Tue Jul 23 11:59:03 EDT 2019
User: cochatt
Spectrometer: HR+D1059
Trigger mode: 1
Integration Time (sec): 1.000000E-1
Scans to average: 1
Electric dark correction enabled: true
Nonlinearity correction enabled: false
Boxcar width: 0
XAxis mode: Wavelengths
Number of Pixels in Spectrum: 2048
>>>>>Begin Spectral Data<<<<<
223.165	-7.06
223.4	-7.06
223.635	-7.06
223.869	-25.06
224.104	-21.06
224.338	-13.06
224.573	-24.06
224.808	-20.06
225.042	-10.06
225.277	-4.06
225.511	4.94
225.746	4.94
225.98	10.94
226.215	16.94
226.449	21.94
226.683	25.94
226.918	27.94
227.152	10.94
227.387	38.94
227.621	34.94
227.856	48.94
228.09	49.94
228.324	42.94
228.559	48.94
228.793	68.94
229.027	121.94
229.262	143.94
229.496	140.94
229.73	165.94
229.964	181.94
230.199	222.94
230.433	188.94
230.667	204.94
230.901	203.94
231.136	197.94
231.37	206.94
231.604	229.94
231.838	251.94
232.072	251.94
232.306	237.94
232.541	245.94
232.775	214.94
233.009	253.94
233.243	286.94
233.477	328.94
233.711	351.94
233.945	319.94
234.179	325.94
234.413	335.94
234.647	408.94
234.881	464.94
235.115	418.94
235.349	406.94
235.583	355.94
235.817	349.94
236.051	374.94
236.285	420.94
236.519	462.94
236.753	424.94
236.987	410.94
237.221	410.94
237.455	412.94
237.689	429.94
237.922	448.94
238.156	479.94
238.39	555.94
238.624	641.94
238.858	604.94
239.091	508.94
239.325	516.94
239.559	485.94
239.793	557.94
240.027	644.94
240.26	603.94
240.494	584.94
240.728	583.94
240.961	668.94
241.195	630.94
241.429	632.94
241.662	610.94
241.896	530.94
242.13	469.94
242.363	458.94
242.597	483.94
242.83	529.94
243.064	531.94
243.298	587.94
243.531	632.94
243.765	628.94
243.998	611.94
244.232	606.94
244.465	590.94
244.699	586.94
244.932	655.94
245.166	623.94
245.399	527.94
245.633	546.94
245.866	544.94
246.099	621.94
246.333	711.94
246.566	810.94
246.8	747.94
247.033	750.94
247.266	696.94
247.5	680.94
247.733	674.94
247.966	647.94
248.2	689.94
248.433	778.94
248.666	849.94
248.899	823.94
249.133	866.94
249.366	987.94
249.599	1048.94
249.832	968.94
250.066	819.94
250.299	823.94
250.532	796.94
250.765	794.94
250.998	707.94
251.231	711.94
251.465	769.94
251.698	825.94
251.931	801.94
252.164	840.94
252.397	923.94
252.63	1075.94
252.863	1165.94
253.096	1162.94
253.329	1139.94
253.562	1104.94
253.795	1248.94
254.028	1348.94
254.261	1402.94
254.494	1263.94
254.727	1137.94
254.96	1105.94
255.193	1162.94
255.426	1116.94
255.659	822.94
255.892	796.94
256.124	836.94
256.357	1025.94
256.59	1194.94
256.823	1122.94
257.056	996.94
257.289	910.94
257.521	948.94
257.754	1117.94
257.987	1271.94
258.22	1105.94
258.452	989.94
258.685	1148.94
258.918	1243.94
259.151	1264.94
259.383	1290.94
259.616	1487.94
259.849	1566.94
260.081	1730.94
260.314	1912.94
260.547	1440.94
260.779	1448.94
261.012	1705.94
261.244	1615.94
261.477	1602.94
261.71	1520.94
261.942	1282.94
262.175	1254.94
262.407	1221.94
262.64	1269.94
262.872	1502.94
263.105	1660.94
263.337	1722.94
263.57	1538.94
263.802	1022.94
264.035	898.94
264.267	855.94
264.499	750.94
264.732	708.94
264.964	692.94
265.197	716.94
265.429	757.94
265.661	801.94
265.894	851.94
266.126	904.94
266.358	1026.94
266.591	1244.94
266.823	1478.94
267.055	1393.94
267.287	1218.94
267.52	1223.94
267.752	1324.94
267.984	1454.94
268.216	1371.94
268.448	1118.94
268.681	1088.94
268.913	1185.94
269.145	1279.94
269.377	1298.94
269.609	1284.94
269.841	1198.94
270.073	1282.94
270.306	1339.94
270.538	1340.94
270.77	1391.94
271.002	1346.94
271.234	1450.94
271.466	1525.94
271.698	1451.94
271.93	1394.94
272.162	1397.94
272.394	1398.94
272.626	1379.94
272.858	1445.94
273.09	1507.94
273.322	1322.94
273.553	1244.94
273.785	1486.94
274.017	1994.94
274.249	2412.94
274.481	2466.94
274.713	2734.94
274.945	3168.94
275.176	3312.94
275.408	2871.94
275.64	2567.94
275.872	2630.94
276.104	2208.94
276.335	1909.94
276.567	1920.94
276.799	1975.94
277.031	2017.94
277.262	1578.94
277.494	1201.94
277.726	1195.94
277.957	1325.94
278.189	1476.94
278.421	1457.94
278.652	1409.94
278.884	1348.94
279.115	1248.94
279.347	1192.94
279.579	1189.94
279.81	1189.94
280.042	1170.94
280.273	1233.94
280.505	1102.94
280.736	1000.94
280.968	989.94
281.199	1067.94
281.431	1217.94
281.662	1186.94
281.894	1138.94
282.125	1214.94
282.356	1343.94
282.588	1383.94
282.819	1250.94
283.051	1381.94
283.282	1682.94
283.513	1946.94
283.745	2167.94
283.976	2192.94
284.207	1952.94
284.439	2054.94
284.67	1945.94
284.901	1760.94
285.132	1938.94
285.364	2003.94
285.595	1841.94
285.826	1984.94
286.057	2040.94
286.288	1968.94
286.52	1976.94
286.751	2076.94
286.982	2048.94
287.213	1771.94
287.444	1755.94
287.675	1829.94
287.906	1800.94
288.138	1512.94
288.369	1317.94
288.6	1286.94
288.831	1321.94
289.062	1499.94
289.293	1680.94
289.524	1578.94
289.755	1544.94
289.986	1631.94
290.217	1402.94
290.448	1082.94
290.679	938.94
290.91	899.94
291.141	899.94
291.371	968.94
291.602	970.94
291.833	940.94
292.064	1027.94
292.295	1196.94
292.526	1363.94
292.757	1420.94
292.987	1532.94
293.218	1532.94
293.449	1562.94
293.68	1624.94
293.91	1538.94
294.141	1592.94
294.372	1458.94
294.603	1379.94
294.833	1568.94
295.064	1818.94
295.295	1703.94
295.525	1277.94
295.756	1128.94
295.987	976.94
296.217	994.94
296.448	1014.94
296.679	1095.94
296.909	1204.94
297.14	1270.94
297.37	1388.94
297.601	1325.94
297.831	1145.94
298.062	1226.94
298.292	1416.94
298.523	1536.94
298.753	1750.94
298.984	1590.94
299.214	1231.94
299.445	1044.94
299.675	1042.94
299.905	1012.94
300.136	1029.94
300.366	1126.94
300.597	1117.94
300.827	1000.94
301.057	924.94
301.288	992.94
301.518	1068.94
301.748	1223.94
301.979	1295.94
302.209	1415.94
302.439	1425.94
302.669	1197.94
302.9	1223.94
303.13	1130.94
303.36	1077.94
303.59	1012.94
303.82	1093.94
304.051	1202.94
304.281	1289.94
304.511	1275.94
304.741	1108.94
304.971	1172.94
305.201	1248.94
305.431	1182.94
305.661	1057.94
305.891	1027.94
306.121	1057.94
306.352	918.94
306.582	882.94
306.812	844.94
307.042	851.94
307.272	792.94
307.502	804.94
307.731	849.94
307.961	920.94
308.191	846.94
308.421	805.94
308.651	769.94
308.881	734.94
309.111	740.94
309.341	794.94
309.571	868.94
309.8	896.94
310.03	932.94
310.26	978.94
310.49	948.94
310.72	855.94
310.949	830.94
311.179	863.94
311.409	898.94
311.639	1067.94
311.868	1347.94
312.098	1755.94
312.328	1874.94
312.557	1836.94
312.787	1861.94
313.017	1655.94
313.246	1810.94
313.476	1927.94
313.706	1573.94
313.935	1248.94
314.165	1004.94
314.394	959.94
314.624	936.94
314.853	1016.94
315.083	1011.94
315.312	999.94
315.542	1006.94
315.771	923.94
316.001	821.94
316.23	833.94
316.46	827.94
316.689	867.94
316.919	852.94
317.148	878.94
317.377	854.94
317.607	857.94
317.836	943.94
318.065	1053.94
318.295	1200.94
318.524	1136.94
318.753	967.94
318.983	933.94
319.212	924.94
319.441	986.94
319.67	1090.94
319.9	1180.94
320.129	1115.94
320.358	971.94
320.587	920.94
320.816	994.94
321.046	1138.94
321.275	1291.94
321.504	1289.94
321.733	1251.94
321.962	1181.94
322.191	1127.94
322.42	1085.94
322.649	1074.94
322.878	1178.94
323.108	1146.94
323.337	1077.94
323.566	1082.94
323.795	1057.94
324.024	994.94
324.253	966.94
324.482	966.94
324.71	1069.94
324.939	1164.94
325.168	1095.94
325.397	908.94
325.626	887.94
325.855	908.94
326.084	916.94
326.313	864.94
326.542	820.94
326.77	845.94
326.999	855.94
327.228	939.94
327.457	980.94
327.686	1004.94
327.914	873.94
328.143	798.94
328.372	831.94
328.6	800.94
328.829	852.94
329.058	881.94
329.287	883.94
329.515	886.94
329.744	861.94
329.972	811.94
330.201	768.94
330.43	854.94
330.658	916.94
330.887	1020.94
331.115	1009.94
331.344	1000.94
331.572	941.94
331.801	857.94
332.03	826.94
332.258	873.94
332.486	950.94
332.715	963.94
332.943	917.94
333.172	861.94
333.4	929.94
333.629	1028.94
333.857	1141.94
334.085	1112.94
334.314	1078.94
334.542	1037.94
334.771	953.94
334.999	915.94
335.227	891.94
335.455	922.94
335.684	1012.94
335.912	1187.94
336.14	1293.94
336.369	1237.94
336.597	1213.94
336.825	1330.94
337.053	1504.94
337.281	1210.94
337.51	995.94
337.738	968.94
337.966	1036.94
338.194	1134.94
338.422	1081.94
338.65	940.94
338.878	863.94
339.106	867.94
339.334	1020.94
339.562	1061.94
339.79	989.94
340.018	961.94
340.246	1008.94
340.474	1166.94
340.702	1232.94
340.93	1303.94
341.158	1297.94
341.386	1078.94
341.614	1094.94
341.842	1078.94
342.07	1152.94
342.298	1282.94
342.526	1363.94
342.754	1174.94
342.981	1080.94
343.209	1030.94
343.437	1136.94
343.665	1160.94
343.893	1154.94
344.12	1328.94
344.348	1538.94
344.576	1395.94
344.804	1171.94
345.031	989.94
345.259	954.94
345.487	980.94
345.714	984.94
345.942	1093.94
346.17	1154.94
346.397	1092.94
346.625	985.94
346.853	944.94
347.08	908.94
347.308	987.94
347.535	1093.94
347.763	1136.94
347.99	974.94
348.218	880.94
348.445	927.94
348.673	932.94
348.9	958.94
349.128	1026.94
349.355	1064.94
349.583	1043.94
349.81	969.94
350.037	921.94
350.265	788.94
350.492	801.94
350.72	796.94
350.947	808.94
351.174	852.94
351.402	927.94
351.629	977.94
351.856	893.94
352.083	901.94
352.311	964.94
352.538	1082.94
352.765	1125.94
352.992	1002.94
353.22	958.94
353.447	948.94
353.674	923.94
353.901	930.94
354.128	950.94
354.355	983.94
354.583	964.94
354.81	951.94
355.037	1013.94
355.264	983.94
355.491	1056.94
355.718	1176.94
355.945	1093.94
356.172	1063.94
356.399	1084.94
356.626	1266.94
356.853	1581.94
357.08	1666.94
357.307	1729.94
357.534	1312.94
357.761	1384.94
357.988	1712.94
358.215	1996.94
358.441	1897.94
358.668	1602.94
358.895	1450.94
359.122	1191.94
359.349	1164.94
359.576	1282.94
359.802	1061.94
360.029	927.94
360.256	1010.94
360.483	1235.94
360.709	1558.94
360.936	1601.94
361.163	1400.94
361.39	1077.94
361.616	1014.94
361.843	1215.94
362.07	1460.94
362.296	1324.94
362.523	1048.94
362.749	917.94
362.976	962.94
363.203	1162.94
363.429	1316.94
363.656	1055.94
363.882	953.94
364.109	981.94
364.335	964.94
364.562	973.94
364.788	1093.94
365.015	1278.94
365.241	1146.94
365.468	928.94
365.694	831.94
365.92	791.94
366.147	750.94
366.373	782.94
366.599	774.94
366.826	799.94
367.052	798.94
367.278	822.94
367.505	784.94
367.731	889.94
367.957	986.94
368.184	994.94
368.41	974.94
368.636	1009.94
368.862	1035.94
369.089	986.94
369.315	884.94
369.541	867.94
369.767	878.94
369.993	820.94
370.219	813.94
370.445	888.94
370.672	970.94
370.898	1071.94
371.124	1094.94
371.35	958.94
371.576	853.94
371.802	944.94
372.028	1140.94
372.254	1282.94
372.48	1114.94
372.706	1025.94
372.932	1100.94
373.158	1135.94
373.384	1332.94
373.61	1754.94
373.835	1845.94
374.061	1353.94
374.287	1141.94
374.513	1369.94
374.739	1596.94
374.965	1626.94
375.191	1626.94
375.416	1145.94
375.642	1013.94
375.868	1179.94
376.094	1317.94
376.319	1133.94
376.545	1263.94
376.771	1344.94
376.997	1122.94
377.222	828.94
377.448	738.94
377.674	734.94
377.899	755.94
378.125	731.94
378.35	728.94
378.576	762.94
378.802	852.94
379.027	908.94
379.253	901.94
379.478	892.94
379.704	995.94
379.929	1057.94
380.155	1061.94
380.38	907.94
380.606	965.94
380.831	1090.94
381.057	994.94
381.282	944.94
381.507	1124.94
381.733	1391.94
381.958	1470.94
382.184	1584.94
382.409	1656.94
382.634	1608.94
382.86	1735.94
383.085	1402.94
383.31	1097.94
383.535	1166.94
383.761	1204.94
383.986	1159.94
384.211	1400.94
384.436	1338.94
384.662	1044.94
384.887	1000.94
385.112	998.94
385.337	1020.94
385.562	965.94
385.787	1070.94
386.013	1156.94
386.238	1251.94
386.463	1024.94
386.688	972.94
386.913	917.94
387.138	884.94
387.363	946.94
387.588	957.94
387.813	973.94
388.038	1106.94
388.263	952.94
388.488	925.94
388.713	1096.94
388.938	1209.94
389.163	987.94
389.387	902.94
389.612	886.94
389.837	946.94
390.062	937.94
390.287	971.94
390.512	983.94
390.736	930.94
390.961	909.94
391.186	824.94
391.411	832.94
391.636	848.94
391.86	918.94
392.085	982.94
392.31	991.94
392.534	910.94
392.759	920.94
392.984	947.94
393.208	970.94
393.433	886.94
393.658	788.94
393.882	788.94
394.107	796.94
394.331	751.94
394.556	786.94
394.78	796.94
395.005	837.94
395.229	844.94
395.454	857.94
395.678	858.94
395.903	898.94
396.127	874.94
396.352	877.94
396.576	934.94
396.801	1001.94
397.025	1104.94
397.249	1111.94
397.474	900.94
397.698	927.94
397.922	943.94
398.147	905.94
398.371	885.94
398.595	935.94
398.82	940.94
399.044	933.94
399.268	1006.94
399.492	1027.94
399.717	1012.94
399.941	1088.94
400.165	1014.94
400.389	1036.94
400.613	1050.94
400.837	1036.94
401.062	915.94
401.286	904.94
401.51	876.94
401.734	902.94
401.958	902.94
402.182	911.94
402.406	913.94
402.63	878.94
402.854	917.94
403.078	1069.94
403.302	1267.94
403.526	1311.94
403.75	1134.94
403.974	1038.94
404.198	1071.94
404.422	1203.94
404.645	1430.94
404.869	1565.94
405.093	1159.94
405.317	974.94
405.541	966.94
405.765	962.94
405.988	1004.94
406.212	1088.94
406.436	1261.94
406.66	1386.94
406.883	1137.94
407.107	1156.94
407.331	1330.94
407.555	1286.94
407.778	1070.94
408.002	1020.94
408.226	1029.94
408.449	1048.94
408.673	1016.94
408.896	922.94
409.12	889.94
409.344	920.94
409.567	870.94
409.791	897.94
410.014	887.94
410.238	858.94
410.461	897.94
410.685	883.94
410.908	888.94
411.132	891.94
411.355	886.94
411.578	920.94
411.802	932.94
412.025	961.94
412.249	974.94
412.472	941.94
412.695	941.94
412.919	927.94
413.142	954.94
413.365	1043.94
413.589	1043.94
413.812	933.94
414.035	906.94
414.258	917.94
414.482	1046.94
414.705	1072.94
414.928	917.94
415.151	836.94
415.374	874.94
415.597	933.94
415.821	910.94
416.044	868.94
416.267	860.94
416.49	864.94
416.713	844.94
416.936	852.94
417.159	844.94
417.382	909.94
417.605	861.94
417.828	936.94
418.051	908.94
418.274	947.94
418.497	926.94
418.72	923.94
418.943	951.94
419.166	998.94
419.389	1029.94
419.611	975.94
419.834	1021.94
420.057	1110.94
420.28	1092.94
420.503	1022.94
420.726	910.94
420.948	870.94
421.171	865.94
421.394	877.94
421.617	842.94
421.839	877.94
422.062	917.94
422.285	908.94
422.507	927.94
422.73	930.94
422.953	957.94
423.175	940.94
423.398	966.94
423.621	1017.94
423.843	1018.94
424.066	972.94
424.288	940.94
424.511	891.94
424.733	897.94
424.956	916.94
425.178	1079.94
425.401	1200.94
425.623	1381.94
425.846	1137.94
426.068	1020.94
426.291	1070.94
426.513	1038.94
426.735	918.94
426.958	956.94
427.18	1149.94
427.402	1501.94
427.625	1430.94
427.847	1167.94
428.069	881.94
428.292	872.94
428.514	855.94
428.736	846.94
428.958	929.94
429.181	1109.94
429.403	944.94
429.625	882.94
429.847	862.94
430.069	872.94
430.292	918.94
430.514	838.94
430.736	937.94
430.958	1193.94
431.18	1066.94
431.402	819.94
431.624	810.94
431.846	791.94
432.068	751.94
432.29	830.94
432.512	909.94
432.734	1198.94
432.956	1106.94
433.178	845.94
433.4	838.94
433.622	850.94
433.844	882.94
434.066	917.94
434.287	903.94
434.509	878.94
434.731	885.94
434.953	852.94
435.175	896.94
435.397	1010.94
435.618	881.94
435.84	800.94
436.062	824.94
436.284	825.94
436.505	768.94
436.727	773.94
436.949	808.94
437.17	852.94
437.392	822.94
437.614	816.94
437.835	788.94
438.057	842.94
438.278	960.94
438.5	1378.94
438.721	1363.94
438.943	925.94
439.165	814.94
439.386	756.94
439.608	771.94
439.829	766.94
440.05	762.94
440.272	850.94
440.493	972.94
440.715	1221.94
440.936	965.94
441.158	800.94
441.379	844.94
441.6	963.94
441.822	1014.94
442.043	867.94
442.264	854.94
442.486	878.94
442.707	846.94
442.928	850.94
443.149	899.94
443.371	892.94
443.592	917.94
443.813	912.94
444.034	863.94
444.255	900.94
444.476	951.94
444.698	932.94
444.919	930.94
445.14	1046.94
445.361	1020.94
445.582	952.94
445.803	920.94
446.024	910.94
446.245	936.94
446.466	892.94
446.687	851.94
446.908	843.94
447.129	831.94
447.35	804.94
447.571	792.94
447.792	777.94
448.013	782.94
448.234	742.94
448.455	781.94
448.675	793.94
448.896	800.94
449.117	782.94
449.338	781.94
449.559	822.94
449.779	847.94
450	830.94
450.221	826.94
450.442	797.94
450.662	768.94
450.883	785.94
451.104	804.94
451.324	769.94
451.545	812.94
451.766	809.94
451.986	765.94
452.207	749.94
452.428	753.94
452.648	781.94
452.869	835.94
453.089	828.94
453.31	837.94
453.53	753.94
453.751	724.94
453.971	735.94
454.192	764.94
454.412	782.94
454.633	752.94
454.853	732.94
455.073	711.94
455.294	729.94
455.514	736.94
455.734	739.94
455.955	811.94
456.175	826.94
456.395	734.94
456.616	683.94
456.836	693.94
457.056	691.94
457.276	663.94
457.497	682.94
457.717	702.94
457.937	713.94
458.157	716.94
458.377	726.94
458.598	748.94
458.818	762.94
459.038	786.94
459.258	814.94
459.478	856.94
459.698	894.94
459.918	896.94
460.138	864.94
460.358	879.94
460.578	820.94
460.798	865.94
461.018	888.94
461.238	834.94
461.458	845.94
461.678	856.94
461.898	908.94
462.118	906.94
462.338	896.94
462.558	941.94
462.777	944.94
462.997	981.94
463.217	1005.94
463.437	1031.94
463.657	997.94
463.876	949.94
464.096	942.94
464.316	941.94
464.536	955.94
464.755	996.94
464.975	992.94
465.195	952.94
465.414	991.94
465.634	940.94
465.854	940.94
466.073	857.94
466.293	840.94
466.512	934.94
466.732	1036.94
466.951	1056.94
467.171	926.94
467.391	882.94
467.61	844.94
467.829	940.94
468.049	910.94
468.268	888.94
468.488	851.94
468.707	888.94
468.927	1050.94
469.146	1138.94
469.365	1006.94
469.585	922.94
469.804	1008.94
470.023	1089.94
470.243	961.94
470.462	918.94
470.681	906.94
470.901	924.94
471.12	979.94
471.339	953.94
471.558	942.94
471.777	931.94
471.997	983.94
472.216	1090.94
472.435	1083.94
472.654	960.94
472.873	948.94
473.092	1012.94
473.311	1030.94
473.53	949.94
473.749	945.94
473.968	995.94
474.187	980.94
474.406	910.94
474.625	926.94
474.844	945.94
475.063	1012.94
475.282	1002.94
475.501	1074.94
475.72	1105.94
475.939	1094.94
476.158	1087.94
476.377	1270.94
476.596	1443.94
476.814	1474.94
477.033	1217.94
477.252	1057.94
477.471	990.94
477.69	1008.94
477.908	1100.94
478.127	1128.94
478.346	1050.94
478.564	1110.94
478.783	1090.94
479.002	1074.94
479.22	1276.94
479.439	1387.94
479.658	1203.94
479.876	1129.94
480.095	1214.94
480.313	1253.94
480.532	1117.94
480.751	1062.94
480.969	1088.94
481.188	1272.94
481.406	1311.94
481.624	1201.94
481.843	1093.94
482.061	1054.94
482.28	1180.94
482.498	1456.94
482.717	1350.94
482.935	1194.94
483.153	1096.94
483.372	1030.94
483.59	1059.94
483.808	1012.94
484.027	1013.94
484.245	986.94
484.463	988.94
484.681	1020.94
484.9	1098.94
485.118	1160.94
485.336	1098.94
485.554	1052.94
485.772	1044.94
485.99	1152.94
486.209	1232.94
486.427	1212.94
486.645	1223.94
486.863	1260.94
487.081	1216.94
487.299	1342.94
487.517	1326.94
487.735	1211.94
487.953	1221.94
488.171	1258.94
488.389	1134.94
488.607	1087.94
488.825	1152.94
489.043	1229.94
489.261	1443.94
489.479	1535.94
489.696	1300.94
489.914	1179.94
490.132	1108.94
490.35	1095.94
490.568	1121.94
490.786	1105.94
491.003	1098.94
491.221	1135.94
491.439	1104.94
491.657	1140.94
491.874	1230.94
492.092	1456.94
492.31	1753.94
492.527	1751.94
492.745	1485.94
492.963	1314.94
493.18	1292.94
493.398	1284.94
493.615	1284.94
493.833	1248.94
494.05	1222.94
494.268	1242.94
494.485	1199.94
494.703	1173.94
