Data from NickelSpatula.Lamp.E5.5.P2_HRD10591_11-51-50-558.txt Node
Date: Tue Jul 23 11:51:50 EDT 2019
User: cochatt
Spectrometer: HR+D1059
Trigger mode: 1
Integration Time (sec): 1.000000E-1
Scans to average: 1
Electric dark correction enabled: true
Nonlinearity correction enabled: false
Boxcar width: 0
XAxis mode: Wavelengths
Number of Pixels in Spectrum: 2048
>>>>>Begin Spectral Data<<<<<
223.165	-28.44
223.4	-28.44
223.635	-28.44
223.869	-15.44
224.104	-25.44
224.338	-24.44
224.573	-5.44
224.808	-3.44
225.042	-13.44
225.277	-5.44
225.511	-1.44
225.746	4.56
225.98	4.56
226.215	15.56
226.449	22.56
226.683	22.56
226.918	20.56
227.152	32.56
227.387	29.56
227.621	38.56
227.856	46.56
228.09	60.56
228.324	50.56
228.559	48.56
228.793	56.56
229.027	75.56
229.262	83.56
229.496	78.56
229.73	96.56
229.964	96.56
230.199	92.56
230.433	100.56
230.667	97.56
230.901	98.56
231.136	104.56
231.37	103.56
231.604	95.56
231.838	110.56
232.072	114.56
232.306	120.56
232.541	111.56
232.775	110.56
233.009	103.56
233.243	108.56
233.477	117.56
233.711	120.56
233.945	126.56
234.179	124.56
234.413	105.56
234.647	128.56
234.881	153.56
235.115	135.56
235.349	128.56
235.583	111.56
235.817	115.56
236.051	126.56
236.285	132.56
236.519	153.56
236.753	135.56
236.987	128.56
237.221	121.56
237.455	130.56
237.689	132.56
237.922	152.56
238.156	135.56
238.39	158.56
238.624	158.56
238.858	185.56
239.091	146.56
239.325	150.56
239.559	133.56
239.793	155.56
240.027	169.56
240.26	178.56
240.494	177.56
240.728	167.56
240.961	186.56
241.195	169.56
241.429	170.56
241.662	160.56
241.896	147.56
242.13	136.56
242.363	130.56
242.597	137.56
242.83	145.56
243.064	157.56
243.298	164.56
243.531	168.56
243.765	174.56
243.998	167.56
244.232	166.56
244.465	156.56
244.699	155.56
244.932	190.56
245.166	173.56
245.399	153.56
245.633	163.56
245.866	166.56
246.099	156.56
246.333	183.56
246.566	202.56
246.8	199.56
247.033	180.56
247.266	172.56
247.5	179.56
247.733	177.56
247.966	169.56
248.2	176.56
248.433	188.56
248.666	206.56
248.899	202.56
249.133	203.56
249.366	229.56
249.599	244.56
249.832	226.56
250.066	201.56
250.299	207.56
250.532	193.56
250.765	200.56
250.998	206.56
251.231	184.56
251.465	199.56
251.698	201.56
251.931	200.56
252.164	198.56
252.397	209.56
252.63	244.56
252.863	268.56
253.096	271.56
253.329	248.56
253.562	231.56
253.795	272.56
254.028	307.56
254.261	304.56
254.494	276.56
254.727	260.56
254.96	263.56
255.193	268.56
255.426	254.56
255.659	204.56
255.892	201.56
256.124	214.56
256.357	245.56
256.59	272.56
256.823	276.56
257.056	211.56
257.289	215.56
257.521	231.56
257.754	258.56
257.987	286.56
258.22	258.56
258.452	245.56
258.685	260.56
258.918	291.56
259.151	295.56
259.383	305.56
259.616	347.56
259.849	359.56
260.081	352.56
260.314	409.56
260.547	321.56
260.779	335.56
261.012	375.56
261.244	357.56
261.477	354.56
261.71	334.56
261.942	284.56
262.175	284.56
262.407	266.56
262.64	268.56
262.872	316.56
263.105	339.56
263.337	359.56
263.57	345.56
263.802	259.56
264.035	222.56
264.267	206.56
264.499	180.56
264.732	192.56
264.964	196.56
265.197	175.56
265.429	190.56
265.661	226.56
265.894	220.56
266.126	229.56
266.358	236.56
266.591	278.56
266.823	327.56
267.055	314.56
267.287	281.56
267.52	280.56
267.752	297.56
267.984	321.56
268.216	313.56
268.448	282.56
268.681	253.56
268.913	273.56
269.145	292.56
269.377	311.56
269.609	281.56
269.841	270.56
270.073	304.56
270.306	317.56
270.538	328.56
270.77	310.56
271.002	327.56
271.234	332.56
271.466	324.56
271.698	327.56
271.93	315.56
272.162	293.56
272.394	312.56
272.626	312.56
272.858	304.56
273.09	340.56
273.322	282.56
273.553	261.56
273.785	306.56
274.017	377.56
274.249	473.56
274.481	493.56
274.713	540.56
274.945	600.56
275.176	617.56
275.408	551.56
275.64	523.56
275.872	514.56
276.104	449.56
276.335	398.56
276.567	380.56
276.799	408.56
277.031	434.56
277.262	351.56
277.494	272.56
277.726	256.56
277.957	289.56
278.189	294.56
278.421	321.56
278.652	310.56
278.884	292.56
279.115	272.56
279.347	266.56
279.579	263.56
279.81	284.56
280.042	263.56
280.273	304.56
280.505	280.56
280.736	234.56
280.968	240.56
281.199	253.56
281.431	272.56
281.662	275.56
281.894	278.56
282.125	287.56
282.356	287.56
282.588	297.56
282.819	280.56
283.051	314.56
283.282	353.56
283.513	396.56
283.745	437.56
283.976	441.56
284.207	402.56
284.439	422.56
284.67	412.56
284.901	366.56
285.132	386.56
285.364	415.56
285.595	369.56
285.826	403.56
286.057	421.56
286.288	400.56
286.52	396.56
286.751	419.56
286.982	440.56
287.213	379.56
287.444	369.56
287.675	392.56
287.906	395.56
288.138	342.56
288.369	296.56
288.6	291.56
288.831	291.56
289.062	337.56
289.293	361.56
289.524	349.56
289.755	336.56
289.986	362.56
290.217	309.56
290.448	274.56
290.679	233.56
290.91	220.56
291.141	233.56
291.371	239.56
291.602	227.56
291.833	236.56
292.064	242.56
292.295	258.56
292.526	322.56
292.757	323.56
292.987	352.56
293.218	341.56
293.449	372.56
293.68	357.56
293.91	344.56
294.141	394.56
294.372	357.56
294.603	310.56
294.833	350.56
295.064	391.56
295.295	406.56
295.525	300.56
295.756	252.56
295.987	227.56
296.217	254.56
296.448	260.56
296.679	263.56
296.909	282.56
297.14	276.56
297.37	308.56
297.601	302.56
297.831	265.56
298.062	304.56
298.292	300.56
298.523	335.56
298.753	356.56
298.984	339.56
299.214	285.56
299.445	266.56
299.675	242.56
299.905	248.56
300.136	236.56
300.366	265.56
300.597	272.56
300.827	237.56
301.057	228.56
301.288	252.56
301.518	274.56
301.748	276.56
301.979	302.56
302.209	305.56
302.439	316.56
302.669	272.56
302.9	277.56
303.13	274.56
303.36	260.56
303.59	257.56
303.82	246.56
304.051	300.56
304.281	312.56
304.511	286.56
304.741	266.56
304.971	264.56
305.201	297.56
305.431	288.56
305.661	245.56
305.891	225.56
306.121	237.56
306.352	241.56
306.582	211.56
306.812	203.56
307.042	213.56
307.272	211.56
307.502	213.56
307.731	220.56
307.961	226.56
308.191	207.56
308.421	208.56
308.651	198.56
308.881	186.56
309.111	180.56
309.341	198.56
309.571	227.56
309.8	222.56
310.03	217.56
310.26	218.56
310.49	223.56
310.72	212.56
310.949	214.56
311.179	212.56
311.409	229.56
311.639	248.56
311.868	284.56
312.098	358.56
312.328	420.56
312.557	387.56
312.787	369.56
313.017	348.56
313.246	372.56
313.476	398.56
313.706	345.56
313.935	310.56
314.165	240.56
314.394	213.56
314.624	247.56
314.853	224.56
315.083	248.56
315.312	225.56
315.542	213.56
315.771	208.56
316.001	221.56
316.23	196.56
316.46	216.56
316.689	194.56
316.919	217.56
317.148	210.56
317.377	213.56
317.607	220.56
317.836	216.56
318.065	257.56
318.295	267.56
318.524	261.56
318.753	241.56
318.983	223.56
319.212	204.56
319.441	234.56
319.67	237.56
319.9	256.56
320.129	246.56
320.358	231.56
320.587	208.56
320.816	239.56
321.046	260.56
321.275	291.56
321.504	295.56
321.733	276.56
321.962	255.56
322.191	240.56
322.42	246.56
322.649	248.56
322.878	258.56
323.108	264.56
323.337	238.56
323.566	255.56
323.795	259.56
324.024	247.56
324.253	231.56
324.482	222.56
324.71	236.56
324.939	268.56
325.168	236.56
325.397	224.56
325.626	210.56
325.855	237.56
326.084	228.56
326.313	218.56
326.542	201.56
326.77	222.56
326.999	216.56
327.228	228.56
327.457	231.56
327.686	241.56
327.914	220.56
328.143	212.56
328.372	186.56
328.6	193.56
328.829	199.56
329.058	220.56
329.287	202.56
329.515	208.56
329.744	195.56
329.972	215.56
330.201	225.56
330.43	206.56
330.658	213.56
330.887	249.56
331.115	245.56
331.344	241.56
331.572	222.56
331.801	206.56
332.03	225.56
332.258	189.56
332.486	220.56
332.715	236.56
332.943	209.56
333.172	234.56
333.4	248.56
333.629	260.56
333.857	255.56
334.085	235.56
334.314	261.56
334.542	249.56
334.771	237.56
334.999	230.56
335.227	230.56
335.455	228.56
335.684	227.56
335.912	273.56
336.14	298.56
336.369	264.56
336.597	257.56
336.825	304.56
337.053	324.56
337.281	286.56
337.51	218.56
337.738	238.56
337.966	247.56
338.194	262.56
338.422	243.56
338.65	242.56
338.878	216.56
339.106	215.56
339.334	232.56
339.562	226.56
339.79	210.56
340.018	207.56
340.246	220.56
340.474	240.56
340.702	267.56
340.93	276.56
341.158	284.56
341.386	250.56
341.614	259.56
341.842	236.56
342.07	252.56
342.298	280.56
342.526	309.56
342.754	265.56
342.981	234.56
343.209	228.56
343.437	243.56
343.665	272.56
343.893	292.56
344.12	323.56
344.348	374.56
344.576	334.56
344.804	277.56
345.031	243.56
345.259	230.56
345.487	240.56
345.714	225.56
345.942	276.56
346.17	278.56
346.397	266.56
346.625	224.56
346.853	224.56
347.08	228.56
347.308	235.56
347.535	260.56
347.763	272.56
347.99	238.56
348.218	229.56
348.445	242.56
348.673	236.56
348.9	207.56
349.128	241.56
349.355	263.56
349.583	245.56
349.81	229.56
350.037	216.56
350.265	196.56
350.492	200.56
350.72	206.56
350.947	196.56
351.174	212.56
351.402	231.56
351.629	236.56
351.856	214.56
352.083	217.56
352.311	216.56
352.538	250.56
352.765	255.56
352.992	220.56
353.22	222.56
353.447	242.56
353.674	224.56
353.901	206.56
354.128	220.56
354.355	215.56
354.583	218.56
354.81	225.56
355.037	240.56
355.264	236.56
355.491	228.56
355.718	253.56
355.945	246.56
356.172	225.56
356.399	244.56
356.626	296.56
356.853	341.56
357.08	348.56
357.307	369.56
357.534	288.56
357.761	299.56
357.988	374.56
358.215	410.56
358.441	389.56
358.668	327.56
358.895	308.56
359.122	272.56
359.349	288.56
359.576	322.56
359.802	236.56
360.029	210.56
360.256	220.56
360.483	296.56
360.709	337.56
360.936	337.56
361.163	296.56
361.39	268.56
361.616	238.56
361.843	267.56
362.07	308.56
362.296	289.56
362.523	233.56
362.749	212.56
362.976	232.56
363.203	264.56
363.429	281.56
363.656	249.56
363.882	228.56
364.109	242.56
364.335	220.56
364.562	218.56
364.788	248.56
365.015	272.56
365.241	242.56
365.468	224.56
365.694	189.56
365.92	191.56
366.147	213.56
366.373	194.56
366.599	204.56
366.826	181.56
367.052	201.56
367.278	202.56
367.505	213.56
367.731	205.56
367.957	234.56
368.184	231.56
368.41	227.56
368.636	225.56
368.862	237.56
369.089	221.56
369.315	222.56
369.541	212.56
369.767	208.56
369.993	201.56
370.219	217.56
370.445	214.56
370.672	225.56
370.898	229.56
371.124	263.56
371.35	220.56
371.576	239.56
371.802	233.56
372.028	268.56
372.254	302.56
372.48	269.56
372.706	236.56
372.932	259.56
373.158	240.56
373.384	268.56
373.61	355.56
373.835	396.56
374.061	276.56
374.287	272.56
374.513	296.56
374.739	330.56
374.965	341.56
375.191	356.56
375.416	275.56
375.642	248.56
375.868	270.56
376.094	293.56
376.319	265.56
376.545	278.56
376.771	281.56
376.997	279.56
377.222	215.56
377.448	186.56
377.674	188.56
377.899	192.56
378.125	205.56
378.35	193.56
378.576	188.56
378.802	196.56
379.027	230.56
379.253	223.56
379.478	228.56
379.704	236.56
379.929	274.56
380.155	252.56
380.38	224.56
380.606	238.56
380.831	240.56
381.057	239.56
381.282	247.56
381.507	258.56
381.733	300.56
381.958	325.56
382.184	332.56
382.409	351.56
382.634	348.56
382.86	349.56
383.085	302.56
383.31	259.56
383.535	278.56
383.761	282.56
383.986	263.56
384.211	302.56
384.436	288.56
384.662	230.56
384.887	240.56
385.112	250.56
385.337	248.56
385.562	236.56
385.787	253.56
386.013	292.56
386.238	279.56
386.463	241.56
386.688	254.56
386.913	226.56
387.138	222.56
387.363	225.56
387.588	218.56
387.813	242.56
388.038	259.56
388.263	220.56
388.488	220.56
388.713	247.56
388.938	276.56
389.163	244.56
389.387	210.56
389.612	220.56
389.837	230.56
390.062	240.56
390.287	239.56
390.512	232.56
390.736	204.56
390.961	214.56
391.186	227.56
391.411	196.56
391.636	213.56
391.86	232.56
392.085	257.56
392.31	260.56
392.534	244.56
392.759	239.56
392.984	220.56
393.208	240.56
393.433	204.56
393.658	200.56
393.882	182.56
394.107	209.56
394.331	212.56
394.556	201.56
394.78	210.56
395.005	224.56
395.229	202.56
395.454	225.56
395.678	213.56
395.903	228.56
396.127	212.56
396.352	228.56
396.576	228.56
396.801	245.56
397.025	252.56
397.249	273.56
397.474	237.56
397.698	231.56
397.922	242.56
398.147	215.56
398.371	237.56
398.595	224.56
398.82	232.56
399.044	237.56
399.268	249.56
399.492	295.56
399.717	280.56
399.941	256.56
400.165	273.56
400.389	251.56
400.613	249.56
400.837	233.56
401.062	233.56
401.286	236.56
401.51	216.56
401.734	218.56
401.958	233.56
402.182	242.56
402.406	227.56
402.63	240.56
402.854	263.56
403.078	287.56
403.302	371.56
403.526	389.56
403.75	327.56
403.974	300.56
404.198	292.56
404.422	310.56
404.645	323.56
404.869	348.56
405.093	284.56
405.317	261.56
405.541	262.56
405.765	270.56
405.988	245.56
406.212	261.56
406.436	313.56
406.66	321.56
406.883	264.56
407.107	275.56
407.331	327.56
407.555	314.56
407.778	293.56
408.002	280.56
408.226	276.56
408.449	261.56
408.673	250.56
408.896	254.56
409.12	253.56
409.344	242.56
409.567	250.56
409.791	261.56
410.014	235.56
410.238	231.56
410.461	236.56
410.685	234.56
410.908	220.56
411.132	241.56
411.355	216.56
411.578	247.56
411.802	243.56
412.025	261.56
412.249	245.56
412.472	235.56
412.695	241.56
412.919	248.56
413.142	236.56
413.365	253.56
413.589	261.56
413.812	240.56
414.035	217.56
414.258	223.56
414.482	255.56
414.705	269.56
414.928	238.56
415.151	223.56
415.374	227.56
415.597	229.56
415.821	217.56
416.044	227.56
416.267	233.56
416.49	213.56
416.713	250.56
416.936	225.56
417.159	224.56
417.382	228.56
417.605	242.56
417.828	250.56
418.051	231.56
418.274	224.56
418.497	226.56
418.72	243.56
418.943	241.56
419.166	263.56
419.389	257.56
419.611	261.56
419.834	257.56
420.057	269.56
420.28	257.56
420.503	268.56
420.726	228.56
420.948	228.56
421.171	246.56
421.394	227.56
421.617	222.56
421.839	232.56
422.062	228.56
422.285	239.56
422.507	227.56
422.73	238.56
422.953	239.56
423.175	249.56
423.398	237.56
423.621	252.56
423.843	267.56
424.066	254.56
424.288	245.56
424.511	231.56
424.733	244.56
424.956	253.56
425.178	280.56
425.401	310.56
425.623	357.56
425.846	311.56
426.068	249.56
426.291	261.56
426.513	250.56
426.735	241.56
426.958	255.56
427.18	261.56
427.402	321.56
427.625	349.56
427.847	302.56
428.069	239.56
428.292	241.56
428.514	229.56
428.736	220.56
428.958	264.56
429.181	300.56
429.403	254.56
429.625	239.56
429.847	214.56
430.069	229.56
430.292	217.56
430.514	213.56
430.736	241.56
430.958	295.56
431.18	255.56
431.402	216.56
431.624	203.56
431.846	209.56
432.068	218.56
432.29	232.56
432.512	238.56
432.734	276.56
432.956	277.56
433.178	220.56
433.4	229.56
433.622	217.56
433.844	229.56
434.066	264.56
434.287	239.56
434.509	231.56
434.731	257.56
434.953	241.56
435.175	262.56
435.397	282.56
435.618	240.56
435.84	223.56
436.062	220.56
436.284	216.56
436.505	197.56
436.727	215.56
436.949	197.56
437.17	228.56
437.392	235.56
437.614	217.56
437.835	198.56
438.057	233.56
438.278	241.56
438.5	294.56
438.721	313.56
438.943	230.56
439.165	224.56
439.386	220.56
439.608	212.56
439.829	217.56
440.05	211.56
440.272	208.56
440.493	241.56
440.715	279.56
440.936	229.56
441.158	200.56
441.379	236.56
441.6	253.56
441.822	271.56
442.043	237.56
442.264	239.56
442.486	240.56
442.707	240.56
442.928	220.56
443.149	245.56
443.371	244.56
443.592	255.56
443.813	253.56
444.034	261.56
444.255	227.56
444.476	243.56
444.698	265.56
444.919	242.56
445.14	346.56
445.361	306.56
445.582	257.56
445.803	241.56
446.024	240.56
446.245	236.56
446.466	248.56
446.687	226.56
446.908	244.56
447.129	224.56
447.35	229.56
447.571	223.56
447.792	192.56
448.013	211.56
448.234	204.56
448.455	214.56
448.675	207.56
448.896	208.56
449.117	202.56
449.338	207.56
449.559	228.56
449.779	223.56
450	231.56
450.221	215.56
450.442	214.56
450.662	219.56
450.883	220.56
451.104	236.56
451.324	212.56
451.545	217.56
451.766	196.56
451.986	219.56
452.207	205.56
452.428	198.56
452.648	222.56
452.869	210.56
453.089	218.56
453.31	238.56
453.53	217.56
453.751	207.56
453.971	210.56
454.192	211.56
454.412	218.56
454.633	206.56
454.853	214.56
455.073	211.56
455.294	210.56
455.514	195.56
455.734	208.56
455.955	208.56
456.175	214.56
456.395	203.56
456.616	199.56
456.836	185.56
457.056	193.56
457.276	197.56
457.497	190.56
457.717	180.56
457.937	194.56
458.157	194.56
458.377	200.56
458.598	197.56
458.818	215.56
459.038	207.56
459.258	228.56
459.478	223.56
459.698	227.56
459.918	239.56
460.138	222.56
460.358	232.56
460.578	233.56
460.798	238.56
461.018	242.56
461.238	231.56
461.458	231.56
461.678	238.56
461.898	236.56
462.118	236.56
462.338	263.56
462.558	256.56
462.777	250.56
462.997	278.56
463.217	281.56
463.437	292.56
463.657	284.56
463.876	275.56
464.096	269.56
464.316	258.56
464.536	272.56
464.755	292.56
464.975	289.56
465.195	248.56
465.414	250.56
465.634	238.56
465.854	242.56
466.073	237.56
466.293	241.56
466.512	252.56
466.732	247.56
466.951	260.56
467.171	218.56
467.391	228.56
467.61	222.56
467.829	235.56
468.049	225.56
468.268	229.56
468.488	235.56
468.707	234.56
468.927	270.56
469.146	277.56
469.365	233.56
469.585	238.56
469.804	250.56
470.023	276.56
470.243	230.56
470.462	235.56
470.681	243.56
470.901	246.56
471.12	242.56
471.339	258.56
471.558	228.56
471.777	229.56
471.997	244.56
472.216	284.56
472.435	271.56
472.654	248.56
472.873	236.56
473.092	256.56
473.311	269.56
473.53	258.56
473.749	223.56
473.968	244.56
474.187	237.56
474.406	232.56
474.625	231.56
474.844	226.56
475.063	254.56
475.282	252.56
475.501	232.56
475.72	282.56
475.939	264.56
476.158	266.56
476.377	295.56
476.596	343.56
476.814	364.56
477.033	302.56
477.252	272.56
477.471	256.56
477.69	261.56
477.908	267.56
478.127	287.56
478.346	273.56
478.564	281.56
478.783	288.56
479.002	252.56
479.22	286.56
479.439	325.56
479.658	264.56
479.876	265.56
480.095	286.56
480.313	300.56
480.532	293.56
480.751	288.56
480.969	277.56
481.188	319.56
481.406	320.56
481.624	292.56
481.843	266.56
482.061	254.56
482.28	291.56
482.498	319.56
482.717	333.56
482.935	292.56
483.153	276.56
483.372	264.56
483.59	270.56
483.808	260.56
484.027	263.56
484.245	263.56
484.463	255.56
484.681	261.56
484.9	275.56
485.118	285.56
485.336	268.56
485.554	263.56
485.772	266.56
485.99	297.56
486.209	290.56
486.427	293.56
486.645	293.56
486.863	295.56
487.081	292.56
487.299	318.56
487.517	311.56
487.735	293.56
487.953	285.56
488.171	276.56
488.389	278.56
488.607	259.56
488.825	267.56
489.043	292.56
489.261	333.56
489.479	313.56
489.696	278.56
489.914	276.56
490.132	264.56
490.35	265.56
490.568	268.56
490.786	250.56
491.003	254.56
491.221	282.56
491.439	262.56
491.657	272.56
491.874	275.56
492.092	328.56
492.31	349.56
492.527	371.56
492.745	323.56
492.963	287.56
493.18	281.56
493.398	304.56
493.615	310.56
493.833	290.56
494.05	290.56
494.268	282.56
494.485	268.56
494.703	292.56
494.92	289.56
495.138	274.56
495.355	287.56
495.573	291.56
495.79	306.56
496.008	366.56
496.225	348.56
496.442	292.56
496.66	296.56
496.877	309.56
497.094	315.56
497.312	280.56
497.529	296.56
497.746	302.56
497.963	315.56
498.181	322.56
498.398	338.56
498.615	358.56
498.832	368.56
499.049	397.56
499.267	382.56
499.484	377.56
499.701	393.56
499.918	442.56
500.135	473.56
500.352	532.56
500.569	540.56
500.786	554.56
501.003	536.56
501.22	464.56
501.437	424.56
501.654	414.56
501.871	366.56
502.088	377.56
502.305	354.56
502.522	348.56
