Data from NickelSpatula.Lamp.E10.P2_HRD10591_11-59-49-524.txt Node
Date: Tue Jul 23 11:59:49 EDT 2019
User: cochatt
Spectrometer: HR+D1059
Trigger mode: 1
Integration Time (sec): 1.000000E-1
Scans to average: 1
Electric dark correction enabled: true
Nonlinearity correction enabled: false
Boxcar width: 0
XAxis mode: Wavelengths
Number of Pixels in Spectrum: 2048
>>>>>Begin Spectral Data<<<<<
223.165	-15.69
223.4	-15.69
223.635	-15.69
223.869	-24.69
224.104	-15.69
224.338	-6.69
224.573	-21.69
224.808	-25.69
225.042	-11.69
225.277	-2.69
225.511	-10.69
225.746	14.31
225.98	3.31
226.215	12.31
226.449	17.31
226.683	23.31
226.918	28.31
227.152	36.31
227.387	36.31
227.621	43.31
227.856	35.31
228.09	42.31
228.324	51.31
228.559	72.31
228.793	93.31
229.027	138.31
229.262	159.31
229.496	154.31
229.73	165.31
229.964	188.31
230.199	224.31
230.433	216.31
230.667	214.31
230.901	206.31
231.136	206.31
231.37	201.31
231.604	220.31
231.838	253.31
232.072	257.31
232.306	253.31
232.541	253.31
232.775	245.31
233.009	262.31
233.243	308.31
233.477	314.31
233.711	354.31
233.945	331.31
234.179	334.31
234.413	357.31
234.647	388.31
234.881	481.31
235.115	429.31
235.349	423.31
235.583	358.31
235.817	348.31
236.051	354.31
236.285	425.31
236.519	451.31
236.753	453.31
236.987	460.31
237.221	418.31
237.455	417.31
237.689	445.31
237.922	443.31
238.156	473.31
238.39	560.31
238.624	673.31
238.858	614.31
239.091	509.31
239.325	510.31
239.559	494.31
239.793	550.31
240.027	694.31
240.26	609.31
240.494	569.31
240.728	598.31
240.961	659.31
241.195	659.31
241.429	641.31
241.662	653.31
241.896	557.31
242.13	489.31
242.363	459.31
242.597	469.31
242.83	558.31
243.064	551.31
243.298	601.31
243.531	643.31
243.765	645.31
243.998	642.31
244.232	616.31
244.465	616.31
244.699	599.31
244.932	672.31
245.166	631.31
245.399	567.31
245.633	555.31
245.866	582.31
246.099	602.31
246.333	752.31
246.566	817.31
246.8	800.31
247.033	766.31
247.266	690.31
247.5	693.31
247.733	733.31
247.966	654.31
248.2	720.31
248.433	788.31
248.666	855.31
248.899	835.31
249.133	915.31
249.366	1023.31
249.599	1064.31
249.832	976.31
250.066	837.31
250.299	849.31
250.532	841.31
250.765	822.31
250.998	753.31
251.231	719.31
251.465	820.31
251.698	840.31
251.931	815.31
252.164	858.31
252.397	974.31
252.63	1088.31
252.863	1229.31
253.096	1265.31
253.329	1183.31
253.562	1141.31
253.795	1270.31
254.028	1416.31
254.261	1417.31
254.494	1298.31
254.727	1166.31
254.96	1115.31
255.193	1168.31
255.426	1157.31
255.659	894.31
255.892	786.31
256.124	897.31
256.357	1047.31
256.59	1228.31
256.823	1171.31
257.056	992.31
257.289	923.31
257.521	987.31
257.754	1144.31
257.987	1313.31
258.22	1139.31
258.452	1025.31
258.685	1161.31
258.918	1317.31
259.151	1279.31
259.383	1305.31
259.616	1533.31
259.849	1571.31
260.081	1751.31
260.314	1952.31
260.547	1506.31
260.779	1515.31
261.012	1757.31
261.244	1634.31
261.477	1671.31
261.71	1525.31
261.942	1335.31
262.175	1316.31
262.407	1240.31
262.64	1269.31
262.872	1515.31
263.105	1659.31
263.337	1755.31
263.57	1560.31
263.802	1022.31
264.035	930.31
264.267	885.31
264.499	771.31
264.732	734.31
264.964	711.31
265.197	742.31
265.429	791.31
265.661	821.31
265.894	853.31
266.126	938.31
266.358	1069.31
266.591	1283.31
266.823	1506.31
267.055	1425.31
267.287	1278.31
267.52	1232.31
267.752	1349.31
267.984	1473.31
268.216	1407.31
268.448	1165.31
268.681	1129.31
268.913	1241.31
269.145	1309.31
269.377	1316.31
269.609	1326.31
269.841	1220.31
270.073	1327.31
270.306	1344.31
270.538	1383.31
270.77	1441.31
271.002	1442.31
271.234	1544.31
271.466	1551.31
271.698	1509.31
271.93	1454.31
272.162	1495.31
272.394	1455.31
272.626	1473.31
272.858	1482.31
273.09	1498.31
273.322	1350.31
273.553	1320.31
273.785	1542.31
274.017	2087.31
274.249	2546.31
274.481	2594.31
274.713	2827.31
274.945	3237.31
275.176	3411.31
275.408	2927.31
275.64	2669.31
275.872	2678.31
276.104	2279.31
276.335	1943.31
276.567	1963.31
276.799	2021.31
277.031	2144.31
277.262	1656.31
277.494	1251.31
277.726	1248.31
277.957	1348.31
278.189	1518.31
278.421	1480.31
278.652	1446.31
278.884	1386.31
279.115	1283.31
279.347	1215.31
279.579	1229.31
279.81	1266.31
280.042	1233.31
280.273	1278.31
280.505	1143.31
280.736	1038.31
280.968	1047.31
281.199	1086.31
281.431	1261.31
281.662	1233.31
281.894	1166.31
282.125	1255.31
282.356	1357.31
282.588	1431.31
282.819	1290.31
283.051	1397.31
283.282	1719.31
283.513	1974.31
283.745	2226.31
283.976	2251.31
284.207	2048.31
284.439	2096.31
284.67	2053.31
284.901	1807.31
285.132	1939.31
285.364	2050.31
285.595	1949.31
285.826	2005.31
286.057	2067.31
286.288	1977.31
286.52	2028.31
286.751	2089.31
286.982	2115.31
287.213	1855.31
287.444	1789.31
287.675	1941.31
287.906	1841.31
288.138	1571.31
288.369	1378.31
288.6	1332.31
288.831	1348.31
289.062	1563.31
289.293	1725.31
289.524	1649.31
289.755	1649.31
289.986	1655.31
290.217	1440.31
290.448	1155.31
290.679	996.31
290.91	930.31
291.141	952.31
291.371	1017.31
291.602	1015.31
291.833	992.31
292.064	1081.31
292.295	1246.31
292.526	1415.31
292.757	1489.31
292.987	1615.31
293.218	1596.31
293.449	1625.31
293.68	1734.31
293.91	1646.31
294.141	1617.31
294.372	1534.31
294.603	1423.31
294.833	1665.31
295.064	1865.31
295.295	1743.31
295.525	1346.31
295.756	1173.31
295.987	1034.31
296.217	1035.31
296.448	1091.31
296.679	1116.31
296.909	1274.31
297.14	1344.31
297.37	1483.31
297.601	1376.31
297.831	1213.31
298.062	1280.31
298.292	1476.31
298.523	1625.31
298.753	1877.31
298.984	1655.31
299.214	1295.31
299.445	1085.31
299.675	1055.31
299.905	1076.31
300.136	1125.31
300.366	1245.31
300.597	1179.31
300.827	1036.31
301.057	1033.31
301.288	1062.31
301.518	1095.31
301.748	1288.31
301.979	1386.31
302.209	1509.31
302.439	1514.31
302.669	1293.31
302.9	1285.31
303.13	1215.31
303.36	1141.31
303.59	1094.31
303.82	1120.31
304.051	1253.31
304.281	1389.31
304.511	1285.31
304.741	1135.31
304.971	1223.31
305.201	1304.31
305.431	1219.31
305.661	1118.31
305.891	1091.31
306.121	1113.31
306.352	989.31
306.582	899.31
306.812	889.31
307.042	905.31
307.272	819.31
307.502	841.31
307.731	881.31
307.961	947.31
308.191	866.31
308.421	821.31
308.651	813.31
308.881	776.31
309.111	775.31
309.341	825.31
309.571	924.31
309.8	949.31
310.03	945.31
310.26	1057.31
310.49	1019.31
310.72	898.31
310.949	880.31
311.179	898.31
311.409	930.31
311.639	1098.31
311.868	1427.31
312.098	1809.31
312.328	1984.31
312.557	1885.31
312.787	1910.31
313.017	1694.31
313.246	1819.31
313.476	2001.31
313.706	1653.31
313.935	1369.31
314.165	1088.31
314.394	950.31
314.624	957.31
314.853	1027.31
315.083	1064.31
315.312	1036.31
315.542	1041.31
315.771	998.31
316.001	887.31
316.23	845.31
316.46	857.31
316.689	863.31
316.919	904.31
317.148	929.31
317.377	887.31
317.607	886.31
317.836	979.31
318.065	1137.31
318.295	1287.31
318.524	1163.31
318.753	975.31
318.983	961.31
319.212	962.31
319.441	1045.31
319.67	1149.31
319.9	1242.31
320.129	1183.31
320.358	1006.31
320.587	957.31
320.816	1066.31
321.046	1223.31
321.275	1373.31
321.504	1399.31
321.733	1325.31
321.962	1297.31
322.191	1215.31
322.42	1155.31
322.649	1175.31
322.878	1266.31
323.108	1226.31
323.337	1149.31
323.566	1127.31
323.795	1090.31
324.024	1035.31
324.253	1029.31
324.482	1013.31
324.71	1128.31
324.939	1271.31
325.168	1173.31
325.397	944.31
325.626	950.31
325.855	944.31
326.084	951.31
326.313	881.31
326.542	837.31
326.77	891.31
326.999	926.31
327.228	995.31
327.457	1024.31
327.686	1066.31
327.914	909.31
328.143	869.31
328.372	853.31
328.6	871.31
328.829	905.31
329.058	925.31
329.287	934.31
329.515	929.31
329.744	877.31
329.972	834.31
330.201	813.31
330.43	851.31
330.658	973.31
330.887	1085.31
331.115	1039.31
331.344	1026.31
331.572	978.31
331.801	936.31
332.03	845.31
332.258	885.31
332.486	1001.31
332.715	996.31
332.943	921.31
333.172	946.31
333.4	943.31
333.629	1048.31
333.857	1125.31
334.085	1126.31
334.314	1158.31
334.542	1096.31
334.771	1012.31
334.999	994.31
335.227	951.31
335.455	988.31
335.684	1067.31
335.912	1213.31
336.14	1347.31
336.369	1312.31
336.597	1263.31
336.825	1399.31
337.053	1567.31
337.281	1257.31
337.51	1033.31
337.738	985.31
337.966	1082.31
338.194	1217.31
338.422	1126.31
338.65	963.31
338.878	931.31
339.106	908.31
339.334	1077.31
339.562	1134.31
339.79	1023.31
340.018	994.31
340.246	1069.31
340.474	1235.31
340.702	1304.31
340.93	1364.31
341.158	1361.31
341.386	1142.31
341.614	1131.31
341.842	1169.31
342.07	1182.31
342.298	1362.31
342.526	1403.31
342.754	1243.31
342.981	1181.31
343.209	1075.31
343.437	1178.31
343.665	1232.31
343.893	1221.31
344.12	1428.31
344.348	1691.31
344.576	1451.31
344.804	1233.31
345.031	1097.31
345.259	1024.31
345.487	1036.31
345.714	1079.31
345.942	1137.31
346.17	1201.31
346.397	1181.31
346.625	1027.31
346.853	1024.31
347.08	947.31
347.308	1025.31
347.535	1151.31
347.763	1209.31
347.99	1030.31
348.218	940.31
348.445	999.31
348.673	998.31
348.9	994.31
349.128	1085.31
349.355	1124.31
349.583	1091.31
349.81	1037.31
350.037	983.31
350.265	853.31
350.492	837.31
350.72	827.31
350.947	879.31
351.174	930.31
351.402	1005.31
351.629	1032.31
351.856	997.31
352.083	927.31
352.311	1030.31
352.538	1115.31
352.765	1205.31
352.992	1094.31
353.22	1031.31
353.447	1033.31
353.674	1033.31
353.901	1002.31
354.128	1053.31
354.355	1047.31
354.583	1023.31
354.81	1025.31
355.037	1082.31
355.264	1023.31
355.491	1135.31
355.718	1227.31
355.945	1193.31
356.172	1144.31
356.399	1176.31
356.626	1383.31
356.853	1718.31
357.08	1855.31
357.307	1865.31
357.534	1433.31
357.761	1494.31
357.988	1829.31
358.215	2166.31
358.441	2063.31
358.668	1720.31
358.895	1606.31
359.122	1253.31
359.349	1266.31
359.576	1409.31
359.802	1125.31
360.029	993.31
360.256	1077.31
360.483	1337.31
360.709	1698.31
360.936	1765.31
361.163	1495.31
361.39	1178.31
361.616	1111.31
361.843	1280.31
362.07	1579.31
362.296	1436.31
362.523	1104.31
362.749	970.31
362.976	1017.31
363.203	1264.31
363.429	1411.31
363.656	1135.31
363.882	1036.31
364.109	1053.31
364.335	1014.31
364.562	1045.31
364.788	1128.31
365.015	1361.31
365.241	1219.31
365.468	988.31
365.694	845.31
365.92	833.31
366.147	802.31
366.373	793.31
366.599	832.31
366.826	813.31
367.052	820.31
367.278	866.31
367.505	859.31
367.731	926.31
367.957	1079.31
368.184	1085.31
368.41	1075.31
368.636	1098.31
368.862	1109.31
369.089	1083.31
369.315	945.31
369.541	920.31
369.767	913.31
369.993	875.31
370.219	885.31
370.445	969.31
370.672	1060.31
370.898	1163.31
371.124	1143.31
371.35	986.31
371.576	928.31
371.802	1008.31
372.028	1233.31
372.254	1418.31
372.48	1194.31
372.706	1051.31
372.932	1153.31
373.158	1189.31
373.384	1446.31
373.61	1943.31
373.835	1949.31
374.061	1440.31
374.287	1239.31
374.513	1475.31
374.739	1754.31
374.965	1803.31
375.191	1761.31
375.416	1217.31
375.642	1080.31
375.868	1297.31
376.094	1439.31
376.319	1249.31
376.545	1345.31
376.771	1420.31
376.997	1227.31
377.222	902.31
377.448	765.31
377.674	758.31
377.899	763.31
378.125	741.31
378.35	753.31
378.576	822.31
378.802	895.31
379.027	975.31
379.253	931.31
379.478	960.31
379.704	1083.31
379.929	1123.31
380.155	1149.31
380.38	1015.31
380.606	1027.31
380.831	1172.31
381.057	1044.31
381.282	1023.31
381.507	1253.31
381.733	1541.31
381.958	1634.31
382.184	1745.31
382.409	1824.31
382.634	1723.31
382.86	1830.31
383.085	1522.31
383.31	1183.31
383.535	1245.31
383.761	1309.31
383.986	1230.31
384.211	1522.31
384.436	1409.31
384.662	1089.31
384.887	1020.31
385.112	1078.31
385.337	1073.31
385.562	1029.31
385.787	1154.31
386.013	1277.31
386.238	1311.31
386.463	1060.31
386.688	1046.31
386.913	962.31
387.138	923.31
387.363	1010.31
387.588	1018.31
387.813	1032.31
388.038	1147.31
388.263	1031.31
388.488	997.31
388.713	1160.31
388.938	1292.31
389.163	1047.31
389.387	942.31
389.612	958.31
389.837	983.31
390.062	998.31
390.287	1031.31
390.512	1046.31
390.736	989.31
390.961	909.31
391.186	877.31
391.411	875.31
391.636	860.31
391.86	981.31
392.085	1073.31
392.31	1079.31
392.534	980.31
392.759	955.31
392.984	1002.31
393.208	980.31
393.433	920.31
393.658	850.31
393.882	827.31
394.107	817.31
394.331	799.31
394.556	815.31
394.78	834.31
395.005	877.31
395.229	902.31
395.454	899.31
395.678	895.31
395.903	954.31
396.127	883.31
396.352	917.31
396.576	1028.31
396.801	1040.31
397.025	1157.31
397.249	1210.31
397.474	973.31
397.698	946.31
397.922	1012.31
398.147	919.31
398.371	929.31
398.595	1021.31
398.82	963.31
399.044	956.31
399.268	1055.31
399.492	1074.31
399.717	1056.31
399.941	1154.31
400.165	1119.31
400.389	1049.31
400.613	1097.31
400.837	1057.31
401.062	923.31
401.286	899.31
401.51	925.31
401.734	915.31
401.958	937.31
402.182	912.31
402.406	920.31
402.63	954.31
402.854	987.31
403.078	1097.31
403.302	1339.31
403.526	1366.31
403.75	1227.31
403.974	1077.31
404.198	1105.31
404.422	1279.31
404.645	1489.31
404.869	1705.31
405.093	1225.31
405.317	1063.31
405.541	1010.31
405.765	1041.31
405.988	1053.31
406.212	1117.31
406.436	1368.31
406.66	1469.31
406.883	1173.31
407.107	1220.31
407.331	1454.31
407.555	1322.31
407.778	1112.31
408.002	1067.31
408.226	1054.31
408.449	1081.31
408.673	1023.31
408.896	954.31
409.12	913.31
409.344	904.31
409.567	926.31
409.791	934.31
410.014	913.31
410.238	893.31
410.461	902.31
410.685	903.31
410.908	885.31
411.132	951.31
411.355	939.31
411.578	964.31
411.802	977.31
412.025	1017.31
412.249	1014.31
412.472	975.31
412.695	964.31
412.919	986.31
413.142	997.31
413.365	1096.31
413.589	1068.31
413.812	980.31
414.035	961.31
414.258	997.31
414.482	1080.31
414.705	1112.31
414.928	922.31
415.151	912.31
415.374	910.31
415.597	949.31
415.821	949.31
416.044	919.31
416.267	873.31
416.49	883.31
416.713	846.31
416.936	871.31
417.159	891.31
417.382	903.31
417.605	883.31
417.828	967.31
418.051	931.31
418.274	924.31
418.497	943.31
418.72	932.31
418.943	972.31
419.166	1049.31
419.389	1039.31
419.611	1016.31
419.834	1031.31
420.057	1159.31
420.28	1147.31
420.503	1042.31
420.726	919.31
420.948	861.31
421.171	891.31
421.394	891.31
421.617	896.31
421.839	895.31
422.062	948.31
422.285	961.31
422.507	956.31
422.73	971.31
422.953	991.31
423.175	972.31
423.398	991.31
423.621	1038.31
423.843	1077.31
424.066	1026.31
424.288	962.31
424.511	935.31
424.733	953.31
424.956	975.31
425.178	1137.31
425.401	1292.31
425.623	1452.31
425.846	1197.31
426.068	1043.31
426.291	1179.31
426.513	1085.31
426.735	1002.31
426.958	1009.31
427.18	1205.31
427.402	1579.31
427.625	1529.31
427.847	1233.31
428.069	945.31
428.292	899.31
428.514	931.31
428.736	886.31
428.958	978.31
429.181	1177.31
429.403	996.31
429.625	931.31
429.847	902.31
430.069	932.31
430.292	930.31
430.514	885.31
430.736	1002.31
430.958	1285.31
431.18	1171.31
431.402	897.31
431.624	834.31
431.846	835.31
432.068	809.31
432.29	837.31
432.512	961.31
432.734	1283.31
432.956	1184.31
433.178	893.31
433.4	864.31
433.622	861.31
433.844	893.31
434.066	947.31
434.287	935.31
434.509	881.31
434.731	925.31
434.953	879.31
435.175	922.31
435.397	1021.31
435.618	895.31
435.84	825.31
436.062	839.31
436.284	843.31
436.505	797.31
436.727	803.31
436.949	817.31
437.17	858.31
437.392	881.31
437.614	871.31
437.835	843.31
438.057	847.31
438.278	1030.31
438.5	1473.31
438.721	1483.31
438.943	963.31
439.165	823.31
439.386	802.31
439.608	808.31
439.829	807.31
440.05	846.31
440.272	877.31
440.493	1014.31
440.715	1251.31
440.936	1013.31
441.158	899.31
441.379	861.31
441.6	986.31
441.822	1094.31
442.043	903.31
442.264	872.31
442.486	886.31
442.707	905.31
442.928	888.31
443.149	889.31
443.371	920.31
443.592	965.31
443.813	915.31
444.034	880.31
444.255	934.31
444.476	955.31
444.698	938.31
444.919	945.31
445.14	1071.31
445.361	1042.31
445.582	981.31
445.803	949.31
446.024	930.31
446.245	964.31
446.466	952.31
446.687	903.31
446.908	911.31
447.129	833.31
447.35	835.31
447.571	821.31
447.792	821.31
448.013	796.31
448.234	808.31
448.455	842.31
448.675	817.31
448.896	832.31
449.117	794.31
449.338	836.31
449.559	807.31
449.779	873.31
450	889.31
450.221	880.31
450.442	822.31
450.662	816.31
450.883	816.31
451.104	855.31
451.324	815.31
451.545	802.31
451.766	827.31
451.986	790.31
452.207	785.31
452.428	787.31
452.648	810.31
452.869	851.31
453.089	866.31
453.31	848.31
453.53	765.31
453.751	766.31
453.971	756.31
454.192	805.31
454.412	802.31
454.633	753.31
454.853	769.31
455.073	736.31
455.294	736.31
455.514	750.31
455.734	778.31
455.955	801.31
456.175	857.31
456.395	737.31
456.616	747.31
456.836	725.31
457.056	724.31
457.276	734.31
457.497	728.31
457.717	722.31
457.937	739.31
458.157	732.31
458.377	727.31
458.598	760.31
458.818	778.31
459.038	832.31
459.258	846.31
459.478	884.31
459.698	915.31
459.918	900.31
460.138	883.31
460.358	890.31
460.578	896.31
460.798	902.31
461.018	937.31
461.238	874.31
461.458	885.31
461.678	893.31
461.898	946.31
462.118	923.31
462.338	953.31
462.558	972.31
462.777	1006.31
462.997	1035.31
463.217	1013.31
463.437	1040.31
463.657	999.31
463.876	993.31
464.096	981.31
464.316	969.31
464.536	1002.31
464.755	1049.31
464.975	1045.31
465.195	985.31
465.414	1031.31
465.634	978.31
465.854	953.31
466.073	906.31
466.293	876.31
466.512	953.31
466.732	1003.31
466.951	1066.31
467.171	921.31
467.391	885.31
467.61	890.31
467.829	954.31
468.049	968.31
468.268	901.31
468.488	870.31
468.707	948.31
468.927	1067.31
469.146	1152.31
469.365	1053.31
469.585	981.31
469.804	1037.31
470.023	1143.31
470.243	983.31
470.462	947.31
470.681	939.31
470.901	964.31
471.12	1002.31
471.339	994.31
471.558	945.31
471.777	935.31
471.997	1026.31
472.216	1126.31
472.435	1089.31
472.654	991.31
472.873	967.31
473.092	1022.31
473.311	1073.31
473.53	992.31
473.749	980.31
473.968	995.31
474.187	980.31
474.406	972.31
474.625	946.31
474.844	974.31
475.063	1046.31
475.282	1031.31
475.501	1098.31
475.72	1185.31
475.939	1130.31
476.158	1109.31
476.377	1258.31
476.596	1484.31
476.814	1508.31
477.033	1272.31
477.252	1094.31
477.471	1001.31
477.69	1013.31
477.908	1114.31
478.127	1174.31
478.346	1059.31
478.564	1193.31
478.783	1114.31
479.002	1137.31
479.22	1335.31
479.439	1419.31
479.658	1217.31
479.876	1149.31
480.095	1262.31
480.313	1262.31
480.532	1166.31
480.751	1092.31
480.969	1155.31
481.188	1282.31
481.406	1330.31
481.624	1249.31
481.843	1145.31
482.061	1100.31
482.28	1241.31
482.498	1521.31
482.717	1411.31
482.935	1234.31
483.153	1161.31
483.372	1103.31
483.59	1079.31
483.808	1056.31
484.027	1071.31
484.245	1061.31
484.463	1019.31
484.681	1013.31
484.9	1156.31
485.118	1205.31
485.336	1137.31
485.554	1050.31
485.772	1128.31
485.99	1186.31
486.209	1264.31
486.427	1297.31
486.645	1215.31
486.863	1267.31
487.081	1266.31
487.299	1416.31
487.517	1401.31
487.735	1231.31
487.953	1230.31
488.171	1255.31
488.389	1188.31
488.607	1142.31
488.825	1210.31
489.043	1303.31
489.261	1492.31
489.479	1598.31
489.696	1331.31
489.914	1187.31
490.132	1133.31
490.35	1136.31
490.568	1162.31
490.786	1153.31
491.003	1137.31
491.221	1196.31
491.439	1167.31
491.657	1151.31
491.874	1253.31
492.092	1557.31
492.31	1869.31
492.527	1818.31
492.745	1553.31
492.963	1351.31
493.18	1347.31
493.398	1316.31
