Data from NickelSpatula_HRD10591_16-34-32-125.txt Node
Date: Mon Jul 22 16:34:32 EDT 2019
User: cochatt
Spectrometer: HR+D1059
Trigger mode: 1
Integration Time (sec): 1.000000E-1
Scans to average: 1
Electric dark correction enabled: true
Nonlinearity correction enabled: false
Boxcar width: 0
XAxis mode: Wavelengths
Number of Pixels in Spectrum: 2048
>>>>>Begin Spectral Data<<<<<
223.165	-10.75
223.4	-10.75
223.635	-10.75
223.869	-16.75
224.104	-10.75
224.338	-9.75
224.573	-8.75
224.808	-8.75
225.042	-3.75
225.277	-24.75
225.511	-4.75
225.746	3.25
225.98	4.25
226.215	13.25
226.449	17.25
226.683	21.25
226.918	14.25
227.152	25.25
227.387	36.25
227.621	22.25
227.856	38.25
228.09	48.25
228.324	57.25
228.559	46.25
228.793	79.25
229.027	87.25
229.262	65.25
229.496	81.25
229.73	79.25
229.964	101.25
230.199	88.25
230.433	95.25
230.667	104.25
230.901	93.25
231.136	96.25
231.37	105.25
231.604	101.25
231.838	86.25
232.072	107.25
232.306	101.25
232.541	101.25
232.775	102.25
233.009	110.25
233.243	107.25
233.477	113.25
233.711	111.25
233.945	125.25
234.179	122.25
234.413	130.25
234.647	136.25
234.881	137.25
235.115	139.25
235.349	136.25
235.583	132.25
235.817	123.25
236.051	123.25
236.285	128.25
236.519	134.25
236.753	139.25
236.987	135.25
237.221	130.25
237.455	135.25
237.689	131.25
237.922	141.25
238.156	135.25
238.39	143.25
238.624	170.25
238.858	162.25
239.091	150.25
239.325	156.25
239.559	153.25
239.793	161.25
240.027	164.25
240.26	170.25
240.494	159.25
240.728	160.25
240.961	177.25
241.195	175.25
241.429	180.25
241.662	162.25
241.896	150.25
242.13	150.25
242.363	135.25
242.597	152.25
242.83	159.25
243.064	165.25
243.298	168.25
243.531	172.25
243.765	187.25
243.998	172.25
244.232	185.25
244.465	165.25
244.699	161.25
244.932	174.25
245.166	180.25
245.399	159.25
245.633	158.25
245.866	165.25
246.099	174.25
246.333	198.25
246.566	202.25
246.8	219.25
247.033	191.25
247.266	190.25
247.5	197.25
247.733	169.25
247.966	178.25
248.2	181.25
248.433	188.25
248.666	212.25
248.899	192.25
249.133	214.25
249.366	235.25
249.599	249.25
249.832	230.25
250.066	226.25
250.299	231.25
250.532	203.25
250.765	209.25
250.998	187.25
251.231	205.25
251.465	200.25
251.698	222.25
251.931	209.25
252.164	216.25
252.397	233.25
252.63	240.25
252.863	290.25
253.096	279.25
253.329	284.25
253.562	284.25
253.795	314.25
254.028	330.25
254.261	342.25
254.494	282.25
254.727	257.25
254.96	292.25
255.193	285.25
255.426	271.25
255.659	230.25
255.892	211.25
256.124	224.25
256.357	251.25
256.59	289.25
256.823	292.25
257.056	259.25
257.289	227.25
257.521	229.25
257.754	271.25
257.987	323.25
258.22	292.25
258.452	260.25
258.685	280.25
258.918	303.25
259.151	280.25
259.383	309.25
259.616	374.25
259.849	371.25
260.081	370.25
260.314	399.25
260.547	341.25
260.779	345.25
261.012	402.25
261.244	372.25
261.477	379.25
261.71	364.25
261.942	293.25
262.175	310.25
262.407	301.25
262.64	313.25
262.872	331.25
263.105	364.25
263.337	381.25
263.57	340.25
263.802	277.25
264.035	243.25
264.267	238.25
264.499	223.25
264.732	154.25
264.964	189.25
265.197	191.25
265.429	201.25
265.661	233.25
265.894	221.25
266.126	247.25
266.358	243.25
266.591	284.25
266.823	323.25
267.055	333.25
267.287	298.25
267.52	315.25
267.752	313.25
267.984	351.25
268.216	338.25
268.448	282.25
268.681	291.25
268.913	297.25
269.145	322.25
269.377	300.25
269.609	305.25
269.841	311.25
270.073	313.25
270.306	346.25
270.538	333.25
270.77	329.25
271.002	328.25
271.234	371.25
271.466	359.25
271.698	331.25
271.93	316.25
272.162	329.25
272.394	313.25
272.626	321.25
272.858	310.25
273.09	334.25
273.322	313.25
273.553	271.25
273.785	320.25
274.017	415.25
274.249	496.25
274.481	519.25
274.713	546.25
274.945	626.25
275.176	653.25
275.408	585.25
275.64	525.25
275.872	526.25
276.104	493.25
276.335	415.25
276.567	432.25
276.799	419.25
277.031	461.25
277.262	369.25
277.494	285.25
277.726	281.25
277.957	308.25
278.189	355.25
278.421	344.25
278.652	326.25
278.884	318.25
279.115	300.25
279.347	275.25
279.579	280.25
279.81	283.25
280.042	307.25
280.273	281.25
280.505	289.25
280.736	261.25
280.968	243.25
281.199	265.25
281.431	288.25
281.662	298.25
281.894	272.25
282.125	308.25
282.356	314.25
282.588	307.25
282.819	287.25
283.051	300.25
283.282	374.25
283.513	415.25
283.745	462.25
283.976	480.25
284.207	415.25
284.439	446.25
284.67	459.25
284.901	373.25
285.132	417.25
285.364	469.25
285.595	395.25
285.826	430.25
286.057	448.25
286.288	435.25
286.52	444.25
286.751	482.25
286.982	464.25
287.213	401.25
287.444	382.25
287.675	410.25
287.906	421.25
288.138	371.25
288.369	304.25
288.6	302.25
288.831	306.25
289.062	373.25
289.293	380.25
289.524	374.25
289.755	343.25
289.986	373.25
290.217	363.25
290.448	271.25
290.679	234.25
290.91	232.25
291.141	211.25
291.371	225.25
291.602	233.25
291.833	209.25
292.064	238.25
292.295	286.25
292.526	315.25
292.757	318.25
292.987	356.25
293.218	350.25
293.449	384.25
293.68	403.25
293.91	383.25
294.141	382.25
294.372	363.25
294.603	333.25
294.833	341.25
295.064	437.25
295.295	413.25
295.525	326.25
295.756	263.25
295.987	234.25
296.217	227.25
296.448	248.25
296.679	248.25
296.909	286.25
297.14	300.25
297.37	309.25
297.601	276.25
297.831	271.25
298.062	287.25
298.292	312.25
298.523	316.25
298.753	384.25
298.984	354.25
299.214	287.25
299.445	238.25
299.675	250.25
299.905	231.25
300.136	238.25
300.366	261.25
300.597	261.25
300.827	238.25
301.057	224.25
301.288	235.25
301.518	240.25
301.748	280.25
301.979	283.25
302.209	303.25
302.439	313.25
302.669	280.25
302.9	285.25
303.13	252.25
303.36	269.25
303.59	245.25
303.82	262.25
304.051	289.25
304.281	326.25
304.511	293.25
304.741	277.25
304.971	280.25
305.201	298.25
305.431	280.25
305.661	240.25
305.891	222.25
306.121	248.25
306.352	228.25
306.582	210.25
306.812	202.25
307.042	213.25
307.272	192.25
307.502	190.25
307.731	203.25
307.961	204.25
308.191	211.25
308.421	192.25
308.651	179.25
308.881	186.25
309.111	196.25
309.341	181.25
309.571	208.25
309.8	221.25
310.03	221.25
310.26	237.25
310.49	234.25
310.72	201.25
310.949	201.25
311.179	203.25
311.409	215.25
311.639	257.25
311.868	313.25
312.098	377.25
312.328	439.25
312.557	405.25
312.787	403.25
313.017	353.25
313.246	380.25
313.476	445.25
313.706	353.25
313.935	301.25
314.165	246.25
314.394	209.25
314.624	225.25
314.853	226.25
315.083	238.25
315.312	218.25
315.542	227.25
315.771	208.25
316.001	213.25
316.23	191.25
316.46	187.25
316.689	191.25
316.919	202.25
317.148	202.25
317.377	201.25
317.607	200.25
317.836	215.25
318.065	240.25
318.295	272.25
318.524	258.25
318.753	219.25
318.983	226.25
319.212	187.25
319.441	210.25
319.67	243.25
319.9	259.25
320.129	258.25
320.358	216.25
320.587	219.25
320.816	215.25
321.046	255.25
321.275	295.25
321.504	284.25
321.733	264.25
321.962	255.25
322.191	254.25
322.42	228.25
322.649	247.25
322.878	249.25
323.108	258.25
323.337	249.25
323.566	232.25
323.795	229.25
324.024	235.25
324.253	220.25
324.482	200.25
324.71	212.25
324.939	261.25
325.168	235.25
325.397	213.25
325.626	219.25
325.855	200.25
326.084	217.25
326.313	211.25
326.542	192.25
326.77	204.25
326.999	196.25
327.228	221.25
327.457	215.25
327.686	218.25
327.914	191.25
328.143	218.25
328.372	190.25
328.6	192.25
328.829	201.25
329.058	207.25
329.287	193.25
329.515	199.25
329.744	196.25
329.972	187.25
330.201	181.25
330.43	191.25
330.658	203.25
330.887	235.25
331.115	219.25
331.344	225.25
331.572	219.25
331.801	200.25
332.03	197.25
332.258	180.25
332.486	216.25
332.715	229.25
332.943	203.25
333.172	224.25
333.4	219.25
333.629	218.25
333.857	255.25
334.085	263.25
334.314	260.25
334.542	244.25
334.771	214.25
334.999	211.25
335.227	220.25
335.455	213.25
335.684	252.25
335.912	247.25
336.14	294.25
336.369	256.25
336.597	258.25
336.825	293.25
337.053	312.25
337.281	264.25
337.51	220.25
337.738	206.25
337.966	215.25
338.194	244.25
338.422	235.25
338.65	227.25
338.878	196.25
339.106	199.25
339.334	208.25
339.562	247.25
339.79	200.25
340.018	204.25
340.246	216.25
340.474	257.25
340.702	264.25
340.93	277.25
341.158	285.25
341.386	243.25
341.614	229.25
341.842	231.25
342.07	241.25
342.298	274.25
342.526	301.25
342.754	261.25
342.981	236.25
343.209	219.25
343.437	232.25
343.665	248.25
343.893	240.25
344.12	281.25
344.348	335.25
344.576	305.25
344.804	256.25
345.031	238.25
345.259	213.25
345.487	221.25
345.714	231.25
345.942	231.25
346.17	251.25
346.397	241.25
346.625	221.25
346.853	218.25
347.08	206.25
347.308	247.25
347.535	253.25
347.763	244.25
347.99	228.25
348.218	196.25
348.445	209.25
348.673	208.25
348.9	217.25
349.128	224.25
349.355	232.25
349.583	236.25
349.81	228.25
350.037	232.25
350.265	185.25
350.492	179.25
350.72	184.25
350.947	178.25
351.174	192.25
351.402	206.25
351.629	229.25
351.856	207.25
352.083	202.25
352.311	195.25
352.538	231.25
352.765	227.25
352.992	228.25
353.22	214.25
353.447	229.25
353.674	224.25
353.901	214.25
354.128	216.25
354.355	198.25
354.583	221.25
354.81	231.25
355.037	250.25
355.264	232.25
355.491	236.25
355.718	251.25
355.945	247.25
356.172	224.25
356.399	235.25
356.626	258.25
356.853	320.25
357.08	347.25
357.307	351.25
357.534	295.25
357.761	296.25
357.988	344.25
358.215	406.25
358.441	391.25
358.668	332.25
358.895	300.25
359.122	252.25
359.349	248.25
359.576	294.25
359.802	227.25
360.029	206.25
360.256	218.25
360.483	238.25
360.709	331.25
360.936	341.25
361.163	285.25
361.39	236.25
361.616	214.25
361.843	250.25
362.07	269.25
362.296	282.25
362.523	214.25
362.749	200.25
362.976	205.25
363.203	239.25
363.429	275.25
363.656	235.25
363.882	220.25
364.109	218.25
364.335	219.25
364.562	198.25
364.788	222.25
365.015	254.25
365.241	239.25
365.468	210.25
365.694	202.25
365.92	193.25
366.147	181.25
366.373	182.25
366.599	173.25
366.826	171.25
367.052	169.25
367.278	199.25
367.505	177.25
367.731	188.25
367.957	209.25
368.184	202.25
368.41	208.25
368.636	209.25
368.862	225.25
369.089	215.25
369.315	205.25
369.541	197.25
369.767	183.25
369.993	179.25
370.219	171.25
370.445	190.25
370.672	205.25
370.898	210.25
371.124	227.25
371.35	204.25
371.576	178.25
371.802	208.25
372.028	238.25
372.254	269.25
372.48	231.25
372.706	210.25
372.932	233.25
373.158	234.25
373.384	252.25
373.61	307.25
373.835	357.25
374.061	267.25
374.287	235.25
374.513	280.25
374.739	303.25
374.965	319.25
375.191	313.25
375.416	248.25
375.642	215.25
375.868	232.25
376.094	272.25
376.319	225.25
376.545	269.25
376.771	273.25
376.997	246.25
377.222	196.25
377.448	153.25
377.674	167.25
377.899	180.25
378.125	181.25
378.35	165.25
378.576	164.25
378.802	195.25
379.027	197.25
379.253	199.25
379.478	206.25
379.704	232.25
379.929	224.25
380.155	228.25
380.38	195.25
380.606	229.25
380.831	231.25
381.057	236.25
381.282	218.25
381.507	241.25
381.733	289.25
381.958	292.25
382.184	302.25
382.409	334.25
382.634	326.25
382.86	345.25
383.085	279.25
383.31	227.25
383.535	261.25
383.761	245.25
383.986	230.25
384.211	277.25
384.436	283.25
384.662	233.25
384.887	223.25
385.112	232.25
385.337	237.25
385.562	225.25
385.787	215.25
386.013	264.25
386.238	259.25
386.463	231.25
386.688	213.25
386.913	204.25
387.138	188.25
387.363	208.25
387.588	212.25
387.813	207.25
388.038	224.25
388.263	213.25
388.488	204.25
388.713	240.25
388.938	245.25
389.163	203.25
389.387	181.25
389.612	193.25
389.837	214.25
390.062	215.25
390.287	215.25
390.512	223.25
390.736	185.25
390.961	203.25
391.186	189.25
391.411	196.25
391.636	188.25
391.86	207.25
392.085	215.25
392.31	227.25
392.534	205.25
392.759	215.25
392.984	214.25
393.208	219.25
393.433	196.25
393.658	179.25
393.882	166.25
394.107	173.25
394.331	163.25
394.556	187.25
394.78	191.25
395.005	181.25
395.229	188.25
395.454	191.25
395.678	195.25
395.903	193.25
396.127	199.25
396.352	188.25
396.576	207.25
396.801	203.25
397.025	217.25
397.249	246.25
397.474	203.25
397.698	196.25
397.922	207.25
398.147	206.25
398.371	206.25
398.595	216.25
398.82	207.25
399.044	201.25
399.268	221.25
399.492	228.25
399.717	241.25
399.941	228.25
400.165	228.25
400.389	214.25
400.613	235.25
400.837	209.25
401.062	208.25
401.286	194.25
401.51	201.25
401.734	198.25
401.958	196.25
402.182	212.25
402.406	187.25
402.63	196.25
402.854	210.25
403.078	235.25
403.302	293.25
403.526	300.25
403.75	305.25
403.974	252.25
404.198	243.25
404.422	273.25
404.645	288.25
404.869	320.25
405.093	242.25
405.317	228.25
405.541	214.25
405.765	241.25
405.988	216.25
406.212	224.25
406.436	269.25
406.66	298.25
406.883	246.25
407.107	247.25
407.331	277.25
407.555	267.25
407.778	238.25
408.002	225.25
408.226	217.25
408.449	222.25
408.673	227.25
408.896	190.25
409.12	197.25
409.344	199.25
409.567	216.25
409.791	194.25
410.014	206.25
410.238	205.25
410.461	195.25
410.685	205.25
410.908	189.25
411.132	206.25
411.355	201.25
411.578	206.25
411.802	208.25
412.025	207.25
412.249	217.25
412.472	197.25
412.695	200.25
412.919	213.25
413.142	219.25
413.365	232.25
413.589	217.25
413.812	216.25
414.035	191.25
414.258	197.25
414.482	224.25
414.705	222.25
414.928	196.25
415.151	190.25
415.374	190.25
415.597	208.25
415.821	209.25
416.044	211.25
416.267	199.25
416.49	189.25
416.713	201.25
416.936	187.25
417.159	190.25
417.382	185.25
417.605	208.25
417.828	213.25
418.051	198.25
418.274	176.25
418.497	216.25
418.72	206.25
418.943	213.25
419.166	213.25
419.389	219.25
419.611	201.25
419.834	224.25
420.057	248.25
420.28	232.25
420.503	220.25
420.726	197.25
420.948	201.25
421.171	213.25
421.394	202.25
421.617	190.25
421.839	204.25
422.062	206.25
422.285	184.25
422.507	211.25
422.73	207.25
422.953	215.25
423.175	206.25
423.398	198.25
423.621	217.25
423.843	237.25
424.066	222.25
424.288	206.25
424.511	206.25
424.733	200.25
424.956	214.25
425.178	233.25
425.401	259.25
425.623	283.25
425.846	238.25
426.068	203.25
426.291	238.25
426.513	223.25
426.735	202.25
426.958	202.25
427.18	240.25
427.402	288.25
427.625	295.25
427.847	264.25
428.069	202.25
428.292	185.25
428.514	183.25
428.736	184.25
428.958	218.25
429.181	249.25
429.403	233.25
429.625	199.25
429.847	186.25
430.069	197.25
430.292	189.25
430.514	195.25
430.736	202.25
430.958	230.25
431.18	247.25
431.402	193.25
431.624	173.25
431.846	175.25
432.068	186.25
432.29	171.25
432.512	194.25
432.734	245.25
432.956	248.25
433.178	191.25
433.4	190.25
433.622	200.25
433.844	203.25
434.066	220.25
434.287	216.25
434.509	209.25
434.731	188.25
434.953	202.25
435.175	206.25
435.397	226.25
435.618	208.25
435.84	190.25
436.062	193.25
436.284	190.25
436.505	179.25
436.727	178.25
436.949	191.25
437.17	196.25
437.392	204.25
437.614	208.25
437.835	182.25
438.057	184.25
438.278	211.25
438.5	288.25
438.721	274.25
438.943	200.25
439.165	208.25
439.386	175.25
439.608	164.25
439.829	170.25
440.05	193.25
440.272	178.25
440.493	208.25
440.715	267.25
440.936	194.25
441.158	208.25
441.379	190.25
441.6	217.25
441.822	247.25
442.043	193.25
442.264	204.25
442.486	192.25
442.707	173.25
442.928	201.25
443.149	198.25
443.371	188.25
443.592	204.25
443.813	202.25
444.034	204.25
444.255	202.25
444.476	208.25
444.698	196.25
444.919	214.25
445.14	315.25
445.361	269.25
445.582	216.25
445.803	205.25
446.024	219.25
446.245	215.25
446.466	215.25
446.687	204.25
446.908	204.25
447.129	200.25
447.35	189.25
447.571	171.25
447.792	188.25
448.013	170.25
448.234	168.25
448.455	172.25
448.675	165.25
448.896	174.25
449.117	190.25
449.338	181.25
449.559	187.25
449.779	190.25
450	179.25
450.221	190.25
450.442	193.25
450.662	169.25
450.883	173.25
451.104	179.25
451.324	187.25
451.545	188.25
451.766	183.25
451.986	155.25
452.207	167.25
452.428	189.25
452.648	190.25
452.869	195.25
453.089	177.25
453.31	191.25
453.53	159.25
453.751	165.25
453.971	173.25
454.192	181.25
454.412	200.25
454.633	182.25
454.853	189.25
455.073	171.25
455.294	185.25
455.514	163.25
455.734	183.25
455.955	177.25
456.175	186.25
456.395	167.25
456.616	151.25
456.836	157.25
457.056	163.25
457.276	164.25
457.497	151.25
457.717	159.25
457.937	183.25
458.157	176.25
458.377	159.25
458.598	168.25
458.818	175.25
459.038	179.25
459.258	169.25
459.478	188.25
459.698	196.25
459.918	188.25
460.138	191.25
460.358	204.25
460.578	197.25
460.798	206.25
461.018	212.25
461.238	205.25
461.458	196.25
461.678	199.25
461.898	220.25
462.118	212.25
462.338	201.25
462.558	207.25
462.777	226.25
462.997	224.25
463.217	240.25
463.437	234.25
463.657	209.25
463.876	200.25
464.096	222.25
464.316	231.25
464.536	229.25
464.755	232.25
464.975	237.25
465.195	223.25
465.414	223.25
465.634	209.25
465.854	199.25
466.073	192.25
466.293	184.25
466.512	209.25
466.732	227.25
466.951	211.25
467.171	206.25
467.391	179.25
467.61	208.25
467.829	208.25
468.049	184.25
468.268	189.25
468.488	200.25
468.707	194.25
468.927	219.25
469.146	217.25
469.365	200.25
469.585	187.25
469.804	203.25
470.023	233.25
470.243	197.25
470.462	213.25
470.681	193.25
470.901	205.25
471.12	214.25
471.339	218.25
471.558	199.25
471.777	218.25
471.997	213.25
472.216	235.25
472.435	233.25
472.654	213.25
472.873	213.25
473.092	215.25
473.311	230.25
473.53	194.25
473.749	193.25
473.968	212.25
474.187	199.25
474.406	190.25
474.625	192.25
474.844	211.25
475.063	228.25
475.282	230.25
475.501	235.25
475.72	281.25
475.939	244.25
476.158	255.25
476.377	294.25
476.596	284.25
476.814	313.25
477.033	275.25
477.252	253.25
477.471	192.25
477.69	218.25
477.908	222.25
478.127	208.25
478.346	245.25
478.564	256.25
478.783	241.25
479.002	243.25
479.22	271.25
479.439	274.25
479.658	233.25
479.876	237.25
480.095	239.25
480.313	269.25
480.532	236.25
480.751	217.25
480.969	238.25
481.188	259.25
481.406	261.25
481.624	238.25
481.843	227.25
482.061	214.25
482.28	246.25
482.498	294.25
482.717	320.25
482.935	249.25
483.153	243.25
483.372	222.25
483.59	201.25
483.808	208.25
484.027	216.25
484.245	211.25
484.463	214.25
484.681	224.25
484.9	216.25
485.118	236.25
485.336	230.25
485.554	215.25
485.772	228.25
485.99	266.25
486.209	254.25
486.427	240.25
486.645	247.25
486.863	252.25
487.081	240.25
487.299	260.25
487.517	270.25
487.735	240.25
487.953	251.25
488.171	249.25
488.389	226.25
488.607	234.25
488.825	243.25
489.043	265.25
489.261	284.25
489.479	309.25
489.696	239.25
489.914	230.25
490.132	218.25
490.35	230.25
490.568	224.25
490.786	207.25
491.003	225.25
491.221	248.25
491.439	223.25
491.657	230.25
491.874	225.25
492.092	288.25
492.31	344.25
492.527	335.25
492.745	280.25
492.963	265.25
493.18	263.25
493.398	249.25
493.615	247.25
493.833	250.25
494.05	247.25
494.268	249.25
494.485	234.25
494.703	230.25
494.92	213.25
495.138	243.25
495.355	236.25
495.573	247.25
495.79	278.25
496.008	363.25
496.225	305.25
496.442	261.25
496.66	264.25
496.877	279.25
497.094	269.25
497.312	248.25
497.529	259.25
497.746	273.25
497.963	241.25
498.181	273.25
498.398	302.25
498.615	320.25
498.832	330.25
499.049	342.25
499.267	313.25
499.484	311.25
499.701	324.25
499.918	368.25
500.135	388.25
500.352	393.25
500.569	421.25
500.786	425.25
501.003	436.25
501.22	365.25
501.437	347.25
501.654	345.25
501.871	319.25
502.088	321.25
502.305	288.25
502.522	295.25
