Data from NickelSpatula_HRD10591_16-34-15-126.txt Node
Date: Mon Jul 22 16:34:15 EDT 2019
User: cochatt
Spectrometer: HR+D1059
Trigger mode: 1
Integration Time (sec): 1.000000E-1
Scans to average: 1
Electric dark correction enabled: true
Nonlinearity correction enabled: false
Boxcar width: 0
XAxis mode: Wavelengths
Number of Pixels in Spectrum: 2048
>>>>>Begin Spectral Data<<<<<
223.165	-15.75
223.4	-15.75
223.635	-15.75
223.869	-6.75
224.104	-23.75
224.338	-27.75
224.573	-22.75
224.808	-17.75
225.042	-11.75
225.277	-18.75
225.511	2.25
225.746	8.25
225.98	13.25
226.215	17.25
226.449	11.25
226.683	30.25
226.918	31.25
227.152	31.25
227.387	31.25
227.621	34.25
227.856	30.25
228.09	54.25
228.324	57.25
228.559	48.25
228.793	68.25
229.027	61.25
229.262	80.25
229.496	71.25
229.73	106.25
229.964	80.25
230.199	99.25
230.433	99.25
230.667	97.25
230.901	98.25
231.136	100.25
231.37	95.25
231.604	102.25
231.838	104.25
232.072	94.25
232.306	100.25
232.541	102.25
232.775	94.25
233.009	103.25
233.243	94.25
233.477	112.25
233.711	119.25
233.945	111.25
234.179	110.25
234.413	111.25
234.647	115.25
234.881	125.25
235.115	120.25
235.349	138.25
235.583	121.25
235.817	94.25
236.051	108.25
236.285	108.25
236.519	122.25
236.753	123.25
236.987	116.25
237.221	123.25
237.455	121.25
237.689	128.25
237.922	111.25
238.156	124.25
238.39	140.25
238.624	158.25
238.858	148.25
239.091	142.25
239.325	132.25
239.559	134.25
239.793	147.25
240.027	162.25
240.26	138.25
240.494	130.25
240.728	142.25
240.961	152.25
241.195	150.25
241.429	158.25
241.662	158.25
241.896	153.25
242.13	142.25
242.363	130.25
242.597	130.25
242.83	147.25
243.064	153.25
243.298	149.25
243.531	174.25
243.765	162.25
243.998	150.25
244.232	159.25
244.465	148.25
244.699	130.25
244.932	144.25
245.166	156.25
245.399	152.25
245.633	147.25
245.866	156.25
246.099	175.25
246.333	170.25
246.566	184.25
246.8	178.25
247.033	185.25
247.266	162.25
247.5	169.25
247.733	163.25
247.966	155.25
248.2	164.25
248.433	174.25
248.666	176.25
248.899	174.25
249.133	168.25
249.366	210.25
249.599	216.25
249.832	206.25
250.066	194.25
250.299	194.25
250.532	184.25
250.765	175.25
250.998	162.25
251.231	166.25
251.465	189.25
251.698	193.25
251.931	189.25
252.164	195.25
252.397	190.25
252.63	211.25
252.863	232.25
253.096	236.25
253.329	247.25
253.562	238.25
253.795	250.25
254.028	268.25
254.261	297.25
254.494	242.25
254.727	211.25
254.96	234.25
255.193	251.25
255.426	258.25
255.659	181.25
255.892	203.25
256.124	196.25
256.357	208.25
256.59	261.25
256.823	257.25
257.056	227.25
257.289	206.25
257.521	203.25
257.754	246.25
257.987	270.25
258.22	240.25
258.452	231.25
258.685	237.25
258.918	259.25
259.151	267.25
259.383	264.25
259.616	313.25
259.849	314.25
260.081	334.25
260.314	351.25
260.547	319.25
260.779	312.25
261.012	352.25
261.244	332.25
261.477	315.25
261.71	298.25
261.942	262.25
262.175	278.25
262.407	245.25
262.64	259.25
262.872	305.25
263.105	307.25
263.337	320.25
263.57	318.25
263.802	226.25
264.035	216.25
264.267	215.25
264.499	184.25
264.732	180.25
264.964	184.25
265.197	192.25
265.429	190.25
265.661	204.25
265.894	193.25
266.126	221.25
266.358	240.25
266.591	271.25
266.823	311.25
267.055	284.25
267.287	287.25
267.52	278.25
267.752	311.25
267.984	317.25
268.216	292.25
268.448	246.25
268.681	249.25
268.913	273.25
269.145	280.25
269.377	279.25
269.609	285.25
269.841	279.25
270.073	276.25
270.306	299.25
270.538	307.25
270.77	308.25
271.002	321.25
271.234	331.25
271.466	320.25
271.698	296.25
271.93	292.25
272.162	280.25
272.394	270.25
272.626	271.25
272.858	291.25
273.09	294.25
273.322	255.25
273.553	251.25
273.785	270.25
274.017	345.25
274.249	406.25
274.481	421.25
274.713	443.25
274.945	535.25
275.176	540.25
275.408	485.25
275.64	458.25
275.872	447.25
276.104	411.25
276.335	376.25
276.567	365.25
276.799	391.25
277.031	390.25
277.262	315.25
277.494	274.25
277.726	248.25
277.957	293.25
278.189	304.25
278.421	290.25
278.652	308.25
278.884	282.25
279.115	274.25
279.347	258.25
279.579	258.25
279.81	280.25
280.042	268.25
280.273	274.25
280.505	263.25
280.736	245.25
280.968	232.25
281.199	235.25
281.431	276.25
281.662	251.25
281.894	251.25
282.125	275.25
282.356	300.25
282.588	289.25
282.819	270.25
283.051	271.25
283.282	326.25
283.513	371.25
283.745	409.25
283.976	406.25
284.207	375.25
284.439	379.25
284.67	399.25
284.901	342.25
285.132	384.25
285.364	388.25
285.595	376.25
285.826	375.25
286.057	410.25
286.288	376.25
286.52	401.25
286.751	416.25
286.982	425.25
287.213	359.25
287.444	357.25
287.675	355.25
287.906	368.25
288.138	310.25
288.369	282.25
288.6	280.25
288.831	284.25
289.062	332.25
289.293	368.25
289.524	362.25
289.755	321.25
289.986	342.25
290.217	322.25
290.448	253.25
290.679	223.25
290.91	220.25
291.141	205.25
291.371	206.25
291.602	200.25
291.833	213.25
292.064	214.25
292.295	240.25
292.526	292.25
292.757	310.25
292.987	338.25
293.218	322.25
293.449	332.25
293.68	348.25
293.91	324.25
294.141	344.25
294.372	327.25
294.603	288.25
294.833	322.25
295.064	362.25
295.295	409.25
295.525	306.25
295.756	253.25
295.987	223.25
296.217	210.25
296.448	217.25
296.679	221.25
296.909	248.25
297.14	254.25
297.37	287.25
297.601	283.25
297.831	258.25
298.062	246.25
298.292	276.25
298.523	302.25
298.753	316.25
298.984	314.25
299.214	275.25
299.445	227.25
299.675	212.25
299.905	227.25
300.136	229.25
300.366	224.25
300.597	246.25
300.827	223.25
301.057	217.25
301.288	230.25
301.518	229.25
301.748	263.25
301.979	270.25
302.209	281.25
302.439	297.25
302.669	260.25
302.9	268.25
303.13	246.25
303.36	243.25
303.59	214.25
303.82	237.25
304.051	274.25
304.281	274.25
304.511	259.25
304.741	246.25
304.971	264.25
305.201	275.25
305.431	269.25
305.661	235.25
305.891	200.25
306.121	232.25
306.352	205.25
306.582	191.25
306.812	204.25
307.042	202.25
307.272	190.25
307.502	190.25
307.731	179.25
307.961	202.25
308.191	192.25
308.421	188.25
308.651	193.25
308.881	185.25
309.111	174.25
309.341	182.25
309.571	207.25
309.8	221.25
310.03	194.25
310.26	211.25
310.49	215.25
310.72	184.25
310.949	195.25
311.179	197.25
311.409	199.25
311.639	223.25
311.868	261.25
312.098	346.25
312.328	374.25
312.557	367.25
312.787	365.25
313.017	343.25
313.246	347.25
313.476	374.25
313.706	330.25
313.935	277.25
314.165	210.25
314.394	212.25
314.624	203.25
314.853	223.25
315.083	215.25
315.312	238.25
315.542	189.25
315.771	204.25
316.001	186.25
316.23	185.25
316.46	206.25
316.689	195.25
316.919	192.25
317.148	192.25
317.377	181.25
317.607	190.25
317.836	206.25
318.065	208.25
318.295	254.25
318.524	243.25
318.753	214.25
318.983	217.25
319.212	207.25
319.441	188.25
319.67	202.25
319.9	253.25
320.129	248.25
320.358	201.25
320.587	214.25
320.816	216.25
321.046	223.25
321.275	244.25
321.504	238.25
321.733	240.25
321.962	238.25
322.191	228.25
322.42	216.25
322.649	212.25
322.878	247.25
323.108	256.25
323.337	227.25
323.566	222.25
323.795	222.25
324.024	198.25
324.253	182.25
324.482	204.25
324.71	217.25
324.939	254.25
325.168	220.25
325.397	198.25
325.626	200.25
325.855	203.25
326.084	195.25
326.313	196.25
326.542	190.25
326.77	189.25
326.999	179.25
327.228	212.25
327.457	211.25
327.686	209.25
327.914	183.25
328.143	176.25
328.372	180.25
328.6	174.25
328.829	203.25
329.058	186.25
329.287	189.25
329.515	187.25
329.744	185.25
329.972	195.25
330.201	194.25
330.43	187.25
330.658	205.25
330.887	210.25
331.115	211.25
331.344	220.25
331.572	206.25
331.801	200.25
332.03	184.25
332.258	202.25
332.486	202.25
332.715	214.25
332.943	206.25
333.172	207.25
333.4	200.25
333.629	218.25
333.857	240.25
334.085	246.25
334.314	246.25
334.542	251.25
334.771	226.25
334.999	203.25
335.227	212.25
335.455	201.25
335.684	220.25
335.912	238.25
336.14	267.25
336.369	262.25
336.597	249.25
336.825	272.25
337.053	331.25
337.281	276.25
337.51	219.25
337.738	194.25
337.966	232.25
338.194	244.25
338.422	231.25
338.65	208.25
338.878	183.25
339.106	198.25
339.334	228.25
339.562	219.25
339.79	205.25
340.018	195.25
340.246	197.25
340.474	226.25
340.702	259.25
340.93	247.25
341.158	260.25
341.386	231.25
341.614	199.25
341.842	208.25
342.07	222.25
342.298	277.25
342.526	287.25
342.754	250.25
342.981	233.25
343.209	213.25
343.437	220.25
343.665	224.25
343.893	232.25
344.12	276.25
344.348	337.25
344.576	287.25
344.804	243.25
345.031	216.25
345.259	204.25
345.487	203.25
345.714	211.25
345.942	216.25
346.17	255.25
346.397	242.25
346.625	210.25
346.853	193.25
347.08	186.25
347.308	213.25
347.535	252.25
347.763	240.25
347.99	200.25
348.218	188.25
348.445	212.25
348.673	209.25
348.9	208.25
349.128	219.25
349.355	215.25
349.583	210.25
349.81	196.25
350.037	208.25
350.265	165.25
350.492	180.25
350.72	182.25
350.947	194.25
351.174	190.25
351.402	196.25
351.629	198.25
351.856	207.25
352.083	176.25
352.311	190.25
352.538	216.25
352.765	209.25
352.992	215.25
353.22	208.25
353.447	216.25
353.674	194.25
353.901	196.25
354.128	177.25
354.355	192.25
354.583	222.25
354.81	206.25
355.037	246.25
355.264	198.25
355.491	218.25
355.718	236.25
355.945	230.25
356.172	205.25
356.399	224.25
356.626	234.25
356.853	295.25
357.08	308.25
357.307	314.25
357.534	260.25
357.761	260.25
357.988	300.25
358.215	362.25
358.441	322.25
358.668	286.25
358.895	293.25
359.122	240.25
359.349	253.25
359.576	256.25
359.802	222.25
360.029	190.25
360.256	211.25
360.483	242.25
360.709	298.25
360.936	304.25
361.163	275.25
361.39	229.25
361.616	204.25
361.843	234.25
362.07	266.25
362.296	236.25
362.523	191.25
362.749	188.25
362.976	190.25
363.203	221.25
363.429	243.25
363.656	218.25
363.882	195.25
364.109	210.25
364.335	207.25
364.562	196.25
364.788	206.25
365.015	237.25
365.241	226.25
365.468	202.25
365.694	176.25
365.92	190.25
366.147	178.25
366.373	163.25
366.599	176.25
366.826	183.25
367.052	176.25
367.278	192.25
367.505	181.25
367.731	196.25
367.957	216.25
368.184	198.25
368.41	207.25
368.636	206.25
368.862	221.25
369.089	205.25
369.315	194.25
369.541	192.25
369.767	186.25
369.993	182.25
370.219	179.25
370.445	178.25
370.672	206.25
370.898	208.25
371.124	203.25
371.35	200.25
371.576	190.25
371.802	196.25
372.028	222.25
372.254	237.25
372.48	222.25
372.706	201.25
372.932	216.25
373.158	226.25
373.384	258.25
373.61	291.25
373.835	299.25
374.061	236.25
374.287	209.25
374.513	254.25
374.739	280.25
374.965	279.25
375.191	280.25
375.416	218.25
375.642	211.25
375.868	214.25
376.094	226.25
376.319	208.25
376.545	234.25
376.771	238.25
376.997	226.25
377.222	182.25
377.448	166.25
377.674	182.25
377.899	170.25
378.125	174.25
378.35	170.25
378.576	174.25
378.802	175.25
379.027	176.25
379.253	186.25
379.478	189.25
379.704	202.25
379.929	231.25
380.155	213.25
380.38	186.25
380.606	212.25
380.831	222.25
381.057	231.25
381.282	202.25
381.507	222.25
381.733	256.25
381.958	247.25
382.184	280.25
382.409	288.25
382.634	296.25
382.86	298.25
383.085	273.25
383.31	227.25
383.535	246.25
383.761	244.25
383.986	231.25
384.211	270.25
384.436	248.25
384.662	220.25
384.887	211.25
385.112	225.25
385.337	210.25
385.562	210.25
385.787	235.25
386.013	254.25
386.238	244.25
386.463	190.25
386.688	209.25
386.913	208.25
387.138	201.25
387.363	198.25
387.588	211.25
387.813	204.25
388.038	218.25
388.263	208.25
388.488	194.25
388.713	223.25
388.938	230.25
389.163	216.25
389.387	193.25
389.612	197.25
389.837	213.25
390.062	219.25
390.287	199.25
390.512	205.25
390.736	197.25
390.961	189.25
391.186	187.25
391.411	184.25
391.636	187.25
391.86	211.25
392.085	228.25
392.31	230.25
392.534	210.25
392.759	206.25
392.984	214.25
393.208	217.25
393.433	213.25
393.658	202.25
393.882	192.25
394.107	182.25
394.331	181.25
394.556	173.25
394.78	170.25
395.005	184.25
395.229	206.25
395.454	193.25
395.678	193.25
395.903	198.25
396.127	204.25
396.352	189.25
396.576	221.25
396.801	211.25
397.025	228.25
397.249	233.25
397.474	212.25
397.698	195.25
397.922	217.25
398.147	212.25
398.371	195.25
398.595	221.25
398.82	212.25
399.044	220.25
399.268	221.25
399.492	239.25
399.717	228.25
399.941	244.25
400.165	222.25
400.389	216.25
400.613	221.25
400.837	221.25
401.062	205.25
401.286	200.25
401.51	197.25
401.734	205.25
401.958	211.25
402.182	202.25
402.406	191.25
402.63	214.25
402.854	210.25
403.078	227.25
403.302	284.25
403.526	312.25
403.75	285.25
403.974	245.25
404.198	261.25
404.422	264.25
404.645	259.25
404.869	286.25
405.093	234.25
405.317	223.25
405.541	208.25
405.765	235.25
405.988	226.25
406.212	228.25
406.436	242.25
406.66	291.25
406.883	258.25
407.107	241.25
407.331	248.25
407.555	263.25
407.778	228.25
408.002	239.25
408.226	238.25
408.449	231.25
408.673	229.25
408.896	221.25
409.12	221.25
409.344	201.25
409.567	192.25
409.791	203.25
410.014	205.25
410.238	192.25
410.461	207.25
410.685	202.25
410.908	202.25
411.132	202.25
411.355	205.25
411.578	237.25
411.802	208.25
412.025	233.25
412.249	227.25
412.472	223.25
412.695	210.25
412.919	218.25
413.142	202.25
413.365	216.25
413.589	230.25
413.812	203.25
414.035	194.25
414.258	214.25
414.482	211.25
414.705	232.25
414.928	215.25
415.151	182.25
415.374	198.25
415.597	189.25
415.821	211.25
416.044	205.25
416.267	184.25
416.49	184.25
416.713	196.25
416.936	189.25
417.159	201.25
417.382	204.25
417.605	199.25
417.828	200.25
418.051	200.25
418.274	215.25
418.497	203.25
418.72	196.25
418.943	201.25
419.166	224.25
419.389	216.25
419.611	211.25
419.834	204.25
420.057	207.25
420.28	226.25
420.503	234.25
420.726	202.25
420.948	214.25
421.171	206.25
421.394	201.25
421.617	200.25
421.839	200.25
422.062	203.25
422.285	206.25
422.507	202.25
422.73	200.25
422.953	211.25
423.175	202.25
423.398	204.25
423.621	219.25
423.843	246.25
424.066	222.25
424.288	205.25
424.511	198.25
424.733	190.25
424.956	209.25
425.178	223.25
425.401	243.25
425.623	278.25
425.846	245.25
426.068	220.25
426.291	230.25
426.513	224.25
426.735	202.25
426.958	206.25
427.18	225.25
427.402	284.25
427.625	286.25
427.847	256.25
428.069	202.25
428.292	202.25
428.514	200.25
428.736	181.25
428.958	215.25
429.181	255.25
429.403	234.25
429.625	196.25
429.847	181.25
430.069	203.25
430.292	206.25
430.514	194.25
430.736	190.25
430.958	229.25
431.18	227.25
431.402	202.25
431.624	170.25
431.846	174.25
432.068	180.25
432.29	174.25
432.512	184.25
432.734	244.25
432.956	244.25
433.178	195.25
433.4	193.25
433.622	188.25
433.844	198.25
434.066	197.25
434.287	209.25
434.509	211.25
434.731	229.25
434.953	198.25
435.175	198.25
435.397	221.25
435.618	222.25
435.84	200.25
436.062	201.25
436.284	187.25
436.505	186.25
436.727	181.25
436.949	192.25
437.17	206.25
437.392	197.25
437.614	178.25
437.835	190.25
438.057	181.25
438.278	187.25
438.5	253.25
438.721	251.25
438.943	208.25
439.165	184.25
439.386	190.25
439.608	179.25
439.829	175.25
440.05	180.25
440.272	192.25
440.493	193.25
440.715	248.25
440.936	206.25
441.158	166.25
441.379	208.25
441.6	214.25
441.822	219.25
442.043	205.25
442.264	191.25
442.486	207.25
442.707	188.25
442.928	203.25
443.149	200.25
443.371	211.25
443.592	189.25
443.813	212.25
444.034	202.25
444.255	198.25
444.476	213.25
444.698	227.25
444.919	208.25
445.14	336.25
445.361	288.25
445.582	230.25
445.803	202.25
446.024	206.25
446.245	233.25
446.466	208.25
446.687	186.25
446.908	190.25
447.129	189.25
447.35	190.25
447.571	193.25
447.792	181.25
448.013	178.25
448.234	174.25
448.455	171.25
448.675	175.25
448.896	181.25
449.117	171.25
449.338	182.25
449.559	187.25
449.779	198.25
450	202.25
450.221	205.25
450.442	190.25
450.662	183.25
450.883	170.25
451.104	188.25
451.324	201.25
451.545	184.25
451.766	190.25
451.986	190.25
452.207	171.25
452.428	171.25
452.648	158.25
452.869	192.25
453.089	184.25
453.31	199.25
453.53	179.25
453.751	180.25
453.971	179.25
454.192	172.25
454.412	191.25
454.633	184.25
454.853	184.25
455.073	179.25
455.294	188.25
455.514	186.25
455.734	169.25
455.955	184.25
456.175	178.25
456.395	173.25
456.616	173.25
456.836	172.25
457.056	161.25
457.276	154.25
457.497	164.25
457.717	171.25
457.937	166.25
458.157	181.25
458.377	167.25
458.598	156.25
458.818	178.25
459.038	177.25
459.258	214.25
459.478	190.25
459.698	192.25
459.918	211.25
460.138	207.25
460.358	222.25
460.578	214.25
460.798	203.25
461.018	214.25
461.238	221.25
461.458	204.25
461.678	217.25
461.898	221.25
462.118	212.25
462.338	217.25
462.558	230.25
462.777	233.25
462.997	217.25
463.217	237.25
463.437	234.25
463.657	230.25
463.876	218.25
464.096	211.25
464.316	219.25
464.536	216.25
464.755	234.25
464.975	247.25
465.195	229.25
465.414	231.25
465.634	204.25
465.854	202.25
466.073	192.25
466.293	198.25
466.512	203.25
466.732	230.25
466.951	222.25
467.171	198.25
467.391	176.25
467.61	186.25
467.829	186.25
468.049	185.25
468.268	183.25
468.488	184.25
468.707	202.25
468.927	224.25
469.146	225.25
469.365	214.25
469.585	206.25
469.804	213.25
470.023	227.25
470.243	196.25
470.462	212.25
470.681	207.25
470.901	205.25
471.12	203.25
471.339	199.25
471.558	201.25
471.777	200.25
471.997	210.25
472.216	239.25
472.435	232.25
472.654	206.25
472.873	192.25
473.092	196.25
473.311	193.25
473.53	200.25
473.749	219.25
473.968	205.25
474.187	196.25
474.406	197.25
474.625	203.25
474.844	214.25
475.063	209.25
475.282	219.25
475.501	238.25
475.72	264.25
475.939	232.25
476.158	211.25
476.377	251.25
476.596	285.25
476.814	290.25
477.033	257.25
477.252	209.25
477.471	222.25
477.69	231.25
477.908	227.25
478.127	235.25
478.346	218.25
478.564	269.25
478.783	246.25
479.002	224.25
479.22	263.25
479.439	267.25
479.658	251.25
479.876	216.25
480.095	233.25
480.313	260.25
480.532	246.25
480.751	230.25
480.969	233.25
481.188	238.25
481.406	244.25
481.624	263.25
481.843	227.25
482.061	198.25
482.28	231.25
482.498	301.25
482.717	308.25
482.935	231.25
483.153	223.25
483.372	217.25
483.59	218.25
483.808	206.25
484.027	209.25
484.245	196.25
484.463	206.25
484.681	214.25
484.9	222.25
485.118	234.25
485.336	211.25
485.554	212.25
485.772	221.25
485.99	228.25
486.209	233.25
486.427	244.25
486.645	239.25
486.863	230.25
487.081	236.25
487.299	252.25
487.517	267.25
487.735	232.25
487.953	250.25
488.171	244.25
488.389	234.25
488.607	211.25
488.825	233.25
489.043	257.25
489.261	277.25
489.479	294.25
489.696	243.25
489.914	231.25
490.132	221.25
490.35	223.25
490.568	209.25
490.786	233.25
491.003	222.25
491.221	221.25
491.439	222.25
491.657	217.25
491.874	250.25
492.092	271.25
492.31	333.25
492.527	312.25
492.745	280.25
492.963	266.25
493.18	231.25
493.398	262.25
493.615	252.25
493.833	244.25
494.05	249.25
494.268	251.25
494.485	254.25
494.703	220.25
494.92	245.25
495.138	235.25
495.355	233.25
495.573	247.25
495.79	267.25
496.008	344.25
496.225	298.25
496.442	246.25
496.66	261.25
496.877	260.25
497.094	264.25
497.312	241.25
497.529	245.25
497.746	240.25
497.963	252.25
498.181	270.25
498.398	297.25
498.615	314.25
498.832	330.25
499.049	329.25
499.267	324.25
499.484	326.25
499.701	348.25
499.918	352.25
500.135	384.25
500.352	414.25
500.569	443.25
500.786	468.25
501.003	437.25
501.22	376.25
501.437	344.25
501.654	333.25
501.871	344.25
502.088	315.25
502.305	306.25
502.522	299.25
502.739	312.25
