Data from NickelSpatula_HRD10591_16-34-07-126.txt Node
Date: Mon Jul 22 16:34:07 EDT 2019
User: cochatt
Spectrometer: HR+D1059
Trigger mode: 1
Integration Time (sec): 1.000000E-1
Scans to average: 1
Electric dark correction enabled: true
Nonlinearity correction enabled: false
Boxcar width: 0
XAxis mode: Wavelengths
Number of Pixels in Spectrum: 2048
>>>>>Begin Spectral Data<<<<<
223.165	-20.31
223.4	-20.31
223.635	-20.31
223.869	-13.31
224.104	-10.31
224.338	-15.31
224.573	-13.31
224.808	-2.31
225.042	-11.31
225.277	-19.31
225.511	7.69
225.746	-14.31
225.98	2.69
226.215	8.69
226.449	28.69
226.683	17.69
226.918	28.69
227.152	25.69
227.387	30.69
227.621	29.69
227.856	49.69
228.09	30.69
228.324	47.69
228.559	50.69
228.793	54.69
229.027	60.69
229.262	63.69
229.496	72.69
229.73	74.69
229.964	87.69
230.199	86.69
230.433	86.69
230.667	92.69
230.901	83.69
231.136	97.69
231.37	76.69
231.604	101.69
231.838	103.69
232.072	89.69
232.306	107.69
232.541	104.69
232.775	87.69
233.009	95.69
233.243	94.69
233.477	105.69
233.711	113.69
233.945	118.69
234.179	122.69
234.413	113.69
234.647	111.69
234.881	129.69
235.115	122.69
235.349	135.69
235.583	128.69
235.817	124.69
236.051	133.69
236.285	121.69
236.519	144.69
236.753	123.69
236.987	120.69
237.221	116.69
237.455	117.69
237.689	137.69
237.922	132.69
238.156	133.69
238.39	150.69
238.624	153.69
238.858	145.69
239.091	133.69
239.325	137.69
239.559	144.69
239.793	152.69
240.027	168.69
240.26	153.69
240.494	158.69
240.728	136.69
240.961	166.69
241.195	153.69
241.429	161.69
241.662	160.69
241.896	151.69
242.13	118.69
242.363	136.69
242.597	130.69
242.83	159.69
243.064	156.69
243.298	166.69
243.531	181.69
243.765	149.69
243.998	176.69
244.232	152.69
244.465	147.69
244.699	158.69
244.932	188.69
245.166	173.69
245.399	165.69
245.633	149.69
245.866	148.69
246.099	166.69
246.333	178.69
246.566	193.69
246.8	198.69
247.033	192.69
247.266	189.69
247.5	173.69
247.733	170.69
247.966	175.69
248.2	169.69
248.433	188.69
248.666	186.69
248.899	185.69
249.133	205.69
249.366	248.69
249.599	250.69
249.832	231.69
250.066	204.69
250.299	209.69
250.532	193.69
250.765	211.69
250.998	200.69
251.231	177.69
251.465	196.69
251.698	182.69
251.931	205.69
252.164	195.69
252.397	220.69
252.63	248.69
252.863	249.69
253.096	260.69
253.329	261.69
253.562	242.69
253.795	278.69
254.028	302.69
254.261	305.69
254.494	283.69
254.727	258.69
254.96	271.69
255.193	293.69
255.426	269.69
255.659	215.69
255.892	217.69
256.124	217.69
256.357	229.69
256.59	286.69
256.823	264.69
257.056	208.69
257.289	208.69
257.521	249.69
257.754	264.69
257.987	293.69
258.22	257.69
258.452	229.69
258.685	285.69
258.918	277.69
259.151	288.69
259.383	310.69
259.616	335.69
259.849	348.69
260.081	351.69
260.314	398.69
260.547	327.69
260.779	326.69
261.012	356.69
261.244	338.69
261.477	352.69
261.71	322.69
261.942	289.69
262.175	292.69
262.407	281.69
262.64	281.69
262.872	321.69
263.105	346.69
263.337	370.69
263.57	330.69
263.802	266.69
264.035	230.69
264.267	224.69
264.499	189.69
264.732	188.69
264.964	181.69
265.197	195.69
265.429	194.69
265.661	202.69
265.894	210.69
266.126	232.69
266.358	244.69
266.591	281.69
266.823	335.69
267.055	330.69
267.287	290.69
267.52	297.69
267.752	325.69
267.984	333.69
268.216	348.69
268.448	282.69
268.681	263.69
268.913	265.69
269.145	306.69
269.377	306.69
269.609	306.69
269.841	282.69
270.073	325.69
270.306	330.69
270.538	332.69
270.77	322.69
271.002	349.69
271.234	362.69
271.466	343.69
271.698	328.69
271.93	332.69
272.162	326.69
272.394	320.69
272.626	307.69
272.858	326.69
273.09	322.69
273.322	297.69
273.553	274.69
273.785	304.69
274.017	395.69
274.249	464.69
274.481	492.69
274.713	536.69
274.945	594.69
275.176	609.69
275.408	577.69
275.64	521.69
275.872	529.69
276.104	487.69
276.335	415.69
276.567	413.69
276.799	394.69
277.031	445.69
277.262	355.69
277.494	287.69
277.726	274.69
277.957	288.69
278.189	327.69
278.421	321.69
278.652	319.69
278.884	304.69
279.115	292.69
279.347	267.69
279.579	276.69
279.81	286.69
280.042	297.69
280.273	296.69
280.505	270.69
280.736	254.69
280.968	244.69
281.199	245.69
281.431	293.69
281.662	287.69
281.894	282.69
282.125	291.69
282.356	316.69
282.588	341.69
282.819	302.69
283.051	305.69
283.282	374.69
283.513	374.69
283.745	446.69
283.976	454.69
284.207	430.69
284.439	443.69
284.67	420.69
284.901	369.69
285.132	398.69
285.364	419.69
285.595	408.69
285.826	424.69
286.057	449.69
286.288	442.69
286.52	437.69
286.751	471.69
286.982	451.69
287.213	383.69
287.444	384.69
287.675	404.69
287.906	404.69
288.138	344.69
288.369	313.69
288.6	302.69
288.831	305.69
289.062	356.69
289.293	387.69
289.524	363.69
289.755	340.69
289.986	368.69
290.217	332.69
290.448	267.69
290.679	225.69
290.91	227.69
291.141	238.69
291.371	228.69
291.602	229.69
291.833	226.69
292.064	242.69
292.295	278.69
292.526	323.69
292.757	326.69
292.987	342.69
293.218	358.69
293.449	387.69
293.68	387.69
293.91	377.69
294.141	392.69
294.372	370.69
294.603	312.69
294.833	340.69
295.064	417.69
295.295	408.69
295.525	294.69
295.756	283.69
295.987	237.69
296.217	224.69
296.448	227.69
296.679	265.69
296.909	272.69
297.14	282.69
297.37	325.69
297.601	289.69
297.831	272.69
298.062	258.69
298.292	318.69
298.523	343.69
298.753	370.69
298.984	356.69
299.214	308.69
299.445	250.69
299.675	260.69
299.905	241.69
300.136	238.69
300.366	274.69
300.597	263.69
300.827	233.69
301.057	244.69
301.288	234.69
301.518	254.69
301.748	302.69
301.979	308.69
302.209	330.69
302.439	315.69
302.669	289.69
302.9	288.69
303.13	280.69
303.36	273.69
303.59	257.69
303.82	254.69
304.051	297.69
304.281	302.69
304.511	304.69
304.741	274.69
304.971	274.69
305.201	309.69
305.431	286.69
305.661	268.69
305.891	254.69
306.121	238.69
306.352	235.69
306.582	206.69
306.812	205.69
307.042	199.69
307.272	197.69
307.502	198.69
307.731	198.69
307.961	204.69
308.191	196.69
308.421	205.69
308.651	184.69
308.881	204.69
309.111	171.69
309.341	195.69
309.571	215.69
309.8	229.69
310.03	227.69
310.26	232.69
310.49	224.69
310.72	196.69
310.949	189.69
311.179	200.69
311.409	230.69
311.639	224.69
311.868	298.69
312.098	381.69
312.328	397.69
312.557	410.69
312.787	405.69
313.017	351.69
313.246	384.69
313.476	417.69
313.706	375.69
313.935	291.69
314.165	221.69
314.394	233.69
314.624	210.69
314.853	235.69
315.083	259.69
315.312	243.69
315.542	224.69
315.771	218.69
316.001	186.69
316.23	199.69
316.46	205.69
316.689	189.69
316.919	202.69
317.148	195.69
317.377	180.69
317.607	196.69
317.836	213.69
318.065	249.69
318.295	276.69
318.524	264.69
318.753	231.69
318.983	214.69
319.212	211.69
319.441	218.69
319.67	244.69
319.9	273.69
320.129	266.69
320.358	221.69
320.587	199.69
320.816	224.69
321.046	254.69
321.275	292.69
321.504	307.69
321.733	295.69
321.962	274.69
322.191	262.69
322.42	252.69
322.649	244.69
322.878	273.69
323.108	272.69
323.337	240.69
323.566	246.69
323.795	249.69
324.024	247.69
324.253	234.69
324.482	221.69
324.71	236.69
324.939	265.69
325.168	262.69
325.397	221.69
325.626	215.69
325.855	205.69
326.084	220.69
326.313	227.69
326.542	210.69
326.77	205.69
326.999	201.69
327.228	211.69
327.457	221.69
327.686	226.69
327.914	208.69
328.143	172.69
328.372	194.69
328.6	168.69
328.829	192.69
329.058	206.69
329.287	202.69
329.515	199.69
329.744	200.69
329.972	178.69
330.201	181.69
330.43	179.69
330.658	206.69
330.887	246.69
331.115	249.69
331.344	219.69
331.572	217.69
331.801	201.69
332.03	182.69
332.258	203.69
332.486	236.69
332.715	218.69
332.943	208.69
333.172	211.69
333.4	213.69
333.629	238.69
333.857	259.69
334.085	242.69
334.314	237.69
334.542	244.69
334.771	230.69
334.999	218.69
335.227	200.69
335.455	218.69
335.684	228.69
335.912	260.69
336.14	285.69
336.369	281.69
336.597	258.69
336.825	280.69
337.053	343.69
337.281	280.69
337.51	238.69
337.738	231.69
337.966	230.69
338.194	246.69
338.422	265.69
338.65	217.69
338.878	192.69
339.106	201.69
339.334	252.69
339.562	248.69
339.79	227.69
340.018	228.69
340.246	232.69
340.474	257.69
340.702	269.69
340.93	279.69
341.158	286.69
341.386	258.69
341.614	248.69
341.842	224.69
342.07	241.69
342.298	279.69
342.526	300.69
342.754	256.69
342.981	259.69
343.209	235.69
343.437	269.69
343.665	271.69
343.893	260.69
344.12	305.69
344.348	353.69
344.576	313.69
344.804	279.69
345.031	252.69
345.259	234.69
345.487	222.69
345.714	224.69
345.942	229.69
346.17	276.69
346.397	245.69
346.625	228.69
346.853	212.69
347.08	206.69
347.308	214.69
347.535	244.69
347.763	253.69
347.99	248.69
348.218	215.69
348.445	215.69
348.673	222.69
348.9	226.69
349.128	223.69
349.355	219.69
349.583	238.69
349.81	244.69
350.037	225.69
350.265	204.69
350.492	182.69
350.72	181.69
350.947	179.69
351.174	201.69
351.402	201.69
351.629	204.69
351.856	215.69
352.083	192.69
352.311	231.69
352.538	237.69
352.765	262.69
352.992	253.69
353.22	222.69
353.447	237.69
353.674	228.69
353.901	251.69
354.128	219.69
354.355	228.69
354.583	226.69
354.81	228.69
355.037	256.69
355.264	244.69
355.491	248.69
355.718	261.69
355.945	259.69
356.172	231.69
356.399	240.69
356.626	288.69
356.853	357.69
357.08	384.69
357.307	386.69
357.534	304.69
357.761	326.69
357.988	369.69
358.215	417.69
358.441	401.69
358.668	365.69
358.895	351.69
359.122	268.69
359.349	266.69
359.576	310.69
359.802	238.69
360.029	227.69
360.256	225.69
360.483	276.69
360.709	358.69
360.936	372.69
361.163	321.69
361.39	272.69
361.616	239.69
361.843	278.69
362.07	322.69
362.296	288.69
362.523	242.69
362.749	199.69
362.976	204.69
363.203	257.69
363.429	295.69
363.656	238.69
363.882	234.69
364.109	252.69
364.335	236.69
364.562	212.69
364.788	238.69
365.015	282.69
365.241	250.69
365.468	224.69
365.694	197.69
365.92	199.69
366.147	177.69
366.373	165.69
366.599	181.69
366.826	198.69
367.052	185.69
367.278	198.69
367.505	200.69
367.731	200.69
367.957	229.69
368.184	223.69
368.41	218.69
368.636	229.69
368.862	250.69
369.089	241.69
369.315	221.69
369.541	217.69
369.767	200.69
369.993	193.69
370.219	191.69
370.445	196.69
370.672	220.69
370.898	261.69
371.124	252.69
371.35	229.69
371.576	205.69
371.802	218.69
372.028	230.69
372.254	274.69
372.48	239.69
372.706	219.69
372.932	223.69
373.158	246.69
373.384	289.69
373.61	350.69
373.835	370.69
374.061	290.69
374.287	256.69
374.513	294.69
374.739	343.69
374.965	344.69
375.191	333.69
375.416	238.69
375.642	224.69
375.868	254.69
376.094	288.69
376.319	239.69
376.545	257.69
376.771	288.69
376.997	261.69
377.222	201.69
377.448	174.69
377.674	177.69
377.899	187.69
378.125	182.69
378.35	163.69
378.576	186.69
378.802	193.69
379.027	222.69
379.253	211.69
379.478	218.69
379.704	232.69
379.929	254.69
380.155	232.69
380.38	220.69
380.606	222.69
380.831	255.69
381.057	237.69
381.282	230.69
381.507	237.69
381.733	306.69
381.958	329.69
382.184	322.69
382.409	363.69
382.634	353.69
382.86	348.69
383.085	293.69
383.31	249.69
383.535	293.69
383.761	266.69
383.986	250.69
384.211	302.69
384.436	310.69
384.662	240.69
384.887	226.69
385.112	249.69
385.337	226.69
385.562	218.69
385.787	260.69
386.013	277.69
386.238	270.69
386.463	233.69
386.688	216.69
386.913	218.69
387.138	192.69
387.363	213.69
387.588	225.69
387.813	215.69
388.038	257.69
388.263	225.69
388.488	233.69
388.713	241.69
388.938	278.69
389.163	231.69
389.387	199.69
389.612	194.69
389.837	224.69
390.062	209.69
390.287	234.69
390.512	226.69
390.736	210.69
390.961	201.69
391.186	206.69
391.411	186.69
391.636	200.69
391.86	213.69
392.085	226.69
392.31	226.69
392.534	214.69
392.759	198.69
392.984	236.69
393.208	221.69
393.433	196.69
393.658	214.69
393.882	184.69
394.107	200.69
394.331	178.69
394.556	189.69
394.78	176.69
395.005	193.69
395.229	183.69
395.454	207.69
395.678	213.69
395.903	202.69
396.127	199.69
396.352	202.69
396.576	225.69
396.801	231.69
397.025	261.69
397.249	285.69
397.474	211.69
397.698	196.69
397.922	213.69
398.147	209.69
398.371	203.69
398.595	234.69
398.82	237.69
399.044	227.69
399.268	233.69
399.492	227.69
399.717	266.69
399.941	255.69
400.165	238.69
400.389	241.69
400.613	228.69
400.837	225.69
401.062	199.69
401.286	207.69
401.51	202.69
401.734	216.69
401.958	184.69
402.182	207.69
402.406	201.69
402.63	194.69
402.854	209.69
403.078	233.69
403.302	314.69
403.526	336.69
403.75	297.69
403.974	252.69
404.198	264.69
404.422	271.69
404.645	302.69
404.869	343.69
405.093	268.69
405.317	225.69
405.541	208.69
405.765	255.69
405.988	216.69
406.212	237.69
406.436	277.69
406.66	299.69
406.883	256.69
407.107	264.69
407.331	284.69
407.555	276.69
407.778	258.69
408.002	254.69
408.226	261.69
408.449	225.69
408.673	231.69
408.896	208.69
409.12	197.69
409.344	193.69
409.567	198.69
409.791	196.69
410.014	205.69
410.238	210.69
410.461	206.69
410.685	211.69
410.908	196.69
411.132	205.69
411.355	207.69
411.578	222.69
411.802	201.69
412.025	220.69
412.249	207.69
412.472	222.69
412.695	221.69
412.919	208.69
413.142	218.69
413.365	219.69
413.589	239.69
413.812	195.69
414.035	200.69
414.258	212.69
414.482	229.69
414.705	231.69
414.928	211.69
415.151	175.69
415.374	196.69
415.597	205.69
415.821	194.69
416.044	218.69
416.267	199.69
416.49	206.69
416.713	203.69
416.936	173.69
417.159	196.69
417.382	197.69
417.605	198.69
417.828	215.69
418.051	210.69
418.274	203.69
418.497	200.69
418.72	210.69
418.943	217.69
419.166	236.69
419.389	225.69
419.611	213.69
419.834	226.69
420.057	260.69
420.28	245.69
420.503	237.69
420.726	220.69
420.948	204.69
421.171	210.69
421.394	205.69
421.617	191.69
421.839	199.69
422.062	195.69
422.285	205.69
422.507	215.69
422.73	194.69
422.953	221.69
423.175	216.69
423.398	213.69
423.621	221.69
423.843	229.69
424.066	223.69
424.288	218.69
424.511	215.69
424.733	205.69
424.956	215.69
425.178	243.69
425.401	292.69
425.623	319.69
425.846	282.69
426.068	218.69
426.291	244.69
426.513	230.69
426.735	204.69
426.958	213.69
427.18	245.69
427.402	320.69
427.625	332.69
427.847	275.69
428.069	212.69
428.292	207.69
428.514	219.69
428.736	193.69
428.958	200.69
429.181	266.69
429.403	245.69
429.625	204.69
429.847	204.69
430.069	208.69
430.292	231.69
430.514	200.69
430.736	201.69
430.958	242.69
431.18	220.69
431.402	177.69
431.624	165.69
431.846	170.69
432.068	196.69
432.29	181.69
432.512	208.69
432.734	268.69
432.956	238.69
433.178	188.69
433.4	157.69
433.622	186.69
433.844	210.69
434.066	228.69
434.287	211.69
434.509	207.69
434.731	219.69
434.953	196.69
435.175	213.69
435.397	238.69
435.618	199.69
435.84	186.69
436.062	191.69
436.284	194.69
436.505	174.69
436.727	177.69
436.949	182.69
437.17	189.69
437.392	192.69
437.614	192.69
437.835	194.69
438.057	189.69
438.278	194.69
438.5	288.69
438.721	282.69
438.943	196.69
439.165	198.69
439.386	180.69
439.608	168.69
439.829	173.69
440.05	174.69
440.272	188.69
440.493	218.69
440.715	264.69
440.936	216.69
441.158	170.69
441.379	193.69
441.6	213.69
441.822	238.69
442.043	199.69
442.264	188.69
442.486	196.69
442.707	186.69
442.928	197.69
443.149	192.69
443.371	193.69
443.592	204.69
443.813	201.69
444.034	200.69
444.255	188.69
444.476	201.69
444.698	206.69
444.919	184.69
445.14	351.69
445.361	285.69
445.582	207.69
445.803	219.69
446.024	211.69
446.245	232.69
446.466	210.69
446.687	208.69
446.908	199.69
447.129	181.69
447.35	165.69
447.571	193.69
447.792	199.69
448.013	174.69
448.234	178.69
448.455	181.69
448.675	184.69
448.896	182.69
449.117	192.69
449.338	179.69
449.559	185.69
449.779	194.69
450	204.69
450.221	187.69
450.442	176.69
450.662	200.69
450.883	187.69
451.104	184.69
451.324	184.69
451.545	194.69
451.766	173.69
451.986	193.69
452.207	158.69
452.428	177.69
452.648	172.69
452.869	200.69
453.089	208.69
453.31	182.69
453.53	165.69
453.751	166.69
453.971	168.69
454.192	176.69
454.412	194.69
454.633	181.69
454.853	174.69
455.073	159.69
455.294	174.69
455.514	164.69
455.734	157.69
455.955	193.69
456.175	181.69
456.395	175.69
456.616	156.69
456.836	176.69
457.056	138.69
457.276	168.69
457.497	173.69
457.717	162.69
457.937	166.69
458.157	168.69
458.377	163.69
458.598	182.69
458.818	180.69
459.038	184.69
459.258	186.69
459.478	179.69
459.698	192.69
459.918	182.69
460.138	193.69
460.358	209.69
460.578	201.69
460.798	201.69
461.018	205.69
461.238	183.69
461.458	205.69
461.678	215.69
461.898	215.69
462.118	193.69
462.338	220.69
462.558	202.69
462.777	216.69
462.997	233.69
463.217	218.69
463.437	221.69
463.657	222.69
463.876	201.69
464.096	213.69
464.316	211.69
464.536	214.69
464.755	248.69
464.975	256.69
465.195	224.69
465.414	252.69
465.634	220.69
465.854	195.69
466.073	192.69
466.293	175.69
466.512	198.69
466.732	235.69
466.951	217.69
467.171	193.69
467.391	177.69
467.61	181.69
467.829	203.69
468.049	205.69
468.268	202.69
468.488	200.69
468.707	193.69
468.927	201.69
469.146	228.69
469.365	233.69
469.585	184.69
469.804	234.69
470.023	221.69
470.243	216.69
470.462	212.69
470.681	219.69
470.901	200.69
471.12	200.69
471.339	212.69
471.558	200.69
471.777	198.69
471.997	201.69
472.216	234.69
472.435	237.69
472.654	210.69
472.873	214.69
473.092	240.69
473.311	230.69
473.53	197.69
473.749	196.69
473.968	202.69
474.187	208.69
474.406	195.69
474.625	222.69
474.844	208.69
475.063	212.69
475.282	214.69
475.501	225.69
475.72	259.69
475.939	244.69
476.158	235.69
476.377	272.69
476.596	312.69
476.814	315.69
477.033	281.69
477.252	219.69
477.471	208.69
477.69	216.69
477.908	202.69
478.127	228.69
478.346	233.69
478.564	288.69
478.783	240.69
479.002	239.69
479.22	264.69
479.439	285.69
479.658	249.69
479.876	231.69
480.095	246.69
480.313	252.69
480.532	247.69
480.751	234.69
480.969	212.69
481.188	266.69
481.406	276.69
481.624	254.69
481.843	222.69
482.061	215.69
482.28	243.69
482.498	322.69
482.717	310.69
482.935	252.69
483.153	229.69
483.372	215.69
483.59	210.69
483.808	208.69
484.027	209.69
484.245	209.69
484.463	220.69
484.681	195.69
484.9	220.69
485.118	234.69
485.336	222.69
485.554	205.69
485.772	235.69
485.99	231.69
486.209	256.69
486.427	254.69
486.645	257.69
486.863	242.69
487.081	254.69
487.299	282.69
487.517	296.69
487.735	233.69
487.953	230.69
488.171	274.69
488.389	230.69
488.607	240.69
488.825	248.69
489.043	270.69
489.261	298.69
489.479	335.69
489.696	270.69
489.914	211.69
490.132	224.69
490.35	242.69
490.568	226.69
490.786	239.69
491.003	232.69
491.221	225.69
491.439	236.69
491.657	208.69
491.874	241.69
492.092	300.69
492.31	380.69
492.527	343.69
492.745	290.69
492.963	257.69
493.18	264.69
493.398	244.69
493.615	256.69
493.833	266.69
494.05	251.69
494.268	271.69
494.485	252.69
494.703	229.69
494.92	228.69
495.138	211.69
495.355	232.69
495.573	249.69
495.79	286.69
496.008	390.69
496.225	349.69
496.442	278.69
496.66	258.69
496.877	283.69
497.094	264.69
497.312	259.69
497.529	259.69
497.746	236.69
497.963	254.69
498.181	281.69
498.398	312.69
498.615	328.69
498.832	317.69
499.049	332.69
499.267	322.69
499.484	319.69
499.701	321.69
499.918	347.69
500.135	382.69
500.352	421.69
500.569	415.69
500.786	431.69
501.003	429.69
501.22	382.69
501.437	355.69
501.654	354.69
501.871	304.69
502.088	314.69
502.305	297.69
502.522	294.69
502.739	300.69
