Data from NickelSpatula.Lamp.E10.P2_HRD10591_11-59-46-524.txt Node
Date: Tue Jul 23 11:59:46 EDT 2019
User: cochatt
Spectrometer: HR+D1059
Trigger mode: 1
Integration Time (sec): 1.000000E-1
Scans to average: 1
Electric dark correction enabled: true
Nonlinearity correction enabled: false
Boxcar width: 0
XAxis mode: Wavelengths
Number of Pixels in Spectrum: 2048
>>>>>Begin Spectral Data<<<<<
223.165	-17.5
223.4	-17.5
223.635	-17.5
223.869	-2.5
224.104	-5.5
224.338	-14.5
224.573	-24.5
224.808	-25.5
225.042	-17.5
225.277	3.5
225.511	-2.5
225.746	-8.5
225.98	18.5
226.215	13.5
226.449	13.5
226.683	25.5
226.918	17.5
227.152	26.5
227.387	38.5
227.621	33.5
227.856	44.5
228.09	44.5
228.324	53.5
228.559	72.5
228.793	75.5
229.027	140.5
229.262	153.5
229.496	139.5
229.73	157.5
229.964	182.5
230.199	228.5
230.433	214.5
230.667	213.5
230.901	202.5
231.136	195.5
231.37	204.5
231.604	213.5
231.838	243.5
232.072	253.5
232.306	252.5
232.541	248.5
232.775	259.5
233.009	275.5
233.243	298.5
233.477	329.5
233.711	334.5
233.945	325.5
234.179	334.5
234.413	363.5
234.647	397.5
234.881	457.5
235.115	431.5
235.349	404.5
235.583	351.5
235.817	375.5
236.051	367.5
236.285	422.5
236.519	480.5
236.753	455.5
236.987	431.5
237.221	413.5
237.455	441.5
237.689	431.5
237.922	479.5
238.156	498.5
238.39	560.5
238.624	693.5
238.858	619.5
239.091	517.5
239.325	533.5
239.559	483.5
239.793	537.5
240.027	651.5
240.26	635.5
240.494	587.5
240.728	600.5
240.961	689.5
241.195	657.5
241.429	664.5
241.662	638.5
241.896	527.5
242.13	488.5
242.363	468.5
242.597	484.5
242.83	543.5
243.064	534.5
243.298	604.5
243.531	648.5
243.765	650.5
243.998	631.5
244.232	612.5
244.465	597.5
244.699	592.5
244.932	693.5
245.166	636.5
245.399	552.5
245.633	543.5
245.866	594.5
246.099	627.5
246.333	731.5
246.566	783.5
246.8	783.5
247.033	748.5
247.266	730.5
247.5	697.5
247.733	695.5
247.966	686.5
248.2	710.5
248.433	759.5
248.666	836.5
248.899	865.5
249.133	909.5
249.366	1011.5
249.599	1075.5
249.832	961.5
250.066	859.5
250.299	871.5
250.532	822.5
250.765	835.5
250.998	759.5
251.231	743.5
251.465	841.5
251.698	855.5
251.931	820.5
252.164	846.5
252.397	955.5
252.63	1092.5
252.863	1221.5
253.096	1230.5
253.329	1187.5
253.562	1118.5
253.795	1282.5
254.028	1384.5
254.261	1445.5
254.494	1291.5
254.727	1158.5
254.96	1171.5
255.193	1201.5
255.426	1151.5
255.659	889.5
255.892	796.5
256.124	875.5
256.357	1033.5
256.59	1215.5
256.823	1189.5
257.056	988.5
257.289	934.5
257.521	1009.5
257.754	1176.5
257.987	1325.5
258.22	1155.5
258.452	1024.5
258.685	1158.5
258.918	1281.5
259.151	1259.5
259.383	1310.5
259.616	1516.5
259.849	1595.5
260.081	1761.5
260.314	1984.5
260.547	1494.5
260.779	1503.5
261.012	1737.5
261.244	1640.5
261.477	1708.5
261.71	1582.5
261.942	1326.5
262.175	1318.5
262.407	1263.5
262.64	1287.5
262.872	1551.5
263.105	1685.5
263.337	1752.5
263.57	1531.5
263.802	1041.5
264.035	921.5
264.267	897.5
264.499	787.5
264.732	723.5
264.964	684.5
265.197	707.5
265.429	774.5
265.661	845.5
265.894	863.5
266.126	937.5
266.358	1049.5
266.591	1291.5
266.823	1516.5
267.055	1457.5
267.287	1246.5
267.52	1266.5
267.752	1301.5
267.984	1457.5
268.216	1394.5
268.448	1128.5
268.681	1134.5
268.913	1217.5
269.145	1269.5
269.377	1312.5
269.609	1316.5
269.841	1229.5
270.073	1339.5
270.306	1387.5
270.538	1417.5
270.77	1431.5
271.002	1397.5
271.234	1484.5
271.466	1509.5
271.698	1493.5
271.93	1465.5
272.162	1474.5
272.394	1424.5
272.626	1447.5
272.858	1512.5
273.09	1543.5
273.322	1345.5
273.553	1312.5
273.785	1580.5
274.017	2051.5
274.249	2539.5
274.481	2621.5
274.713	2839.5
274.945	3281.5
275.176	3345.5
275.408	2947.5
275.64	2683.5
275.872	2697.5
276.104	2322.5
276.335	1981.5
276.567	1963.5
276.799	2021.5
277.031	2071.5
277.262	1664.5
277.494	1248.5
277.726	1207.5
277.957	1372.5
278.189	1509.5
278.421	1487.5
278.652	1442.5
278.884	1385.5
279.115	1293.5
279.347	1227.5
279.579	1207.5
279.81	1217.5
280.042	1240.5
280.273	1292.5
280.505	1149.5
280.736	1017.5
280.968	1042.5
281.199	1114.5
281.431	1273.5
281.662	1232.5
281.894	1185.5
282.125	1278.5
282.356	1389.5
282.588	1401.5
282.819	1296.5
283.051	1397.5
283.282	1717.5
283.513	1993.5
283.745	2248.5
283.976	2248.5
284.207	2027.5
284.439	2116.5
284.67	2067.5
284.901	1870.5
285.132	1992.5
285.364	2035.5
285.595	1904.5
285.826	2034.5
286.057	2076.5
286.288	1987.5
286.52	2027.5
286.751	2142.5
286.982	2137.5
287.213	1904.5
287.444	1764.5
287.675	1906.5
287.906	1866.5
288.138	1583.5
288.369	1401.5
288.6	1319.5
288.831	1367.5
289.062	1573.5
289.293	1749.5
289.524	1618.5
289.755	1609.5
289.986	1667.5
290.217	1469.5
290.448	1117.5
290.679	1006.5
290.91	947.5
291.141	953.5
291.371	994.5
291.602	1003.5
291.833	997.5
292.064	1101.5
292.295	1253.5
292.526	1423.5
292.757	1475.5
292.987	1594.5
293.218	1621.5
293.449	1614.5
293.68	1685.5
293.91	1652.5
294.141	1656.5
294.372	1544.5
294.603	1452.5
294.833	1643.5
295.064	1862.5
295.295	1757.5
295.525	1329.5
295.756	1169.5
295.987	1043.5
296.217	1046.5
296.448	1063.5
296.679	1144.5
296.909	1220.5
297.14	1335.5
297.37	1441.5
297.601	1383.5
297.831	1156.5
298.062	1275.5
298.292	1451.5
298.523	1610.5
298.753	1866.5
298.984	1622.5
299.214	1287.5
299.445	1091.5
299.675	1063.5
299.905	1051.5
300.136	1075.5
300.366	1229.5
300.597	1214.5
300.827	1044.5
301.057	1012.5
301.288	1029.5
301.518	1120.5
301.748	1257.5
301.979	1351.5
302.209	1531.5
302.439	1488.5
302.669	1301.5
302.9	1289.5
303.13	1173.5
303.36	1135.5
303.59	1043.5
303.82	1126.5
304.051	1245.5
304.281	1367.5
304.511	1339.5
304.741	1176.5
304.971	1220.5
305.201	1314.5
305.431	1247.5
305.661	1052.5
305.891	1103.5
306.121	1108.5
306.352	984.5
306.582	924.5
306.812	864.5
307.042	901.5
307.272	817.5
307.502	855.5
307.731	898.5
307.961	901.5
308.191	887.5
308.421	823.5
308.651	815.5
308.881	812.5
309.111	773.5
309.341	824.5
309.571	886.5
309.8	920.5
310.03	955.5
310.26	1006.5
310.49	1006.5
310.72	883.5
310.949	871.5
311.179	886.5
311.409	951.5
311.639	1096.5
311.868	1408.5
312.098	1827.5
312.328	1984.5
312.557	1870.5
312.787	1878.5
313.017	1665.5
313.246	1844.5
313.476	2054.5
313.706	1691.5
313.935	1303.5
314.165	1038.5
314.394	989.5
314.624	991.5
314.853	1027.5
315.083	1034.5
315.312	1064.5
315.542	1061.5
315.771	948.5
316.001	903.5
316.23	861.5
316.46	857.5
316.689	857.5
316.919	900.5
317.148	919.5
317.377	898.5
317.607	917.5
317.836	950.5
318.065	1134.5
318.295	1247.5
318.524	1184.5
318.753	1010.5
318.983	939.5
319.212	920.5
319.441	1039.5
319.67	1183.5
319.9	1245.5
320.129	1174.5
320.358	1007.5
320.587	981.5
320.816	1033.5
321.046	1179.5
321.275	1360.5
321.504	1413.5
321.733	1312.5
321.962	1221.5
322.191	1183.5
322.42	1155.5
322.649	1188.5
322.878	1249.5
323.108	1247.5
323.337	1130.5
323.566	1089.5
323.795	1062.5
324.024	1048.5
324.253	1000.5
324.482	979.5
324.71	1112.5
324.939	1243.5
325.168	1156.5
325.397	963.5
325.626	905.5
325.855	955.5
326.084	943.5
326.313	920.5
326.542	857.5
326.77	903.5
326.999	918.5
327.228	1009.5
327.457	1059.5
327.686	1047.5
327.914	891.5
328.143	845.5
328.372	841.5
328.6	867.5
328.829	871.5
329.058	932.5
329.287	905.5
329.515	939.5
329.744	891.5
329.972	820.5
330.201	804.5
330.43	849.5
330.658	940.5
330.887	1114.5
331.115	1068.5
331.344	984.5
331.572	961.5
331.801	892.5
332.03	846.5
332.258	892.5
332.486	952.5
332.715	979.5
332.943	918.5
333.172	934.5
333.4	951.5
333.629	1041.5
333.857	1127.5
334.085	1133.5
334.314	1122.5
334.542	1069.5
334.771	976.5
334.999	929.5
335.227	909.5
335.455	967.5
335.684	1056.5
335.912	1219.5
336.14	1325.5
336.369	1259.5
336.597	1227.5
336.825	1423.5
337.053	1550.5
337.281	1224.5
337.51	1035.5
337.738	982.5
337.966	1085.5
338.194	1222.5
338.422	1157.5
338.65	973.5
338.878	875.5
339.106	921.5
339.334	1049.5
339.562	1095.5
339.79	1013.5
340.018	959.5
340.246	1088.5
340.474	1246.5
340.702	1290.5
340.93	1346.5
341.158	1341.5
341.386	1121.5
341.614	1143.5
341.842	1133.5
342.07	1195.5
342.298	1357.5
342.526	1459.5
342.754	1257.5
342.981	1110.5
343.209	1065.5
343.437	1166.5
343.665	1240.5
343.893	1211.5
344.12	1429.5
344.348	1688.5
344.576	1484.5
344.804	1234.5
345.031	1061.5
345.259	992.5
345.487	985.5
345.714	1032.5
345.942	1152.5
346.17	1250.5
346.397	1139.5
346.625	999.5
346.853	976.5
347.08	949.5
347.308	1006.5
347.535	1150.5
347.763	1165.5
347.99	1009.5
348.218	902.5
348.445	979.5
348.673	995.5
348.9	1011.5
349.128	1088.5
349.355	1145.5
349.583	1116.5
349.81	1041.5
350.037	942.5
350.265	820.5
350.492	811.5
350.72	820.5
350.947	840.5
351.174	900.5
351.402	960.5
351.629	1022.5
351.856	953.5
352.083	932.5
352.311	1011.5
352.538	1138.5
352.765	1175.5
352.992	1050.5
353.22	990.5
353.447	1024.5
353.674	1002.5
353.901	1003.5
354.128	986.5
354.355	1031.5
354.583	1037.5
354.81	1017.5
355.037	1039.5
355.264	1025.5
355.491	1115.5
355.718	1224.5
355.945	1183.5
356.172	1134.5
356.399	1126.5
356.626	1410.5
356.853	1695.5
357.08	1827.5
357.307	1841.5
357.534	1403.5
357.761	1443.5
357.988	1811.5
358.215	2118.5
358.441	2038.5
358.668	1725.5
358.895	1545.5
359.122	1261.5
359.349	1262.5
359.576	1325.5
359.802	1133.5
360.029	976.5
360.256	1061.5
360.483	1325.5
360.709	1670.5
360.936	1747.5
361.163	1526.5
361.39	1179.5
361.616	1112.5
361.843	1275.5
362.07	1563.5
362.296	1399.5
362.523	1111.5
362.749	995.5
362.976	1030.5
363.203	1242.5
363.429	1384.5
363.656	1104.5
363.882	1029.5
364.109	1034.5
364.335	1028.5
364.562	1027.5
364.788	1172.5
365.015	1375.5
365.241	1205.5
365.468	974.5
365.694	843.5
365.92	819.5
366.147	800.5
366.373	809.5
366.599	826.5
366.826	796.5
367.052	847.5
367.278	871.5
367.505	840.5
367.731	932.5
367.957	1073.5
368.184	1052.5
368.41	1048.5
368.636	1041.5
368.862	1061.5
369.089	1061.5
369.315	930.5
369.541	936.5
369.767	912.5
369.993	893.5
370.219	890.5
370.445	957.5
370.672	1037.5
370.898	1120.5
371.124	1126.5
371.35	992.5
371.576	922.5
371.802	987.5
372.028	1233.5
372.254	1416.5
372.48	1182.5
372.706	1063.5
372.932	1133.5
373.158	1199.5
373.384	1420.5
373.61	1949.5
373.835	1952.5
374.061	1409.5
374.287	1199.5
374.513	1445.5
374.739	1715.5
374.965	1787.5
375.191	1747.5
375.416	1219.5
375.642	1059.5
375.868	1259.5
376.094	1433.5
376.319	1233.5
376.545	1367.5
376.771	1461.5
376.997	1192.5
377.222	871.5
377.448	754.5
377.674	759.5
377.899	768.5
378.125	741.5
378.35	752.5
378.576	793.5
378.802	874.5
379.027	932.5
379.253	909.5
379.478	935.5
379.704	1070.5
379.929	1129.5
380.155	1105.5
380.38	989.5
380.606	1010.5
380.831	1147.5
381.057	1014.5
381.282	988.5
381.507	1216.5
381.733	1540.5
381.958	1590.5
382.184	1718.5
382.409	1763.5
382.634	1713.5
382.86	1847.5
383.085	1468.5
383.31	1145.5
383.535	1237.5
383.761	1288.5
383.986	1200.5
384.211	1494.5
384.436	1380.5
384.662	1083.5
384.887	1041.5
385.112	1048.5
385.337	1071.5
385.562	1037.5
385.787	1143.5
386.013	1250.5
386.238	1324.5
386.463	1068.5
386.688	995.5
386.913	978.5
387.138	926.5
387.363	1001.5
387.588	1023.5
387.813	1010.5
388.038	1132.5
388.263	986.5
388.488	964.5
388.713	1168.5
388.938	1269.5
389.163	1067.5
389.387	938.5
389.612	934.5
389.837	963.5
390.062	999.5
390.287	1040.5
390.512	1064.5
390.736	977.5
390.961	904.5
391.186	875.5
391.411	863.5
391.636	863.5
391.86	954.5
392.085	1042.5
392.31	1040.5
392.534	945.5
392.759	949.5
392.984	1038.5
393.208	982.5
393.433	865.5
393.658	824.5
393.882	789.5
394.107	770.5
394.331	823.5
394.556	827.5
394.78	804.5
395.005	867.5
395.229	891.5
395.454	893.5
395.678	904.5
395.903	915.5
396.127	889.5
396.352	899.5
396.576	991.5
396.801	1015.5
397.025	1108.5
397.249	1156.5
397.474	966.5
397.698	959.5
397.922	985.5
398.147	920.5
398.371	934.5
398.595	989.5
398.82	964.5
399.044	966.5
399.268	1027.5
399.492	1055.5
399.717	1061.5
399.941	1097.5
400.165	1072.5
400.389	1046.5
400.613	1070.5
400.837	1058.5
401.062	944.5
401.286	903.5
401.51	934.5
401.734	906.5
401.958	932.5
402.182	900.5
402.406	913.5
402.63	939.5
402.854	964.5
403.078	1087.5
403.302	1385.5
403.526	1392.5
403.75	1205.5
403.974	1092.5
404.198	1114.5
404.422	1241.5
404.645	1527.5
404.869	1636.5
405.093	1218.5
405.317	1025.5
405.541	999.5
405.765	1033.5
405.988	1043.5
406.212	1117.5
406.436	1348.5
406.66	1468.5
406.883	1159.5
407.107	1227.5
407.331	1427.5
407.555	1312.5
407.778	1135.5
408.002	1071.5
408.226	1068.5
408.449	1054.5
408.673	1024.5
408.896	957.5
409.12	935.5
409.344	925.5
409.567	901.5
409.791	904.5
410.014	916.5
410.238	885.5
410.461	909.5
410.685	914.5
410.908	944.5
411.132	934.5
411.355	948.5
411.578	957.5
411.802	946.5
412.025	1019.5
412.249	1029.5
412.472	952.5
412.695	933.5
412.919	958.5
413.142	999.5
413.365	1060.5
413.589	1071.5
413.812	967.5
414.035	945.5
414.258	940.5
414.482	1073.5
414.705	1088.5
414.928	897.5
415.151	897.5
415.374	906.5
415.597	928.5
415.821	957.5
416.044	877.5
416.267	867.5
416.49	865.5
416.713	880.5
416.936	878.5
417.159	870.5
417.382	895.5
417.605	913.5
417.828	923.5
418.051	937.5
418.274	927.5
418.497	964.5
418.72	963.5
418.943	967.5
419.166	999.5
419.389	1014.5
419.611	1011.5
419.834	1039.5
420.057	1122.5
420.28	1143.5
420.503	1076.5
420.726	909.5
420.948	859.5
421.171	890.5
421.394	867.5
421.617	864.5
421.839	903.5
422.062	975.5
422.285	926.5
422.507	930.5
422.73	968.5
422.953	995.5
423.175	948.5
423.398	953.5
423.621	1078.5
423.843	1079.5
424.066	1010.5
424.288	945.5
424.511	928.5
424.733	919.5
424.956	972.5
425.178	1145.5
425.401	1264.5
425.623	1440.5
425.846	1171.5
426.068	1012.5
426.291	1158.5
426.513	1068.5
426.735	973.5
426.958	1008.5
427.18	1184.5
427.402	1586.5
427.625	1519.5
427.847	1232.5
428.069	929.5
428.292	923.5
428.514	909.5
428.736	891.5
428.958	969.5
429.181	1161.5
429.403	988.5
429.625	901.5
429.847	894.5
430.069	900.5
430.292	929.5
430.514	893.5
430.736	979.5
430.958	1206.5
431.18	1111.5
431.402	869.5
431.624	838.5
431.846	821.5
432.068	813.5
432.29	833.5
432.512	969.5
432.734	1292.5
432.956	1157.5
433.178	878.5
433.4	827.5
433.622	861.5
433.844	881.5
434.066	916.5
434.287	934.5
434.509	894.5
434.731	958.5
434.953	866.5
435.175	951.5
435.397	1059.5
435.618	923.5
435.84	839.5
436.062	854.5
436.284	844.5
436.505	809.5
436.727	773.5
436.949	796.5
437.17	843.5
437.392	828.5
437.614	876.5
437.835	833.5
438.057	882.5
438.278	993.5
438.5	1463.5
438.721	1434.5
438.943	953.5
439.165	827.5
439.386	795.5
439.608	803.5
439.829	776.5
440.05	803.5
440.272	878.5
440.493	1019.5
440.715	1291.5
440.936	973.5
441.158	866.5
441.379	866.5
441.6	989.5
441.822	1027.5
442.043	902.5
442.264	902.5
442.486	899.5
442.707	897.5
442.928	900.5
443.149	898.5
443.371	888.5
443.592	923.5
443.813	941.5
444.034	913.5
444.255	917.5
444.476	961.5
444.698	932.5
444.919	950.5
445.14	1063.5
445.361	1043.5
445.582	984.5
445.803	949.5
446.024	968.5
446.245	961.5
446.466	946.5
446.687	855.5
446.908	878.5
447.129	835.5
447.35	804.5
447.571	813.5
447.792	796.5
448.013	796.5
448.234	783.5
448.455	812.5
448.675	799.5
448.896	815.5
449.117	777.5
449.338	806.5
449.559	855.5
449.779	884.5
450	891.5
450.221	839.5
450.442	799.5
450.662	792.5
450.883	823.5
451.104	813.5
451.324	790.5
451.545	839.5
451.766	820.5
451.986	795.5
452.207	803.5
452.428	764.5
452.648	784.5
452.869	836.5
453.089	870.5
453.31	860.5
453.53	757.5
453.751	775.5
453.971	739.5
454.192	752.5
454.412	772.5
454.633	767.5
454.853	777.5
455.073	748.5
455.294	739.5
455.514	749.5
455.734	803.5
455.955	832.5
456.175	853.5
456.395	739.5
456.616	699.5
456.836	712.5
457.056	710.5
457.276	724.5
457.497	741.5
457.717	732.5
457.937	742.5
458.157	735.5
458.377	753.5
458.598	766.5
458.818	778.5
459.038	823.5
459.258	836.5
459.478	879.5
459.698	897.5
459.918	916.5
460.138	881.5
460.358	906.5
460.578	875.5
460.798	914.5
461.018	882.5
461.238	883.5
461.458	865.5
461.678	892.5
461.898	944.5
462.118	955.5
462.338	947.5
462.558	976.5
462.777	990.5
462.997	1028.5
463.217	1021.5
463.437	1028.5
463.657	1028.5
463.876	948.5
464.096	973.5
464.316	980.5
464.536	997.5
464.755	1031.5
464.975	1038.5
465.195	949.5
465.414	1051.5
465.634	980.5
465.854	953.5
466.073	877.5
466.293	876.5
466.512	936.5
466.732	1023.5
466.951	1075.5
467.171	943.5
467.391	881.5
467.61	891.5
467.829	961.5
468.049	946.5
468.268	897.5
468.488	888.5
468.707	926.5
468.927	1075.5
469.146	1178.5
469.365	1034.5
469.585	980.5
469.804	1032.5
470.023	1141.5
470.243	981.5
470.462	944.5
470.681	886.5
470.901	936.5
471.12	998.5
471.339	1003.5
471.558	932.5
471.777	975.5
471.997	1035.5
472.216	1143.5
472.435	1099.5
472.654	1012.5
472.873	977.5
473.092	1021.5
473.311	1069.5
473.53	981.5
473.749	944.5
473.968	989.5
474.187	1004.5
474.406	950.5
474.625	960.5
474.844	979.5
475.063	1049.5
475.282	1017.5
475.501	1069.5
475.72	1146.5
475.939	1111.5
476.158	1147.5
476.377	1275.5
476.596	1480.5
476.814	1552.5
477.033	1254.5
477.252	1089.5
477.471	995.5
477.69	1029.5
477.908	1134.5
478.127	1144.5
478.346	1079.5
478.564	1147.5
478.783	1090.5
479.002	1150.5
479.22	1323.5
479.439	1462.5
479.658	1219.5
479.876	1131.5
480.095	1217.5
480.313	1255.5
480.532	1141.5
480.751	1104.5
480.969	1136.5
481.188	1295.5
481.406	1334.5
481.624	1259.5
481.843	1132.5
482.061	1086.5
482.28	1230.5
482.498	1499.5
482.717	1407.5
482.935	1239.5
483.153	1149.5
483.372	1082.5
483.59	1096.5
483.808	1046.5
484.027	1031.5
484.245	999.5
484.463	1000.5
484.681	1054.5
484.9	1116.5
485.118	1213.5
485.336	1132.5
485.554	1079.5
485.772	1083.5
485.99	1192.5
486.209	1254.5
486.427	1270.5
486.645	1231.5
486.863	1287.5
487.081	1251.5
487.299	1420.5
487.517	1393.5
487.735	1254.5
487.953	1252.5
488.171	1286.5
488.389	1217.5
488.607	1167.5
488.825	1169.5
489.043	1283.5
489.261	1465.5
489.479	1603.5
489.696	1333.5
489.914	1230.5
490.132	1137.5
490.35	1117.5
490.568	1161.5
490.786	1105.5
491.003	1147.5
491.221	1201.5
491.439	1151.5
491.657	1165.5
491.874	1259.5
492.092	1552.5
492.31	1879.5
492.527	1793.5
492.745	1585.5
492.963	1361.5
493.18	1337.5
493.398	1339.5
493.615	1307.5
493.833	1277.5
494.05	1246.5
494.268	1256.5
494.485	1256.5
494.703	1215.5
494.92	1253.5
495.138	1223.5
495.355	1231.5
495.573	1272.5
495.79	1452.5
496.008	1879.5
496.225	1632.5
496.442	1389.5
496.66	1402.5
496.877	1455.5
497.094	1431.5
497.312	1359.5
497.529	1339.5
497.746	1368.5
497.963	1438.5
498.181	1515.5
498.398	1620.5
498.615	1690.5
498.832	1749.5
499.049	1723.5
499.267	1580.5
499.484	1571.5
499.701	1630.5
499.918	1773.5
500.135	1915.5
500.352	1941.5
500.569	1994.5
500.786	2089.5
501.003	2041.5
501.22	1889.5
501.437	1735.5
501.654	1667.5
501.871	1612.5
502.088	1623.5
502.305	1564.5
502.522	1547.5
502.739	1531.5
502.956	1408.5
503.172	1411.5
503.389	1332.5
503.606	1307.5
503.823	1332.5
504.04	1333.5
504.256	1355.5
504.473	1363.5
504.69	1377.5
504.907	1404.5
505.123	1405.5
505.34	1473.5
505.557	1444.5
505.773	1372.5
505.99	1321.5
506.207	1377.5
506.423	1310.5
506.64	1207.5
506.856	1256.5
507.073	1403.5
507.289	1379.5
507.506	1344.5
507.722	1446.5
507.939	1491.5
508.155	1492.5
508.372	1318.5
508.588	1305.5
508.805	1283.5
509.021	1238.5
509.238	1183.5
509.454	1169.5
509.67	1189.5
509.887	1257.5
510.103	1363.5
