Data from NickelSpatula.Lamp.E10.P2_HRD10591_11-59-51-524.txt Node
Date: Tue Jul 23 11:59:51 EDT 2019
User: cochatt
Spectrometer: HR+D1059
Trigger mode: 1
Integration Time (sec): 1.000000E-1
Scans to average: 1
Electric dark correction enabled: true
Nonlinearity correction enabled: false
Boxcar width: 0
XAxis mode: Wavelengths
Number of Pixels in Spectrum: 2048
>>>>>Begin Spectral Data<<<<<
223.165	-18.44
223.4	-18.44
223.635	-18.44
223.869	-31.44
224.104	-15.44
224.338	-8.44
224.573	-28.44
224.808	-6.44
225.042	-11.44
225.277	-6.44
225.511	-9.44
225.746	2.56
225.98	13.56
226.215	11.56
226.449	18.56
226.683	24.56
226.918	40.56
227.152	24.56
227.387	41.56
227.621	25.56
227.856	41.56
228.09	42.56
228.324	47.56
228.559	74.56
228.793	99.56
229.027	142.56
229.262	173.56
229.496	166.56
229.73	163.56
229.964	192.56
230.199	201.56
230.433	221.56
230.667	211.56
230.901	211.56
231.136	182.56
231.37	202.56
231.604	214.56
231.838	240.56
232.072	241.56
232.306	234.56
232.541	229.56
232.775	219.56
233.009	258.56
233.243	307.56
233.477	312.56
233.711	335.56
233.945	342.56
234.179	326.56
234.413	369.56
234.647	400.56
234.881	456.56
235.115	433.56
235.349	410.56
235.583	366.56
235.817	353.56
236.051	385.56
236.285	434.56
236.519	459.56
236.753	445.56
236.987	440.56
237.221	413.56
237.455	410.56
237.689	421.56
237.922	456.56
238.156	460.56
238.39	553.56
238.624	665.56
238.858	582.56
239.091	506.56
239.325	504.56
239.559	479.56
239.793	538.56
240.027	634.56
240.26	601.56
240.494	548.56
240.728	601.56
240.961	682.56
241.195	646.56
241.429	629.56
241.662	625.56
241.896	533.56
242.13	471.56
242.363	444.56
242.597	472.56
242.83	539.56
243.064	551.56
243.298	581.56
243.531	636.56
243.765	654.56
243.998	627.56
244.232	610.56
244.465	600.56
244.699	618.56
244.932	667.56
245.166	641.56
245.399	564.56
245.633	554.56
245.866	584.56
246.099	621.56
246.333	714.56
246.566	760.56
246.8	773.56
247.033	756.56
247.266	710.56
247.5	705.56
247.733	691.56
247.966	680.56
248.2	695.56
248.433	792.56
248.666	848.56
248.899	857.56
249.133	880.56
249.366	980.56
249.599	1069.56
249.832	965.56
250.066	833.56
250.299	846.56
250.532	820.56
250.765	788.56
250.998	729.56
251.231	753.56
251.465	790.56
251.698	849.56
251.931	792.56
252.164	859.56
252.397	960.56
252.63	1064.56
252.863	1162.56
253.096	1210.56
253.329	1170.56
253.562	1102.56
253.795	1240.56
254.028	1363.56
254.261	1363.56
254.494	1239.56
254.727	1131.56
254.96	1114.56
255.193	1184.56
255.426	1106.56
255.659	876.56
255.892	788.56
256.124	875.56
256.357	1001.56
256.59	1179.56
256.823	1157.56
257.056	1013.56
257.289	907.56
257.521	977.56
257.754	1142.56
257.987	1309.56
258.22	1136.56
258.452	1006.56
258.685	1156.56
258.918	1276.56
259.151	1269.56
259.383	1289.56
259.616	1504.56
259.849	1534.56
260.081	1696.56
260.314	1926.56
260.547	1468.56
260.779	1478.56
261.012	1734.56
261.244	1625.56
261.477	1649.56
261.71	1541.56
261.942	1292.56
262.175	1293.56
262.407	1228.56
262.64	1302.56
262.872	1491.56
263.105	1683.56
263.337	1743.56
263.57	1556.56
263.802	1035.56
264.035	888.56
264.267	894.56
264.499	781.56
264.732	722.56
264.964	700.56
265.197	701.56
265.429	799.56
265.661	838.56
265.894	846.56
266.126	896.56
266.358	1026.56
266.591	1228.56
266.823	1529.56
267.055	1424.56
267.287	1254.56
267.52	1228.56
267.752	1323.56
267.984	1418.56
268.216	1340.56
268.448	1141.56
268.681	1124.56
268.913	1198.56
269.145	1270.56
269.377	1311.56
269.609	1277.56
269.841	1227.56
270.073	1317.56
270.306	1343.56
270.538	1363.56
270.77	1377.56
271.002	1404.56
271.234	1464.56
271.466	1531.56
271.698	1492.56
271.93	1422.56
272.162	1397.56
272.394	1431.56
272.626	1378.56
272.858	1471.56
273.09	1520.56
273.322	1301.56
273.553	1254.56
273.785	1542.56
274.017	1995.56
274.249	2464.56
274.481	2520.56
274.713	2780.56
274.945	3163.56
275.176	3317.56
275.408	2897.56
275.64	2728.56
275.872	2642.56
276.104	2242.56
276.335	1935.56
276.567	1933.56
276.799	1997.56
277.031	2074.56
277.262	1573.56
277.494	1264.56
277.726	1202.56
277.957	1335.56
278.189	1491.56
278.421	1467.56
278.652	1430.56
278.884	1373.56
279.115	1261.56
279.347	1187.56
279.579	1187.56
279.81	1213.56
280.042	1198.56
280.273	1285.56
280.505	1147.56
280.736	1032.56
280.968	1009.56
281.199	1108.56
281.431	1226.56
281.662	1225.56
281.894	1146.56
282.125	1228.56
282.356	1343.56
282.588	1380.56
282.819	1225.56
283.051	1369.56
283.282	1703.56
283.513	1930.56
283.745	2209.56
283.976	2176.56
284.207	1988.56
284.439	2092.56
284.67	2032.56
284.901	1762.56
285.132	1894.56
285.364	2009.56
285.595	1894.56
285.826	2015.56
286.057	2016.56
286.288	1932.56
286.52	2018.56
286.751	2177.56
286.982	2084.56
287.213	1833.56
287.444	1753.56
287.675	1852.56
287.906	1860.56
288.138	1539.56
288.369	1343.56
288.6	1273.56
288.831	1329.56
289.062	1529.56
289.293	1675.56
289.524	1614.56
289.755	1573.56
289.986	1633.56
290.217	1436.56
290.448	1118.56
290.679	948.56
290.91	924.56
291.141	907.56
291.371	973.56
291.602	975.56
291.833	974.56
292.064	1054.56
292.295	1242.56
292.526	1402.56
292.757	1443.56
292.987	1546.56
293.218	1558.56
293.449	1614.56
293.68	1680.56
293.91	1600.56
294.141	1627.56
294.372	1488.56
294.603	1414.56
294.833	1549.56
295.064	1826.56
295.295	1730.56
295.525	1340.56
295.756	1172.56
295.987	987.56
296.217	1011.56
296.448	1058.56
296.679	1111.56
296.909	1206.56
297.14	1308.56
297.37	1447.56
297.601	1344.56
297.831	1153.56
298.062	1250.56
298.292	1424.56
298.523	1592.56
298.753	1768.56
298.984	1595.56
299.214	1286.56
299.445	1097.56
299.675	1061.56
299.905	1027.56
300.136	1069.56
300.366	1147.56
300.597	1142.56
300.827	1019.56
301.057	1006.56
301.288	1003.56
301.518	1125.56
301.748	1238.56
301.979	1337.56
302.209	1458.56
302.439	1451.56
302.669	1256.56
302.9	1208.56
303.13	1172.56
303.36	1112.56
303.59	1085.56
303.82	1100.56
304.051	1222.56
304.281	1351.56
304.511	1260.56
304.741	1148.56
304.971	1187.56
305.201	1295.56
305.431	1224.56
305.661	1100.56
305.891	1052.56
306.121	1082.56
306.352	956.56
306.582	889.56
306.812	870.56
307.042	880.56
307.272	795.56
307.502	807.56
307.731	895.56
307.961	926.56
308.191	870.56
308.421	822.56
308.651	799.56
308.881	789.56
309.111	760.56
309.341	827.56
309.571	887.56
309.8	916.56
310.03	916.56
310.26	1032.56
310.49	976.56
310.72	868.56
310.949	866.56
311.179	867.56
311.409	925.56
311.639	1079.56
311.868	1388.56
312.098	1828.56
312.328	1933.56
312.557	1878.56
312.787	1877.56
313.017	1664.56
313.246	1818.56
313.476	1960.56
313.706	1630.56
313.935	1288.56
314.165	1064.56
314.394	930.56
314.624	961.56
314.853	1029.56
315.083	1038.56
315.312	1011.56
315.542	1037.56
315.771	948.56
316.001	914.56
316.23	849.56
316.46	818.56
316.689	846.56
316.919	871.56
317.148	882.56
317.377	891.56
317.607	893.56
317.836	983.56
318.065	1090.56
318.295	1259.56
318.524	1182.56
318.753	1001.56
318.983	942.56
319.212	953.56
319.441	1018.56
319.67	1109.56
319.9	1227.56
320.129	1130.56
320.358	982.56
320.587	951.56
320.816	1014.56
321.046	1212.56
321.275	1318.56
321.504	1330.56
321.733	1286.56
321.962	1240.56
322.191	1194.56
322.42	1114.56
322.649	1131.56
322.878	1223.56
323.108	1215.56
323.337	1109.56
323.566	1085.56
323.795	1046.56
324.024	1011.56
324.253	956.56
324.482	973.56
324.71	1066.56
324.939	1222.56
325.168	1109.56
325.397	954.56
325.626	909.56
325.855	929.56
326.084	923.56
326.313	878.56
326.542	841.56
326.77	872.56
326.999	876.56
327.228	962.56
327.457	995.56
327.686	990.56
327.914	887.56
328.143	852.56
328.372	861.56
328.6	858.56
328.829	868.56
329.058	920.56
329.287	872.56
329.515	912.56
329.744	886.56
329.972	827.56
330.201	805.56
330.43	804.56
330.658	940.56
330.887	1093.56
331.115	1028.56
331.344	974.56
331.572	954.56
331.801	880.56
332.03	831.56
332.258	881.56
332.486	928.56
332.715	998.56
332.943	931.56
333.172	905.56
333.4	947.56
333.629	1032.56
333.857	1134.56
334.085	1103.56
334.314	1141.56
334.542	1071.56
334.771	964.56
334.999	921.56
335.227	915.56
335.455	934.56
335.684	1033.56
335.912	1208.56
336.14	1315.56
336.369	1259.56
336.597	1233.56
336.825	1399.56
337.053	1515.56
337.281	1250.56
337.51	1005.56
337.738	975.56
337.966	1071.56
338.194	1177.56
338.422	1103.56
338.65	957.56
338.878	896.56
339.106	898.56
339.334	1028.56
339.562	1084.56
339.79	1001.56
340.018	994.56
340.246	1058.56
340.474	1222.56
340.702	1297.56
340.93	1314.56
341.158	1294.56
341.386	1116.56
341.614	1121.56
341.842	1088.56
342.07	1153.56
342.298	1357.56
342.526	1382.56
342.754	1187.56
342.981	1130.56
343.209	1057.56
343.437	1138.56
343.665	1201.56
343.893	1209.56
344.12	1412.56
344.348	1599.56
344.576	1439.56
344.804	1184.56
345.031	1028.56
345.259	972.56
345.487	978.56
345.714	1034.56
345.942	1079.56
346.17	1214.56
346.397	1130.56
346.625	1011.56
346.853	970.56
347.08	944.56
347.308	1013.56
347.535	1131.56
347.763	1132.56
347.99	982.56
348.218	931.56
348.445	989.56
348.673	984.56
348.9	987.56
349.128	1052.56
349.355	1070.56
349.583	1104.56
349.81	1005.56
350.037	937.56
350.265	810.56
350.492	782.56
350.72	803.56
350.947	814.56
351.174	899.56
351.402	940.56
351.629	967.56
351.856	930.56
352.083	876.56
352.311	990.56
352.538	1076.56
352.765	1149.56
352.992	1065.56
353.22	986.56
353.447	1029.56
353.674	960.56
353.901	965.56
354.128	977.56
354.355	975.56
354.583	990.56
354.81	967.56
355.037	1046.56
355.264	1024.56
355.491	1076.56
355.718	1181.56
355.945	1137.56
356.172	1098.56
356.399	1090.56
356.626	1367.56
356.853	1646.56
357.08	1752.56
357.307	1757.56
357.534	1370.56
357.761	1429.56
357.988	1783.56
358.215	2050.56
358.441	1985.56
358.668	1679.56
358.895	1508.56
359.122	1200.56
359.349	1224.56
359.576	1305.56
359.802	1092.56
360.029	968.56
360.256	1014.56
360.483	1261.56
360.709	1655.56
360.936	1668.56
361.163	1454.56
361.39	1134.56
361.616	1053.56
361.843	1228.56
362.07	1501.56
362.296	1405.56
362.523	1059.56
362.749	939.56
362.976	986.56
363.203	1225.56
363.429	1358.56
363.656	1085.56
363.882	1003.56
364.109	999.56
364.335	1016.56
364.562	998.56
364.788	1136.56
365.015	1316.56
365.241	1172.56
365.468	960.56
365.694	846.56
365.92	804.56
366.147	804.56
366.373	770.56
366.599	812.56
366.826	826.56
367.052	820.56
367.278	829.56
367.505	826.56
367.731	913.56
367.957	1030.56
368.184	1052.56
368.41	1023.56
368.636	1032.56
368.862	1081.56
369.089	1006.56
369.315	929.56
369.541	892.56
369.767	883.56
369.993	836.56
370.219	881.56
370.445	900.56
370.672	1024.56
370.898	1094.56
371.124	1073.56
371.35	971.56
371.576	896.56
371.802	979.56
372.028	1190.56
372.254	1323.56
372.48	1153.56
372.706	1038.56
372.932	1070.56
373.158	1141.56
373.384	1438.56
373.61	1857.56
373.835	1892.56
374.061	1392.56
374.287	1144.56
374.513	1377.56
374.739	1627.56
374.965	1718.56
375.191	1660.56
375.416	1181.56
375.642	1028.56
375.868	1216.56
376.094	1349.56
376.319	1170.56
376.545	1288.56
376.771	1370.56
376.997	1184.56
377.222	859.56
377.448	728.56
377.674	764.56
377.899	753.56
378.125	776.56
378.35	786.56
378.576	772.56
378.802	851.56
379.027	920.56
379.253	891.56
379.478	948.56
379.704	1053.56
379.929	1120.56
380.155	1112.56
380.38	928.56
380.606	1009.56
380.831	1093.56
381.057	1045.56
381.282	962.56
381.507	1187.56
381.733	1465.56
381.958	1578.56
382.184	1628.56
382.409	1731.56
382.634	1700.56
382.86	1774.56
383.085	1438.56
383.31	1127.56
383.535	1213.56
383.761	1213.56
383.986	1155.56
384.211	1422.56
384.436	1384.56
384.662	1022.56
384.887	1006.56
385.112	1040.56
385.337	1062.56
385.562	1002.56
385.787	1096.56
386.013	1205.56
386.238	1245.56
386.463	1017.56
386.688	967.56
386.913	962.56
387.138	901.56
387.363	963.56
387.588	993.56
387.813	986.56
388.038	1087.56
388.263	981.56
388.488	964.56
388.713	1120.56
388.938	1220.56
389.163	1024.56
389.387	948.56
389.612	941.56
389.837	963.56
390.062	954.56
390.287	995.56
390.512	1011.56
390.736	944.56
390.961	892.56
391.186	855.56
391.411	848.56
391.636	865.56
391.86	918.56
392.085	1003.56
392.31	1000.56
392.534	950.56
392.759	955.56
392.984	1023.56
393.208	969.56
393.433	869.56
393.658	798.56
393.882	796.56
394.107	780.56
394.331	814.56
394.556	798.56
394.78	802.56
395.005	832.56
395.229	877.56
395.454	897.56
395.678	886.56
395.903	906.56
396.127	897.56
396.352	887.56
396.576	962.56
396.801	996.56
397.025	1094.56
397.249	1147.56
397.474	956.56
397.698	894.56
397.922	1017.56
398.147	908.56
398.371	914.56
398.595	982.56
398.82	937.56
399.044	951.56
399.268	1032.56
399.492	1023.56
399.717	1051.56
399.941	1061.56
400.165	1077.56
400.389	1045.56
400.613	1062.56
400.837	1043.56
401.062	929.56
401.286	897.56
401.51	893.56
401.734	908.56
401.958	929.56
402.182	932.56
402.406	902.56
402.63	914.56
402.854	944.56
403.078	1056.56
403.302	1293.56
403.526	1333.56
403.75	1226.56
403.974	1032.56
404.198	1089.56
404.422	1224.56
404.645	1427.56
404.869	1579.56
405.093	1161.56
405.317	997.56
405.541	1001.56
405.765	1043.56
405.988	1013.56
406.212	1140.56
406.436	1283.56
406.66	1442.56
406.883	1154.56
407.107	1158.56
407.331	1352.56
407.555	1298.56
407.778	1083.56
408.002	1026.56
408.226	1051.56
408.449	1036.56
408.673	1040.56
408.896	934.56
409.12	926.56
409.344	900.56
409.567	890.56
409.791	898.56
410.014	900.56
410.238	873.56
410.461	877.56
410.685	905.56
410.908	930.56
411.132	927.56
411.355	935.56
411.578	951.56
411.802	950.56
412.025	972.56
412.249	1010.56
412.472	926.56
412.695	944.56
412.919	940.56
413.142	990.56
413.365	1055.56
413.589	1063.56
413.812	971.56
414.035	912.56
414.258	948.56
414.482	1066.56
414.705	1082.56
414.928	928.56
415.151	858.56
415.374	876.56
415.597	928.56
415.821	940.56
416.044	889.56
416.267	885.56
416.49	891.56
416.713	873.56
416.936	877.56
417.159	867.56
417.382	911.56
417.605	888.56
417.828	937.56
418.051	928.56
418.274	969.56
418.497	941.56
418.72	946.56
418.943	995.56
419.166	1005.56
419.389	1018.56
419.611	984.56
419.834	1042.56
420.057	1127.56
420.28	1089.56
420.503	1067.56
420.726	933.56
420.948	870.56
421.171	885.56
421.394	891.56
421.617	876.56
421.839	893.56
422.062	932.56
422.285	958.56
422.507	925.56
422.73	947.56
422.953	1000.56
423.175	946.56
423.398	936.56
423.621	1035.56
423.843	1065.56
424.066	1001.56
424.288	939.56
424.511	922.56
424.733	930.56
424.956	945.56
425.178	1081.56
425.401	1254.56
425.623	1402.56
425.846	1163.56
426.068	995.56
426.291	1141.56
426.513	1028.56
426.735	931.56
426.958	978.56
427.18	1190.56
427.402	1508.56
427.625	1478.56
427.847	1216.56
428.069	908.56
428.292	885.56
428.514	906.56
428.736	868.56
428.958	966.56
429.181	1141.56
429.403	1010.56
429.625	876.56
429.847	863.56
430.069	916.56
430.292	920.56
430.514	878.56
430.736	966.56
430.958	1212.56
431.18	1091.56
431.402	852.56
431.624	827.56
431.846	828.56
432.068	796.56
432.29	825.56
432.512	936.56
432.734	1250.56
432.956	1156.56
433.178	880.56
433.4	839.56
433.622	837.56
433.844	884.56
434.066	917.56
434.287	906.56
434.509	892.56
434.731	907.56
434.953	841.56
435.175	907.56
435.397	1001.56
435.618	890.56
435.84	842.56
436.062	831.56
436.284	845.56
436.505	797.56
436.727	788.56
436.949	804.56
437.17	854.56
437.392	859.56
437.614	821.56
437.835	803.56
438.057	802.56
438.278	1000.56
438.5	1431.56
438.721	1385.56
438.943	939.56
439.165	832.56
439.386	811.56
439.608	797.56
439.829	785.56
440.05	803.56
440.272	861.56
440.493	1028.56
440.715	1270.56
440.936	971.56
441.158	852.56
441.379	867.56
441.6	996.56
441.822	1024.56
442.043	888.56
442.264	864.56
442.486	902.56
442.707	873.56
442.928	884.56
443.149	870.56
443.371	908.56
443.592	960.56
443.813	928.56
444.034	894.56
444.255	892.56
444.476	968.56
444.698	937.56
444.919	937.56
445.14	1033.56
445.361	1008.56
445.582	958.56
445.803	916.56
446.024	931.56
446.245	944.56
446.466	891.56
446.687	861.56
446.908	903.56
447.129	828.56
447.35	809.56
447.571	800.56
447.792	788.56
448.013	795.56
448.234	781.56
448.455	804.56
448.675	800.56
448.896	802.56
449.117	804.56
449.338	833.56
449.559	830.56
449.779	858.56
450	889.56
450.221	832.56
450.442	803.56
450.662	802.56
450.883	798.56
451.104	818.56
451.324	813.56
451.545	836.56
451.766	805.56
451.986	802.56
452.207	755.56
452.428	775.56
452.648	779.56
452.869	831.56
453.089	854.56
453.31	807.56
453.53	734.56
453.751	752.56
453.971	761.56
454.192	762.56
454.412	785.56
454.633	776.56
454.853	746.56
455.073	732.56
455.294	754.56
455.514	747.56
455.734	786.56
455.955	808.56
456.175	824.56
456.395	752.56
456.616	715.56
456.836	701.56
457.056	702.56
457.276	704.56
457.497	713.56
457.717	728.56
457.937	697.56
458.157	739.56
458.377	749.56
458.598	747.56
458.818	758.56
459.038	794.56
459.258	803.56
459.478	861.56
459.698	911.56
459.918	920.56
460.138	882.56
460.358	893.56
460.578	843.56
460.798	898.56
461.018	896.56
461.238	870.56
461.458	867.56
461.678	892.56
461.898	931.56
462.118	923.56
462.338	940.56
462.558	947.56
462.777	1009.56
462.997	1022.56
463.217	998.56
463.437	1020.56
463.657	1007.56
463.876	940.56
464.096	956.56
464.316	962.56
464.536	975.56
464.755	1022.56
464.975	1028.56
465.195	964.56
465.414	1027.56
465.634	972.56
465.854	945.56
466.073	883.56
466.293	884.56
466.512	945.56
466.732	1010.56
466.951	1037.56
467.171	928.56
467.391	896.56
467.61	869.56
467.829	942.56
468.049	945.56
468.268	893.56
468.488	876.56
468.707	914.56
468.927	1088.56
469.146	1152.56
469.365	1064.56
469.585	969.56
469.804	997.56
470.023	1116.56
470.243	964.56
470.462	922.56
470.681	936.56
470.901	932.56
471.12	961.56
471.339	973.56
471.558	940.56
471.777	933.56
471.997	1015.56
472.216	1121.56
472.435	1093.56
472.654	998.56
472.873	950.56
473.092	1025.56
473.311	1036.56
473.53	926.56
473.749	930.56
473.968	993.56
474.187	989.56
474.406	921.56
474.625	930.56
474.844	978.56
475.063	1026.56
475.282	1021.56
475.501	1095.56
475.72	1152.56
475.939	1114.56
476.158	1108.56
476.377	1221.56
476.596	1435.56
476.814	1510.56
477.033	1252.56
477.252	1084.56
477.471	1020.56
477.69	999.56
477.908	1088.56
478.127	1140.56
478.346	1055.56
478.564	1157.56
478.783	1097.56
479.002	1104.56
479.22	1280.56
479.439	1414.56
479.658	1243.56
479.876	1114.56
480.095	1229.56
480.313	1227.56
480.532	1114.56
480.751	1100.56
480.969	1111.56
481.188	1301.56
481.406	1330.56
481.624	1236.56
481.843	1153.56
482.061	1091.56
482.28	1211.56
482.498	1431.56
482.717	1390.56
482.935	1224.56
483.153	1097.56
483.372	1058.56
483.59	1049.56
483.808	1091.56
484.027	1066.56
484.245	989.56
484.463	985.56
484.681	1034.56
484.9	1085.56
485.118	1205.56
485.336	1109.56
485.554	1062.56
485.772	1094.56
485.99	1182.56
486.209	1221.56
486.427	1228.56
486.645	1208.56
486.863	1231.56
487.081	1218.56
487.299	1359.56
487.517	1357.56
487.735	1228.56
487.953	1246.56
488.171	1287.56
488.389	1194.56
488.607	1129.56
488.825	1145.56
489.043	1265.56
489.261	1462.56
489.479	1542.56
489.696	1333.56
489.914	1189.56
490.132	1123.56
490.35	1116.56
490.568	1112.56
490.786	1098.56
491.003	1143.56
491.221	1162.56
491.439	1140.56
491.657	1134.56
491.874	1253.56
492.092	1505.56
492.31	1781.56
492.527	1756.56
492.745	1564.56
492.963	1312.56
493.18	1284.56
493.398	1315.56
493.615	1288.56
493.833	1257.56
494.05	1225.56
