Data from NickelSpatula.Lamp.E10.P2_HRD10591_11-58-09-529.txt Node
Date: Tue Jul 23 11:58:09 EDT 2019
User: cochatt
Spectrometer: HR+D1059
Trigger mode: 1
Integration Time (sec): 1.000000E-1
Scans to average: 1
Electric dark correction enabled: true
Nonlinearity correction enabled: false
Boxcar width: 0
XAxis mode: Wavelengths
Number of Pixels in Spectrum: 2048
>>>>>Begin Spectral Data<<<<<
223.165	-10.81
223.4	-10.81
223.635	-10.81
223.869	-7.81
224.104	-16.81
224.338	-21.81
224.573	-7.81
224.808	-14.81
225.042	-1.81
225.277	2.19
225.511	-3.81
225.746	8.19
225.98	0.19
226.215	-15.81
226.449	21.19
226.683	6.19
226.918	26.19
227.152	37.19
227.387	41.19
227.621	42.19
227.856	33.19
228.09	38.19
228.324	40.19
228.559	64.19
228.793	75.19
229.027	143.19
229.262	159.19
229.496	173.19
229.73	182.19
229.964	190.19
230.199	211.19
230.433	199.19
230.667	192.19
230.901	197.19
231.136	207.19
231.37	218.19
231.604	219.19
231.838	236.19
232.072	240.19
232.306	227.19
232.541	250.19
232.775	237.19
233.009	236.19
233.243	267.19
233.477	292.19
233.711	345.19
233.945	326.19
234.179	310.19
234.413	351.19
234.647	380.19
234.881	438.19
235.115	419.19
235.349	395.19
235.583	357.19
235.817	334.19
236.051	344.19
236.285	412.19
236.519	454.19
236.753	409.19
236.987	424.19
237.221	397.19
237.455	403.19
237.689	416.19
237.922	465.19
238.156	479.19
238.39	523.19
238.624	640.19
238.858	587.19
239.091	478.19
239.325	509.19
239.559	478.19
239.793	524.19
240.027	626.19
240.26	574.19
240.494	571.19
240.728	588.19
240.961	651.19
241.195	632.19
241.429	605.19
241.662	603.19
241.896	514.19
242.13	481.19
242.363	453.19
242.597	453.19
242.83	521.19
243.064	494.19
243.298	566.19
243.531	611.19
243.765	620.19
243.998	591.19
244.232	588.19
244.465	582.19
244.699	572.19
244.932	640.19
245.166	598.19
245.399	524.19
245.633	544.19
245.866	558.19
246.099	589.19
246.333	698.19
246.566	739.19
246.8	768.19
247.033	706.19
247.266	674.19
247.5	653.19
247.733	659.19
247.966	630.19
248.2	651.19
248.433	745.19
248.666	795.19
248.899	811.19
249.133	836.19
249.366	954.19
249.599	1005.19
249.832	923.19
250.066	808.19
250.299	811.19
250.532	765.19
250.765	761.19
250.998	716.19
251.231	697.19
251.465	776.19
251.698	810.19
251.931	760.19
252.164	785.19
252.397	888.19
252.63	1001.19
252.863	1118.19
253.096	1172.19
253.329	1117.19
253.562	1076.19
253.795	1224.19
254.028	1313.19
254.261	1344.19
254.494	1218.19
254.727	1086.19
254.96	1056.19
255.193	1116.19
255.426	1081.19
255.659	826.19
255.892	769.19
256.124	837.19
256.357	980.19
256.59	1152.19
256.823	1111.19
257.056	918.19
257.289	867.19
257.521	937.19
257.754	1064.19
257.987	1241.19
258.22	1078.19
258.452	973.19
258.685	1096.19
258.918	1231.19
259.151	1201.19
259.383	1231.19
259.616	1426.19
259.849	1502.19
260.081	1664.19
260.314	1848.19
260.547	1423.19
260.779	1428.19
261.012	1661.19
261.244	1541.19
261.477	1558.19
261.71	1485.19
261.942	1244.19
262.175	1240.19
262.407	1196.19
262.64	1242.19
262.872	1463.19
263.105	1550.19
263.337	1686.19
263.57	1464.19
263.802	1002.19
264.035	889.19
264.267	842.19
264.499	743.19
264.732	700.19
264.964	666.19
265.197	698.19
265.429	756.19
265.661	776.19
265.894	818.19
266.126	894.19
266.358	1006.19
266.591	1202.19
266.823	1456.19
267.055	1357.19
267.287	1228.19
267.52	1194.19
267.752	1292.19
267.984	1420.19
268.216	1343.19
268.448	1076.19
268.681	1078.19
268.913	1175.19
269.145	1218.19
269.377	1245.19
269.609	1243.19
269.841	1174.19
270.073	1240.19
270.306	1280.19
270.538	1292.19
270.77	1355.19
271.002	1361.19
271.234	1427.19
271.466	1458.19
271.698	1381.19
271.93	1386.19
272.162	1383.19
272.394	1354.19
272.626	1346.19
272.858	1403.19
273.09	1406.19
273.322	1264.19
273.553	1207.19
273.785	1421.19
274.017	1908.19
274.249	2308.19
274.481	2439.19
274.713	2594.19
274.945	2985.19
275.176	3174.19
275.408	2755.19
275.64	2530.19
275.872	2505.19
276.104	2146.19
276.335	1867.19
276.567	1796.19
276.799	1916.19
277.031	1969.19
277.262	1540.19
277.494	1182.19
277.726	1151.19
277.957	1260.19
278.189	1402.19
278.421	1434.19
278.652	1362.19
278.884	1316.19
279.115	1215.19
279.347	1129.19
279.579	1140.19
279.81	1168.19
280.042	1131.19
280.273	1214.19
280.505	1080.19
280.736	997.19
280.968	974.19
281.199	1039.19
281.431	1211.19
281.662	1180.19
281.894	1107.19
282.125	1180.19
282.356	1277.19
282.588	1326.19
282.819	1174.19
283.051	1309.19
283.282	1638.19
283.513	1862.19
283.745	2101.19
283.976	2074.19
284.207	1901.19
284.439	1976.19
284.67	1898.19
284.901	1717.19
285.132	1829.19
285.364	1925.19
285.595	1779.19
285.826	1865.19
286.057	1944.19
286.288	1884.19
286.52	1894.19
286.751	2049.19
286.982	1977.19
287.213	1745.19
287.444	1684.19
287.675	1773.19
287.906	1734.19
288.138	1481.19
288.369	1301.19
288.6	1237.19
288.831	1276.19
289.062	1470.19
289.293	1620.19
289.524	1548.19
289.755	1538.19
289.986	1558.19
290.217	1361.19
290.448	1089.19
290.679	956.19
290.91	893.19
291.141	897.19
291.371	921.19
291.602	946.19
291.833	940.19
292.064	1040.19
292.295	1166.19
292.526	1322.19
292.757	1360.19
292.987	1479.19
293.218	1485.19
293.449	1539.19
293.68	1572.19
293.91	1525.19
294.141	1534.19
294.372	1410.19
294.603	1358.19
294.833	1521.19
295.064	1748.19
295.295	1626.19
295.525	1258.19
295.756	1111.19
295.987	969.19
296.217	974.19
296.448	1007.19
296.679	1035.19
296.909	1148.19
297.14	1248.19
297.37	1388.19
297.601	1281.19
297.831	1110.19
298.062	1219.19
298.292	1363.19
298.523	1473.19
298.753	1692.19
298.984	1525.19
299.214	1212.19
299.445	1028.19
299.675	979.19
299.905	982.19
300.136	1022.19
300.366	1121.19
300.597	1111.19
300.827	998.19
301.057	960.19
301.288	973.19
301.518	1038.19
301.748	1159.19
301.979	1253.19
302.209	1356.19
302.439	1400.19
302.669	1215.19
302.9	1200.19
303.13	1110.19
303.36	1026.19
303.59	1017.19
303.82	1089.19
304.051	1170.19
304.281	1293.19
304.511	1214.19
304.741	1067.19
304.971	1137.19
305.201	1229.19
305.431	1170.19
305.661	1018.19
305.891	1017.19
306.121	1042.19
306.352	953.19
306.582	842.19
306.812	822.19
307.042	826.19
307.272	819.19
307.502	777.19
307.731	854.19
307.961	888.19
308.191	836.19
308.421	793.19
308.651	763.19
308.881	742.19
309.111	770.19
309.341	770.19
309.571	862.19
309.8	873.19
310.03	895.19
310.26	948.19
310.49	935.19
310.72	846.19
310.949	820.19
311.179	837.19
311.409	892.19
311.639	1066.19
311.868	1308.19
312.098	1703.19
312.328	1847.19
312.557	1789.19
312.787	1807.19
313.017	1588.19
313.246	1710.19
313.476	1866.19
313.706	1536.19
313.935	1211.19
314.165	1010.19
314.394	916.19
314.624	954.19
314.853	982.19
315.083	1002.19
315.312	975.19
315.542	973.19
315.771	908.19
316.001	848.19
316.23	820.19
316.46	796.19
316.689	826.19
316.919	868.19
317.148	853.19
317.377	845.19
317.607	841.19
317.836	905.19
318.065	1060.19
318.295	1146.19
318.524	1092.19
318.753	948.19
318.983	893.19
319.212	859.19
319.441	958.19
319.67	1079.19
319.9	1146.19
320.129	1064.19
320.358	966.19
320.587	924.19
320.816	977.19
321.046	1124.19
321.275	1289.19
321.504	1264.19
321.733	1205.19
321.962	1164.19
322.191	1094.19
322.42	1036.19
322.649	1047.19
322.878	1154.19
323.108	1162.19
323.337	1059.19
323.566	1057.19
323.795	1026.19
324.024	938.19
324.253	931.19
324.482	948.19
324.71	1022.19
324.939	1153.19
325.168	1069.19
325.397	902.19
325.626	875.19
325.855	892.19
326.084	918.19
326.313	840.19
326.542	814.19
326.77	857.19
326.999	848.19
327.228	921.19
327.457	953.19
327.686	984.19
327.914	849.19
328.143	774.19
328.372	805.19
328.6	811.19
328.829	835.19
329.058	852.19
329.287	869.19
329.515	871.19
329.744	852.19
329.972	820.19
330.201	773.19
330.43	814.19
330.658	921.19
330.887	1013.19
331.115	997.19
331.344	983.19
331.572	934.19
331.801	833.19
332.03	828.19
332.258	867.19
332.486	917.19
332.715	948.19
332.943	842.19
333.172	872.19
333.4	901.19
333.629	969.19
333.857	1078.19
334.085	1072.19
334.314	1045.19
334.542	1001.19
334.771	917.19
334.999	919.19
335.227	884.19
335.455	915.19
335.684	996.19
335.912	1173.19
336.14	1276.19
336.369	1234.19
336.597	1166.19
336.825	1306.19
337.053	1444.19
337.281	1194.19
337.51	952.19
337.738	940.19
337.966	1012.19
338.194	1105.19
338.422	1035.19
338.65	920.19
338.878	856.19
339.106	904.19
339.334	1002.19
339.562	1033.19
339.79	955.19
340.018	920.19
340.246	1026.19
340.474	1138.19
340.702	1207.19
340.93	1236.19
341.158	1246.19
341.386	1065.19
341.614	1074.19
341.842	1046.19
342.07	1107.19
342.298	1244.19
342.526	1304.19
342.754	1147.19
342.981	1032.19
343.209	1020.19
343.437	1089.19
343.665	1148.19
343.893	1110.19
344.12	1300.19
344.348	1522.19
344.576	1364.19
344.804	1125.19
345.031	990.19
345.259	936.19
345.487	957.19
345.714	984.19
345.942	1033.19
346.17	1150.19
346.397	1064.19
346.625	993.19
346.853	922.19
347.08	909.19
347.308	950.19
347.535	1038.19
347.763	1093.19
347.99	966.19
348.218	903.19
348.445	942.19
348.673	935.19
348.9	960.19
349.128	981.19
349.355	1058.19
349.583	1020.19
349.81	968.19
350.037	935.19
350.265	788.19
350.492	770.19
350.72	774.19
350.947	801.19
351.174	864.19
351.402	899.19
351.629	924.19
351.856	899.19
352.083	870.19
352.311	918.19
352.538	1030.19
352.765	1096.19
352.992	988.19
353.22	948.19
353.447	941.19
353.674	926.19
353.901	946.19
354.128	907.19
354.355	962.19
354.583	948.19
354.81	929.19
355.037	979.19
355.264	965.19
355.491	1024.19
355.718	1119.19
355.945	1062.19
356.172	1064.19
356.399	1069.19
356.626	1271.19
356.853	1483.19
357.08	1621.19
357.307	1631.19
357.534	1298.19
357.761	1318.19
357.988	1617.19
358.215	1940.19
358.441	1795.19
358.668	1540.19
358.895	1405.19
359.122	1150.19
359.349	1166.19
359.576	1250.19
359.802	1050.19
360.029	892.19
360.256	986.19
360.483	1205.19
360.709	1478.19
360.936	1577.19
361.163	1383.19
361.39	1036.19
361.616	1006.19
361.843	1149.19
362.07	1421.19
362.296	1283.19
362.523	1024.19
362.749	909.19
362.976	955.19
363.203	1151.19
363.429	1258.19
363.656	1062.19
363.882	967.19
364.109	961.19
364.335	936.19
364.562	933.19
364.788	1073.19
365.015	1226.19
365.241	1117.19
365.468	890.19
365.694	802.19
365.92	795.19
366.147	781.19
366.373	782.19
366.599	791.19
366.826	768.19
367.052	789.19
367.278	810.19
367.505	800.19
367.731	859.19
367.957	960.19
368.184	980.19
368.41	976.19
368.636	963.19
368.862	993.19
369.089	949.19
369.315	863.19
369.541	872.19
369.767	860.19
369.993	818.19
370.219	822.19
370.445	892.19
370.672	1003.19
370.898	1032.19
371.124	1012.19
371.35	922.19
371.576	873.19
371.802	938.19
372.028	1109.19
372.254	1251.19
372.48	1072.19
372.706	980.19
372.932	1032.19
373.158	1113.19
373.384	1312.19
373.61	1740.19
373.835	1757.19
374.061	1333.19
374.287	1115.19
374.513	1336.19
374.739	1532.19
374.965	1635.19
375.191	1559.19
375.416	1113.19
375.642	997.19
375.868	1141.19
376.094	1280.19
376.319	1102.19
376.545	1201.19
376.771	1315.19
376.997	1092.19
377.222	809.19
377.448	720.19
377.674	717.19
377.899	724.19
378.125	726.19
378.35	712.19
378.576	753.19
378.802	809.19
379.027	892.19
379.253	890.19
379.478	885.19
379.704	974.19
379.929	1008.19
380.155	1020.19
380.38	905.19
380.606	964.19
380.831	1026.19
381.057	954.19
381.282	928.19
381.507	1107.19
381.733	1373.19
381.958	1433.19
382.184	1562.19
382.409	1613.19
382.634	1564.19
382.86	1627.19
383.085	1369.19
383.31	1066.19
383.535	1128.19
383.761	1190.19
383.986	1106.19
384.211	1336.19
384.436	1304.19
384.662	1009.19
384.887	946.19
385.112	965.19
385.337	997.19
385.562	956.19
385.787	1048.19
386.013	1163.19
386.238	1181.19
386.463	964.19
386.688	956.19
386.913	900.19
387.138	862.19
387.363	942.19
387.588	958.19
387.813	942.19
388.038	1043.19
388.263	949.19
388.488	911.19
388.713	1082.19
388.938	1182.19
389.163	981.19
389.387	890.19
389.612	906.19
389.837	935.19
390.062	932.19
390.287	963.19
390.512	977.19
390.736	908.19
390.961	834.19
391.186	836.19
391.411	830.19
391.636	837.19
391.86	916.19
392.085	970.19
392.31	985.19
392.534	917.19
392.759	896.19
392.984	964.19
393.208	925.19
393.433	844.19
393.658	798.19
393.882	776.19
394.107	787.19
394.331	804.19
394.556	777.19
394.78	770.19
395.005	823.19
395.229	818.19
395.454	835.19
395.678	851.19
395.903	886.19
396.127	850.19
396.352	872.19
396.576	935.19
396.801	975.19
397.025	1028.19
397.249	1088.19
397.474	900.19
397.698	911.19
397.922	948.19
398.147	896.19
398.371	884.19
398.595	957.19
398.82	926.19
399.044	917.19
399.268	979.19
399.492	1031.19
399.717	1040.19
399.941	1060.19
400.165	1039.19
400.389	988.19
400.613	1014.19
400.837	1006.19
401.062	893.19
401.286	889.19
401.51	880.19
401.734	869.19
401.958	881.19
402.182	906.19
402.406	875.19
402.63	904.19
402.854	924.19
403.078	1030.19
403.302	1248.19
403.526	1324.19
403.75	1142.19
403.974	1033.19
404.198	1048.19
404.422	1188.19
404.645	1370.19
404.869	1507.19
405.093	1138.19
405.317	952.19
405.541	967.19
405.765	988.19
405.988	1020.19
406.212	1059.19
406.436	1208.19
406.66	1342.19
406.883	1124.19
407.107	1148.19
407.331	1340.19
407.555	1244.19
407.778	1090.19
408.002	1028.19
408.226	1049.19
408.449	1016.19
408.673	990.19
408.896	917.19
409.12	894.19
409.344	914.19
409.567	874.19
409.791	885.19
410.014	860.19
410.238	871.19
410.461	884.19
410.685	877.19
410.908	858.19
411.132	916.19
411.355	913.19
411.578	916.19
411.802	929.19
412.025	963.19
412.249	962.19
412.472	948.19
412.695	943.19
412.919	941.19
413.142	948.19
413.365	1029.19
413.589	1032.19
413.812	922.19
414.035	896.19
414.258	910.19
414.482	1010.19
414.705	1032.19
414.928	910.19
415.151	886.19
415.374	853.19
415.597	890.19
415.821	902.19
416.044	869.19
416.267	865.19
416.49	880.19
416.713	832.19
416.936	800.19
417.159	842.19
417.382	889.19
417.605	888.19
417.828	899.19
418.051	891.19
418.274	925.19
418.497	925.19
418.72	923.19
418.943	924.19
419.166	976.19
419.389	983.19
419.611	998.19
419.834	986.19
420.057	1076.19
420.28	1042.19
420.503	996.19
420.726	884.19
420.948	847.19
421.171	901.19
421.394	873.19
421.617	798.19
421.839	874.19
422.062	925.19
422.285	924.19
422.507	907.19
422.73	929.19
422.953	928.19
423.175	926.19
423.398	913.19
423.621	1014.19
423.843	979.19
424.066	938.19
424.288	908.19
424.511	897.19
424.733	894.19
424.956	926.19
425.178	1033.19
425.401	1172.19
425.623	1344.19
425.846	1137.19
426.068	978.19
426.291	1082.19
426.513	1002.19
426.735	913.19
426.958	965.19
427.18	1106.19
427.402	1461.19
427.625	1399.19
427.847	1141.19
428.069	902.19
428.292	855.19
428.514	870.19
428.736	832.19
428.958	956.19
429.181	1120.19
429.403	953.19
429.625	889.19
429.847	875.19
430.069	870.19
430.292	869.19
430.514	844.19
430.736	916.19
430.958	1118.19
431.18	1020.19
431.402	838.19
431.624	798.19
431.846	808.19
432.068	769.19
432.29	842.19
432.512	898.19
432.734	1197.19
432.956	1098.19
433.178	842.19
433.4	821.19
433.622	848.19
433.844	846.19
434.066	924.19
434.287	898.19
434.509	865.19
434.731	898.19
434.953	852.19
435.175	893.19
435.397	984.19
435.618	866.19
435.84	802.19
436.062	800.19
436.284	820.19
436.505	758.19
436.727	768.19
436.949	795.19
437.17	816.19
437.392	814.19
437.614	824.19
437.835	806.19
438.057	827.19
438.278	936.19
438.5	1341.19
438.721	1296.19
438.943	939.19
439.165	786.19
439.386	753.19
439.608	781.19
439.829	759.19
440.05	784.19
440.272	835.19
440.493	955.19
440.715	1192.19
440.936	948.19
441.158	824.19
441.379	836.19
441.6	945.19
441.822	1010.19
442.043	871.19
442.264	870.19
442.486	855.19
442.707	858.19
442.928	860.19
443.149	872.19
443.371	864.19
443.592	922.19
443.813	908.19
444.034	903.19
444.255	847.19
444.476	935.19
444.698	926.19
444.919	936.19
445.14	1034.19
445.361	1010.19
445.582	936.19
445.803	904.19
446.024	929.19
446.245	931.19
446.466	890.19
446.687	864.19
446.908	852.19
447.129	820.19
447.35	797.19
447.571	780.19
447.792	774.19
448.013	781.19
448.234	777.19
448.455	762.19
448.675	796.19
448.896	773.19
449.117	764.19
449.338	785.19
449.559	818.19
449.779	843.19
450	832.19
450.221	797.19
450.442	806.19
450.662	775.19
450.883	787.19
451.104	803.19
451.324	775.19
451.545	803.19
451.766	808.19
451.986	762.19
452.207	764.19
452.428	757.19
452.648	767.19
452.869	794.19
453.089	808.19
453.31	810.19
453.53	726.19
453.751	742.19
453.971	719.19
454.192	758.19
454.412	776.19
454.633	739.19
454.853	743.19
455.073	738.19
455.294	698.19
455.514	714.19
455.734	730.19
455.955	779.19
456.175	774.19
456.395	730.19
456.616	684.19
456.836	716.19
457.056	710.19
457.276	692.19
457.497	702.19
457.717	707.19
457.937	704.19
458.157	700.19
458.377	704.19
458.598	749.19
458.818	756.19
459.038	782.19
459.258	817.19
459.478	846.19
459.698	888.19
459.918	897.19
460.138	850.19
460.358	866.19
460.578	847.19
460.798	885.19
461.018	861.19
461.238	850.19
461.458	835.19
461.678	879.19
461.898	917.19
462.118	881.19
462.338	921.19
462.558	942.19
462.777	962.19
462.997	988.19
463.217	992.19
463.437	1026.19
463.657	990.19
463.876	953.19
464.096	931.19
464.316	919.19
464.536	946.19
464.755	984.19
464.975	1001.19
465.195	957.19
465.414	961.19
465.634	925.19
465.854	923.19
466.073	855.19
466.293	849.19
466.512	898.19
466.732	1014.19
466.951	1008.19
467.171	925.19
467.391	867.19
467.61	854.19
467.829	887.19
468.049	932.19
468.268	884.19
468.488	861.19
468.707	896.19
468.927	1041.19
469.146	1098.19
469.365	1005.19
469.585	939.19
469.804	966.19
470.023	1082.19
470.243	979.19
470.462	882.19
470.681	892.19
470.901	914.19
471.12	930.19
471.339	938.19
471.558	917.19
471.777	911.19
471.997	967.19
472.216	1097.19
472.435	1039.19
472.654	929.19
472.873	956.19
473.092	988.19
473.311	1002.19
473.53	936.19
473.749	907.19
473.968	962.19
474.187	953.19
474.406	902.19
474.625	889.19
474.844	956.19
475.063	986.19
475.282	999.19
475.501	1035.19
475.72	1076.19
475.939	1088.19
476.158	1030.19
476.377	1244.19
476.596	1414.19
476.814	1481.19
477.033	1209.19
477.252	1064.19
477.471	974.19
477.69	993.19
477.908	1076.19
478.127	1118.19
478.346	1024.19
478.564	1134.19
478.783	1085.19
479.002	1090.19
479.22	1267.19
479.439	1390.19
479.658	1182.19
479.876	1085.19
480.095	1145.19
480.313	1198.19
480.532	1108.19
480.751	1092.19
480.969	1115.19
481.188	1270.19
481.406	1274.19
481.624	1166.19
481.843	1086.19
482.061	1009.19
482.28	1156.19
482.498	1401.19
482.717	1318.19
482.935	1152.19
483.153	1076.19
483.372	1036.19
483.59	1057.19
483.808	1047.19
484.027	1002.19
484.245	977.19
484.463	970.19
484.681	1010.19
484.9	1075.19
485.118	1158.19
485.336	1081.19
485.554	1046.19
485.772	1062.19
485.99	1141.19
486.209	1203.19
486.427	1192.19
486.645	1184.19
486.863	1199.19
487.081	1204.19
487.299	1321.19
487.517	1284.19
487.735	1194.19
487.953	1195.19
488.171	1235.19
488.389	1134.19
488.607	1092.19
488.825	1163.19
489.043	1223.19
489.261	1402.19
489.479	1486.19
489.696	1243.19
489.914	1164.19
490.132	1082.19
490.35	1068.19
490.568	1118.19
490.786	1075.19
491.003	1120.19
491.221	1122.19
491.439	1127.19
491.657	1114.19
491.874	1222.19
492.092	1410.19
492.31	1671.19
492.527	1684.19
492.745	1461.19
492.963	1293.19
493.18	1272.19
493.398	1255.19
493.615	1261.19
493.833	1218.19
494.05	1221.19
494.268	1234.19
494.485	1173.19
494.703	1181.19
494.92	1200.19
495.138	1160.19
