Data from NickelSpatula.Lamp.E5.5.P2_HRD10591_11-52-53-551.txt Node
Date: Tue Jul 23 11:52:53 EDT 2019
User: cochatt
Spectrometer: HR+D1059
Trigger mode: 1
Integration Time (sec): 1.000000E-1
Scans to average: 1
Electric dark correction enabled: true
Nonlinearity correction enabled: false
Boxcar width: 0
XAxis mode: Wavelengths
Number of Pixels in Spectrum: 2048
>>>>>Begin Spectral Data<<<<<
223.165	-28.31
223.4	-28.31
223.635	-28.31
223.869	-13.31
224.104	-22.31
224.338	-18.31
224.573	0.69
224.808	-13.31
225.042	-16.31
225.277	-4.31
225.511	-1.31
225.746	1.69
225.98	7.69
226.215	-6.31
226.449	5.69
226.683	27.69
226.918	30.69
227.152	49.69
227.387	32.69
227.621	43.69
227.856	47.69
228.09	47.69
228.324	50.69
228.559	54.69
228.793	48.69
229.027	84.69
229.262	87.69
229.496	71.69
229.73	77.69
229.964	72.69
230.199	92.69
230.433	73.69
230.667	95.69
230.901	77.69
231.136	95.69
231.37	100.69
231.604	106.69
231.838	108.69
232.072	91.69
232.306	104.69
232.541	105.69
232.775	106.69
233.009	111.69
233.243	107.69
233.477	124.69
233.711	128.69
233.945	124.69
234.179	114.69
234.413	114.69
234.647	134.69
234.881	133.69
235.115	136.69
235.349	141.69
235.583	116.69
235.817	118.69
236.051	120.69
236.285	126.69
236.519	124.69
236.753	123.69
236.987	128.69
237.221	123.69
237.455	125.69
237.689	137.69
237.922	133.69
238.156	145.69
238.39	147.69
238.624	164.69
238.858	166.69
239.091	140.69
239.325	149.69
239.559	139.69
239.793	145.69
240.027	169.69
240.26	149.69
240.494	156.69
240.728	140.69
240.961	183.69
241.195	143.69
241.429	156.69
241.662	178.69
241.896	143.69
242.13	131.69
242.363	124.69
242.597	125.69
242.83	147.69
243.064	158.69
243.298	159.69
243.531	161.69
243.765	158.69
243.998	169.69
244.232	167.69
244.465	137.69
244.699	151.69
244.932	180.69
245.166	160.69
245.399	155.69
245.633	145.69
245.866	144.69
246.099	155.69
246.333	179.69
246.566	187.69
246.8	182.69
247.033	179.69
247.266	187.69
247.5	179.69
247.733	171.69
247.966	160.69
248.2	151.69
248.433	169.69
248.666	189.69
248.899	188.69
249.133	187.69
249.366	224.69
249.599	233.69
249.832	225.69
250.066	197.69
250.299	203.69
250.532	195.69
250.765	191.69
250.998	178.69
251.231	159.69
251.465	185.69
251.698	187.69
251.931	189.69
252.164	201.69
252.397	220.69
252.63	225.69
252.863	254.69
253.096	258.69
253.329	259.69
253.562	250.69
253.795	282.69
254.028	294.69
254.261	306.69
254.494	278.69
254.727	244.69
254.96	238.69
255.193	266.69
255.426	268.69
255.659	192.69
255.892	198.69
256.124	211.69
256.357	225.69
256.59	271.69
256.823	247.69
257.056	216.69
257.289	198.69
257.521	192.69
257.754	244.69
257.987	306.69
258.22	263.69
258.452	224.69
258.685	238.69
258.918	282.69
259.151	276.69
259.383	291.69
259.616	336.69
259.849	332.69
260.081	331.69
260.314	385.69
260.547	307.69
260.779	318.69
261.012	372.69
261.244	346.69
261.477	337.69
261.71	332.69
261.942	272.69
262.175	280.69
262.407	263.69
262.64	271.69
262.872	317.69
263.105	334.69
263.337	342.69
263.57	337.69
263.802	239.69
264.035	219.69
264.267	223.69
264.499	182.69
264.732	178.69
264.964	168.69
265.197	180.69
265.429	187.69
265.661	190.69
265.894	195.69
266.126	214.69
266.358	238.69
266.591	253.69
266.823	309.69
267.055	307.69
267.287	264.69
267.52	283.69
267.752	296.69
267.984	309.69
268.216	307.69
268.448	274.69
268.681	265.69
268.913	268.69
269.145	295.69
269.377	287.69
269.609	290.69
269.841	268.69
270.073	293.69
270.306	309.69
270.538	296.69
270.77	309.69
271.002	305.69
271.234	323.69
271.466	333.69
271.698	308.69
271.93	292.69
272.162	303.69
272.394	287.69
272.626	271.69
272.858	296.69
273.09	308.69
273.322	271.69
273.553	259.69
273.785	292.69
274.017	375.69
274.249	463.69
274.481	476.69
274.713	499.69
274.945	576.69
275.176	617.69
275.408	537.69
275.64	511.69
275.872	491.69
276.104	443.69
276.335	377.69
276.567	348.69
276.799	395.69
277.031	383.69
277.262	333.69
277.494	278.69
277.726	254.69
277.957	282.69
278.189	316.69
278.421	283.69
278.652	291.69
278.884	283.69
279.115	268.69
279.347	259.69
279.579	260.69
279.81	271.69
280.042	272.69
280.273	279.69
280.505	267.69
280.736	249.69
280.968	245.69
281.199	255.69
281.431	265.69
281.662	274.69
281.894	237.69
282.125	279.69
282.356	301.69
282.588	289.69
282.819	235.69
283.051	293.69
283.282	365.69
283.513	383.69
283.745	434.69
283.976	437.69
284.207	384.69
284.439	422.69
284.67	396.69
284.901	349.69
285.132	371.69
285.364	387.69
285.595	367.69
285.826	382.69
286.057	374.69
286.288	389.69
286.52	387.69
286.751	402.69
286.982	422.69
287.213	367.69
287.444	344.69
287.675	371.69
287.906	372.69
288.138	326.69
288.369	284.69
288.6	263.69
288.831	286.69
289.062	316.69
289.293	362.69
289.524	339.69
289.755	337.69
289.986	332.69
290.217	324.69
290.448	236.69
290.679	226.69
290.91	223.69
291.141	221.69
291.371	232.69
291.602	229.69
291.833	225.69
292.064	220.69
292.295	265.69
292.526	271.69
292.757	291.69
292.987	336.69
293.218	326.69
293.449	320.69
293.68	367.69
293.91	340.69
294.141	336.69
294.372	345.69
294.603	293.69
294.833	327.69
295.064	379.69
295.295	396.69
295.525	310.69
295.756	255.69
295.987	226.69
296.217	227.69
296.448	233.69
296.679	236.69
296.909	263.69
297.14	264.69
297.37	290.69
297.601	277.69
297.831	255.69
298.062	269.69
298.292	295.69
298.523	325.69
298.753	343.69
298.984	327.69
299.214	279.69
299.445	237.69
299.675	236.69
299.905	217.69
300.136	223.69
300.366	245.69
300.597	259.69
300.827	224.69
301.057	221.69
301.288	231.69
301.518	233.69
301.748	260.69
301.979	276.69
302.209	295.69
302.439	307.69
302.669	261.69
302.9	261.69
303.13	264.69
303.36	247.69
303.59	234.69
303.82	237.69
304.051	266.69
304.281	290.69
304.511	300.69
304.741	247.69
304.971	271.69
305.201	291.69
305.431	265.69
305.661	248.69
305.891	243.69
306.121	225.69
306.352	205.69
306.582	196.69
306.812	207.69
307.042	189.69
307.272	185.69
307.502	208.69
307.731	198.69
307.961	201.69
308.191	206.69
308.421	197.69
308.651	179.69
308.881	196.69
309.111	202.69
309.341	181.69
309.571	211.69
309.8	218.69
310.03	213.69
310.26	220.69
310.49	209.69
310.72	188.69
310.949	198.69
311.179	200.69
311.409	237.69
311.639	250.69
311.868	289.69
312.098	323.69
312.328	370.69
312.557	379.69
312.787	365.69
313.017	321.69
313.246	337.69
313.476	398.69
313.706	331.69
313.935	260.69
314.165	244.69
314.394	224.69
314.624	228.69
314.853	214.69
315.083	226.69
315.312	232.69
315.542	228.69
315.771	205.69
316.001	189.69
316.23	195.69
316.46	205.69
316.689	205.69
316.919	191.69
317.148	199.69
317.377	200.69
317.607	196.69
317.836	210.69
318.065	232.69
318.295	262.69
318.524	231.69
318.753	213.69
318.983	200.69
319.212	208.69
319.441	205.69
319.67	238.69
319.9	251.69
320.129	251.69
320.358	231.69
320.587	219.69
320.816	208.69
321.046	227.69
321.275	245.69
321.504	251.69
321.733	259.69
321.962	260.69
322.191	241.69
322.42	217.69
322.649	220.69
322.878	248.69
323.108	249.69
323.337	230.69
323.566	240.69
323.795	222.69
324.024	227.69
324.253	216.69
324.482	210.69
324.71	221.69
324.939	261.69
325.168	239.69
325.397	179.69
325.626	216.69
325.855	214.69
326.084	207.69
326.313	212.69
326.542	191.69
326.77	198.69
326.999	224.69
327.228	209.69
327.457	215.69
327.686	242.69
327.914	223.69
328.143	187.69
328.372	188.69
328.6	210.69
328.829	191.69
329.058	207.69
329.287	201.69
329.515	201.69
329.744	195.69
329.972	207.69
330.201	195.69
330.43	205.69
330.658	209.69
330.887	224.69
331.115	247.69
331.344	222.69
331.572	208.69
331.801	210.69
332.03	194.69
332.258	218.69
332.486	218.69
332.715	230.69
332.943	226.69
333.172	215.69
333.4	213.69
333.629	246.69
333.857	279.69
334.085	256.69
334.314	265.69
334.542	241.69
334.771	225.69
334.999	228.69
335.227	236.69
335.455	212.69
335.684	227.69
335.912	263.69
336.14	281.69
336.369	285.69
336.597	260.69
336.825	296.69
337.053	306.69
337.281	262.69
337.51	232.69
337.738	217.69
337.966	237.69
338.194	257.69
338.422	249.69
338.65	238.69
338.878	211.69
339.106	203.69
339.334	228.69
339.562	247.69
339.79	211.69
340.018	204.69
340.246	229.69
340.474	263.69
340.702	255.69
340.93	289.69
341.158	270.69
341.386	244.69
341.614	232.69
341.842	245.69
342.07	237.69
342.298	266.69
342.526	268.69
342.754	258.69
342.981	240.69
343.209	219.69
343.437	251.69
343.665	251.69
343.893	258.69
344.12	310.69
344.348	359.69
344.576	319.69
344.804	263.69
345.031	227.69
345.259	215.69
345.487	215.69
345.714	216.69
345.942	236.69
346.17	256.69
346.397	249.69
346.625	217.69
346.853	211.69
347.08	213.69
347.308	247.69
347.535	264.69
347.763	248.69
347.99	226.69
348.218	217.69
348.445	233.69
348.673	223.69
348.9	232.69
349.128	241.69
349.355	237.69
349.583	241.69
349.81	223.69
350.037	217.69
350.265	193.69
350.492	196.69
350.72	182.69
350.947	198.69
351.174	208.69
351.402	189.69
351.629	220.69
351.856	199.69
352.083	197.69
352.311	219.69
352.538	224.69
352.765	240.69
352.992	221.69
353.22	210.69
353.447	232.69
353.674	220.69
353.901	216.69
354.128	216.69
354.355	216.69
354.583	215.69
354.81	226.69
355.037	237.69
355.264	226.69
355.491	219.69
355.718	237.69
355.945	243.69
356.172	231.69
356.399	225.69
356.626	269.69
356.853	305.69
357.08	333.69
357.307	352.69
357.534	265.69
357.761	281.69
357.988	370.69
358.215	397.69
358.441	351.69
358.668	325.69
358.895	299.69
359.122	268.69
359.349	273.69
359.576	285.69
359.802	235.69
360.029	227.69
360.256	205.69
360.483	247.69
360.709	310.69
360.936	315.69
361.163	300.69
361.39	235.69
361.616	212.69
361.843	235.69
362.07	312.69
362.296	273.69
362.523	219.69
362.749	224.69
362.976	217.69
363.203	246.69
363.429	259.69
363.656	217.69
363.882	203.69
364.109	236.69
364.335	213.69
364.562	214.69
364.788	244.69
365.015	265.69
365.241	240.69
365.468	207.69
365.694	204.69
365.92	196.69
366.147	190.69
366.373	191.69
366.599	184.69
366.826	185.69
367.052	184.69
367.278	200.69
367.505	187.69
367.731	195.69
367.957	208.69
368.184	209.69
368.41	225.69
368.636	228.69
368.862	218.69
369.089	215.69
369.315	212.69
369.541	213.69
369.767	194.69
369.993	198.69
370.219	190.69
370.445	215.69
370.672	208.69
370.898	225.69
371.124	245.69
371.35	188.69
371.576	230.69
371.802	227.69
372.028	244.69
372.254	280.69
372.48	251.69
372.706	237.69
372.932	243.69
373.158	270.69
373.384	276.69
373.61	339.69
373.835	342.69
374.061	278.69
374.287	262.69
374.513	277.69
374.739	341.69
374.965	326.69
375.191	324.69
375.416	252.69
375.642	229.69
375.868	261.69
376.094	280.69
376.319	245.69
376.545	266.69
376.771	262.69
376.997	243.69
377.222	206.69
377.448	183.69
377.674	176.69
377.899	199.69
378.125	187.69
378.35	186.69
378.576	197.69
378.802	210.69
379.027	225.69
379.253	219.69
379.478	206.69
379.704	236.69
379.929	221.69
380.155	245.69
380.38	211.69
380.606	228.69
380.831	259.69
381.057	228.69
381.282	224.69
381.507	245.69
381.733	304.69
381.958	314.69
382.184	320.69
382.409	338.69
382.634	347.69
382.86	349.69
383.085	295.69
383.31	247.69
383.535	259.69
383.761	273.69
383.986	243.69
384.211	291.69
384.436	280.69
384.662	233.69
384.887	249.69
385.112	232.69
385.337	253.69
385.562	237.69
385.787	243.69
386.013	273.69
386.238	274.69
386.463	240.69
386.688	243.69
386.913	239.69
387.138	219.69
387.363	216.69
387.588	227.69
387.813	238.69
388.038	245.69
388.263	231.69
388.488	225.69
388.713	247.69
388.938	271.69
389.163	223.69
389.387	211.69
389.612	212.69
389.837	223.69
390.062	228.69
390.287	243.69
390.512	240.69
390.736	221.69
390.961	201.69
391.186	207.69
391.411	214.69
391.636	204.69
391.86	224.69
392.085	247.69
392.31	233.69
392.534	231.69
392.759	226.69
392.984	242.69
393.208	214.69
393.433	208.69
393.658	193.69
393.882	209.69
394.107	216.69
394.331	208.69
394.556	198.69
394.78	187.69
395.005	216.69
395.229	220.69
395.454	206.69
395.678	217.69
395.903	220.69
396.127	212.69
396.352	202.69
396.576	244.69
396.801	222.69
397.025	231.69
397.249	254.69
397.474	223.69
397.698	217.69
397.922	237.69
398.147	234.69
398.371	218.69
398.595	241.69
398.82	236.69
399.044	245.69
399.268	246.69
399.492	258.69
399.717	290.69
399.941	284.69
400.165	275.69
400.389	250.69
400.613	235.69
400.837	256.69
401.062	213.69
401.286	232.69
401.51	228.69
401.734	219.69
401.958	207.69
402.182	216.69
402.406	245.69
402.63	227.69
402.854	272.69
403.078	289.69
403.302	365.69
403.526	361.69
403.75	330.69
403.974	278.69
404.198	278.69
404.422	292.69
404.645	310.69
404.869	332.69
405.093	280.69
405.317	250.69
405.541	268.69
405.765	259.69
405.988	241.69
406.212	253.69
406.436	309.69
406.66	317.69
406.883	270.69
407.107	253.69
407.331	299.69
407.555	304.69
407.778	279.69
408.002	273.69
408.226	261.69
408.449	275.69
408.673	265.69
408.896	241.69
409.12	241.69
409.344	241.69
409.567	231.69
409.791	236.69
410.014	245.69
410.238	239.69
410.461	255.69
410.685	227.69
410.908	224.69
411.132	219.69
411.355	220.69
411.578	237.69
411.802	222.69
412.025	247.69
412.249	247.69
412.472	229.69
412.695	220.69
412.919	227.69
413.142	240.69
413.365	239.69
413.589	257.69
413.812	236.69
414.035	241.69
414.258	236.69
414.482	246.69
414.705	252.69
414.928	216.69
415.151	206.69
415.374	236.69
415.597	240.69
415.821	230.69
416.044	226.69
416.267	229.69
416.49	221.69
416.713	225.69
416.936	218.69
417.159	217.69
417.382	220.69
417.605	217.69
417.828	236.69
418.051	233.69
418.274	235.69
418.497	221.69
418.72	207.69
418.943	234.69
419.166	253.69
419.389	241.69
419.611	261.69
419.834	248.69
420.057	271.69
420.28	256.69
420.503	260.69
420.726	230.69
420.948	208.69
421.171	232.69
421.394	228.69
421.617	222.69
421.839	223.69
422.062	239.69
422.285	225.69
422.507	225.69
422.73	242.69
422.953	241.69
423.175	249.69
423.398	245.69
423.621	233.69
423.843	256.69
424.066	239.69
424.288	232.69
424.511	229.69
424.733	225.69
424.956	241.69
425.178	255.69
425.401	292.69
425.623	342.69
425.846	282.69
426.068	263.69
426.291	256.69
426.513	253.69
426.735	223.69
426.958	239.69
427.18	260.69
427.402	321.69
427.625	341.69
427.847	316.69
428.069	235.69
428.292	216.69
428.514	224.69
428.736	211.69
428.958	239.69
429.181	287.69
429.403	256.69
429.625	229.69
429.847	230.69
430.069	222.69
430.292	239.69
430.514	215.69
430.736	224.69
430.958	251.69
431.18	256.69
431.402	212.69
431.624	207.69
431.846	205.69
432.068	208.69
432.29	211.69
432.512	237.69
432.734	273.69
432.956	256.69
433.178	231.69
433.4	225.69
433.622	236.69
433.844	208.69
434.066	250.69
434.287	231.69
434.509	230.69
434.731	241.69
434.953	232.69
435.175	220.69
435.397	271.69
435.618	231.69
435.84	222.69
436.062	218.69
436.284	223.69
436.505	197.69
436.727	213.69
436.949	216.69
437.17	227.69
437.392	227.69
437.614	224.69
437.835	209.69
438.057	219.69
438.278	250.69
438.5	292.69
438.721	299.69
438.943	242.69
439.165	208.69
439.386	221.69
439.608	193.69
439.829	204.69
440.05	196.69
440.272	209.69
440.493	247.69
440.715	273.69
440.936	235.69
441.158	213.69
441.379	219.69
441.6	251.69
441.822	259.69
442.043	227.69
442.264	231.69
442.486	227.69
442.707	220.69
442.928	230.69
443.149	214.69
443.371	228.69
443.592	232.69
443.813	256.69
444.034	234.69
444.255	238.69
444.476	258.69
444.698	252.69
444.919	251.69
445.14	338.69
445.361	308.69
445.582	236.69
445.803	240.69
446.024	229.69
446.245	231.69
446.466	226.69
446.687	239.69
446.908	216.69
447.129	224.69
447.35	214.69
447.571	197.69
447.792	199.69
448.013	196.69
448.234	197.69
448.455	187.69
448.675	214.69
448.896	211.69
449.117	198.69
449.338	205.69
449.559	214.69
449.779	197.69
450	229.69
450.221	195.69
450.442	204.69
450.662	196.69
450.883	215.69
451.104	231.69
451.324	226.69
451.545	210.69
451.766	222.69
451.986	199.69
452.207	189.69
452.428	195.69
452.648	207.69
452.869	203.69
453.089	210.69
453.31	215.69
453.53	205.69
453.751	195.69
453.971	207.69
454.192	192.69
454.412	197.69
454.633	194.69
454.853	201.69
455.073	181.69
455.294	211.69
455.514	208.69
455.734	201.69
455.955	204.69
456.175	210.69
456.395	194.69
456.616	196.69
456.836	176.69
457.056	179.69
457.276	185.69
457.497	193.69
457.717	186.69
457.937	193.69
458.157	195.69
458.377	177.69
458.598	198.69
458.818	212.69
459.038	202.69
459.258	234.69
459.478	223.69
459.698	236.69
459.918	222.69
460.138	225.69
460.358	215.69
460.578	227.69
460.798	227.69
461.018	239.69
461.238	236.69
461.458	229.69
461.678	239.69
461.898	247.69
462.118	229.69
462.338	263.69
462.558	248.69
462.777	266.69
462.997	281.69
463.217	281.69
463.437	293.69
463.657	276.69
463.876	249.69
464.096	259.69
464.316	261.69
464.536	268.69
464.755	264.69
464.975	248.69
465.195	266.69
465.414	263.69
465.634	235.69
465.854	228.69
466.073	233.69
466.293	214.69
466.512	212.69
466.732	256.69
466.951	255.69
467.171	243.69
467.391	235.69
467.61	224.69
467.829	231.69
468.049	244.69
468.268	225.69
468.488	223.69
468.707	219.69
468.927	265.69
469.146	276.69
469.365	251.69
469.585	221.69
469.804	233.69
470.023	254.69
470.243	228.69
470.462	231.69
470.681	218.69
470.901	231.69
471.12	240.69
471.339	232.69
471.558	227.69
471.777	215.69
471.997	233.69
472.216	265.69
472.435	273.69
472.654	222.69
472.873	237.69
473.092	259.69
473.311	254.69
473.53	218.69
473.749	217.69
473.968	237.69
474.187	222.69
474.406	218.69
474.625	229.69
474.844	229.69
475.063	233.69
475.282	237.69
475.501	264.69
475.72	259.69
475.939	243.69
476.158	257.69
476.377	284.69
476.596	327.69
476.814	350.69
477.033	289.69
477.252	253.69
477.471	241.69
477.69	237.69
477.908	255.69
478.127	263.69
478.346	255.69
478.564	285.69
478.783	256.69
479.002	244.69
479.22	294.69
479.439	333.69
479.658	286.69
479.876	272.69
480.095	292.69
480.313	295.69
480.532	284.69
480.751	261.69
480.969	261.69
481.188	286.69
481.406	296.69
481.624	292.69
481.843	260.69
482.061	239.69
482.28	266.69
482.498	322.69
482.717	321.69
482.935	276.69
483.153	269.69
483.372	247.69
483.59	249.69
483.808	271.69
484.027	247.69
484.245	245.69
484.463	254.69
484.681	259.69
484.9	264.69
485.118	275.69
485.336	259.69
485.554	264.69
485.772	269.69
485.99	269.69
486.209	288.69
486.427	280.69
486.645	275.69
486.863	296.69
487.081	285.69
487.299	303.69
487.517	315.69
487.735	278.69
487.953	267.69
488.171	292.69
488.389	249.69
488.607	254.69
488.825	261.69
489.043	290.69
489.261	322.69
489.479	326.69
489.696	287.69
489.914	259.69
490.132	253.69
490.35	270.69
490.568	262.69
490.786	264.69
491.003	262.69
491.221	266.69
491.439	263.69
491.657	251.69
491.874	270.69
492.092	288.69
492.31	342.69
492.527	329.69
492.745	322.69
492.963	295.69
493.18	277.69
493.398	271.69
493.615	280.69
493.833	279.69
494.05	289.69
494.268	286.69
494.485	292.69
494.703	266.69
494.92	265.69
495.138	265.69
495.355	272.69
495.573	269.69
495.79	312.69
496.008	343.69
496.225	313.69
496.442	303.69
496.66	309.69
496.877	319.69
497.094	292.69
497.312	315.69
497.529	293.69
497.746	312.69
497.963	291.69
498.181	320.69
498.398	367.69
498.615	338.69
498.832	407.69
499.049	406.69
499.267	360.69
499.484	378.69
499.701	405.69
499.918	465.69
500.135	486.69
500.352	517.69
500.569	526.69
500.786	548.69
501.003	520.69
501.22	464.69
501.437	451.69
501.654	385.69
501.871	386.69
502.088	361.69
502.305	350.69
502.522	338.69
