Data from NickelSpatula_HRD10591_16-35-41-126.txt Node
Date: Mon Jul 22 16:35:41 EDT 2019
User: cochatt
Spectrometer: HR+D1059
Trigger mode: 1
Integration Time (sec): 1.000000E-1
Scans to average: 1
Electric dark correction enabled: true
Nonlinearity correction enabled: false
Boxcar width: 0
XAxis mode: Wavelengths
Number of Pixels in Spectrum: 2048
>>>>>Begin Spectral Data<<<<<
223.165	-12.38
223.4	-12.38
223.635	-12.38
223.869	-6.38
224.104	-17.38
224.338	-14.38
224.573	-12.38
224.808	-21.38
225.042	-6.38
225.277	-12.38
225.511	-3.38
225.746	-1.38
225.98	6.62
226.215	13.62
226.449	10.62
226.683	23.62
226.918	27.62
227.152	25.62
227.387	49.62
227.621	34.62
227.856	39.62
228.09	34.62
228.324	40.62
228.559	71.62
228.793	76.62
229.027	76.62
229.262	85.62
229.496	79.62
229.73	93.62
229.964	84.62
230.199	84.62
230.433	75.62
230.667	102.62
230.901	87.62
231.136	93.62
231.37	86.62
231.604	96.62
231.838	85.62
232.072	101.62
232.306	100.62
232.541	107.62
232.775	107.62
233.009	116.62
233.243	103.62
233.477	108.62
233.711	128.62
233.945	122.62
234.179	121.62
234.413	127.62
234.647	124.62
234.881	129.62
235.115	121.62
235.349	124.62
235.583	123.62
235.817	113.62
236.051	90.62
236.285	118.62
236.519	125.62
236.753	125.62
236.987	119.62
237.221	111.62
237.455	125.62
237.689	124.62
237.922	134.62
238.156	122.62
238.39	145.62
238.624	156.62
238.858	140.62
239.091	125.62
239.325	143.62
239.559	121.62
239.793	145.62
240.027	165.62
240.26	142.62
240.494	136.62
240.728	141.62
240.961	168.62
241.195	149.62
241.429	155.62
241.662	148.62
241.896	142.62
242.13	132.62
242.363	127.62
242.597	130.62
242.83	137.62
243.064	139.62
243.298	147.62
243.531	165.62
243.765	161.62
243.998	144.62
244.232	141.62
244.465	155.62
244.699	138.62
244.932	162.62
245.166	172.62
245.399	138.62
245.633	139.62
245.866	153.62
246.099	141.62
246.333	147.62
246.566	173.62
246.8	191.62
247.033	183.62
247.266	163.62
247.5	158.62
247.733	164.62
247.966	145.62
248.2	169.62
248.433	165.62
248.666	157.62
248.899	189.62
249.133	175.62
249.366	214.62
249.599	218.62
249.832	202.62
250.066	177.62
250.299	174.62
250.532	170.62
250.765	174.62
250.998	180.62
251.231	161.62
251.465	181.62
251.698	180.62
251.931	167.62
252.164	189.62
252.397	190.62
252.63	225.62
252.863	245.62
253.096	241.62
253.329	224.62
253.562	206.62
253.795	240.62
254.028	260.62
254.261	270.62
254.494	245.62
254.727	229.62
254.96	238.62
255.193	225.62
255.426	219.62
255.659	186.62
255.892	183.62
256.124	214.62
256.357	213.62
256.59	235.62
256.823	245.62
257.056	217.62
257.289	189.62
257.521	204.62
257.754	220.62
257.987	265.62
258.22	241.62
258.452	230.62
258.685	230.62
258.918	255.62
259.151	249.62
259.383	275.62
259.616	309.62
259.849	305.62
260.081	322.62
260.314	332.62
260.547	294.62
260.779	280.62
261.012	313.62
261.244	298.62
261.477	325.62
261.71	271.62
261.942	253.62
262.175	257.62
262.407	248.62
262.64	254.62
262.872	259.62
263.105	297.62
263.337	305.62
263.57	287.62
263.802	226.62
264.035	189.62
264.267	207.62
264.499	193.62
264.732	171.62
264.964	163.62
265.197	163.62
265.429	171.62
265.661	183.62
265.894	197.62
266.126	206.62
266.358	191.62
266.591	267.62
266.823	295.62
267.055	259.62
267.287	265.62
267.52	249.62
267.752	274.62
267.984	285.62
268.216	273.62
268.448	236.62
268.681	219.62
268.913	243.62
269.145	261.62
269.377	265.62
269.609	263.62
269.841	277.62
270.073	259.62
270.306	280.62
270.538	294.62
270.77	275.62
271.002	287.62
271.234	287.62
271.466	297.62
271.698	287.62
271.93	279.62
272.162	258.62
272.394	267.62
272.626	279.62
272.858	265.62
273.09	275.62
273.322	247.62
273.553	230.62
273.785	257.62
274.017	320.62
274.249	399.62
274.481	411.62
274.713	456.62
274.945	490.62
275.176	517.62
275.408	474.62
275.64	449.62
275.872	426.62
276.104	377.62
276.335	338.62
276.567	351.62
276.799	335.62
277.031	357.62
277.262	303.62
277.494	269.62
277.726	244.62
277.957	263.62
278.189	284.62
278.421	281.62
278.652	268.62
278.884	259.62
279.115	246.62
279.347	227.62
279.579	239.62
279.81	252.62
280.042	245.62
280.273	268.62
280.505	245.62
280.736	217.62
280.968	217.62
281.199	220.62
281.431	250.62
281.662	229.62
281.894	238.62
282.125	245.62
282.356	267.62
282.588	268.62
282.819	249.62
283.051	277.62
283.282	318.62
283.513	364.62
283.745	397.62
283.976	371.62
284.207	350.62
284.439	356.62
284.67	372.62
284.901	327.62
285.132	347.62
285.364	363.62
285.595	339.62
285.826	370.62
286.057	375.62
286.288	353.62
286.52	364.62
286.751	383.62
286.982	382.62
287.213	335.62
287.444	321.62
287.675	349.62
287.906	346.62
288.138	305.62
288.369	265.62
288.6	261.62
288.831	274.62
289.062	296.62
289.293	337.62
289.524	305.62
289.755	312.62
289.986	319.62
290.217	291.62
290.448	228.62
290.679	206.62
290.91	194.62
291.141	193.62
291.371	204.62
291.602	205.62
291.833	204.62
292.064	222.62
292.295	253.62
292.526	290.62
292.757	270.62
292.987	301.62
293.218	291.62
293.449	301.62
293.68	334.62
293.91	293.62
294.141	317.62
294.372	302.62
294.603	283.62
294.833	300.62
295.064	343.62
295.295	349.62
295.525	245.62
295.756	227.62
295.987	209.62
296.217	203.62
296.448	196.62
296.679	196.62
296.909	229.62
297.14	230.62
297.37	257.62
297.601	259.62
297.831	224.62
298.062	228.62
298.292	263.62
298.523	290.62
298.753	311.62
298.984	281.62
299.214	243.62
299.445	190.62
299.675	191.62
299.905	204.62
300.136	194.62
300.366	205.62
300.597	216.62
300.827	207.62
301.057	195.62
301.288	193.62
301.518	216.62
301.748	226.62
301.979	233.62
302.209	265.62
302.439	254.62
302.669	236.62
302.9	229.62
303.13	226.62
303.36	209.62
303.59	211.62
303.82	216.62
304.051	235.62
304.281	258.62
304.511	249.62
304.741	227.62
304.971	241.62
305.201	245.62
305.431	212.62
305.661	193.62
305.891	196.62
306.121	171.62
306.352	174.62
306.582	171.62
306.812	159.62
307.042	167.62
307.272	162.62
307.502	160.62
307.731	158.62
307.961	178.62
308.191	155.62
308.421	159.62
308.651	155.62
308.881	153.62
309.111	137.62
309.341	157.62
309.571	165.62
309.8	188.62
310.03	192.62
310.26	191.62
310.49	175.62
310.72	188.62
310.949	161.62
311.179	177.62
311.409	195.62
311.639	201.62
311.868	260.62
312.098	322.62
312.328	360.62
312.557	346.62
312.787	328.62
313.017	286.62
313.246	340.62
313.476	333.62
313.706	294.62
313.935	225.62
314.165	195.62
314.394	177.62
314.624	185.62
314.853	197.62
315.083	214.62
315.312	183.62
315.542	189.62
315.771	193.62
316.001	156.62
316.23	158.62
316.46	170.62
316.689	170.62
316.919	167.62
317.148	141.62
317.377	177.62
317.607	178.62
317.836	170.62
318.065	208.62
318.295	228.62
318.524	232.62
318.753	195.62
318.983	183.62
319.212	190.62
319.441	181.62
319.67	207.62
319.9	213.62
320.129	209.62
320.358	173.62
320.587	171.62
320.816	181.62
321.046	219.62
321.275	244.62
321.504	233.62
321.733	247.62
321.962	229.62
322.191	199.62
322.42	186.62
322.649	213.62
322.878	223.62
323.108	206.62
323.337	215.62
323.566	203.62
323.795	186.62
324.024	187.62
324.253	167.62
324.482	175.62
324.71	199.62
324.939	211.62
325.168	195.62
325.397	184.62
325.626	164.62
325.855	180.62
326.084	186.62
326.313	181.62
326.542	163.62
326.77	153.62
326.999	162.62
327.228	177.62
327.457	177.62
327.686	186.62
327.914	175.62
328.143	164.62
328.372	157.62
328.6	157.62
328.829	167.62
329.058	173.62
329.287	165.62
329.515	173.62
329.744	174.62
329.972	158.62
330.201	159.62
330.43	164.62
330.658	167.62
330.887	202.62
331.115	184.62
331.344	185.62
331.572	183.62
331.801	167.62
332.03	154.62
332.258	147.62
332.486	157.62
332.715	165.62
332.943	158.62
333.172	178.62
333.4	152.62
333.629	201.62
333.857	200.62
334.085	193.62
334.314	193.62
334.542	189.62
334.771	166.62
334.999	179.62
335.227	171.62
335.455	174.62
335.684	177.62
335.912	220.62
336.14	220.62
336.369	216.62
336.597	204.62
336.825	237.62
337.053	283.62
337.281	227.62
337.51	182.62
337.738	185.62
337.966	195.62
338.194	193.62
338.422	191.62
338.65	169.62
338.878	184.62
339.106	167.62
339.334	194.62
339.562	185.62
339.79	177.62
340.018	174.62
340.246	191.62
340.474	216.62
340.702	201.62
340.93	224.62
341.158	233.62
341.386	193.62
341.614	194.62
341.842	203.62
342.07	195.62
342.298	225.62
342.526	239.62
342.754	202.62
342.981	202.62
343.209	197.62
343.437	204.62
343.665	205.62
343.893	207.62
344.12	237.62
344.348	260.62
344.576	267.62
344.804	222.62
345.031	180.62
345.259	190.62
345.487	182.62
345.714	186.62
345.942	197.62
346.17	224.62
346.397	222.62
346.625	175.62
346.853	167.62
347.08	171.62
347.308	178.62
347.535	201.62
347.763	210.62
347.99	184.62
348.218	174.62
348.445	185.62
348.673	197.62
348.9	178.62
349.128	213.62
349.355	185.62
349.583	195.62
349.81	179.62
350.037	168.62
350.265	146.62
350.492	151.62
350.72	158.62
350.947	157.62
351.174	153.62
351.402	154.62
351.629	169.62
351.856	187.62
352.083	162.62
352.311	194.62
352.538	189.62
352.765	193.62
352.992	192.62
353.22	183.62
353.447	191.62
353.674	190.62
353.901	172.62
354.128	187.62
354.355	178.62
354.583	175.62
354.81	207.62
355.037	211.62
355.264	189.62
355.491	210.62
355.718	207.62
355.945	195.62
356.172	175.62
356.399	198.62
356.626	232.62
356.853	271.62
357.08	305.62
357.307	311.62
357.534	232.62
357.761	239.62
357.988	309.62
358.215	342.62
358.441	315.62
358.668	277.62
358.895	253.62
359.122	217.62
359.349	223.62
359.576	228.62
359.802	211.62
360.029	166.62
360.256	195.62
360.483	208.62
360.709	265.62
360.936	280.62
361.163	257.62
361.39	217.62
361.616	180.62
361.843	206.62
362.07	247.62
362.296	223.62
362.523	182.62
362.749	173.62
362.976	165.62
363.203	202.62
363.429	237.62
363.656	200.62
363.882	178.62
364.109	186.62
364.335	187.62
364.562	184.62
364.788	182.62
365.015	223.62
365.241	195.62
365.468	190.62
365.694	156.62
365.92	158.62
366.147	163.62
366.373	151.62
366.599	160.62
366.826	140.62
367.052	142.62
367.278	175.62
367.505	160.62
367.731	172.62
367.957	171.62
368.184	189.62
368.41	179.62
368.636	180.62
368.862	172.62
369.089	180.62
369.315	176.62
369.541	173.62
369.767	151.62
369.993	159.62
370.219	172.62
370.445	166.62
370.672	185.62
370.898	190.62
371.124	204.62
371.35	171.62
371.576	161.62
371.802	189.62
372.028	201.62
372.254	208.62
372.48	195.62
372.706	191.62
372.932	200.62
373.158	191.62
373.384	234.62
373.61	276.62
373.835	285.62
374.061	228.62
374.287	209.62
374.513	223.62
374.739	279.62
374.965	276.62
375.191	266.62
375.416	198.62
375.642	191.62
375.868	205.62
376.094	225.62
376.319	200.62
376.545	221.62
376.771	203.62
376.997	192.62
377.222	159.62
377.448	146.62
377.674	137.62
377.899	143.62
378.125	166.62
378.35	131.62
378.576	145.62
378.802	168.62
379.027	180.62
379.253	181.62
379.478	151.62
379.704	174.62
379.929	187.62
380.155	188.62
380.38	172.62
380.606	198.62
380.831	203.62
381.057	193.62
381.282	189.62
381.507	216.62
381.733	236.62
381.958	237.62
382.184	263.62
382.409	289.62
382.634	275.62
382.86	284.62
383.085	243.62
383.31	218.62
383.535	227.62
383.761	227.62
383.986	215.62
384.211	245.62
384.436	231.62
384.662	197.62
384.887	185.62
385.112	206.62
385.337	182.62
385.562	199.62
385.787	208.62
386.013	206.62
386.238	216.62
386.463	189.62
386.688	173.62
386.913	189.62
387.138	162.62
387.363	177.62
387.588	182.62
387.813	181.62
388.038	207.62
388.263	167.62
388.488	177.62
388.713	194.62
388.938	213.62
389.163	194.62
389.387	165.62
389.612	185.62
389.837	178.62
390.062	180.62
390.287	177.62
390.512	185.62
390.736	170.62
390.961	163.62
391.186	149.62
391.411	154.62
391.636	149.62
391.86	169.62
392.085	184.62
392.31	181.62
392.534	190.62
392.759	174.62
392.984	180.62
393.208	185.62
393.433	177.62
393.658	154.62
393.882	159.62
394.107	142.62
394.331	160.62
394.556	156.62
394.78	157.62
395.005	162.62
395.229	161.62
395.454	155.62
395.678	167.62
395.903	184.62
396.127	164.62
396.352	169.62
396.576	181.62
396.801	198.62
397.025	218.62
397.249	215.62
397.474	171.62
397.698	173.62
397.922	196.62
398.147	165.62
398.371	173.62
398.595	188.62
398.82	173.62
399.044	157.62
399.268	178.62
399.492	173.62
399.717	194.62
399.941	206.62
400.165	184.62
400.389	173.62
400.613	181.62
400.837	180.62
401.062	164.62
401.286	175.62
401.51	170.62
401.734	157.62
401.958	174.62
402.182	165.62
402.406	177.62
402.63	168.62
402.854	183.62
403.078	214.62
403.302	247.62
403.526	290.62
403.75	253.62
403.974	191.62
404.198	210.62
404.422	228.62
404.645	241.62
404.869	250.62
405.093	214.62
405.317	185.62
405.541	197.62
405.765	197.62
405.988	186.62
406.212	188.62
406.436	207.62
406.66	241.62
406.883	201.62
407.107	210.62
407.331	227.62
407.555	207.62
407.778	194.62
408.002	194.62
408.226	214.62
408.449	213.62
408.673	197.62
408.896	170.62
409.12	170.62
409.344	186.62
409.567	157.62
409.791	172.62
410.014	152.62
410.238	175.62
410.461	167.62
410.685	149.62
410.908	163.62
411.132	176.62
411.355	178.62
411.578	174.62
411.802	170.62
412.025	172.62
412.249	185.62
412.472	183.62
412.695	194.62
412.919	165.62
413.142	187.62
413.365	198.62
413.589	215.62
413.812	185.62
414.035	171.62
414.258	156.62
414.482	194.62
414.705	199.62
414.928	162.62
415.151	153.62
415.374	162.62
415.597	165.62
415.821	167.62
416.044	166.62
416.267	166.62
416.49	164.62
416.713	170.62
416.936	161.62
417.159	162.62
417.382	162.62
417.605	162.62
417.828	179.62
418.051	178.62
418.274	181.62
418.497	181.62
418.72	169.62
418.943	175.62
419.166	174.62
419.389	187.62
419.611	182.62
419.834	192.62
420.057	203.62
420.28	194.62
420.503	187.62
420.726	166.62
420.948	159.62
421.171	165.62
421.394	157.62
421.617	151.62
421.839	165.62
422.062	165.62
422.285	175.62
422.507	188.62
422.73	181.62
422.953	181.62
423.175	169.62
423.398	169.62
423.621	182.62
423.843	201.62
424.066	191.62
424.288	161.62
424.511	177.62
424.733	174.62
424.956	197.62
425.178	201.62
425.401	234.62
425.623	253.62
425.846	213.62
426.068	197.62
426.291	203.62
426.513	179.62
426.735	181.62
426.958	185.62
427.18	216.62
427.402	251.62
427.625	267.62
427.847	198.62
428.069	177.62
428.292	187.62
428.514	165.62
428.736	189.62
428.958	182.62
429.181	213.62
429.403	191.62
429.625	154.62
429.847	156.62
430.069	182.62
430.292	175.62
430.514	157.62
430.736	156.62
430.958	227.62
431.18	183.62
431.402	179.62
431.624	166.62
431.846	167.62
432.068	165.62
432.29	163.62
432.512	174.62
432.734	218.62
432.956	198.62
433.178	164.62
433.4	186.62
433.622	169.62
433.844	163.62
434.066	201.62
434.287	169.62
434.509	181.62
434.731	181.62
434.953	170.62
435.175	167.62
435.397	226.62
435.618	173.62
435.84	147.62
436.062	159.62
436.284	154.62
436.505	150.62
436.727	157.62
436.949	163.62
437.17	165.62
437.392	158.62
437.614	166.62
437.835	169.62
438.057	177.62
438.278	192.62
438.5	236.62
438.721	249.62
438.943	169.62
439.165	155.62
439.386	149.62
439.608	149.62
439.829	132.62
440.05	149.62
440.272	163.62
440.493	182.62
440.715	203.62
440.936	189.62
441.158	160.62
441.379	157.62
441.6	183.62
441.822	196.62
442.043	161.62
442.264	163.62
442.486	169.62
442.707	166.62
442.928	181.62
443.149	170.62
443.371	163.62
443.592	186.62
443.813	181.62
444.034	181.62
444.255	180.62
444.476	190.62
444.698	170.62
444.919	175.62
445.14	315.62
445.361	251.62
445.582	208.62
445.803	189.62
446.024	206.62
446.245	192.62
446.466	186.62
446.687	189.62
446.908	166.62
447.129	166.62
447.35	156.62
447.571	179.62
447.792	164.62
448.013	155.62
448.234	157.62
448.455	167.62
448.675	161.62
448.896	165.62
449.117	155.62
449.338	163.62
449.559	163.62
449.779	174.62
450	185.62
450.221	155.62
450.442	167.62
450.662	171.62
450.883	166.62
451.104	156.62
451.324	147.62
451.545	143.62
451.766	141.62
451.986	165.62
452.207	159.62
452.428	140.62
452.648	169.62
452.869	172.62
453.089	173.62
453.31	181.62
453.53	162.62
453.751	162.62
453.971	158.62
454.192	156.62
454.412	158.62
454.633	147.62
454.853	154.62
455.073	151.62
455.294	165.62
455.514	147.62
455.734	161.62
455.955	156.62
456.175	183.62
456.395	158.62
456.616	157.62
456.836	161.62
457.056	138.62
457.276	129.62
457.497	159.62
457.717	135.62
457.937	159.62
458.157	144.62
458.377	147.62
458.598	140.62
458.818	167.62
459.038	156.62
459.258	164.62
459.478	175.62
459.698	175.62
459.918	164.62
460.138	171.62
460.358	165.62
460.578	167.62
460.798	162.62
461.018	165.62
461.238	173.62
461.458	171.62
461.678	165.62
461.898	187.62
462.118	195.62
462.338	180.62
462.558	185.62
462.777	196.62
462.997	186.62
463.217	193.62
463.437	192.62
463.657	172.62
463.876	166.62
464.096	185.62
464.316	186.62
464.536	187.62
464.755	208.62
464.975	188.62
465.195	189.62
465.414	205.62
465.634	190.62
465.854	171.62
466.073	158.62
466.293	171.62
466.512	184.62
466.732	195.62
466.951	211.62
467.171	181.62
467.391	165.62
467.61	173.62
467.829	177.62
468.049	172.62
468.268	167.62
468.488	171.62
468.707	182.62
468.927	182.62
469.146	212.62
469.365	194.62
469.585	164.62
469.804	192.62
470.023	209.62
470.243	193.62
470.462	174.62
470.681	179.62
470.901	191.62
471.12	185.62
471.339	197.62
471.558	167.62
471.777	173.62
471.997	192.62
472.216	222.62
472.435	209.62
472.654	193.62
472.873	187.62
473.092	189.62
473.311	209.62
473.53	182.62
473.749	193.62
473.968	198.62
474.187	175.62
474.406	172.62
474.625	185.62
474.844	187.62
475.063	190.62
475.282	198.62
475.501	217.62
475.72	234.62
475.939	218.62
476.158	203.62
476.377	257.62
476.596	286.62
476.814	297.62
477.033	245.62
477.252	203.62
477.471	169.62
477.69	189.62
477.908	185.62
478.127	208.62
478.346	205.62
478.564	253.62
478.783	220.62
479.002	198.62
479.22	233.62
479.439	245.62
479.658	218.62
479.876	203.62
480.095	211.62
480.313	205.62
480.532	217.62
480.751	189.62
480.969	192.62
481.188	226.62
481.406	222.62
481.624	210.62
481.843	197.62
482.061	199.62
482.28	220.62
482.498	291.62
482.717	295.62
482.935	221.62
483.153	196.62
483.372	175.62
483.59	194.62
483.808	183.62
484.027	178.62
484.245	187.62
484.463	183.62
484.681	193.62
484.9	193.62
485.118	202.62
485.336	197.62
485.554	192.62
485.772	191.62
485.99	203.62
486.209	227.62
486.427	222.62
486.645	206.62
486.863	219.62
487.081	206.62
487.299	241.62
487.517	232.62
487.735	226.62
487.953	218.62
488.171	232.62
488.389	207.62
488.607	203.62
488.825	205.62
489.043	234.62
489.261	245.62
489.479	272.62
489.696	229.62
489.914	214.62
490.132	197.62
490.35	199.62
490.568	212.62
490.786	189.62
491.003	200.62
491.221	207.62
491.439	210.62
491.657	198.62
491.874	212.62
492.092	263.62
492.31	309.62
492.527	311.62
492.745	257.62
492.963	235.62
493.18	222.62
493.398	235.62
493.615	217.62
493.833	230.62
494.05	215.62
494.268	220.62
494.485	202.62
494.703	206.62
494.92	213.62
495.138	223.62
495.355	197.62
495.573	217.62
495.79	254.62
496.008	305.62
496.225	249.62
496.442	220.62
496.66	237.62
496.877	231.62
497.094	233.62
497.312	216.62
497.529	223.62
497.746	234.62
497.963	232.62
498.181	253.62
498.398	258.62
498.615	276.62
498.832	275.62
499.049	283.62
499.267	262.62
499.484	237.62
499.701	274.62
499.918	301.62
500.135	309.62
500.352	321.62
500.569	317.62
500.786	336.62
501.003	335.62
501.22	289.62
501.437	289.62
501.654	289.62
501.871	256.62
502.088	278.62
502.305	251.62
502.522	255.62
502.739	250.62
