Data from NickelSpatula_HRD10591_16-33-56-125.txt Node
Date: Mon Jul 22 16:33:56 EDT 2019
User: cochatt
Spectrometer: HR+D1059
Trigger mode: 1
Integration Time (sec): 1.000000E-1
Scans to average: 1
Electric dark correction enabled: true
Nonlinearity correction enabled: false
Boxcar width: 0
XAxis mode: Wavelengths
Number of Pixels in Spectrum: 2048
>>>>>Begin Spectral Data<<<<<
223.165	-19.75
223.4	-19.75
223.635	-19.75
223.869	-19.75
224.104	-12.75
224.338	-8.75
224.573	-17.75
224.808	-16.75
225.042	5.25
225.277	-13.75
225.511	-8.75
225.746	-2.75
225.98	4.25
226.215	9.25
226.449	24.25
226.683	28.25
226.918	19.25
227.152	30.25
227.387	33.25
227.621	36.25
227.856	41.25
228.09	49.25
228.324	53.25
228.559	61.25
228.793	66.25
229.027	74.25
229.262	82.25
229.496	74.25
229.73	81.25
229.964	84.25
230.199	91.25
230.433	88.25
230.667	95.25
230.901	90.25
231.136	97.25
231.37	111.25
231.604	104.25
231.838	108.25
232.072	109.25
232.306	100.25
232.541	106.25
232.775	98.25
233.009	106.25
233.243	115.25
233.477	111.25
233.711	125.25
233.945	119.25
234.179	117.25
234.413	138.25
234.647	107.25
234.881	134.25
235.115	138.25
235.349	132.25
235.583	117.25
235.817	121.25
236.051	111.25
236.285	123.25
236.519	123.25
236.753	133.25
236.987	138.25
237.221	134.25
237.455	124.25
237.689	127.25
237.922	127.25
238.156	140.25
238.39	156.25
238.624	158.25
238.858	144.25
239.091	139.25
239.325	132.25
239.559	118.25
239.793	139.25
240.027	161.25
240.26	154.25
240.494	161.25
240.728	153.25
240.961	149.25
241.195	156.25
241.429	151.25
241.662	149.25
241.896	139.25
242.13	135.25
242.363	130.25
242.597	132.25
242.83	146.25
243.064	147.25
243.298	145.25
243.531	170.25
243.765	175.25
243.998	159.25
244.232	159.25
244.465	159.25
244.699	155.25
244.932	166.25
245.166	151.25
245.399	147.25
245.633	148.25
245.866	165.25
246.099	161.25
246.333	182.25
246.566	174.25
246.8	186.25
247.033	185.25
247.266	162.25
247.5	159.25
247.733	150.25
247.966	170.25
248.2	174.25
248.433	181.25
248.666	185.25
248.899	165.25
249.133	194.25
249.366	206.25
249.599	217.25
249.832	208.25
250.066	175.25
250.299	190.25
250.532	197.25
250.765	195.25
250.998	176.25
251.231	178.25
251.465	189.25
251.698	195.25
251.931	197.25
252.164	198.25
252.397	194.25
252.63	196.25
252.863	252.25
253.096	237.25
253.329	242.25
253.562	237.25
253.795	277.25
254.028	278.25
254.261	292.25
254.494	251.25
254.727	258.25
254.96	228.25
255.193	254.25
255.426	261.25
255.659	191.25
255.892	196.25
256.124	207.25
256.357	228.25
256.59	243.25
256.823	271.25
257.056	217.25
257.289	196.25
257.521	227.25
257.754	259.25
257.987	277.25
258.22	261.25
258.452	230.25
258.685	237.25
258.918	271.25
259.151	254.25
259.383	293.25
259.616	305.25
259.849	305.25
260.081	308.25
260.314	369.25
260.547	281.25
260.779	293.25
261.012	334.25
261.244	324.25
261.477	325.25
261.71	294.25
261.942	274.25
262.175	254.25
262.407	263.25
262.64	247.25
262.872	302.25
263.105	325.25
263.337	348.25
263.57	313.25
263.802	247.25
264.035	187.25
264.267	196.25
264.499	182.25
264.732	186.25
264.964	174.25
265.197	177.25
265.429	180.25
265.661	189.25
265.894	191.25
266.126	213.25
266.358	223.25
266.591	267.25
266.823	319.25
267.055	295.25
267.287	269.25
267.52	274.25
267.752	274.25
267.984	306.25
268.216	280.25
268.448	250.25
268.681	234.25
268.913	263.25
269.145	266.25
269.377	279.25
269.609	294.25
269.841	270.25
270.073	271.25
270.306	287.25
270.538	296.25
270.77	302.25
271.002	300.25
271.234	286.25
271.466	328.25
271.698	299.25
271.93	282.25
272.162	286.25
272.394	270.25
272.626	293.25
272.858	298.25
273.09	305.25
273.322	267.25
273.553	256.25
273.785	281.25
274.017	381.25
274.249	437.25
274.481	443.25
274.713	485.25
274.945	549.25
275.176	574.25
275.408	525.25
275.64	473.25
275.872	472.25
276.104	424.25
276.335	369.25
276.567	370.25
276.799	383.25
277.031	388.25
277.262	316.25
277.494	257.25
277.726	249.25
277.957	265.25
278.189	297.25
278.421	296.25
278.652	277.25
278.884	265.25
279.115	258.25
279.347	235.25
279.579	268.25
279.81	263.25
280.042	259.25
280.273	271.25
280.505	245.25
280.736	207.25
280.968	230.25
281.199	215.25
281.431	248.25
281.662	261.25
281.894	226.25
282.125	253.25
282.356	270.25
282.588	268.25
282.819	259.25
283.051	276.25
283.282	334.25
283.513	352.25
283.745	395.25
283.976	420.25
284.207	367.25
284.439	391.25
284.67	369.25
284.901	340.25
285.132	342.25
285.364	381.25
285.595	354.25
285.826	351.25
286.057	381.25
286.288	375.25
286.52	357.25
286.751	404.25
286.982	429.25
287.213	341.25
287.444	331.25
287.675	344.25
287.906	344.25
288.138	324.25
288.369	281.25
288.6	289.25
288.831	289.25
289.062	321.25
289.293	331.25
289.524	318.25
289.755	330.25
289.986	326.25
290.217	282.25
290.448	246.25
290.679	211.25
290.91	185.25
291.141	212.25
291.371	203.25
291.602	218.25
291.833	226.25
292.064	218.25
292.295	235.25
292.526	294.25
292.757	307.25
292.987	301.25
293.218	329.25
293.449	319.25
293.68	348.25
293.91	319.25
294.141	336.25
294.372	336.25
294.603	311.25
294.833	308.25
295.064	362.25
295.295	361.25
295.525	289.25
295.756	243.25
295.987	221.25
296.217	228.25
296.448	206.25
296.679	225.25
296.909	239.25
297.14	262.25
297.37	265.25
297.601	253.25
297.831	235.25
298.062	248.25
298.292	275.25
298.523	281.25
298.753	338.25
298.984	305.25
299.214	265.25
299.445	217.25
299.675	214.25
299.905	223.25
300.136	203.25
300.366	236.25
300.597	237.25
300.827	213.25
301.057	204.25
301.288	220.25
301.518	232.25
301.748	250.25
301.979	253.25
302.209	275.25
302.439	270.25
302.669	253.25
302.9	259.25
303.13	238.25
303.36	234.25
303.59	226.25
303.82	234.25
304.051	257.25
304.281	273.25
304.511	270.25
304.741	241.25
304.971	258.25
305.201	266.25
305.431	245.25
305.661	219.25
305.891	226.25
306.121	214.25
306.352	198.25
306.582	188.25
306.812	181.25
307.042	197.25
307.272	197.25
307.502	185.25
307.731	192.25
307.961	202.25
308.191	195.25
308.421	181.25
308.651	193.25
308.881	162.25
309.111	179.25
309.341	187.25
309.571	183.25
309.8	212.25
310.03	198.25
310.26	222.25
310.49	226.25
310.72	198.25
310.949	187.25
311.179	201.25
311.409	202.25
311.639	217.25
311.868	265.25
312.098	322.25
312.328	375.25
312.557	340.25
312.787	352.25
313.017	319.25
313.246	339.25
313.476	371.25
313.706	312.25
313.935	277.25
314.165	233.25
314.394	200.25
314.624	200.25
314.853	222.25
315.083	221.25
315.312	205.25
315.542	207.25
315.771	200.25
316.001	187.25
316.23	179.25
316.46	189.25
316.689	183.25
316.919	180.25
317.148	201.25
317.377	189.25
317.607	209.25
317.836	183.25
318.065	210.25
318.295	264.25
318.524	233.25
318.753	208.25
318.983	199.25
319.212	199.25
319.441	206.25
319.67	219.25
319.9	239.25
320.129	230.25
320.358	187.25
320.587	202.25
320.816	220.25
321.046	219.25
321.275	266.25
321.504	251.25
321.733	261.25
321.962	227.25
322.191	226.25
322.42	205.25
322.649	218.25
322.878	235.25
323.108	257.25
323.337	229.25
323.566	230.25
323.795	230.25
324.024	221.25
324.253	209.25
324.482	199.25
324.71	216.25
324.939	241.25
325.168	228.25
325.397	192.25
325.626	201.25
325.855	218.25
326.084	202.25
326.313	177.25
326.542	189.25
326.77	198.25
326.999	183.25
327.228	199.25
327.457	209.25
327.686	213.25
327.914	194.25
328.143	169.25
328.372	177.25
328.6	177.25
328.829	181.25
329.058	183.25
329.287	187.25
329.515	186.25
329.744	203.25
329.972	188.25
330.201	162.25
330.43	166.25
330.658	195.25
330.887	201.25
331.115	199.25
331.344	212.25
331.572	193.25
331.801	198.25
332.03	164.25
332.258	175.25
332.486	199.25
332.715	209.25
332.943	194.25
333.172	189.25
333.4	214.25
333.629	227.25
333.857	230.25
334.085	235.25
334.314	218.25
334.542	223.25
334.771	191.25
334.999	199.25
335.227	191.25
335.455	205.25
335.684	211.25
335.912	253.25
336.14	262.25
336.369	252.25
336.597	228.25
336.825	274.25
337.053	311.25
337.281	256.25
337.51	211.25
337.738	219.25
337.966	198.25
338.194	233.25
338.422	227.25
338.65	206.25
338.878	194.25
339.106	189.25
339.334	213.25
339.562	203.25
339.79	190.25
340.018	190.25
340.246	199.25
340.474	228.25
340.702	250.25
340.93	247.25
341.158	258.25
341.386	227.25
341.614	216.25
341.842	212.25
342.07	227.25
342.298	252.25
342.526	257.25
342.754	253.25
342.981	222.25
343.209	210.25
343.437	229.25
343.665	241.25
343.893	251.25
344.12	262.25
344.348	315.25
344.576	291.25
344.804	225.25
345.031	201.25
345.259	210.25
345.487	222.25
345.714	213.25
345.942	220.25
346.17	231.25
346.397	217.25
346.625	190.25
346.853	204.25
347.08	201.25
347.308	200.25
347.535	229.25
347.763	231.25
347.99	204.25
348.218	181.25
348.445	175.25
348.673	213.25
348.9	197.25
349.128	209.25
349.355	202.25
349.583	218.25
349.81	210.25
350.037	204.25
350.265	169.25
350.492	163.25
350.72	175.25
350.947	165.25
351.174	176.25
351.402	193.25
351.629	195.25
351.856	195.25
352.083	174.25
352.311	219.25
352.538	226.25
352.765	230.25
352.992	214.25
353.22	185.25
353.447	213.25
353.674	198.25
353.901	199.25
354.128	186.25
354.355	207.25
354.583	193.25
354.81	216.25
355.037	221.25
355.264	223.25
355.491	221.25
355.718	232.25
355.945	237.25
356.172	213.25
356.399	204.25
356.626	243.25
356.853	309.25
357.08	332.25
357.307	329.25
357.534	250.25
357.761	264.25
357.988	318.25
358.215	357.25
358.441	324.25
358.668	301.25
358.895	289.25
359.122	235.25
359.349	230.25
359.576	262.25
359.802	216.25
360.029	199.25
360.256	195.25
360.483	236.25
360.709	300.25
360.936	303.25
361.163	290.25
361.39	235.25
361.616	206.25
361.843	225.25
362.07	279.25
362.296	274.25
362.523	201.25
362.749	193.25
362.976	188.25
363.203	218.25
363.429	249.25
363.656	209.25
363.882	192.25
364.109	213.25
364.335	199.25
364.562	196.25
364.788	200.25
365.015	243.25
365.241	223.25
365.468	189.25
365.694	182.25
365.92	178.25
366.147	161.25
366.373	177.25
366.599	169.25
366.826	164.25
367.052	166.25
367.278	178.25
367.505	169.25
367.731	172.25
367.957	211.25
368.184	202.25
368.41	207.25
368.636	214.25
368.862	215.25
369.089	191.25
369.315	185.25
369.541	179.25
369.767	181.25
369.993	183.25
370.219	178.25
370.445	185.25
370.672	190.25
370.898	220.25
371.124	209.25
371.35	191.25
371.576	170.25
371.802	206.25
372.028	214.25
372.254	246.25
372.48	218.25
372.706	189.25
372.932	205.25
373.158	218.25
373.384	245.25
373.61	295.25
373.835	306.25
374.061	249.25
374.287	215.25
374.513	267.25
374.739	302.25
374.965	281.25
375.191	289.25
375.416	229.25
375.642	197.25
375.868	228.25
376.094	254.25
376.319	214.25
376.545	225.25
376.771	245.25
376.997	230.25
377.222	191.25
377.448	170.25
377.674	173.25
377.899	162.25
378.125	173.25
378.35	177.25
378.576	169.25
378.802	184.25
379.027	191.25
379.253	181.25
379.478	191.25
379.704	211.25
379.929	238.25
380.155	223.25
380.38	206.25
380.606	197.25
380.831	222.25
381.057	215.25
381.282	196.25
381.507	223.25
381.733	252.25
381.958	291.25
382.184	275.25
382.409	286.25
382.634	292.25
382.86	302.25
383.085	285.25
383.31	241.25
383.535	236.25
383.761	253.25
383.986	221.25
384.211	269.25
384.436	271.25
384.662	216.25
384.887	208.25
385.112	211.25
385.337	228.25
385.562	214.25
385.787	209.25
386.013	234.25
386.238	242.25
386.463	214.25
386.688	220.25
386.913	189.25
387.138	198.25
387.363	203.25
387.588	201.25
387.813	198.25
388.038	219.25
388.263	226.25
388.488	200.25
388.713	232.25
388.938	248.25
389.163	200.25
389.387	181.25
389.612	214.25
389.837	205.25
390.062	211.25
390.287	198.25
390.512	205.25
390.736	203.25
390.961	189.25
391.186	202.25
391.411	176.25
391.636	197.25
391.86	201.25
392.085	201.25
392.31	215.25
392.534	213.25
392.759	201.25
392.984	198.25
393.208	207.25
393.433	196.25
393.658	193.25
393.882	165.25
394.107	170.25
394.331	173.25
394.556	193.25
394.78	183.25
395.005	178.25
395.229	205.25
395.454	177.25
395.678	194.25
395.903	204.25
396.127	186.25
396.352	189.25
396.576	200.25
396.801	186.25
397.025	227.25
397.249	221.25
397.474	200.25
397.698	183.25
397.922	216.25
398.147	185.25
398.371	172.25
398.595	196.25
398.82	200.25
399.044	203.25
399.268	212.25
399.492	220.25
399.717	235.25
399.941	236.25
400.165	215.25
400.389	219.25
400.613	218.25
400.837	224.25
401.062	196.25
401.286	192.25
401.51	175.25
401.734	204.25
401.958	211.25
402.182	193.25
402.406	205.25
402.63	198.25
402.854	206.25
403.078	233.25
403.302	253.25
403.526	300.25
403.75	280.25
403.974	223.25
404.198	230.25
404.422	243.25
404.645	261.25
404.869	286.25
405.093	247.25
405.317	209.25
405.541	207.25
405.765	232.25
405.988	198.25
406.212	230.25
406.436	247.25
406.66	283.25
406.883	226.25
407.107	232.25
407.331	267.25
407.555	258.25
407.778	246.25
408.002	228.25
408.226	238.25
408.449	213.25
408.673	225.25
408.896	204.25
409.12	197.25
409.344	190.25
409.567	198.25
409.791	196.25
410.014	200.25
410.238	186.25
410.461	186.25
410.685	205.25
410.908	206.25
411.132	196.25
411.355	187.25
411.578	205.25
411.802	209.25
412.025	203.25
412.249	214.25
412.472	203.25
412.695	203.25
412.919	221.25
413.142	198.25
413.365	223.25
413.589	220.25
413.812	205.25
414.035	190.25
414.258	190.25
414.482	205.25
414.705	215.25
414.928	185.25
415.151	197.25
415.374	187.25
415.597	201.25
415.821	193.25
416.044	199.25
416.267	179.25
416.49	212.25
416.713	197.25
416.936	170.25
417.159	180.25
417.382	197.25
417.605	188.25
417.828	187.25
418.051	201.25
418.274	225.25
418.497	198.25
418.72	210.25
418.943	174.25
419.166	234.25
419.389	222.25
419.611	221.25
419.834	200.25
420.057	227.25
420.28	223.25
420.503	215.25
420.726	189.25
420.948	176.25
421.171	196.25
421.394	175.25
421.617	189.25
421.839	189.25
422.062	189.25
422.285	196.25
422.507	194.25
422.73	204.25
422.953	204.25
423.175	205.25
423.398	180.25
423.621	212.25
423.843	230.25
424.066	196.25
424.288	180.25
424.511	199.25
424.733	190.25
424.956	194.25
425.178	221.25
425.401	261.25
425.623	267.25
425.846	247.25
426.068	214.25
426.291	226.25
426.513	198.25
426.735	195.25
426.958	200.25
427.18	235.25
427.402	301.25
427.625	294.25
427.847	241.25
428.069	206.25
428.292	189.25
428.514	194.25
428.736	184.25
428.958	226.25
429.181	244.25
429.403	217.25
429.625	183.25
429.847	182.25
430.069	194.25
430.292	190.25
430.514	174.25
430.736	199.25
430.958	237.25
431.18	218.25
431.402	181.25
431.624	183.25
431.846	181.25
432.068	169.25
432.29	183.25
432.512	186.25
432.734	227.25
432.956	236.25
433.178	186.25
433.4	187.25
433.622	200.25
433.844	204.25
434.066	212.25
434.287	194.25
434.509	193.25
434.731	210.25
434.953	184.25
435.175	208.25
435.397	226.25
435.618	180.25
435.84	169.25
436.062	182.25
436.284	185.25
436.505	198.25
436.727	163.25
436.949	170.25
437.17	184.25
437.392	183.25
437.614	187.25
437.835	189.25
438.057	189.25
438.278	196.25
438.5	254.25
438.721	250.25
438.943	197.25
439.165	162.25
439.386	174.25
439.608	181.25
439.829	177.25
440.05	170.25
440.272	179.25
440.493	177.25
440.715	236.25
440.936	217.25
441.158	188.25
441.379	196.25
441.6	200.25
441.822	225.25
442.043	202.25
442.264	183.25
442.486	203.25
442.707	187.25
442.928	189.25
443.149	189.25
443.371	193.25
443.592	203.25
443.813	203.25
444.034	183.25
444.255	179.25
444.476	189.25
444.698	203.25
444.919	189.25
445.14	322.25
445.361	266.25
445.582	222.25
445.803	215.25
446.024	207.25
446.245	202.25
446.466	209.25
446.687	190.25
446.908	187.25
447.129	184.25
447.35	187.25
447.571	168.25
447.792	186.25
448.013	178.25
448.234	184.25
448.455	166.25
448.675	181.25
448.896	183.25
449.117	189.25
449.338	173.25
449.559	179.25
449.779	217.25
450	188.25
450.221	189.25
450.442	175.25
450.662	160.25
450.883	173.25
451.104	182.25
451.324	189.25
451.545	180.25
451.766	184.25
451.986	167.25
452.207	179.25
452.428	168.25
452.648	173.25
452.869	182.25
453.089	172.25
453.31	202.25
453.53	165.25
453.751	189.25
453.971	166.25
454.192	168.25
454.412	178.25
454.633	169.25
454.853	185.25
455.073	166.25
455.294	165.25
455.514	159.25
455.734	191.25
455.955	197.25
456.175	188.25
456.395	159.25
456.616	181.25
456.836	159.25
457.056	163.25
457.276	156.25
457.497	157.25
457.717	164.25
457.937	163.25
458.157	163.25
458.377	164.25
458.598	173.25
458.818	187.25
459.038	171.25
459.258	180.25
459.478	191.25
459.698	212.25
459.918	203.25
460.138	194.25
460.358	212.25
460.578	206.25
460.798	184.25
461.018	203.25
461.238	195.25
461.458	183.25
461.678	190.25
461.898	212.25
462.118	199.25
462.338	193.25
462.558	203.25
462.777	214.25
462.997	215.25
463.217	221.25
463.437	210.25
463.657	222.25
463.876	198.25
464.096	202.25
464.316	213.25
464.536	207.25
464.755	234.25
464.975	236.25
465.195	214.25
465.414	226.25
465.634	202.25
465.854	194.25
466.073	195.25
466.293	195.25
466.512	214.25
466.732	200.25
466.951	223.25
467.171	190.25
467.391	175.25
467.61	175.25
467.829	197.25
468.049	207.25
468.268	189.25
468.488	196.25
468.707	202.25
468.927	205.25
469.146	234.25
469.365	221.25
469.585	203.25
469.804	214.25
470.023	228.25
470.243	197.25
470.462	186.25
470.681	200.25
470.901	207.25
471.12	207.25
471.339	202.25
471.558	200.25
471.777	188.25
471.997	204.25
472.216	226.25
472.435	210.25
472.654	206.25
472.873	196.25
473.092	213.25
473.311	213.25
473.53	206.25
473.749	199.25
473.968	196.25
474.187	207.25
474.406	210.25
474.625	183.25
474.844	190.25
475.063	212.25
475.282	211.25
475.501	231.25
475.72	257.25
475.939	223.25
476.158	238.25
476.377	263.25
476.596	289.25
476.814	290.25
477.033	243.25
477.252	210.25
477.471	190.25
477.69	203.25
477.908	198.25
478.127	232.25
478.346	225.25
478.564	241.25
478.783	247.25
479.002	216.25
479.22	246.25
479.439	266.25
479.658	233.25
479.876	224.25
480.095	237.25
480.313	260.25
480.532	241.25
480.751	216.25
480.969	213.25
481.188	233.25
481.406	251.25
481.624	233.25
481.843	209.25
482.061	202.25
482.28	226.25
482.498	290.25
482.717	286.25
482.935	238.25
483.153	223.25
483.372	217.25
483.59	214.25
483.808	209.25
484.027	214.25
484.245	205.25
484.463	198.25
484.681	209.25
484.9	222.25
485.118	239.25
485.336	201.25
485.554	196.25
485.772	220.25
485.99	235.25
486.209	256.25
486.427	236.25
486.645	248.25
486.863	259.25
487.081	234.25
487.299	277.25
487.517	247.25
487.735	218.25
487.953	249.25
488.171	257.25
488.389	229.25
488.607	213.25
488.825	223.25
489.043	256.25
489.261	283.25
489.479	282.25
489.696	235.25
489.914	237.25
490.132	226.25
490.35	220.25
490.568	205.25
490.786	221.25
491.003	213.25
491.221	208.25
491.439	206.25
491.657	217.25
491.874	208.25
492.092	294.25
492.31	349.25
492.527	309.25
492.745	282.25
492.963	252.25
493.18	247.25
493.398	237.25
493.615	257.25
493.833	229.25
494.05	253.25
494.268	235.25
494.485	231.25
494.703	228.25
494.92	235.25
495.138	222.25
495.355	232.25
495.573	232.25
495.79	256.25
496.008	375.25
496.225	299.25
496.442	251.25
496.66	243.25
496.877	258.25
497.094	261.25
497.312	244.25
497.529	256.25
497.746	257.25
497.963	250.25
498.181	259.25
498.398	279.25
498.615	303.25
498.832	330.25
499.049	335.25
499.267	293.25
499.484	320.25
499.701	324.25
499.918	328.25
500.135	370.25
500.352	397.25
500.569	408.25
500.786	415.25
501.003	401.25
501.22	349.25
501.437	325.25
501.654	300.25
501.871	305.25
502.088	292.25
502.305	269.25
502.522	305.25
502.739	279.25
