Data from NickelSpatula.Lamp.E10.P2_HRD10591_11-57-31-531.txt Node
Date: Tue Jul 23 11:57:31 EDT 2019
User: cochatt
Spectrometer: HR+D1059
Trigger mode: 1
Integration Time (sec): 1.000000E-1
Scans to average: 1
Electric dark correction enabled: true
Nonlinearity correction enabled: false
Boxcar width: 0
XAxis mode: Wavelengths
Number of Pixels in Spectrum: 2048
>>>>>Begin Spectral Data<<<<<
223.165	-12.69
223.4	-12.69
223.635	-12.69
223.869	-14.69
224.104	-14.69
224.338	-14.69
224.573	-20.69
224.808	-8.69
225.042	-5.69
225.277	1.31
225.511	-8.69
225.746	-1.69
225.98	14.31
226.215	15.31
226.449	15.31
226.683	4.31
226.918	19.31
227.152	32.31
227.387	49.31
227.621	34.31
227.856	44.31
228.09	43.31
228.324	50.31
228.559	68.31
228.793	86.31
229.027	147.31
229.262	154.31
229.496	167.31
229.73	167.31
229.964	187.31
230.199	209.31
230.433	201.31
230.667	202.31
230.901	204.31
231.136	211.31
231.37	218.31
231.604	238.31
231.838	232.31
232.072	256.31
232.306	235.31
232.541	227.31
232.775	229.31
233.009	272.31
233.243	302.31
233.477	315.31
233.711	341.31
233.945	352.31
234.179	325.31
234.413	350.31
234.647	386.31
234.881	452.31
235.115	419.31
235.349	398.31
235.583	353.31
235.817	350.31
236.051	378.31
236.285	412.31
236.519	482.31
236.753	447.31
236.987	417.31
237.221	407.31
237.455	418.31
237.689	442.31
237.922	458.31
238.156	486.31
238.39	568.31
238.624	678.31
238.858	603.31
239.091	476.31
239.325	514.31
239.559	484.31
239.793	545.31
240.027	637.31
240.26	596.31
240.494	560.31
240.728	597.31
240.961	657.31
241.195	640.31
241.429	632.31
241.662	630.31
241.896	528.31
242.13	467.31
242.363	443.31
242.597	476.31
242.83	562.31
243.064	529.31
243.298	597.31
243.531	611.31
243.765	625.31
243.998	617.31
244.232	579.31
244.465	613.31
244.699	586.31
244.932	668.31
245.166	620.31
245.399	534.31
245.633	546.31
245.866	575.31
246.099	617.31
246.333	720.31
246.566	748.31
246.8	746.31
247.033	761.31
247.266	686.31
247.5	680.31
247.733	668.31
247.966	681.31
248.2	676.31
248.433	777.31
248.666	828.31
248.899	840.31
249.133	882.31
249.366	980.31
249.599	1044.31
249.832	952.31
250.066	807.31
250.299	819.31
250.532	835.31
250.765	806.31
250.998	717.31
251.231	726.31
251.465	764.31
251.698	803.31
251.931	802.31
252.164	840.31
252.397	933.31
252.63	1034.31
252.863	1128.31
253.096	1169.31
253.329	1097.31
253.562	1093.31
253.795	1204.31
254.028	1332.31
254.261	1382.31
254.494	1268.31
254.727	1110.31
254.96	1099.31
255.193	1160.31
255.426	1091.31
255.659	834.31
255.892	791.31
256.124	856.31
256.357	1044.31
256.59	1156.31
256.823	1122.31
257.056	986.31
257.289	922.31
257.521	951.31
257.754	1146.31
257.987	1268.31
258.22	1116.31
258.452	1036.31
258.685	1124.31
258.918	1290.31
259.151	1233.31
259.383	1275.31
259.616	1444.31
259.849	1569.31
260.081	1743.31
260.314	1861.31
260.547	1470.31
260.779	1498.31
261.012	1708.31
261.244	1612.31
261.477	1625.31
261.71	1537.31
261.942	1313.31
262.175	1296.31
262.407	1226.31
262.64	1294.31
262.872	1496.31
263.105	1654.31
263.337	1732.31
263.57	1544.31
263.802	1060.31
264.035	903.31
264.267	880.31
264.499	742.31
264.732	725.31
264.964	708.31
265.197	718.31
265.429	793.31
265.661	821.31
265.894	847.31
266.126	922.31
266.358	1044.31
266.591	1247.31
266.823	1476.31
267.055	1401.31
267.287	1229.31
267.52	1284.31
267.752	1354.31
267.984	1441.31
268.216	1358.31
268.448	1142.31
268.681	1096.31
268.913	1242.31
269.145	1257.31
269.377	1298.31
269.609	1291.31
269.841	1181.31
270.073	1286.31
270.306	1351.31
270.538	1359.31
270.77	1409.31
271.002	1367.31
271.234	1464.31
271.466	1486.31
271.698	1411.31
271.93	1401.31
272.162	1430.31
272.394	1397.31
272.626	1368.31
272.858	1416.31
273.09	1460.31
273.322	1289.31
273.553	1227.31
273.785	1486.31
274.017	1924.31
274.249	2399.31
274.481	2547.31
274.713	2676.31
274.945	3103.31
275.176	3256.31
275.408	2860.31
275.64	2611.31
275.872	2595.31
276.104	2233.31
276.335	1922.31
276.567	1869.31
276.799	1986.31
277.031	2067.31
277.262	1562.31
277.494	1233.31
277.726	1164.31
277.957	1306.31
278.189	1459.31
278.421	1440.31
278.652	1433.31
278.884	1368.31
279.115	1278.31
279.347	1208.31
279.579	1192.31
279.81	1182.31
280.042	1216.31
280.273	1255.31
280.505	1158.31
280.736	1018.31
280.968	991.31
281.199	1090.31
281.431	1245.31
281.662	1250.31
281.894	1199.31
282.125	1278.31
282.356	1358.31
282.588	1351.31
282.819	1235.31
283.051	1351.31
283.282	1689.31
283.513	1966.31
283.745	2155.31
283.976	2128.31
284.207	1995.31
284.439	2070.31
284.67	1976.31
284.901	1771.31
285.132	1899.31
285.364	1970.31
285.595	1851.31
285.826	1967.31
286.057	2046.31
286.288	1942.31
286.52	2006.31
286.751	2097.31
286.982	2113.31
287.213	1814.31
287.444	1732.31
287.675	1825.31
287.906	1858.31
288.138	1540.31
288.369	1379.31
288.6	1266.31
288.831	1344.31
289.062	1569.31
289.293	1753.31
289.524	1602.31
289.755	1584.31
289.986	1628.31
290.217	1416.31
290.448	1112.31
290.679	964.31
290.91	904.31
291.141	923.31
291.371	974.31
291.602	966.31
291.833	977.31
292.064	1055.31
292.295	1209.31
292.526	1404.31
292.757	1411.31
292.987	1545.31
293.218	1587.31
293.449	1615.31
293.68	1690.31
293.91	1600.31
294.141	1608.31
294.372	1530.31
294.603	1399.31
294.833	1557.31
295.064	1857.31
295.295	1710.31
295.525	1312.31
295.756	1127.31
295.987	995.31
296.217	985.31
296.448	1035.31
296.679	1059.31
296.909	1222.31
297.14	1304.31
297.37	1424.31
297.601	1309.31
297.831	1147.31
298.062	1232.31
298.292	1404.31
298.523	1544.31
298.753	1725.31
298.984	1590.31
299.214	1232.31
299.445	1054.31
299.675	1018.31
299.905	1005.31
300.136	1067.31
300.366	1137.31
300.597	1134.31
300.827	985.31
301.057	979.31
301.288	1001.31
301.518	1071.31
301.748	1175.31
301.979	1254.31
302.209	1396.31
302.439	1380.31
302.669	1200.31
302.9	1180.31
303.13	1124.31
303.36	1063.31
303.59	1024.31
303.82	1083.31
304.051	1191.31
304.281	1272.31
304.511	1262.31
304.741	1127.31
304.971	1172.31
305.201	1280.31
305.431	1186.31
305.661	1054.31
305.891	1025.31
306.121	1035.31
306.352	937.31
306.582	866.31
306.812	854.31
307.042	848.31
307.272	793.31
307.502	788.31
307.731	876.31
307.961	906.31
308.191	854.31
308.421	794.31
308.651	794.31
308.881	755.31
309.111	744.31
309.341	794.31
309.571	873.31
309.8	919.31
310.03	912.31
310.26	983.31
310.49	962.31
310.72	837.31
310.949	856.31
311.179	891.31
311.409	920.31
311.639	1067.31
311.868	1396.31
312.098	1812.31
312.328	1895.31
312.557	1862.31
312.787	1845.31
313.017	1618.31
313.246	1810.31
313.476	1970.31
313.706	1582.31
313.935	1249.31
314.165	1046.31
314.394	928.31
314.624	950.31
314.853	1003.31
315.083	1045.31
315.312	1006.31
315.542	1008.31
315.771	959.31
316.001	864.31
316.23	818.31
316.46	843.31
316.689	855.31
316.919	854.31
317.148	888.31
317.377	852.31
317.607	862.31
317.836	953.31
318.065	1096.31
318.295	1209.31
318.524	1140.31
318.753	964.31
318.983	932.31
319.212	952.31
319.441	1006.31
319.67	1123.31
319.9	1163.31
320.129	1075.31
320.358	943.31
320.587	894.31
320.816	983.31
321.046	1143.31
321.275	1282.31
321.504	1257.31
321.733	1252.31
321.962	1181.31
322.191	1088.31
322.42	1083.31
322.649	1064.31
322.878	1184.31
323.108	1151.31
323.337	1094.31
323.566	1074.31
323.795	1043.31
324.024	993.31
324.253	972.31
324.482	967.31
324.71	1015.31
324.939	1163.31
325.168	1083.31
325.397	912.31
325.626	892.31
325.855	903.31
326.084	893.31
326.313	852.31
326.542	806.31
326.77	865.31
326.999	872.31
327.228	935.31
327.457	958.31
327.686	936.31
327.914	846.31
328.143	808.31
328.372	820.31
328.6	806.31
328.829	871.31
329.058	898.31
329.287	896.31
329.515	898.31
329.744	871.31
329.972	816.31
330.201	777.31
330.43	823.31
330.658	911.31
330.887	1007.31
331.115	1031.31
331.344	979.31
331.572	949.31
331.801	894.31
332.03	847.31
332.258	852.31
332.486	907.31
332.715	967.31
332.943	911.31
333.172	887.31
333.4	925.31
333.629	1028.31
333.857	1114.31
334.085	1093.31
334.314	1063.31
334.542	1041.31
334.771	953.31
334.999	915.31
335.227	920.31
335.455	916.31
335.684	1008.31
335.912	1191.31
336.14	1302.31
336.369	1262.31
336.597	1185.31
336.825	1364.31
337.053	1499.31
337.281	1207.31
337.51	982.31
337.738	972.31
337.966	1051.31
338.194	1129.31
338.422	1096.31
338.65	930.31
338.878	866.31
339.106	893.31
339.334	990.31
339.562	1054.31
339.79	964.31
340.018	941.31
340.246	1024.31
340.474	1162.31
340.702	1269.31
340.93	1255.31
341.158	1305.31
341.386	1082.31
341.614	1085.31
341.842	1066.31
342.07	1118.31
342.298	1300.31
342.526	1359.31
342.754	1183.31
342.981	1075.31
343.209	1032.31
343.437	1087.31
343.665	1118.31
343.893	1173.31
344.12	1334.31
344.348	1554.31
344.576	1402.31
344.804	1142.31
345.031	989.31
345.259	954.31
345.487	967.31
345.714	982.31
345.942	1074.31
346.17	1154.31
346.397	1107.31
346.625	978.31
346.853	951.31
347.08	933.31
347.308	999.31
347.535	1096.31
347.763	1099.31
347.99	965.31
348.218	907.31
348.445	946.31
348.673	938.31
348.9	968.31
349.128	1046.31
349.355	1048.31
349.583	1046.31
349.81	980.31
350.037	900.31
350.265	836.31
350.492	777.31
350.72	814.31
350.947	790.31
351.174	865.31
351.402	906.31
351.629	933.31
351.856	903.31
352.083	866.31
352.311	923.31
352.538	1030.31
352.765	1104.31
352.992	1017.31
353.22	929.31
353.447	994.31
353.674	933.31
353.901	926.31
354.128	927.31
354.355	978.31
354.583	958.31
354.81	953.31
355.037	981.31
355.264	980.31
355.491	1030.31
355.718	1106.31
355.945	1107.31
356.172	1083.31
356.399	1064.31
356.626	1275.31
356.853	1569.31
357.08	1630.31
357.307	1657.31
357.534	1295.31
357.761	1331.31
357.988	1666.31
358.215	1946.31
358.441	1835.31
358.668	1546.31
358.895	1414.31
359.122	1208.31
359.349	1146.31
359.576	1241.31
359.802	1041.31
360.029	899.31
360.256	989.31
360.483	1222.31
360.709	1518.31
360.936	1563.31
361.163	1380.31
361.39	1081.31
361.616	1033.31
361.843	1137.31
362.07	1420.31
362.296	1280.31
362.523	1035.31
362.749	904.31
362.976	962.31
363.203	1168.31
363.429	1289.31
363.656	1044.31
363.882	944.31
364.109	963.31
364.335	946.31
364.562	933.31
364.788	1054.31
365.015	1229.31
365.241	1090.31
365.468	953.31
365.694	843.31
365.92	804.31
366.147	775.31
366.373	738.31
366.599	780.31
366.826	806.31
367.052	788.31
367.278	800.31
367.505	802.31
367.731	865.31
367.957	996.31
368.184	969.31
368.41	978.31
368.636	978.31
368.862	1032.31
369.089	984.31
369.315	882.31
369.541	850.31
369.767	851.31
369.993	848.31
370.219	831.31
370.445	874.31
370.672	963.31
370.898	1032.31
371.124	1043.31
371.35	914.31
371.576	904.31
371.802	944.31
372.028	1116.31
372.254	1251.31
372.48	1077.31
372.706	978.31
372.932	1044.31
373.158	1091.31
373.384	1278.31
373.61	1689.31
373.835	1749.31
374.061	1301.31
374.287	1079.31
374.513	1303.31
374.739	1542.31
374.965	1584.31
375.191	1567.31
375.416	1130.31
375.642	987.31
375.868	1143.31
376.094	1310.31
376.319	1112.31
376.545	1230.31
376.771	1294.31
376.997	1141.31
377.222	849.31
377.448	746.31
377.674	736.31
377.899	717.31
378.125	736.31
378.35	764.31
378.576	754.31
378.802	839.31
379.027	895.31
379.253	867.31
379.478	888.31
379.704	979.31
379.929	1044.31
380.155	1032.31
380.38	907.31
380.606	961.31
380.831	1057.31
381.057	984.31
381.282	939.31
381.507	1148.31
381.733	1373.31
381.958	1444.31
382.184	1544.31
382.409	1591.31
382.634	1578.31
382.86	1650.31
383.085	1378.31
383.31	1114.31
383.535	1171.31
383.761	1150.31
383.986	1087.31
384.211	1352.31
384.436	1317.31
384.662	991.31
384.887	963.31
385.112	1020.31
385.337	1007.31
385.562	974.31
385.787	1050.31
386.013	1182.31
386.238	1176.31
386.463	984.31
386.688	955.31
386.913	921.31
387.138	910.31
387.363	970.31
387.588	948.31
387.813	951.31
388.038	1057.31
388.263	946.31
388.488	938.31
388.713	1080.31
388.938	1178.31
389.163	1005.31
389.387	894.31
389.612	875.31
389.837	887.31
390.062	934.31
390.287	955.31
390.512	963.31
390.736	916.31
390.961	875.31
391.186	862.31
391.411	842.31
391.636	826.31
391.86	893.31
392.085	974.31
392.31	964.31
392.534	926.31
392.759	903.31
392.984	964.31
393.208	940.31
393.433	845.31
393.658	812.31
393.882	780.31
394.107	790.31
394.331	788.31
394.556	776.31
394.78	781.31
395.005	826.31
395.229	847.31
395.454	859.31
395.678	865.31
395.903	884.31
396.127	841.31
396.352	867.31
396.576	954.31
396.801	982.31
397.025	1043.31
397.249	1120.31
397.474	917.31
397.698	890.31
397.922	951.31
398.147	905.31
398.371	894.31
398.595	950.31
398.82	933.31
399.044	929.31
399.268	1029.31
399.492	1034.31
399.717	1045.31
399.941	1086.31
400.165	1040.31
400.389	1008.31
400.613	996.31
400.837	1036.31
401.062	919.31
401.286	864.31
401.51	894.31
401.734	866.31
401.958	913.31
402.182	888.31
402.406	892.31
402.63	913.31
402.854	928.31
403.078	1051.31
403.302	1272.31
403.526	1301.31
403.75	1137.31
403.974	1038.31
404.198	1097.31
404.422	1202.31
404.645	1409.31
404.869	1538.31
405.093	1157.31
405.317	996.31
405.541	972.31
405.765	1039.31
405.988	1010.31
406.212	1063.31
406.436	1228.31
406.66	1362.31
406.883	1115.31
407.107	1144.31
407.331	1330.31
407.555	1305.31
407.778	1057.31
408.002	1008.31
408.226	1030.31
408.449	1050.31
408.673	1022.31
408.896	917.31
409.12	909.31
409.344	872.31
409.567	860.31
409.791	879.31
410.014	882.31
410.238	876.31
410.461	905.31
410.685	894.31
410.908	891.31
411.132	913.31
411.355	923.31
411.578	910.31
411.802	937.31
412.025	966.31
412.249	967.31
412.472	922.31
412.695	956.31
412.919	929.31
413.142	960.31
413.365	1002.31
413.589	1039.31
413.812	917.31
414.035	914.31
414.258	919.31
414.482	1006.31
414.705	1045.31
414.928	878.31
415.151	878.31
415.374	869.31
415.597	914.31
415.821	914.31
416.044	908.31
416.267	885.31
416.49	838.31
416.713	836.31
416.936	847.31
417.159	855.31
417.382	868.31
417.605	866.31
417.828	894.31
418.051	882.31
418.274	918.31
418.497	928.31
418.72	898.31
418.943	953.31
419.166	982.31
419.389	1015.31
419.611	1008.31
419.834	1020.31
420.057	1116.31
420.28	1116.31
420.503	999.31
420.726	909.31
420.948	839.31
421.171	856.31
421.394	847.31
421.617	837.31
421.839	867.31
422.062	890.31
422.285	924.31
422.507	939.31
422.73	928.31
422.953	948.31
423.175	936.31
423.398	945.31
423.621	988.31
423.843	1011.31
424.066	946.31
424.288	916.31
424.511	914.31
424.733	907.31
424.956	966.31
425.178	1058.31
425.401	1161.31
425.623	1330.31
425.846	1134.31
426.068	967.31
426.291	1087.31
426.513	980.31
426.735	950.31
426.958	972.31
427.18	1126.31
427.402	1454.31
427.625	1416.31
427.847	1163.31
428.069	905.31
428.292	909.31
428.514	886.31
428.736	850.31
428.958	916.31
429.181	1086.31
429.403	966.31
429.625	875.31
429.847	867.31
430.069	867.31
430.292	891.31
430.514	868.31
430.736	958.31
430.958	1160.31
431.18	1049.31
431.402	828.31
431.624	800.31
431.846	805.31
432.068	790.31
432.29	826.31
432.512	884.31
432.734	1147.31
432.956	1094.31
433.178	840.31
433.4	860.31
433.622	829.31
433.844	858.31
434.066	932.31
434.287	909.31
434.509	894.31
434.731	897.31
434.953	865.31
435.175	899.31
435.397	1014.31
435.618	910.31
435.84	818.31
436.062	818.31
436.284	825.31
436.505	784.31
436.727	775.31
436.949	816.31
437.17	835.31
437.392	839.31
437.614	844.31
437.835	800.31
438.057	836.31
438.278	951.31
438.5	1319.31
438.721	1324.31
438.943	935.31
439.165	804.31
439.386	797.31
439.608	772.31
439.829	763.31
440.05	768.31
440.272	835.31
440.493	988.31
440.715	1170.31
440.936	996.31
441.158	836.31
441.379	818.31
441.6	956.31
441.822	981.31
442.043	877.31
442.264	890.31
442.486	892.31
442.707	844.31
442.928	869.31
443.149	888.31
443.371	887.31
443.592	922.31
443.813	905.31
444.034	894.31
444.255	909.31
444.476	926.31
444.698	956.31
444.919	968.31
445.14	1030.31
445.361	1014.31
445.582	955.31
445.803	934.31
446.024	963.31
446.245	942.31
446.466	889.31
446.687	877.31
446.908	888.31
447.129	835.31
447.35	784.31
447.571	817.31
447.792	802.31
448.013	777.31
448.234	792.31
448.455	791.31
448.675	780.31
448.896	812.31
449.117	814.31
449.338	818.31
449.559	817.31
449.779	874.31
450	865.31
450.221	807.31
450.442	818.31
450.662	778.31
450.883	788.31
451.104	806.31
451.324	786.31
451.545	818.31
451.766	784.31
451.986	790.31
452.207	786.31
452.428	780.31
452.648	779.31
452.869	834.31
453.089	817.31
453.31	811.31
453.53	729.31
453.751	729.31
453.971	710.31
454.192	752.31
454.412	789.31
454.633	747.31
454.853	751.31
455.073	716.31
455.294	703.31
455.514	747.31
455.734	757.31
455.955	777.31
456.175	818.31
456.395	748.31
456.616	710.31
456.836	703.31
457.056	712.31
457.276	715.31
457.497	722.31
457.717	720.31
457.937	698.31
458.157	712.31
458.377	727.31
458.598	727.31
458.818	747.31
459.038	821.31
459.258	816.31
459.478	831.31
459.698	915.31
459.918	912.31
460.138	859.31
460.358	889.31
460.578	890.31
460.798	866.31
461.018	896.31
461.238	844.31
461.458	864.31
461.678	881.31
461.898	937.31
462.118	886.31
462.338	966.31
462.558	950.31
462.777	970.31
462.997	1035.31
463.217	1003.31
463.437	1042.31
463.657	1000.31
463.876	939.31
464.096	970.31
464.316	961.31
464.536	985.31
464.755	1034.31
464.975	1012.31
465.195	951.31
465.414	994.31
465.634	964.31
465.854	949.31
466.073	883.31
466.293	886.31
466.512	952.31
466.732	1008.31
466.951	1010.31
467.171	908.31
467.391	867.31
467.61	865.31
467.829	927.31
468.049	910.31
468.268	852.31
468.488	855.31
468.707	879.31
468.927	1082.31
469.146	1138.31
469.365	1032.31
469.585	966.31
469.804	1015.31
470.023	1089.31
470.243	961.31
470.462	895.31
470.681	896.31
470.901	937.31
471.12	994.31
471.339	958.31
471.558	931.31
471.777	937.31
471.997	1028.31
472.216	1113.31
472.435	1054.31
472.654	978.31
472.873	948.31
473.092	1007.31
473.311	1033.31
473.53	939.31
473.749	909.31
473.968	985.31
474.187	975.31
474.406	926.31
474.625	902.31
474.844	944.31
475.063	1050.31
475.282	1021.31
475.501	1059.31
475.72	1121.31
475.939	1087.31
476.158	1084.31
476.377	1231.31
476.596	1442.31
476.814	1496.31
477.033	1236.31
477.252	1053.31
477.471	980.31
477.69	1005.31
477.908	1101.31
478.127	1166.31
478.346	1050.31
478.564	1130.31
478.783	1054.31
479.002	1096.31
479.22	1302.31
479.439	1426.31
479.658	1206.31
479.876	1100.31
480.095	1171.31
480.313	1205.31
480.532	1126.31
480.751	1089.31
480.969	1102.31
481.188	1272.31
481.406	1313.31
481.624	1241.31
481.843	1126.31
482.061	1072.31
482.28	1180.31
482.498	1434.31
482.717	1362.31
482.935	1169.31
483.153	1138.31
483.372	1045.31
483.59	1062.31
483.808	1043.31
484.027	1006.31
484.245	996.31
484.463	993.31
484.681	1024.31
484.9	1104.31
485.118	1166.31
485.336	1076.31
485.554	1046.31
485.772	1048.31
485.99	1169.31
486.209	1224.31
486.427	1223.31
486.645	1185.31
486.863	1238.31
487.081	1221.31
487.299	1365.31
487.517	1296.31
487.735	1200.31
487.953	1218.31
488.171	1251.31
488.389	1167.31
488.607	1121.31
488.825	1148.31
489.043	1209.31
489.261	1418.31
489.479	1520.31
489.696	1286.31
489.914	1142.31
490.132	1082.31
490.35	1112.31
490.568	1109.31
490.786	1097.31
491.003	1129.31
491.221	1168.31
491.439	1122.31
491.657	1142.31
491.874	1214.31
492.092	1417.31
492.31	1716.31
492.527	1728.31
492.745	1510.31
492.963	1327.31
493.18	1288.31
493.398	1324.31
493.615	1274.31
493.833	1252.31
494.05	1228.31
494.268	1255.31
494.485	1190.31
494.703	1182.31
