Data from NickelSpatula.Lamp.E5.5.P2_HRD10591_11-52-29-553.txt Node
Date: Tue Jul 23 11:52:29 EDT 2019
User: cochatt
Spectrometer: HR+D1059
Trigger mode: 1
Integration Time (sec): 1.000000E-1
Scans to average: 1
Electric dark correction enabled: true
Nonlinearity correction enabled: false
Boxcar width: 0
XAxis mode: Wavelengths
Number of Pixels in Spectrum: 2048
>>>>>Begin Spectral Data<<<<<
223.165	-15.38
223.4	-15.38
223.635	-15.38
223.869	-23.38
224.104	-12.38
224.338	-17.38
224.573	-4.38
224.808	-13.38
225.042	-21.38
225.277	13.62
225.511	-5.38
225.746	8.62
225.98	9.62
226.215	7.62
226.449	-6.38
226.683	21.62
226.918	31.62
227.152	26.62
227.387	38.62
227.621	38.62
227.856	39.62
228.09	48.62
228.324	52.62
228.559	63.62
228.793	58.62
229.027	83.62
229.262	76.62
229.496	82.62
229.73	92.62
229.964	83.62
230.199	97.62
230.433	91.62
230.667	100.62
230.901	106.62
231.136	96.62
231.37	107.62
231.604	106.62
231.838	108.62
232.072	103.62
232.306	102.62
232.541	100.62
232.775	114.62
233.009	115.62
233.243	121.62
233.477	96.62
233.711	146.62
233.945	131.62
234.179	124.62
234.413	126.62
234.647	128.62
234.881	153.62
235.115	153.62
235.349	151.62
235.583	129.62
235.817	117.62
236.051	134.62
236.285	142.62
236.519	146.62
236.753	138.62
236.987	133.62
237.221	147.62
237.455	144.62
237.689	138.62
237.922	144.62
238.156	150.62
238.39	153.62
238.624	177.62
238.858	191.62
239.091	154.62
239.325	142.62
239.559	141.62
239.793	171.62
240.027	183.62
240.26	184.62
240.494	169.62
240.728	153.62
240.961	178.62
241.195	162.62
241.429	174.62
241.662	169.62
241.896	152.62
242.13	141.62
242.363	128.62
242.597	140.62
242.83	167.62
243.064	149.62
243.298	178.62
243.531	169.62
243.765	186.62
243.998	179.62
244.232	170.62
244.465	182.62
244.699	162.62
244.932	182.62
245.166	182.62
245.399	155.62
245.633	176.62
245.866	172.62
246.099	166.62
246.333	208.62
246.566	203.62
246.8	200.62
247.033	194.62
247.266	190.62
247.5	181.62
247.733	182.62
247.966	194.62
248.2	190.62
248.433	201.62
248.666	212.62
248.899	204.62
249.133	208.62
249.366	246.62
249.599	258.62
249.832	243.62
250.066	217.62
250.299	215.62
250.532	207.62
250.765	218.62
250.998	185.62
251.231	198.62
251.465	202.62
251.698	232.62
251.931	226.62
252.164	230.62
252.397	230.62
252.63	256.62
252.863	275.62
253.096	295.62
253.329	287.62
253.562	267.62
253.795	288.62
254.028	325.62
254.261	321.62
254.494	299.62
254.727	280.62
254.96	268.62
255.193	291.62
255.426	269.62
255.659	213.62
255.892	198.62
256.124	220.62
256.357	265.62
256.59	299.62
256.823	297.62
257.056	239.62
257.289	222.62
257.521	232.62
257.754	278.62
257.987	332.62
258.22	270.62
258.452	245.62
258.685	279.62
258.918	302.62
259.151	310.62
259.383	319.62
259.616	362.62
259.849	356.62
260.081	391.62
260.314	423.62
260.547	360.62
260.779	347.62
261.012	402.62
261.244	361.62
261.477	374.62
261.71	358.62
261.942	300.62
262.175	299.62
262.407	289.62
262.64	298.62
262.872	357.62
263.105	375.62
263.337	411.62
263.57	340.62
263.802	249.62
264.035	265.62
264.267	223.62
264.499	201.62
264.732	206.62
264.964	180.62
265.197	198.62
265.429	212.62
265.661	217.62
265.894	233.62
266.126	222.62
266.358	258.62
266.591	290.62
266.823	371.62
267.055	329.62
267.287	294.62
267.52	289.62
267.752	334.62
267.984	361.62
268.216	335.62
268.448	276.62
268.681	268.62
268.913	276.62
269.145	313.62
269.377	316.62
269.609	314.62
269.841	303.62
270.073	320.62
270.306	323.62
270.538	327.62
270.77	351.62
271.002	371.62
271.234	374.62
271.466	363.62
271.698	350.62
271.93	319.62
272.162	339.62
272.394	335.62
272.626	323.62
272.858	328.62
273.09	344.62
273.322	306.62
273.553	277.62
273.785	333.62
274.017	404.62
274.249	498.62
274.481	523.62
274.713	574.62
274.945	614.62
275.176	672.62
275.408	616.62
275.64	547.62
275.872	569.62
276.104	479.62
276.335	438.62
276.567	425.62
276.799	448.62
277.031	468.62
277.262	375.62
277.494	291.62
277.726	280.62
277.957	318.62
278.189	359.62
278.421	346.62
278.652	330.62
278.884	332.62
279.115	304.62
279.347	302.62
279.579	305.62
279.81	296.62
280.042	306.62
280.273	294.62
280.505	272.62
280.736	260.62
280.968	271.62
281.199	264.62
281.431	317.62
281.662	313.62
281.894	296.62
282.125	318.62
282.356	322.62
282.588	299.62
282.819	288.62
283.051	326.62
283.282	363.62
283.513	422.62
283.745	481.62
283.976	478.62
284.207	440.62
284.439	443.62
284.67	430.62
284.901	385.62
285.132	423.62
285.364	444.62
285.595	390.62
285.826	425.62
286.057	457.62
286.288	425.62
286.52	452.62
286.751	471.62
286.982	464.62
287.213	394.62
287.444	403.62
287.675	426.62
287.906	415.62
288.138	352.62
288.369	330.62
288.6	304.62
288.831	320.62
289.062	363.62
289.293	398.62
289.524	372.62
289.755	354.62
289.986	401.62
290.217	334.62
290.448	280.62
290.679	239.62
290.91	234.62
291.141	218.62
291.371	240.62
291.602	254.62
291.833	244.62
292.064	231.62
292.295	293.62
292.526	329.62
292.757	322.62
292.987	371.62
293.218	350.62
293.449	396.62
293.68	426.62
293.91	360.62
294.141	400.62
294.372	361.62
294.603	322.62
294.833	399.62
295.064	430.62
295.295	403.62
295.525	319.62
295.756	276.62
295.987	220.62
296.217	238.62
296.448	256.62
296.679	269.62
296.909	282.62
297.14	296.62
297.37	332.62
297.601	329.62
297.831	281.62
298.062	299.62
298.292	331.62
298.523	347.62
298.753	405.62
298.984	360.62
299.214	295.62
299.445	262.62
299.675	262.62
299.905	245.62
300.136	262.62
300.366	275.62
300.597	280.62
300.827	227.62
301.057	239.62
301.288	248.62
301.518	273.62
301.748	308.62
301.979	292.62
302.209	325.62
302.439	340.62
302.669	292.62
302.9	294.62
303.13	266.62
303.36	272.62
303.59	278.62
303.82	267.62
304.051	309.62
304.281	307.62
304.511	305.62
304.741	277.62
304.971	288.62
305.201	298.62
305.431	304.62
305.661	260.62
305.891	258.62
306.121	265.62
306.352	236.62
306.582	214.62
306.812	210.62
307.042	212.62
307.272	203.62
307.502	213.62
307.731	206.62
307.961	215.62
308.191	210.62
308.421	208.62
308.651	210.62
308.881	223.62
309.111	200.62
309.341	199.62
309.571	214.62
309.8	220.62
310.03	247.62
310.26	256.62
310.49	235.62
310.72	216.62
310.949	216.62
311.179	225.62
311.409	225.62
311.639	258.62
311.868	322.62
312.098	397.62
312.328	410.62
312.557	416.62
312.787	426.62
313.017	354.62
313.246	384.62
313.476	439.62
313.706	360.62
313.935	311.62
314.165	267.62
314.394	234.62
314.624	240.62
314.853	228.62
315.083	262.62
315.312	250.62
315.542	242.62
315.771	243.62
316.001	206.62
316.23	216.62
316.46	220.62
316.689	195.62
316.919	214.62
317.148	219.62
317.377	227.62
317.607	225.62
317.836	238.62
318.065	242.62
318.295	279.62
318.524	271.62
318.753	239.62
318.983	214.62
319.212	219.62
319.441	240.62
319.67	264.62
319.9	275.62
320.129	262.62
320.358	227.62
320.587	235.62
320.816	225.62
321.046	273.62
321.275	295.62
321.504	283.62
321.733	283.62
321.962	260.62
322.191	274.62
322.42	261.62
322.649	244.62
322.878	286.62
323.108	269.62
323.337	256.62
323.566	257.62
323.795	242.62
324.024	255.62
324.253	239.62
324.482	211.62
324.71	256.62
324.939	295.62
325.168	256.62
325.397	220.62
325.626	227.62
325.855	227.62
326.084	224.62
326.313	222.62
326.542	195.62
326.77	203.62
326.999	239.62
327.228	235.62
327.457	232.62
327.686	231.62
327.914	224.62
328.143	203.62
328.372	205.62
328.6	215.62
328.829	227.62
329.058	207.62
329.287	223.62
329.515	222.62
329.744	227.62
329.972	216.62
330.201	222.62
330.43	214.62
330.658	208.62
330.887	242.62
331.115	252.62
331.344	231.62
331.572	233.62
331.801	218.62
332.03	216.62
332.258	219.62
332.486	212.62
332.715	215.62
332.943	216.62
333.172	229.62
333.4	248.62
333.629	252.62
333.857	270.62
334.085	262.62
334.314	277.62
334.542	261.62
334.771	248.62
334.999	224.62
335.227	216.62
335.455	231.62
335.684	255.62
335.912	282.62
336.14	290.62
336.369	280.62
336.597	280.62
336.825	315.62
337.053	342.62
337.281	283.62
337.51	228.62
337.738	250.62
337.966	255.62
338.194	280.62
338.422	257.62
338.65	230.62
338.878	209.62
339.106	207.62
339.334	225.62
339.562	253.62
339.79	214.62
340.018	223.62
340.246	228.62
340.474	272.62
340.702	286.62
340.93	303.62
341.158	307.62
341.386	240.62
341.614	236.62
341.842	244.62
342.07	265.62
342.298	314.62
342.526	303.62
342.754	266.62
342.981	262.62
343.209	232.62
343.437	281.62
343.665	265.62
343.893	278.62
344.12	322.62
344.348	384.62
344.576	333.62
344.804	260.62
345.031	240.62
345.259	233.62
345.487	238.62
345.714	254.62
345.942	260.62
346.17	296.62
346.397	275.62
346.625	257.62
346.853	235.62
347.08	215.62
347.308	239.62
347.535	252.62
347.763	298.62
347.99	258.62
348.218	240.62
348.445	234.62
348.673	250.62
348.9	251.62
349.128	246.62
349.355	256.62
349.583	245.62
349.81	265.62
350.037	235.62
350.265	217.62
350.492	198.62
350.72	197.62
350.947	199.62
351.174	204.62
351.402	223.62
351.629	247.62
351.856	231.62
352.083	213.62
352.311	223.62
352.538	244.62
352.765	254.62
352.992	243.62
353.22	241.62
353.447	216.62
353.674	245.62
353.901	225.62
354.128	218.62
354.355	229.62
354.583	239.62
354.81	219.62
355.037	247.62
355.264	241.62
355.491	236.62
355.718	250.62
355.945	255.62
356.172	249.62
356.399	267.62
356.626	305.62
356.853	363.62
357.08	355.62
357.307	387.62
357.534	323.62
357.761	325.62
357.988	397.62
358.215	441.62
358.441	406.62
358.668	360.62
358.895	335.62
359.122	280.62
359.349	287.62
359.576	321.62
359.802	265.62
360.029	236.62
360.256	247.62
360.483	291.62
360.709	351.62
360.936	378.62
361.163	318.62
361.39	252.62
361.616	260.62
361.843	268.62
362.07	324.62
362.296	306.62
362.523	242.62
362.749	227.62
362.976	234.62
363.203	264.62
363.429	297.62
363.656	264.62
363.882	234.62
364.109	243.62
364.335	236.62
364.562	233.62
364.788	257.62
365.015	294.62
365.241	284.62
365.468	222.62
365.694	206.62
365.92	209.62
366.147	203.62
366.373	199.62
366.599	203.62
366.826	195.62
367.052	201.62
367.278	211.62
367.505	210.62
367.731	194.62
367.957	229.62
368.184	242.62
368.41	214.62
368.636	240.62
368.862	242.62
369.089	256.62
369.315	220.62
369.541	218.62
369.767	227.62
369.993	201.62
370.219	199.62
370.445	234.62
370.672	238.62
370.898	258.62
371.124	260.62
371.35	232.62
371.576	228.62
371.802	229.62
372.028	264.62
372.254	325.62
372.48	265.62
372.706	233.62
372.932	269.62
373.158	252.62
373.384	328.62
373.61	378.62
373.835	386.62
374.061	300.62
374.287	278.62
374.513	314.62
374.739	362.62
374.965	388.62
375.191	364.62
375.416	301.62
375.642	259.62
375.868	281.62
376.094	315.62
376.319	264.62
376.545	294.62
376.771	289.62
376.997	273.62
377.222	223.62
377.448	217.62
377.674	197.62
377.899	205.62
378.125	180.62
378.35	184.62
378.576	197.62
378.802	208.62
379.027	224.62
379.253	222.62
379.478	214.62
379.704	256.62
379.929	256.62
380.155	243.62
380.38	238.62
380.606	234.62
380.831	255.62
381.057	254.62
381.282	253.62
381.507	287.62
381.733	304.62
381.958	343.62
382.184	363.62
382.409	384.62
382.634	368.62
382.86	369.62
383.085	318.62
383.31	278.62
383.535	288.62
383.761	306.62
383.986	267.62
384.211	324.62
384.436	298.62
384.662	268.62
384.887	226.62
385.112	255.62
385.337	269.62
385.562	260.62
385.787	275.62
386.013	286.62
386.238	288.62
386.463	254.62
386.688	256.62
386.913	230.62
387.138	245.62
387.363	245.62
387.588	249.62
387.813	246.62
388.038	263.62
388.263	258.62
388.488	236.62
388.713	266.62
388.938	278.62
389.163	234.62
389.387	209.62
389.612	216.62
389.837	254.62
390.062	235.62
390.287	243.62
390.512	252.62
390.736	238.62
390.961	216.62
391.186	222.62
391.411	219.62
391.636	218.62
391.86	230.62
392.085	256.62
392.31	268.62
392.534	250.62
392.759	242.62
392.984	242.62
393.208	244.62
393.433	230.62
393.658	195.62
393.882	183.62
394.107	204.62
394.331	204.62
394.556	204.62
394.78	193.62
395.005	214.62
395.229	233.62
395.454	223.62
395.678	212.62
395.903	218.62
396.127	221.62
396.352	228.62
396.576	233.62
396.801	262.62
397.025	292.62
397.249	267.62
397.474	233.62
397.698	243.62
397.922	244.62
398.147	211.62
398.371	239.62
398.595	260.62
398.82	233.62
399.044	236.62
399.268	270.62
399.492	279.62
399.717	284.62
399.941	291.62
400.165	267.62
400.389	263.62
400.613	259.62
400.837	240.62
401.062	238.62
401.286	211.62
401.51	244.62
401.734	223.62
401.958	229.62
402.182	234.62
402.406	244.62
402.63	252.62
402.854	260.62
403.078	292.62
403.302	361.62
403.526	388.62
403.75	352.62
403.974	289.62
404.198	299.62
404.422	309.62
404.645	339.62
404.869	375.62
405.093	298.62
405.317	260.62
405.541	290.62
405.765	261.62
405.988	267.62
406.212	272.62
406.436	308.62
406.66	336.62
406.883	278.62
407.107	278.62
407.331	327.62
407.555	315.62
407.778	286.62
408.002	268.62
408.226	261.62
408.449	264.62
408.673	256.62
408.896	248.62
409.12	240.62
409.344	239.62
409.567	255.62
409.791	251.62
410.014	243.62
410.238	230.62
410.461	243.62
410.685	254.62
410.908	244.62
411.132	233.62
411.355	236.62
411.578	256.62
411.802	247.62
412.025	244.62
412.249	249.62
412.472	232.62
412.695	250.62
412.919	258.62
413.142	250.62
413.365	261.62
413.589	272.62
413.812	246.62
414.035	225.62
414.258	233.62
414.482	261.62
414.705	257.62
414.928	253.62
415.151	222.62
415.374	229.62
415.597	250.62
415.821	233.62
416.044	249.62
416.267	226.62
416.49	234.62
416.713	243.62
416.936	238.62
417.159	227.62
417.382	220.62
417.605	233.62
417.828	248.62
418.051	245.62
418.274	253.62
418.497	245.62
418.72	248.62
418.943	247.62
419.166	267.62
419.389	264.62
419.611	267.62
419.834	257.62
420.057	279.62
420.28	272.62
420.503	253.62
420.726	245.62
420.948	228.62
421.171	227.62
421.394	248.62
421.617	233.62
421.839	238.62
422.062	232.62
422.285	227.62
422.507	242.62
422.73	252.62
422.953	245.62
423.175	247.62
423.398	223.62
423.621	248.62
423.843	278.62
424.066	255.62
424.288	254.62
424.511	242.62
424.733	222.62
424.956	240.62
425.178	284.62
425.401	330.62
425.623	369.62
425.846	302.62
426.068	270.62
426.291	283.62
426.513	273.62
426.735	260.62
426.958	252.62
427.18	291.62
427.402	355.62
427.625	355.62
427.847	311.62
428.069	254.62
428.292	242.62
428.514	230.62
428.736	238.62
428.958	250.62
429.181	312.62
429.403	265.62
429.625	230.62
429.847	216.62
430.069	234.62
430.292	232.62
430.514	223.62
430.736	236.62
430.958	299.62
431.18	256.62
431.402	233.62
431.624	226.62
431.846	219.62
432.068	218.62
432.29	230.62
432.512	235.62
432.734	288.62
432.956	274.62
433.178	244.62
433.4	226.62
433.622	223.62
433.844	224.62
434.066	235.62
434.287	250.62
434.509	258.62
434.731	267.62
434.953	253.62
435.175	247.62
435.397	277.62
435.618	222.62
435.84	232.62
436.062	216.62
436.284	226.62
436.505	222.62
436.727	224.62
436.949	214.62
437.17	229.62
437.392	225.62
437.614	242.62
437.835	250.62
438.057	223.62
438.278	240.62
438.5	331.62
438.721	321.62
438.943	251.62
439.165	216.62
439.386	222.62
439.608	213.62
439.829	217.62
440.05	214.62
440.272	206.62
440.493	255.62
440.715	298.62
440.936	242.62
441.158	242.62
441.379	224.62
441.6	243.62
441.822	262.62
442.043	239.62
442.264	230.62
442.486	232.62
442.707	239.62
442.928	225.62
443.149	233.62
443.371	232.62
443.592	246.62
443.813	233.62
444.034	245.62
444.255	251.62
444.476	265.62
444.698	262.62
444.919	255.62
445.14	345.62
445.361	320.62
445.582	254.62
445.803	248.62
446.024	249.62
446.245	246.62
446.466	247.62
446.687	232.62
446.908	251.62
447.129	238.62
447.35	231.62
447.571	215.62
447.792	210.62
448.013	206.62
448.234	216.62
448.455	218.62
448.675	203.62
448.896	209.62
449.117	228.62
449.338	213.62
449.559	219.62
449.779	243.62
450	218.62
450.221	222.62
450.442	209.62
450.662	224.62
450.883	229.62
451.104	216.62
451.324	236.62
451.545	222.62
451.766	207.62
451.986	218.62
452.207	212.62
452.428	197.62
452.648	214.62
452.869	218.62
453.089	227.62
453.31	225.62
453.53	204.62
453.751	208.62
453.971	218.62
454.192	215.62
454.412	218.62
454.633	211.62
454.853	210.62
455.073	204.62
455.294	188.62
455.514	204.62
455.734	223.62
455.955	256.62
456.175	222.62
456.395	207.62
456.616	195.62
456.836	187.62
457.056	204.62
457.276	210.62
457.497	207.62
457.717	207.62
457.937	208.62
458.157	201.62
458.377	210.62
458.598	203.62
458.818	214.62
459.038	229.62
459.258	206.62
459.478	228.62
459.698	242.62
459.918	246.62
460.138	230.62
460.358	252.62
460.578	239.62
460.798	245.62
461.018	254.62
461.238	221.62
461.458	232.62
461.678	263.62
461.898	254.62
462.118	235.62
462.338	243.62
462.558	262.62
462.777	264.62
462.997	284.62
463.217	284.62
463.437	302.62
463.657	291.62
463.876	284.62
464.096	266.62
464.316	283.62
464.536	263.62
464.755	288.62
464.975	282.62
465.195	276.62
465.414	266.62
465.634	240.62
465.854	256.62
466.073	232.62
466.293	221.62
466.512	244.62
466.732	243.62
466.951	256.62
467.171	250.62
467.391	222.62
467.61	207.62
467.829	244.62
468.049	246.62
468.268	227.62
468.488	231.62
468.707	222.62
468.927	259.62
469.146	281.62
469.365	262.62
469.585	249.62
469.804	252.62
470.023	300.62
470.243	251.62
470.462	246.62
470.681	241.62
470.901	235.62
471.12	265.62
471.339	255.62
471.558	233.62
471.777	235.62
471.997	282.62
472.216	283.62
472.435	262.62
472.654	253.62
472.873	244.62
473.092	265.62
473.311	245.62
473.53	240.62
473.749	222.62
473.968	250.62
474.187	250.62
474.406	239.62
474.625	232.62
474.844	256.62
475.063	268.62
475.282	267.62
475.501	277.62
475.72	287.62
475.939	283.62
476.158	289.62
476.377	311.62
476.596	337.62
476.814	368.62
477.033	320.62
477.252	266.62
477.471	250.62
477.69	248.62
477.908	278.62
478.127	287.62
478.346	276.62
478.564	313.62
478.783	288.62
479.002	283.62
479.22	313.62
479.439	321.62
479.658	326.62
479.876	282.62
480.095	291.62
480.313	306.62
480.532	295.62
480.751	280.62
480.969	282.62
481.188	306.62
481.406	307.62
481.624	286.62
481.843	272.62
482.061	266.62
482.28	292.62
482.498	367.62
482.717	327.62
482.935	296.62
483.153	295.62
483.372	271.62
483.59	264.62
483.808	258.62
484.027	266.62
484.245	237.62
484.463	243.62
484.681	260.62
484.9	264.62
485.118	291.62
485.336	271.62
485.554	260.62
485.772	293.62
485.99	286.62
486.209	293.62
486.427	299.62
486.645	280.62
486.863	294.62
487.081	297.62
487.299	331.62
487.517	307.62
487.735	285.62
487.953	292.62
488.171	303.62
488.389	286.62
488.607	256.62
488.825	275.62
489.043	302.62
489.261	332.62
489.479	344.62
489.696	303.62
489.914	289.62
490.132	283.62
490.35	290.62
490.568	281.62
490.786	277.62
491.003	270.62
491.221	267.62
491.439	268.62
491.657	255.62
491.874	280.62
492.092	323.62
492.31	384.62
492.527	384.62
492.745	354.62
492.963	304.62
493.18	302.62
493.398	298.62
493.615	316.62
493.833	292.62
494.05	286.62
494.268	305.62
494.485	300.62
494.703	280.62
494.92	297.62
495.138	264.62
495.355	267.62
495.573	304.62
495.79	335.62
496.008	375.62
496.225	331.62
496.442	321.62
496.66	313.62
496.877	318.62
497.094	307.62
497.312	308.62
497.529	321.62
497.746	312.62
497.963	320.62
498.181	342.62
498.398	366.62
498.615	379.62
498.832	388.62
499.049	415.62
499.267	384.62
499.484	395.62
499.701	398.62
499.918	448.62
500.135	504.62
500.352	519.62
500.569	577.62
500.786	560.62
501.003	524.62
501.22	443.62
501.437	437.62
501.654	419.62
501.871	392.62
502.088	361.62
502.305	352.62
502.522	358.62
