Data from NickelSpatula.Lamp.E5.5.P2_HRD10591_11-51-55-558.txt Node
Date: Tue Jul 23 11:51:55 EDT 2019
User: cochatt
Spectrometer: HR+D1059
Trigger mode: 1
Integration Time (sec): 1.000000E-1
Scans to average: 1
Electric dark correction enabled: true
Nonlinearity correction enabled: false
Boxcar width: 0
XAxis mode: Wavelengths
Number of Pixels in Spectrum: 2048
>>>>>Begin Spectral Data<<<<<
223.165	-8.56
223.4	-8.56
223.635	-8.56
223.869	-22.56
224.104	-9.56
224.338	-30.56
224.573	0.44
224.808	1.44
225.042	-14.56
225.277	-3.56
225.511	10.44
225.746	1.44
225.98	1.44
226.215	9.44
226.449	7.44
226.683	8.44
226.918	20.44
227.152	28.44
227.387	32.44
227.621	39.44
227.856	40.44
228.09	30.44
228.324	53.44
228.559	57.44
228.793	72.44
229.027	74.44
229.262	70.44
229.496	84.44
229.73	80.44
229.964	87.44
230.199	98.44
230.433	93.44
230.667	88.44
230.901	97.44
231.136	90.44
231.37	99.44
231.604	101.44
231.838	88.44
232.072	96.44
232.306	116.44
232.541	114.44
232.775	106.44
233.009	96.44
233.243	108.44
233.477	118.44
233.711	104.44
233.945	124.44
234.179	127.44
234.413	121.44
234.647	124.44
234.881	150.44
235.115	132.44
235.349	138.44
235.583	112.44
235.817	127.44
236.051	119.44
236.285	137.44
236.519	152.44
236.753	125.44
236.987	139.44
237.221	122.44
237.455	124.44
237.689	146.44
237.922	160.44
238.156	149.44
238.39	162.44
238.624	188.44
238.858	179.44
239.091	143.44
239.325	130.44
239.559	146.44
239.793	144.44
240.027	183.44
240.26	166.44
240.494	174.44
240.728	160.44
240.961	166.44
241.195	164.44
241.429	161.44
241.662	172.44
241.896	158.44
242.13	136.44
242.363	132.44
242.597	137.44
242.83	163.44
243.064	157.44
243.298	171.44
243.531	175.44
243.765	161.44
243.998	169.44
244.232	167.44
244.465	157.44
244.699	160.44
244.932	180.44
245.166	183.44
245.399	160.44
245.633	164.44
245.866	159.44
246.099	154.44
246.333	194.44
246.566	192.44
246.8	197.44
247.033	187.44
247.266	174.44
247.5	180.44
247.733	201.44
247.966	176.44
248.2	163.44
248.433	193.44
248.666	210.44
248.899	192.44
249.133	206.44
249.366	231.44
249.599	236.44
249.832	224.44
250.066	210.44
250.299	202.44
250.532	185.44
250.765	198.44
250.998	181.44
251.231	194.44
251.465	207.44
251.698	198.44
251.931	200.44
252.164	191.44
252.397	231.44
252.63	242.44
252.863	262.44
253.096	276.44
253.329	252.44
253.562	247.44
253.795	294.44
254.028	306.44
254.261	317.44
254.494	293.44
254.727	266.44
254.96	267.44
255.193	279.44
255.426	269.44
255.659	204.44
255.892	204.44
256.124	226.44
256.357	258.44
256.59	292.44
256.823	258.44
257.056	232.44
257.289	238.44
257.521	242.44
257.754	288.44
257.987	308.44
258.22	272.44
258.452	232.44
258.685	274.44
258.918	291.44
259.151	280.44
259.383	314.44
259.616	354.44
259.849	350.44
260.081	376.44
260.314	383.44
260.547	330.44
260.779	345.44
261.012	382.44
261.244	353.44
261.477	363.44
261.71	367.44
261.942	295.44
262.175	280.44
262.407	260.44
262.64	282.44
262.872	329.44
263.105	354.44
263.337	375.44
263.57	359.44
263.802	264.44
264.035	241.44
264.267	233.44
264.499	204.44
264.732	178.44
264.964	184.44
265.197	195.44
265.429	195.44
265.661	201.44
265.894	206.44
266.126	235.44
266.358	246.44
266.591	296.44
266.823	345.44
267.055	329.44
267.287	290.44
267.52	306.44
267.752	314.44
267.984	353.44
268.216	314.44
268.448	280.44
268.681	259.44
268.913	288.44
269.145	302.44
269.377	310.44
269.609	307.44
269.841	293.44
270.073	298.44
270.306	319.44
270.538	328.44
270.77	312.44
271.002	328.44
271.234	342.44
271.466	334.44
271.698	319.44
271.93	317.44
272.162	321.44
272.394	314.44
272.626	327.44
272.858	303.44
273.09	321.44
273.322	289.44
273.553	281.44
273.785	302.44
274.017	388.44
274.249	473.44
274.481	465.44
274.713	528.44
274.945	633.44
275.176	649.44
275.408	572.44
275.64	542.44
275.872	529.44
276.104	442.44
276.335	404.44
276.567	392.44
276.799	412.44
277.031	435.44
277.262	347.44
277.494	287.44
277.726	269.44
277.957	301.44
278.189	329.44
278.421	330.44
278.652	302.44
278.884	294.44
279.115	281.44
279.347	279.44
279.579	290.44
279.81	289.44
280.042	293.44
280.273	295.44
280.505	274.44
280.736	264.44
280.968	255.44
281.199	260.44
281.431	293.44
281.662	286.44
281.894	287.44
282.125	288.44
282.356	320.44
282.588	355.44
282.819	279.44
283.051	295.44
283.282	334.44
283.513	417.44
283.745	464.44
283.976	453.44
284.207	387.44
284.439	426.44
284.67	432.44
284.901	355.44
285.132	412.44
285.364	434.44
285.595	391.44
285.826	415.44
286.057	430.44
286.288	399.44
286.52	400.44
286.751	436.44
286.982	451.44
287.213	382.44
287.444	376.44
287.675	380.44
287.906	393.44
288.138	350.44
288.369	324.44
288.6	287.44
288.831	309.44
289.062	361.44
289.293	379.44
289.524	357.44
289.755	355.44
289.986	365.44
290.217	341.44
290.448	258.44
290.679	236.44
290.91	228.44
291.141	217.44
291.371	233.44
291.602	231.44
291.833	245.44
292.064	258.44
292.295	277.44
292.526	300.44
292.757	320.44
292.987	351.44
293.218	341.44
293.449	364.44
293.68	392.44
293.91	361.44
294.141	384.44
294.372	356.44
294.603	323.44
294.833	366.44
295.064	406.44
295.295	410.44
295.525	320.44
295.756	267.44
295.987	239.44
296.217	258.44
296.448	231.44
296.679	243.44
296.909	284.44
297.14	293.44
297.37	314.44
297.601	288.44
297.831	259.44
298.062	292.44
298.292	316.44
298.523	333.44
298.753	381.44
298.984	339.44
299.214	275.44
299.445	259.44
299.675	227.44
299.905	241.44
300.136	252.44
300.366	274.44
300.597	261.44
300.827	232.44
301.057	236.44
301.288	238.44
301.518	262.44
301.748	275.44
301.979	289.44
302.209	323.44
302.439	316.44
302.669	279.44
302.9	291.44
303.13	265.44
303.36	267.44
303.59	256.44
303.82	274.44
304.051	281.44
304.281	297.44
304.511	296.44
304.741	257.44
304.971	287.44
305.201	300.44
305.431	280.44
305.661	233.44
305.891	234.44
306.121	252.44
306.352	220.44
306.582	221.44
306.812	204.44
307.042	210.44
307.272	201.44
307.502	208.44
307.731	223.44
307.961	217.44
308.191	209.44
308.421	204.44
308.651	189.44
308.881	185.44
309.111	191.44
309.341	196.44
309.571	213.44
309.8	222.44
310.03	214.44
310.26	227.44
310.49	220.44
310.72	215.44
310.949	195.44
311.179	210.44
311.409	204.44
311.639	259.44
311.868	297.44
312.098	373.44
312.328	392.44
312.557	392.44
312.787	420.44
313.017	355.44
313.246	394.44
313.476	416.44
313.706	361.44
313.935	304.44
314.165	248.44
314.394	230.44
314.624	225.44
314.853	233.44
315.083	242.44
315.312	240.44
315.542	233.44
315.771	239.44
316.001	213.44
316.23	205.44
316.46	214.44
316.689	225.44
316.919	224.44
317.148	222.44
317.377	198.44
317.607	202.44
317.836	224.44
318.065	237.44
318.295	277.44
318.524	252.44
318.753	233.44
318.983	208.44
319.212	216.44
319.441	224.44
319.67	254.44
319.9	266.44
320.129	252.44
320.358	243.44
320.587	220.44
320.816	234.44
321.046	269.44
321.275	280.44
321.504	266.44
321.733	291.44
321.962	266.44
322.191	258.44
322.42	252.44
322.649	244.44
322.878	272.44
323.108	252.44
323.337	249.44
323.566	242.44
323.795	244.44
324.024	253.44
324.253	229.44
324.482	210.44
324.71	233.44
324.939	268.44
325.168	257.44
325.397	212.44
325.626	214.44
325.855	220.44
326.084	227.44
326.313	215.44
326.542	208.44
326.77	220.44
326.999	207.44
327.228	234.44
327.457	232.44
327.686	236.44
327.914	215.44
328.143	207.44
328.372	192.44
328.6	191.44
328.829	206.44
329.058	200.44
329.287	221.44
329.515	218.44
329.744	216.44
329.972	213.44
330.201	203.44
330.43	212.44
330.658	213.44
330.887	250.44
331.115	226.44
331.344	237.44
331.572	241.44
331.801	212.44
332.03	207.44
332.258	221.44
332.486	214.44
332.715	226.44
332.943	221.44
333.172	239.44
333.4	232.44
333.629	250.44
333.857	248.44
334.085	245.44
334.314	277.44
334.542	249.44
334.771	229.44
334.999	217.44
335.227	232.44
335.455	256.44
335.684	237.44
335.912	273.44
336.14	291.44
336.369	292.44
336.597	301.44
336.825	298.44
337.053	316.44
337.281	280.44
337.51	233.44
337.738	218.44
337.966	248.44
338.194	255.44
338.422	269.44
338.65	217.44
338.878	231.44
339.106	216.44
339.334	241.44
339.562	237.44
339.79	229.44
340.018	214.44
340.246	214.44
340.474	255.44
340.702	288.44
340.93	269.44
341.158	272.44
341.386	243.44
341.614	231.44
341.842	241.44
342.07	269.44
342.298	284.44
342.526	294.44
342.754	278.44
342.981	233.44
343.209	242.44
343.437	252.44
343.665	275.44
343.893	278.44
344.12	323.44
344.348	351.44
344.576	337.44
344.804	274.44
345.031	238.44
345.259	211.44
345.487	225.44
345.714	250.44
345.942	238.44
346.17	263.44
346.397	262.44
346.625	227.44
346.853	241.44
347.08	233.44
347.308	239.44
347.535	271.44
347.763	281.44
347.99	256.44
348.218	224.44
348.445	244.44
348.673	238.44
348.9	236.44
349.128	230.44
349.355	264.44
349.583	234.44
349.81	262.44
350.037	234.44
350.265	206.44
350.492	185.44
350.72	189.44
350.947	199.44
351.174	218.44
351.402	214.44
351.629	213.44
351.856	222.44
352.083	216.44
352.311	222.44
352.538	236.44
352.765	249.44
352.992	239.44
353.22	220.44
353.447	227.44
353.674	212.44
353.901	223.44
354.128	215.44
354.355	205.44
354.583	223.44
354.81	230.44
355.037	238.44
355.264	233.44
355.491	246.44
355.718	260.44
355.945	248.44
356.172	229.44
356.399	257.44
356.626	294.44
356.853	341.44
357.08	346.44
357.307	369.44
357.534	290.44
357.761	296.44
357.988	389.44
358.215	419.44
358.441	394.44
358.668	327.44
358.895	318.44
359.122	268.44
359.349	279.44
359.576	296.44
359.802	246.44
360.029	231.44
360.256	255.44
360.483	277.44
360.709	360.44
360.936	348.44
361.163	305.44
361.39	236.44
361.616	233.44
361.843	256.44
362.07	297.44
362.296	284.44
362.523	238.44
362.749	223.44
362.976	226.44
363.203	266.44
363.429	301.44
363.656	254.44
363.882	237.44
364.109	245.44
364.335	227.44
364.562	233.44
364.788	241.44
365.015	277.44
365.241	262.44
365.468	203.44
365.694	203.44
365.92	192.44
366.147	187.44
366.373	197.44
366.599	190.44
366.826	199.44
367.052	212.44
367.278	205.44
367.505	210.44
367.731	213.44
367.957	229.44
368.184	240.44
368.41	228.44
368.636	218.44
368.862	233.44
369.089	232.44
369.315	207.44
369.541	210.44
369.767	210.44
369.993	214.44
370.219	215.44
370.445	214.44
370.672	232.44
370.898	244.44
371.124	235.44
371.35	222.44
371.576	212.44
371.802	223.44
372.028	265.44
372.254	288.44
372.48	260.44
372.706	246.44
372.932	242.44
373.158	275.44
373.384	312.44
373.61	377.44
373.835	366.44
374.061	309.44
374.287	246.44
374.513	316.44
374.739	363.44
374.965	374.44
375.191	355.44
375.416	266.44
375.642	232.44
375.868	281.44
376.094	309.44
376.319	285.44
376.545	304.44
376.771	291.44
376.997	270.44
377.222	204.44
377.448	196.44
377.674	200.44
377.899	182.44
378.125	183.44
378.35	197.44
378.576	180.44
378.802	200.44
379.027	202.44
379.253	228.44
379.478	216.44
379.704	238.44
379.929	242.44
380.155	264.44
380.38	228.44
380.606	218.44
380.831	259.44
381.057	237.44
381.282	224.44
381.507	263.44
381.733	302.44
381.958	317.44
382.184	328.44
382.409	371.44
382.634	345.44
382.86	366.44
383.085	318.44
383.31	264.44
383.535	272.44
383.761	279.44
383.986	284.44
384.211	293.44
384.436	290.44
384.662	238.44
384.887	248.44
385.112	253.44
385.337	260.44
385.562	213.44
385.787	258.44
386.013	284.44
386.238	294.44
386.463	253.44
386.688	226.44
386.913	241.44
387.138	215.44
387.363	236.44
387.588	254.44
387.813	234.44
388.038	255.44
388.263	223.44
388.488	222.44
388.713	270.44
388.938	267.44
389.163	230.44
389.387	214.44
389.612	211.44
389.837	231.44
390.062	247.44
390.287	233.44
390.512	223.44
390.736	233.44
390.961	219.44
391.186	204.44
391.411	206.44
391.636	222.44
391.86	205.44
392.085	250.44
392.31	266.44
392.534	250.44
392.759	241.44
392.984	246.44
393.208	242.44
393.433	211.44
393.658	221.44
393.882	202.44
394.107	209.44
394.331	211.44
394.556	195.44
394.78	211.44
395.005	205.44
395.229	214.44
395.454	207.44
395.678	229.44
395.903	221.44
396.127	220.44
396.352	215.44
396.576	250.44
396.801	255.44
397.025	269.44
397.249	282.44
397.474	226.44
397.698	224.44
397.922	234.44
398.147	238.44
398.371	221.44
398.595	231.44
398.82	222.44
399.044	229.44
399.268	267.44
399.492	282.44
399.717	291.44
399.941	276.44
400.165	266.44
400.389	254.44
400.613	229.44
400.837	240.44
401.062	218.44
401.286	231.44
401.51	231.44
401.734	216.44
401.958	228.44
402.182	237.44
402.406	252.44
402.63	252.44
402.854	237.44
403.078	295.44
403.302	370.44
403.526	378.44
403.75	328.44
403.974	270.44
404.198	282.44
404.422	315.44
404.645	332.44
404.869	357.44
405.093	300.44
405.317	267.44
405.541	240.44
405.765	249.44
405.988	253.44
406.212	272.44
406.436	304.44
406.66	334.44
406.883	276.44
407.107	284.44
407.331	322.44
407.555	314.44
407.778	293.44
408.002	293.44
408.226	292.44
408.449	279.44
408.673	269.44
408.896	256.44
409.12	241.44
409.344	239.44
409.567	230.44
409.791	240.44
410.014	244.44
410.238	242.44
410.461	227.44
410.685	236.44
410.908	221.44
411.132	254.44
411.355	252.44
411.578	249.44
411.802	242.44
412.025	237.44
412.249	270.44
412.472	239.44
412.695	254.44
412.919	238.44
413.142	249.44
413.365	237.44
413.589	253.44
413.812	240.44
414.035	238.44
414.258	244.44
414.482	260.44
414.705	267.44
414.928	225.44
415.151	225.44
415.374	226.44
415.597	210.44
415.821	246.44
416.044	240.44
416.267	241.44
416.49	229.44
416.713	226.44
416.936	222.44
417.159	213.44
417.382	234.44
417.605	228.44
417.828	230.44
418.051	229.44
418.274	228.44
418.497	236.44
418.72	221.44
418.943	247.44
419.166	266.44
419.389	265.44
419.611	236.44
419.834	257.44
420.057	257.44
420.28	272.44
420.503	253.44
420.726	232.44
420.948	206.44
421.171	228.44
421.394	225.44
421.617	198.44
421.839	245.44
422.062	230.44
422.285	230.44
422.507	223.44
422.73	236.44
422.953	227.44
423.175	252.44
423.398	230.44
423.621	272.44
423.843	270.44
424.066	257.44
424.288	246.44
424.511	232.44
424.733	232.44
424.956	253.44
425.178	263.44
425.401	306.44
425.623	372.44
425.846	309.44
426.068	242.44
426.291	264.44
426.513	253.44
426.735	233.44
426.958	249.44
427.18	295.44
427.402	360.44
427.625	356.44
427.847	321.44
428.069	258.44
428.292	239.44
428.514	233.44
428.736	239.44
428.958	266.44
429.181	320.44
429.403	284.44
429.625	229.44
429.847	217.44
430.069	225.44
430.292	230.44
430.514	218.44
430.736	241.44
430.958	286.44
431.18	264.44
431.402	221.44
431.624	211.44
431.846	236.44
432.068	211.44
432.29	215.44
432.512	243.44
432.734	266.44
432.956	262.44
433.178	232.44
433.4	226.44
433.622	232.44
433.844	231.44
434.066	258.44
434.287	257.44
434.509	234.44
434.731	256.44
434.953	238.44
435.175	254.44
435.397	250.44
435.618	225.44
435.84	217.44
436.062	238.44
436.284	227.44
436.505	207.44
436.727	194.44
436.949	200.44
437.17	209.44
437.392	215.44
437.614	219.44
437.835	210.44
438.057	222.44
438.278	258.44
438.5	313.44
438.721	320.44
438.943	236.44
439.165	212.44
439.386	204.44
439.608	216.44
439.829	221.44
440.05	212.44
440.272	241.44
440.493	242.44
440.715	302.44
440.936	252.44
441.158	231.44
441.379	208.44
441.6	249.44
441.822	262.44
442.043	247.44
442.264	238.44
442.486	245.44
442.707	225.44
442.928	250.44
443.149	208.44
443.371	226.44
443.592	227.44
443.813	245.44
444.034	229.44
444.255	236.44
444.476	255.44
444.698	257.44
444.919	269.44
445.14	342.44
445.361	289.44
445.582	258.44
445.803	249.44
446.024	240.44
446.245	237.44
446.466	234.44
446.687	253.44
446.908	237.44
447.129	224.44
447.35	216.44
447.571	208.44
447.792	219.44
448.013	210.44
448.234	214.44
448.455	208.44
448.675	221.44
448.896	211.44
449.117	209.44
449.338	217.44
449.559	224.44
449.779	235.44
450	236.44
450.221	239.44
450.442	227.44
450.662	234.44
450.883	211.44
451.104	213.44
451.324	196.44
451.545	210.44
451.766	212.44
451.986	199.44
452.207	201.44
452.428	197.44
452.648	212.44
452.869	219.44
453.089	197.44
453.31	225.44
453.53	203.44
453.751	203.44
453.971	201.44
454.192	202.44
454.412	215.44
454.633	204.44
454.853	206.44
455.073	213.44
455.294	194.44
455.514	196.44
455.734	205.44
455.955	214.44
456.175	201.44
456.395	204.44
456.616	186.44
456.836	196.44
457.056	187.44
457.276	189.44
457.497	173.44
457.717	192.44
457.937	209.44
458.157	196.44
458.377	201.44
458.598	200.44
458.818	212.44
459.038	202.44
459.258	210.44
459.478	231.44
459.698	240.44
459.918	245.44
460.138	212.44
460.358	236.44
460.578	240.44
460.798	239.44
461.018	256.44
461.238	236.44
461.458	213.44
461.678	229.44
461.898	279.44
462.118	252.44
462.338	255.44
462.558	264.44
462.777	249.44
462.997	289.44
463.217	279.44
463.437	295.44
463.657	266.44
463.876	264.44
464.096	296.44
464.316	282.44
464.536	273.44
464.755	277.44
464.975	272.44
465.195	270.44
465.414	271.44
465.634	258.44
465.854	224.44
466.073	231.44
466.293	227.44
466.512	220.44
466.732	267.44
466.951	259.44
467.171	242.44
467.391	225.44
467.61	215.44
467.829	231.44
468.049	246.44
468.268	219.44
468.488	219.44
468.707	236.44
468.927	233.44
469.146	274.44
469.365	259.44
469.585	245.44
469.804	249.44
470.023	267.44
470.243	252.44
470.462	220.44
470.681	239.44
470.901	230.44
471.12	244.44
471.339	238.44
471.558	219.44
471.777	247.44
471.997	250.44
472.216	272.44
472.435	253.44
472.654	256.44
472.873	257.44
473.092	242.44
473.311	261.44
473.53	234.44
473.749	229.44
473.968	240.44
474.187	238.44
474.406	226.44
474.625	237.44
474.844	227.44
475.063	250.44
475.282	257.44
475.501	256.44
475.72	293.44
475.939	272.44
476.158	268.44
476.377	302.44
476.596	333.44
476.814	350.44
477.033	291.44
477.252	242.44
477.471	250.44
477.69	244.44
477.908	257.44
478.127	284.44
478.346	276.44
478.564	311.44
478.783	280.44
479.002	270.44
479.22	304.44
479.439	330.44
479.658	287.44
479.876	267.44
480.095	261.44
480.313	300.44
480.532	276.44
480.751	279.44
480.969	281.44
481.188	306.44
481.406	301.44
481.624	287.44
481.843	273.44
482.061	269.44
482.28	272.44
482.498	371.44
482.717	336.44
482.935	286.44
483.153	275.44
483.372	264.44
483.59	258.44
483.808	262.44
484.027	262.44
484.245	255.44
484.463	240.44
484.681	259.44
484.9	261.44
485.118	286.44
485.336	265.44
485.554	266.44
485.772	256.44
485.99	282.44
486.209	310.44
486.427	302.44
486.645	306.44
486.863	300.44
487.081	300.44
487.299	325.44
487.517	335.44
487.735	272.44
487.953	279.44
488.171	289.44
488.389	292.44
488.607	269.44
488.825	277.44
489.043	297.44
489.261	320.44
489.479	338.44
489.696	305.44
489.914	281.44
490.132	264.44
490.35	261.44
490.568	263.44
490.786	266.44
491.003	278.44
491.221	272.44
491.439	272.44
491.657	271.44
491.874	298.44
492.092	328.44
492.31	365.44
492.527	358.44
492.745	341.44
492.963	291.44
493.18	293.44
493.398	295.44
493.615	318.44
493.833	291.44
494.05	288.44
494.268	280.44
494.485	292.44
494.703	285.44
494.92	285.44
495.138	284.44
495.355	266.44
495.573	276.44
495.79	313.44
496.008	385.44
496.225	339.44
496.442	305.44
496.66	294.44
496.877	318.44
497.094	310.44
497.312	302.44
497.529	305.44
497.746	306.44
497.963	312.44
498.181	325.44
498.398	367.44
498.615	361.44
498.832	380.44
499.049	404.44
499.267	387.44
499.484	393.44
499.701	400.44
499.918	453.44
500.135	503.44
500.352	526.44
500.569	544.44
500.786	561.44
501.003	529.44
501.22	481.44
501.437	421.44
501.654	401.44
501.871	376.44
502.088	386.44
502.305	335.44
502.522	349.44
