Data from NickelSpatula.Lamp.E5.5.P2_HRD10591_11-53-39-547.txt Node
Date: Tue Jul 23 11:53:39 EDT 2019
User: cochatt
Spectrometer: HR+D1059
Trigger mode: 1
Integration Time (sec): 1.000000E-1
Scans to average: 1
Electric dark correction enabled: true
Nonlinearity correction enabled: false
Boxcar width: 0
XAxis mode: Wavelengths
Number of Pixels in Spectrum: 2048
>>>>>Begin Spectral Data<<<<<
223.165	-14.25
223.4	-14.25
223.635	-14.25
223.869	-20.25
224.104	-15.25
224.338	-13.25
224.573	3.75
224.808	-12.25
225.042	-6.25
225.277	-6.25
225.511	13.75
225.746	1.75
225.98	-1.25
226.215	5.75
226.449	-4.25
226.683	14.75
226.918	21.75
227.152	31.75
227.387	31.75
227.621	55.75
227.856	43.75
228.09	53.75
228.324	57.75
228.559	52.75
228.793	63.75
229.027	66.75
229.262	67.75
229.496	76.75
229.73	85.75
229.964	77.75
230.199	90.75
230.433	98.75
230.667	91.75
230.901	93.75
231.136	90.75
231.37	93.75
231.604	110.75
231.838	99.75
232.072	93.75
232.306	104.75
232.541	92.75
232.775	94.75
233.009	96.75
233.243	100.75
233.477	118.75
233.711	113.75
233.945	114.75
234.179	118.75
234.413	123.75
234.647	127.75
234.881	147.75
235.115	130.75
235.349	119.75
235.583	125.75
235.817	115.75
236.051	118.75
236.285	134.75
236.519	134.75
236.753	129.75
236.987	116.75
237.221	114.75
237.455	128.75
237.689	131.75
237.922	141.75
238.156	139.75
238.39	138.75
238.624	177.75
238.858	159.75
239.091	129.75
239.325	151.75
239.559	152.75
239.793	136.75
240.027	167.75
240.26	155.75
240.494	144.75
240.728	145.75
240.961	172.75
241.195	155.75
241.429	169.75
241.662	151.75
241.896	136.75
242.13	127.75
242.363	138.75
242.597	131.75
242.83	157.75
243.064	144.75
243.298	156.75
243.531	162.75
243.765	172.75
243.998	161.75
244.232	157.75
244.465	155.75
244.699	147.75
244.932	175.75
245.166	155.75
245.399	146.75
245.633	150.75
245.866	161.75
246.099	171.75
246.333	180.75
246.566	197.75
246.8	171.75
247.033	183.75
247.266	174.75
247.5	157.75
247.733	169.75
247.966	162.75
248.2	177.75
248.433	189.75
248.666	183.75
248.899	180.75
249.133	198.75
249.366	238.75
249.599	213.75
249.832	215.75
250.066	198.75
250.299	204.75
250.532	181.75
250.765	202.75
250.998	170.75
251.231	183.75
251.465	182.75
251.698	208.75
251.931	193.75
252.164	194.75
252.397	204.75
252.63	228.75
252.863	256.75
253.096	252.75
253.329	255.75
253.562	255.75
253.795	269.75
254.028	297.75
254.261	301.75
254.494	271.75
254.727	231.75
254.96	236.75
255.193	271.75
255.426	240.75
255.659	205.75
255.892	198.75
256.124	199.75
256.357	231.75
256.59	251.75
256.823	249.75
257.056	225.75
257.289	210.75
257.521	216.75
257.754	271.75
257.987	292.75
258.22	244.75
258.452	231.75
258.685	242.75
258.918	259.75
259.151	273.75
259.383	292.75
259.616	292.75
259.849	298.75
260.081	339.75
260.314	365.75
260.547	319.75
260.779	319.75
261.012	363.75
261.244	330.75
261.477	322.75
261.71	325.75
261.942	262.75
262.175	283.75
262.407	268.75
262.64	255.75
262.872	303.75
263.105	327.75
263.337	337.75
263.57	318.75
263.802	254.75
264.035	208.75
264.267	229.75
264.499	184.75
264.732	206.75
264.964	172.75
265.197	177.75
265.429	190.75
265.661	197.75
265.894	190.75
266.126	203.75
266.358	228.75
266.591	259.75
266.823	316.75
267.055	302.75
267.287	271.75
267.52	279.75
267.752	301.75
267.984	317.75
268.216	305.75
268.448	256.75
268.681	245.75
268.913	254.75
269.145	279.75
269.377	267.75
269.609	284.75
269.841	279.75
270.073	272.75
270.306	292.75
270.538	300.75
270.77	291.75
271.002	313.75
271.234	311.75
271.466	313.75
271.698	300.75
271.93	287.75
272.162	284.75
272.394	290.75
272.626	292.75
272.858	274.75
273.09	315.75
273.322	282.75
273.553	262.75
273.785	307.75
274.017	379.75
274.249	457.75
274.481	462.75
274.713	501.75
274.945	564.75
275.176	586.75
275.408	509.75
275.64	485.75
275.872	495.75
276.104	425.75
276.335	371.75
276.567	381.75
276.799	398.75
277.031	408.75
277.262	335.75
277.494	266.75
277.726	251.75
277.957	277.75
278.189	299.75
278.421	315.75
278.652	311.75
278.884	269.75
279.115	266.75
279.347	279.75
279.579	257.75
279.81	261.75
280.042	262.75
280.273	286.75
280.505	246.75
280.736	230.75
280.968	222.75
281.199	248.75
281.431	266.75
281.662	257.75
281.894	232.75
282.125	279.75
282.356	272.75
282.588	273.75
282.819	273.75
283.051	280.75
283.282	325.75
283.513	353.75
283.745	429.75
283.976	423.75
284.207	403.75
284.439	398.75
284.67	399.75
284.901	339.75
285.132	383.75
285.364	402.75
285.595	379.75
285.826	378.75
286.057	396.75
286.288	383.75
286.52	390.75
286.751	401.75
286.982	396.75
287.213	365.75
287.444	342.75
287.675	348.75
287.906	353.75
288.138	311.75
288.369	301.75
288.6	295.75
288.831	269.75
289.062	317.75
289.293	371.75
289.524	340.75
289.755	317.75
289.986	348.75
290.217	307.75
290.448	222.75
290.679	231.75
290.91	205.75
291.141	199.75
291.371	211.75
291.602	213.75
291.833	208.75
292.064	239.75
292.295	255.75
292.526	285.75
292.757	287.75
292.987	312.75
293.218	312.75
293.449	341.75
293.68	364.75
293.91	346.75
294.141	353.75
294.372	326.75
294.603	283.75
294.833	323.75
295.064	393.75
295.295	383.75
295.525	293.75
295.756	249.75
295.987	227.75
296.217	215.75
296.448	230.75
296.679	236.75
296.909	257.75
297.14	282.75
297.37	303.75
297.601	287.75
297.831	245.75
298.062	264.75
298.292	292.75
298.523	290.75
298.753	345.75
298.984	335.75
299.214	287.75
299.445	257.75
299.675	230.75
299.905	223.75
300.136	224.75
300.366	251.75
300.597	257.75
300.827	221.75
301.057	227.75
301.288	223.75
301.518	240.75
301.748	260.75
301.979	289.75
302.209	301.75
302.439	300.75
302.669	245.75
302.9	273.75
303.13	257.75
303.36	243.75
303.59	255.75
303.82	255.75
304.051	270.75
304.281	271.75
304.511	272.75
304.741	257.75
304.971	251.75
305.201	287.75
305.431	262.75
305.661	238.75
305.891	245.75
306.121	222.75
306.352	209.75
306.582	198.75
306.812	196.75
307.042	197.75
307.272	177.75
307.502	203.75
307.731	220.75
307.961	209.75
308.191	193.75
308.421	198.75
308.651	186.75
308.881	176.75
309.111	185.75
309.341	195.75
309.571	213.75
309.8	201.75
310.03	211.75
310.26	196.75
310.49	207.75
310.72	197.75
310.949	220.75
311.179	196.75
311.409	204.75
311.639	220.75
311.868	286.75
312.098	345.75
312.328	383.75
312.557	353.75
312.787	366.75
313.017	327.75
313.246	363.75
313.476	383.75
313.706	317.75
313.935	263.75
314.165	223.75
314.394	210.75
314.624	211.75
314.853	230.75
315.083	209.75
315.312	217.75
315.542	218.75
315.771	212.75
316.001	206.75
316.23	191.75
316.46	188.75
316.689	165.75
316.919	210.75
317.148	205.75
317.377	209.75
317.607	185.75
317.836	205.75
318.065	237.75
318.295	260.75
318.524	259.75
318.753	205.75
318.983	198.75
319.212	204.75
319.441	208.75
319.67	244.75
319.9	252.75
320.129	236.75
320.358	213.75
320.587	207.75
320.816	199.75
321.046	239.75
321.275	255.75
321.504	265.75
321.733	246.75
321.962	248.75
322.191	223.75
322.42	215.75
322.649	228.75
322.878	244.75
323.108	227.75
323.337	237.75
323.566	248.75
323.795	235.75
324.024	235.75
324.253	225.75
324.482	211.75
324.71	240.75
324.939	256.75
325.168	252.75
325.397	210.75
325.626	199.75
325.855	223.75
326.084	222.75
326.313	193.75
326.542	206.75
326.77	199.75
326.999	189.75
327.228	206.75
327.457	231.75
327.686	217.75
327.914	198.75
328.143	162.75
328.372	197.75
328.6	198.75
328.829	195.75
329.058	211.75
329.287	175.75
329.515	204.75
329.744	200.75
329.972	209.75
330.201	192.75
330.43	186.75
330.658	197.75
330.887	224.75
331.115	229.75
331.344	233.75
331.572	230.75
331.801	204.75
332.03	206.75
332.258	202.75
332.486	215.75
332.715	221.75
332.943	214.75
333.172	233.75
333.4	216.75
333.629	235.75
333.857	241.75
334.085	260.75
334.314	261.75
334.542	227.75
334.771	228.75
334.999	214.75
335.227	211.75
335.455	214.75
335.684	232.75
335.912	256.75
336.14	280.75
336.369	275.75
336.597	263.75
336.825	277.75
337.053	291.75
337.281	245.75
337.51	237.75
337.738	214.75
337.966	225.75
338.194	229.75
338.422	233.75
338.65	216.75
338.878	208.75
339.106	192.75
339.334	224.75
339.562	228.75
339.79	211.75
340.018	210.75
340.246	219.75
340.474	236.75
340.702	243.75
340.93	263.75
341.158	271.75
341.386	228.75
341.614	206.75
341.842	225.75
342.07	243.75
342.298	265.75
342.526	266.75
342.754	257.75
342.981	255.75
343.209	239.75
343.437	253.75
343.665	258.75
343.893	269.75
344.12	296.75
344.348	342.75
344.576	288.75
344.804	260.75
345.031	215.75
345.259	202.75
345.487	200.75
345.714	223.75
345.942	226.75
346.17	245.75
346.397	264.75
346.625	215.75
346.853	207.75
347.08	227.75
347.308	245.75
347.535	251.75
347.763	274.75
347.99	227.75
348.218	220.75
348.445	194.75
348.673	223.75
348.9	207.75
349.128	232.75
349.355	226.75
349.583	223.75
349.81	232.75
350.037	208.75
350.265	197.75
350.492	184.75
350.72	189.75
350.947	201.75
351.174	193.75
351.402	182.75
351.629	207.75
351.856	211.75
352.083	193.75
352.311	216.75
352.538	243.75
352.765	239.75
352.992	215.75
353.22	209.75
353.447	228.75
353.674	212.75
353.901	207.75
354.128	209.75
354.355	225.75
354.583	213.75
354.81	237.75
355.037	228.75
355.264	229.75
355.491	228.75
355.718	252.75
355.945	251.75
356.172	227.75
356.399	231.75
356.626	242.75
356.853	318.75
357.08	330.75
357.307	337.75
357.534	271.75
357.761	279.75
357.988	344.75
358.215	412.75
358.441	337.75
358.668	311.75
358.895	286.75
359.122	238.75
359.349	269.75
359.576	306.75
359.802	236.75
360.029	212.75
360.256	222.75
360.483	281.75
360.709	318.75
360.936	337.75
361.163	306.75
361.39	239.75
361.616	214.75
361.843	262.75
362.07	279.75
362.296	266.75
362.523	201.75
362.749	217.75
362.976	224.75
363.203	254.75
363.429	276.75
363.656	223.75
363.882	196.75
364.109	228.75
364.335	207.75
364.562	230.75
364.788	228.75
365.015	262.75
365.241	251.75
365.468	212.75
365.694	197.75
365.92	183.75
366.147	184.75
366.373	185.75
366.599	168.75
366.826	208.75
367.052	181.75
367.278	200.75
367.505	199.75
367.731	201.75
367.957	212.75
368.184	217.75
368.41	210.75
368.636	214.75
368.862	249.75
369.089	222.75
369.315	181.75
369.541	183.75
369.767	204.75
369.993	195.75
370.219	221.75
370.445	218.75
370.672	237.75
370.898	252.75
371.124	229.75
371.35	200.75
371.576	198.75
371.802	216.75
372.028	256.75
372.254	279.75
372.48	262.75
372.706	233.75
372.932	239.75
373.158	248.75
373.384	264.75
373.61	340.75
373.835	371.75
374.061	280.75
374.287	253.75
374.513	292.75
374.739	318.75
374.965	333.75
375.191	332.75
375.416	232.75
375.642	231.75
375.868	257.75
376.094	275.75
376.319	263.75
376.545	266.75
376.771	250.75
376.997	243.75
377.222	209.75
377.448	178.75
377.674	185.75
377.899	201.75
378.125	203.75
378.35	189.75
378.576	174.75
378.802	204.75
379.027	219.75
379.253	225.75
379.478	201.75
379.704	237.75
379.929	227.75
380.155	224.75
380.38	217.75
380.606	223.75
380.831	231.75
381.057	224.75
381.282	235.75
381.507	239.75
381.733	294.75
381.958	308.75
382.184	318.75
382.409	333.75
382.634	321.75
382.86	337.75
383.085	286.75
383.31	269.75
383.535	270.75
383.761	284.75
383.986	254.75
384.211	289.75
384.436	295.75
384.662	258.75
384.887	238.75
385.112	229.75
385.337	237.75
385.562	226.75
385.787	266.75
386.013	273.75
386.238	288.75
386.463	231.75
386.688	249.75
386.913	240.75
387.138	196.75
387.363	232.75
387.588	237.75
387.813	231.75
388.038	269.75
388.263	239.75
388.488	231.75
388.713	249.75
388.938	258.75
389.163	231.75
389.387	193.75
389.612	207.75
389.837	222.75
390.062	212.75
390.287	235.75
390.512	226.75
390.736	207.75
390.961	196.75
391.186	201.75
391.411	193.75
391.636	205.75
391.86	219.75
392.085	255.75
392.31	247.75
392.534	229.75
392.759	227.75
392.984	228.75
393.208	223.75
393.433	211.75
393.658	205.75
393.882	207.75
394.107	207.75
394.331	206.75
394.556	206.75
394.78	190.75
395.005	198.75
395.229	208.75
395.454	214.75
395.678	201.75
395.903	221.75
396.127	203.75
396.352	211.75
396.576	229.75
396.801	215.75
397.025	230.75
397.249	254.75
397.474	225.75
397.698	224.75
397.922	230.75
398.147	202.75
398.371	219.75
398.595	248.75
398.82	224.75
399.044	245.75
399.268	245.75
399.492	269.75
399.717	284.75
399.941	278.75
400.165	271.75
400.389	239.75
400.613	247.75
400.837	233.75
401.062	228.75
401.286	208.75
401.51	211.75
401.734	221.75
401.958	241.75
402.182	235.75
402.406	224.75
402.63	226.75
402.854	257.75
403.078	281.75
403.302	350.75
403.526	358.75
403.75	306.75
403.974	265.75
404.198	287.75
404.422	305.75
404.645	319.75
404.869	335.75
405.093	277.75
405.317	240.75
405.541	249.75
405.765	253.75
405.988	258.75
406.212	256.75
406.436	294.75
406.66	313.75
406.883	253.75
407.107	286.75
407.331	324.75
407.555	292.75
407.778	272.75
408.002	275.75
408.226	271.75
408.449	260.75
408.673	254.75
408.896	263.75
409.12	230.75
409.344	243.75
409.567	249.75
409.791	220.75
410.014	236.75
410.238	223.75
410.461	222.75
410.685	236.75
410.908	221.75
411.132	224.75
411.355	232.75
411.578	241.75
411.802	246.75
412.025	237.75
412.249	235.75
412.472	224.75
412.695	222.75
412.919	232.75
413.142	231.75
413.365	239.75
413.589	235.75
413.812	233.75
414.035	242.75
414.258	231.75
414.482	224.75
414.705	261.75
414.928	209.75
415.151	208.75
415.374	197.75
415.597	233.75
415.821	243.75
416.044	244.75
416.267	225.75
416.49	225.75
416.713	216.75
416.936	226.75
417.159	227.75
417.382	218.75
417.605	226.75
417.828	226.75
418.051	217.75
418.274	228.75
418.497	221.75
418.72	249.75
418.943	245.75
419.166	255.75
419.389	239.75
419.611	230.75
419.834	245.75
420.057	279.75
420.28	279.75
420.503	234.75
420.726	228.75
420.948	240.75
421.171	238.75
421.394	234.75
421.617	225.75
421.839	232.75
422.062	239.75
422.285	235.75
422.507	233.75
422.73	241.75
422.953	247.75
423.175	222.75
423.398	231.75
423.621	241.75
423.843	273.75
424.066	247.75
424.288	239.75
424.511	243.75
424.733	224.75
424.956	231.75
425.178	271.75
425.401	271.75
425.623	342.75
425.846	292.75
426.068	239.75
426.291	240.75
426.513	240.75
426.735	230.75
426.958	232.75
427.18	284.75
427.402	320.75
427.625	326.75
427.847	305.75
428.069	225.75
428.292	222.75
428.514	214.75
428.736	204.75
428.958	241.75
429.181	285.75
429.403	241.75
429.625	233.75
429.847	220.75
430.069	230.75
430.292	229.75
430.514	222.75
430.736	224.75
430.958	276.75
431.18	247.75
431.402	203.75
431.624	207.75
431.846	201.75
432.068	204.75
432.29	220.75
432.512	224.75
432.734	267.75
432.956	263.75
433.178	213.75
433.4	205.75
433.622	227.75
433.844	211.75
434.066	238.75
434.287	227.75
434.509	236.75
434.731	262.75
434.953	248.75
435.175	251.75
435.397	281.75
435.618	226.75
435.84	206.75
436.062	200.75
436.284	219.75
436.505	226.75
436.727	229.75
436.949	193.75
437.17	196.75
437.392	216.75
437.614	217.75
437.835	206.75
438.057	191.75
438.278	228.75
438.5	301.75
438.721	304.75
438.943	227.75
439.165	207.75
439.386	200.75
439.608	196.75
439.829	212.75
440.05	216.75
440.272	213.75
440.493	236.75
440.715	283.75
440.936	239.75
441.158	210.75
441.379	221.75
441.6	248.75
441.822	257.75
442.043	234.75
442.264	237.75
442.486	219.75
442.707	221.75
442.928	226.75
443.149	222.75
443.371	232.75
443.592	228.75
443.813	230.75
444.034	224.75
444.255	228.75
444.476	239.75
444.698	247.75
444.919	253.75
445.14	344.75
445.361	286.75
445.582	259.75
445.803	246.75
446.024	223.75
446.245	226.75
446.466	238.75
446.687	221.75
446.908	211.75
447.129	222.75
447.35	212.75
447.571	208.75
447.792	209.75
448.013	207.75
448.234	204.75
448.455	208.75
448.675	186.75
448.896	214.75
449.117	198.75
449.338	206.75
449.559	223.75
449.779	231.75
450	248.75
450.221	211.75
450.442	220.75
450.662	202.75
450.883	207.75
451.104	210.75
451.324	207.75
451.545	203.75
451.766	194.75
451.986	203.75
452.207	201.75
452.428	185.75
452.648	231.75
452.869	213.75
453.089	239.75
453.31	203.75
453.53	204.75
453.751	213.75
453.971	210.75
454.192	207.75
454.412	207.75
454.633	201.75
454.853	196.75
455.073	186.75
455.294	199.75
455.514	186.75
455.734	193.75
455.955	201.75
456.175	215.75
456.395	193.75
456.616	190.75
456.836	193.75
457.056	175.75
457.276	187.75
457.497	184.75
457.717	190.75
457.937	181.75
458.157	197.75
458.377	176.75
458.598	180.75
458.818	192.75
459.038	213.75
459.258	229.75
459.478	202.75
459.698	216.75
459.918	226.75
460.138	232.75
460.358	229.75
460.578	245.75
460.798	239.75
461.018	227.75
461.238	228.75
461.458	227.75
461.678	223.75
461.898	232.75
462.118	233.75
462.338	224.75
462.558	233.75
462.777	261.75
462.997	257.75
463.217	263.75
463.437	311.75
463.657	276.75
463.876	259.75
464.096	254.75
464.316	248.75
464.536	247.75
464.755	276.75
464.975	258.75
465.195	257.75
465.414	260.75
465.634	231.75
465.854	229.75
466.073	232.75
466.293	199.75
466.512	227.75
466.732	242.75
466.951	265.75
467.171	231.75
467.391	231.75
467.61	209.75
467.829	234.75
468.049	224.75
468.268	213.75
468.488	233.75
468.707	210.75
468.927	255.75
469.146	283.75
469.365	243.75
469.585	228.75
469.804	245.75
470.023	271.75
470.243	238.75
470.462	224.75
470.681	222.75
470.901	242.75
471.12	245.75
471.339	259.75
471.558	215.75
471.777	240.75
471.997	225.75
472.216	262.75
472.435	254.75
472.654	241.75
472.873	246.75
473.092	259.75
473.311	251.75
473.53	238.75
473.749	221.75
473.968	251.75
474.187	210.75
474.406	254.75
474.625	222.75
474.844	228.75
475.063	244.75
475.282	232.75
475.501	271.75
475.72	277.75
475.939	259.75
476.158	256.75
476.377	284.75
476.596	315.75
476.814	328.75
477.033	267.75
477.252	255.75
477.471	244.75
477.69	237.75
477.908	259.75
478.127	259.75
478.346	273.75
478.564	294.75
478.783	259.75
479.002	251.75
479.22	302.75
479.439	320.75
479.658	268.75
479.876	265.75
480.095	283.75
480.313	297.75
480.532	287.75
480.751	250.75
480.969	269.75
481.188	293.75
481.406	304.75
481.624	275.75
481.843	256.75
482.061	263.75
482.28	268.75
482.498	323.75
482.717	294.75
482.935	284.75
483.153	273.75
483.372	252.75
483.59	248.75
483.808	239.75
484.027	243.75
484.245	240.75
484.463	231.75
484.681	238.75
484.9	270.75
485.118	282.75
485.336	240.75
485.554	243.75
485.772	265.75
485.99	281.75
486.209	277.75
486.427	303.75
486.645	262.75
486.863	292.75
487.081	289.75
487.299	293.75
487.517	260.75
487.735	273.75
487.953	283.75
488.171	274.75
488.389	268.75
488.607	260.75
488.825	275.75
489.043	272.75
489.261	304.75
489.479	305.75
489.696	276.75
489.914	255.75
490.132	249.75
490.35	258.75
490.568	240.75
490.786	260.75
491.003	288.75
491.221	273.75
491.439	252.75
491.657	247.75
491.874	275.75
492.092	311.75
492.31	359.75
492.527	351.75
492.745	332.75
492.963	295.75
493.18	280.75
493.398	286.75
493.615	260.75
493.833	267.75
494.05	278.75
494.268	298.75
494.485	285.75
494.703	269.75
494.92	276.75
495.138	260.75
495.355	275.75
495.573	273.75
495.79	275.75
496.008	342.75
496.225	299.75
496.442	293.75
496.66	299.75
496.877	315.75
497.094	308.75
497.312	288.75
497.529	283.75
497.746	293.75
497.963	295.75
498.181	321.75
498.398	334.75
498.615	340.75
498.832	350.75
499.049	371.75
499.267	356.75
499.484	379.75
499.701	390.75
499.918	426.75
500.135	492.75
500.352	530.75
500.569	497.75
500.786	527.75
501.003	526.75
501.22	459.75
501.437	439.75
501.654	394.75
501.871	365.75
502.088	388.75
502.305	331.75
502.522	348.75
