Data from NickelSpatula.Lamp.E5.5.P2_HRD10591_11-53-16-550.txt Node
Date: Tue Jul 23 11:53:16 EDT 2019
User: cochatt
Spectrometer: HR+D1059
Trigger mode: 1
Integration Time (sec): 1.000000E-1
Scans to average: 1
Electric dark correction enabled: true
Nonlinearity correction enabled: false
Boxcar width: 0
XAxis mode: Wavelengths
Number of Pixels in Spectrum: 2048
>>>>>Begin Spectral Data<<<<<
223.165	-19.06
223.4	-19.06
223.635	-19.06
223.869	-14.06
224.104	-20.06
224.338	-9.06
224.573	-11.06
224.808	-12.06
225.042	-17.06
225.277	-10.06
225.511	-10.06
225.746	-0.06
225.98	3.94
226.215	14.94
226.449	30.94
226.683	22.94
226.918	18.94
227.152	30.94
227.387	29.94
227.621	40.94
227.856	34.94
228.09	49.94
228.324	58.94
228.559	56.94
228.793	64.94
229.027	68.94
229.262	65.94
229.496	86.94
229.73	92.94
229.964	58.94
230.199	85.94
230.433	81.94
230.667	108.94
230.901	85.94
231.136	91.94
231.37	102.94
231.604	102.94
231.838	92.94
232.072	109.94
232.306	108.94
232.541	115.94
232.775	88.94
233.009	119.94
233.243	116.94
233.477	128.94
233.711	137.94
233.945	130.94
234.179	103.94
234.413	121.94
234.647	130.94
234.881	147.94
235.115	139.94
235.349	127.94
235.583	129.94
235.817	115.94
236.051	126.94
236.285	124.94
236.519	138.94
236.753	98.94
236.987	130.94
237.221	126.94
237.455	124.94
237.689	132.94
237.922	146.94
238.156	140.94
238.39	130.94
238.624	156.94
238.858	158.94
239.091	134.94
239.325	126.94
239.559	149.94
239.793	154.94
240.027	167.94
240.26	160.94
240.494	163.94
240.728	138.94
240.961	176.94
241.195	159.94
241.429	160.94
241.662	174.94
241.896	136.94
242.13	132.94
242.363	122.94
242.597	135.94
242.83	144.94
243.064	158.94
243.298	151.94
243.531	172.94
243.765	157.94
243.998	152.94
244.232	152.94
244.465	167.94
244.699	158.94
244.932	167.94
245.166	169.94
245.399	147.94
245.633	138.94
245.866	178.94
246.099	163.94
246.333	166.94
246.566	178.94
246.8	190.94
247.033	184.94
247.266	166.94
247.5	184.94
247.733	171.94
247.966	177.94
248.2	175.94
248.433	170.94
248.666	186.94
248.899	194.94
249.133	205.94
249.366	227.94
249.599	223.94
249.832	225.94
250.066	195.94
250.299	194.94
250.532	199.94
250.765	180.94
250.998	175.94
251.231	167.94
251.465	185.94
251.698	188.94
251.931	190.94
252.164	200.94
252.397	225.94
252.63	232.94
252.863	260.94
253.096	246.94
253.329	249.94
253.562	230.94
253.795	258.94
254.028	288.94
254.261	278.94
254.494	247.94
254.727	222.94
254.96	244.94
255.193	249.94
255.426	243.94
255.659	193.94
255.892	180.94
256.124	192.94
256.357	229.94
256.59	254.94
256.823	243.94
257.056	232.94
257.289	219.94
257.521	227.94
257.754	268.94
257.987	296.94
258.22	243.94
258.452	243.94
258.685	227.94
258.918	254.94
259.151	254.94
259.383	261.94
259.616	332.94
259.849	345.94
260.081	363.94
260.314	361.94
260.547	309.94
260.779	314.94
261.012	332.94
261.244	325.94
261.477	326.94
261.71	292.94
261.942	276.94
262.175	267.94
262.407	256.94
262.64	266.94
262.872	286.94
263.105	322.94
263.337	353.94
263.57	312.94
263.802	234.94
264.035	212.94
264.267	226.94
264.499	195.94
264.732	186.94
264.964	182.94
265.197	169.94
265.429	186.94
265.661	205.94
265.894	201.94
266.126	205.94
266.358	227.94
266.591	273.94
266.823	289.94
267.055	298.94
267.287	274.94
267.52	260.94
267.752	276.94
267.984	304.94
268.216	282.94
268.448	260.94
268.681	242.94
268.913	244.94
269.145	272.94
269.377	276.94
269.609	278.94
269.841	253.94
270.073	268.94
270.306	293.94
270.538	313.94
270.77	295.94
271.002	294.94
271.234	295.94
271.466	318.94
271.698	289.94
271.93	306.94
272.162	290.94
272.394	287.94
272.626	267.94
272.858	286.94
273.09	312.94
273.322	272.94
273.553	253.94
273.785	272.94
274.017	345.94
274.249	445.94
274.481	438.94
274.713	486.94
274.945	562.94
275.176	565.94
275.408	510.94
275.64	498.94
275.872	491.94
276.104	421.94
276.335	364.94
276.567	350.94
276.799	390.94
277.031	401.94
277.262	330.94
277.494	254.94
277.726	247.94
277.957	266.94
278.189	298.94
278.421	293.94
278.652	309.94
278.884	280.94
279.115	263.94
279.347	255.94
279.579	267.94
279.81	260.94
280.042	279.94
280.273	272.94
280.505	276.94
280.736	222.94
280.968	226.94
281.199	222.94
281.431	270.94
281.662	261.94
281.894	257.94
282.125	274.94
282.356	268.94
282.588	285.94
282.819	266.94
283.051	286.94
283.282	326.94
283.513	391.94
283.745	404.94
283.976	413.94
284.207	399.94
284.439	425.94
284.67	402.94
284.901	344.94
285.132	372.94
285.364	402.94
285.595	360.94
285.826	386.94
286.057	374.94
286.288	366.94
286.52	388.94
286.751	412.94
286.982	385.94
287.213	333.94
287.444	348.94
287.675	372.94
287.906	342.94
288.138	310.94
288.369	278.94
288.6	288.94
288.831	291.94
289.062	327.94
289.293	337.94
289.524	319.94
289.755	314.94
289.986	331.94
290.217	304.94
290.448	234.94
290.679	245.94
290.91	201.94
291.141	201.94
291.371	214.94
291.602	231.94
291.833	224.94
292.064	238.94
292.295	263.94
292.526	280.94
292.757	293.94
292.987	325.94
293.218	302.94
293.449	339.94
293.68	363.94
293.91	340.94
294.141	359.94
294.372	348.94
294.603	304.94
294.833	338.94
295.064	394.94
295.295	377.94
295.525	274.94
295.756	251.94
295.987	232.94
296.217	228.94
296.448	232.94
296.679	236.94
296.909	259.94
297.14	272.94
297.37	290.94
297.601	294.94
297.831	260.94
298.062	263.94
298.292	282.94
298.523	307.94
298.753	342.94
298.984	324.94
299.214	266.94
299.445	226.94
299.675	238.94
299.905	229.94
300.136	226.94
300.366	235.94
300.597	247.94
300.827	216.94
301.057	233.94
301.288	232.94
301.518	242.94
301.748	283.94
301.979	288.94
302.209	298.94
302.439	313.94
302.669	279.94
302.9	269.94
303.13	253.94
303.36	250.94
303.59	262.94
303.82	252.94
304.051	269.94
304.281	297.94
304.511	278.94
304.741	258.94
304.971	265.94
305.201	277.94
305.431	274.94
305.661	232.94
305.891	234.94
306.121	239.94
306.352	219.94
306.582	200.94
306.812	200.94
307.042	193.94
307.272	190.94
307.502	212.94
307.731	220.94
307.961	215.94
308.191	196.94
308.421	186.94
308.651	188.94
308.881	186.94
309.111	189.94
309.341	198.94
309.571	210.94
309.8	206.94
310.03	199.94
310.26	226.94
310.49	210.94
310.72	210.94
310.949	200.94
311.179	224.94
311.409	214.94
311.639	222.94
311.868	280.94
312.098	352.94
312.328	363.94
312.557	359.94
312.787	359.94
313.017	322.94
313.246	345.94
313.476	372.94
313.706	326.94
313.935	291.94
314.165	218.94
314.394	232.94
314.624	221.94
314.853	228.94
315.083	220.94
315.312	198.94
315.542	217.94
315.771	219.94
316.001	207.94
316.23	211.94
316.46	191.94
316.689	198.94
316.919	196.94
317.148	225.94
317.377	203.94
317.607	182.94
317.836	212.94
318.065	235.94
318.295	232.94
318.524	215.94
318.753	238.94
318.983	202.94
319.212	217.94
319.441	220.94
319.67	230.94
319.9	243.94
320.129	227.94
320.358	207.94
320.587	209.94
320.816	217.94
321.046	229.94
321.275	270.94
321.504	265.94
321.733	257.94
321.962	228.94
322.191	236.94
322.42	213.94
322.649	248.94
322.878	262.94
323.108	239.94
323.337	235.94
323.566	232.94
323.795	241.94
324.024	221.94
324.253	219.94
324.482	204.94
324.71	229.94
324.939	246.94
325.168	239.94
325.397	223.94
325.626	208.94
325.855	211.94
326.084	212.94
326.313	207.94
326.542	191.94
326.77	202.94
326.999	190.94
327.228	207.94
327.457	225.94
327.686	227.94
327.914	197.94
328.143	187.94
328.372	205.94
328.6	186.94
328.829	208.94
329.058	203.94
329.287	223.94
329.515	181.94
329.744	214.94
329.972	194.94
330.201	186.94
330.43	196.94
330.658	210.94
330.887	232.94
331.115	234.94
331.344	219.94
331.572	226.94
331.801	219.94
332.03	228.94
332.258	218.94
332.486	212.94
332.715	219.94
332.943	220.94
333.172	210.94
333.4	211.94
333.629	236.94
333.857	252.94
334.085	267.94
334.314	252.94
334.542	230.94
334.771	224.94
334.999	217.94
335.227	218.94
335.455	231.94
335.684	241.94
335.912	266.94
336.14	279.94
336.369	273.94
336.597	266.94
336.825	274.94
337.053	318.94
337.281	269.94
337.51	229.94
337.738	209.94
337.966	232.94
338.194	254.94
338.422	246.94
338.65	239.94
338.878	214.94
339.106	224.94
339.334	219.94
339.562	222.94
339.79	215.94
340.018	228.94
340.246	223.94
340.474	221.94
340.702	258.94
340.93	276.94
341.158	261.94
341.386	256.94
341.614	239.94
341.842	237.94
342.07	216.94
342.298	262.94
342.526	275.94
342.754	260.94
342.981	242.94
343.209	235.94
343.437	256.94
343.665	274.94
343.893	271.94
344.12	304.94
344.348	349.94
344.576	315.94
344.804	246.94
345.031	227.94
345.259	220.94
345.487	223.94
345.714	236.94
345.942	252.94
346.17	257.94
346.397	257.94
346.625	219.94
346.853	211.94
347.08	219.94
347.308	231.94
347.535	264.94
347.763	261.94
347.99	240.94
348.218	222.94
348.445	216.94
348.673	225.94
348.9	229.94
349.128	254.94
349.355	236.94
349.583	230.94
349.81	234.94
350.037	206.94
350.265	188.94
350.492	176.94
350.72	190.94
350.947	200.94
351.174	209.94
351.402	215.94
351.629	224.94
351.856	228.94
352.083	195.94
352.311	216.94
352.538	228.94
352.765	227.94
352.992	243.94
353.22	226.94
353.447	221.94
353.674	210.94
353.901	222.94
354.128	216.94
354.355	218.94
354.583	223.94
354.81	209.94
355.037	231.94
355.264	211.94
355.491	223.94
355.718	256.94
355.945	244.94
356.172	232.94
356.399	224.94
356.626	285.94
356.853	309.94
357.08	338.94
357.307	342.94
357.534	288.94
357.761	286.94
357.988	358.94
358.215	411.94
358.441	382.94
358.668	318.94
358.895	308.94
359.122	265.94
359.349	276.94
359.576	291.94
359.802	249.94
360.029	219.94
360.256	238.94
360.483	274.94
360.709	305.94
360.936	342.94
361.163	288.94
361.39	247.94
361.616	233.94
361.843	248.94
362.07	283.94
362.296	258.94
362.523	242.94
362.749	211.94
362.976	222.94
363.203	250.94
363.429	272.94
363.656	235.94
363.882	234.94
364.109	247.94
364.335	231.94
364.562	227.94
364.788	228.94
365.015	268.94
365.241	240.94
365.468	214.94
365.694	192.94
365.92	199.94
366.147	176.94
366.373	198.94
366.599	201.94
366.826	191.94
367.052	190.94
367.278	202.94
367.505	194.94
367.731	195.94
367.957	221.94
368.184	228.94
368.41	226.94
368.636	209.94
368.862	238.94
369.089	216.94
369.315	187.94
369.541	211.94
369.767	202.94
369.993	220.94
370.219	211.94
370.445	214.94
370.672	232.94
370.898	264.94
371.124	229.94
371.35	226.94
371.576	208.94
371.802	235.94
372.028	235.94
372.254	293.94
372.48	271.94
372.706	223.94
372.932	253.94
373.158	257.94
373.384	281.94
373.61	355.94
373.835	359.94
374.061	289.94
374.287	262.94
374.513	287.94
374.739	343.94
374.965	351.94
375.191	322.94
375.416	260.94
375.642	244.94
375.868	277.94
376.094	268.94
376.319	260.94
376.545	278.94
376.771	280.94
376.997	253.94
377.222	221.94
377.448	191.94
377.674	197.94
377.899	202.94
378.125	188.94
378.35	182.94
378.576	168.94
378.802	195.94
379.027	215.94
379.253	222.94
379.478	219.94
379.704	242.94
379.929	254.94
380.155	225.94
380.38	227.94
380.606	227.94
380.831	231.94
381.057	230.94
381.282	220.94
381.507	246.94
381.733	290.94
381.958	304.94
382.184	324.94
382.409	338.94
382.634	335.94
382.86	341.94
383.085	292.94
383.31	250.94
383.535	280.94
383.761	275.94
383.986	261.94
384.211	287.94
384.436	283.94
384.662	225.94
384.887	223.94
385.112	227.94
385.337	247.94
385.562	240.94
385.787	235.94
386.013	264.94
386.238	295.94
386.463	223.94
386.688	240.94
386.913	233.94
387.138	202.94
387.363	228.94
387.588	238.94
387.813	229.94
388.038	258.94
388.263	224.94
388.488	221.94
388.713	244.94
388.938	270.94
389.163	232.94
389.387	215.94
389.612	229.94
389.837	216.94
390.062	248.94
390.287	248.94
390.512	239.94
390.736	239.94
390.961	216.94
391.186	216.94
391.411	224.94
391.636	215.94
391.86	226.94
392.085	249.94
392.31	254.94
392.534	233.94
392.759	211.94
392.984	254.94
393.208	221.94
393.433	216.94
393.658	200.94
393.882	196.94
394.107	199.94
394.331	196.94
394.556	206.94
394.78	209.94
395.005	203.94
395.229	220.94
395.454	200.94
395.678	209.94
395.903	214.94
396.127	214.94
396.352	231.94
396.576	221.94
396.801	222.94
397.025	254.94
397.249	250.94
397.474	223.94
397.698	232.94
397.922	239.94
398.147	219.94
398.371	216.94
398.595	228.94
398.82	227.94
399.044	243.94
399.268	252.94
399.492	286.94
399.717	292.94
399.941	278.94
400.165	276.94
400.389	263.94
400.613	254.94
400.837	251.94
401.062	242.94
401.286	219.94
401.51	228.94
401.734	228.94
401.958	227.94
402.182	239.94
402.406	230.94
402.63	229.94
402.854	258.94
403.078	282.94
403.302	343.94
403.526	373.94
403.75	328.94
403.974	288.94
404.198	291.94
404.422	301.94
404.645	312.94
404.869	338.94
405.093	291.94
405.317	263.94
405.541	243.94
405.765	265.94
405.988	262.94
406.212	249.94
406.436	286.94
406.66	324.94
406.883	280.94
407.107	261.94
407.331	307.94
407.555	305.94
407.778	286.94
408.002	274.94
408.226	286.94
408.449	268.94
408.673	233.94
408.896	241.94
409.12	230.94
409.344	233.94
409.567	252.94
409.791	261.94
410.014	242.94
410.238	223.94
410.461	238.94
410.685	218.94
410.908	243.94
411.132	239.94
411.355	243.94
411.578	236.94
411.802	247.94
412.025	243.94
412.249	243.94
412.472	251.94
412.695	238.94
412.919	240.94
413.142	234.94
413.365	252.94
413.589	246.94
413.812	242.94
414.035	223.94
414.258	233.94
414.482	246.94
414.705	267.94
414.928	240.94
415.151	213.94
415.374	224.94
415.597	229.94
415.821	232.94
416.044	244.94
416.267	232.94
416.49	229.94
416.713	202.94
416.936	223.94
417.159	228.94
417.382	238.94
417.605	243.94
417.828	222.94
418.051	229.94
418.274	243.94
418.497	241.94
418.72	238.94
418.943	253.94
419.166	247.94
419.389	254.94
419.611	249.94
419.834	235.94
420.057	266.94
420.28	258.94
420.503	258.94
420.726	226.94
420.948	230.94
421.171	226.94
421.394	228.94
421.617	223.94
421.839	216.94
422.062	226.94
422.285	210.94
422.507	226.94
422.73	228.94
422.953	250.94
423.175	231.94
423.398	250.94
423.621	251.94
423.843	274.94
424.066	255.94
424.288	244.94
424.511	231.94
424.733	234.94
424.956	249.94
425.178	244.94
425.401	280.94
425.623	356.94
425.846	312.94
426.068	244.94
426.291	262.94
426.513	250.94
426.735	227.94
426.958	244.94
427.18	266.94
427.402	332.94
427.625	330.94
427.847	295.94
428.069	234.94
428.292	236.94
428.514	237.94
428.736	228.94
428.958	259.94
429.181	294.94
429.403	255.94
429.625	232.94
429.847	233.94
430.069	222.94
430.292	235.94
430.514	232.94
430.736	228.94
430.958	276.94
431.18	251.94
431.402	221.94
431.624	210.94
431.846	206.94
432.068	218.94
432.29	226.94
432.512	231.94
432.734	275.94
432.956	265.94
433.178	242.94
433.4	222.94
433.622	230.94
433.844	217.94
434.066	235.94
434.287	236.94
434.509	239.94
434.731	232.94
434.953	254.94
435.175	248.94
435.397	272.94
435.618	231.94
435.84	208.94
436.062	210.94
436.284	203.94
436.505	228.94
436.727	212.94
436.949	220.94
437.17	225.94
437.392	214.94
437.614	223.94
437.835	210.94
438.057	224.94
438.278	229.94
438.5	290.94
438.721	325.94
438.943	244.94
439.165	216.94
439.386	225.94
439.608	206.94
439.829	190.94
440.05	201.94
440.272	213.94
440.493	241.94
440.715	293.94
440.936	243.94
441.158	221.94
441.379	227.94
441.6	243.94
441.822	270.94
442.043	252.94
442.264	219.94
442.486	232.94
442.707	240.94
442.928	240.94
443.149	239.94
443.371	239.94
443.592	250.94
443.813	234.94
444.034	257.94
444.255	246.94
444.476	242.94
444.698	263.94
444.919	254.94
445.14	343.94
445.361	303.94
445.582	257.94
445.803	225.94
446.024	215.94
446.245	227.94
446.466	236.94
446.687	219.94
446.908	235.94
447.129	236.94
447.35	233.94
447.571	220.94
447.792	218.94
448.013	206.94
448.234	214.94
448.455	219.94
448.675	226.94
448.896	200.94
449.117	222.94
449.338	219.94
449.559	217.94
449.779	215.94
450	216.94
450.221	212.94
450.442	226.94
450.662	221.94
450.883	218.94
451.104	220.94
451.324	215.94
451.545	208.94
451.766	212.94
451.986	223.94
452.207	204.94
452.428	206.94
452.648	213.94
452.869	216.94
453.089	202.94
453.31	213.94
453.53	206.94
453.751	188.94
453.971	213.94
454.192	203.94
454.412	212.94
454.633	198.94
454.853	216.94
455.073	194.94
455.294	201.94
455.514	195.94
455.734	199.94
455.955	194.94
456.175	198.94
456.395	187.94
456.616	195.94
456.836	202.94
457.056	194.94
457.276	195.94
457.497	200.94
457.717	191.94
457.937	212.94
458.157	186.94
458.377	192.94
458.598	208.94
458.818	203.94
459.038	226.94
459.258	219.94
459.478	226.94
459.698	235.94
459.918	234.94
460.138	251.94
460.358	242.94
460.578	231.94
460.798	246.94
461.018	242.94
461.238	222.94
461.458	226.94
461.678	246.94
461.898	257.94
462.118	255.94
462.338	251.94
462.558	244.94
462.777	259.94
462.997	290.94
463.217	294.94
463.437	290.94
463.657	258.94
463.876	259.94
464.096	270.94
464.316	268.94
464.536	277.94
464.755	264.94
464.975	266.94
465.195	255.94
465.414	261.94
465.634	242.94
465.854	231.94
466.073	222.94
466.293	231.94
466.512	228.94
466.732	255.94
466.951	259.94
467.171	230.94
467.391	232.94
467.61	198.94
467.829	212.94
468.049	246.94
468.268	224.94
468.488	218.94
468.707	214.94
468.927	242.94
469.146	248.94
469.365	255.94
469.585	232.94
469.804	239.94
470.023	248.94
470.243	258.94
470.462	232.94
470.681	231.94
470.901	226.94
471.12	243.94
471.339	246.94
471.558	217.94
471.777	241.94
471.997	225.94
472.216	258.94
472.435	257.94
472.654	229.94
472.873	226.94
473.092	252.94
473.311	246.94
473.53	227.94
473.749	224.94
473.968	250.94
474.187	231.94
474.406	224.94
474.625	224.94
474.844	217.94
475.063	233.94
475.282	236.94
475.501	254.94
475.72	270.94
475.939	260.94
476.158	262.94
476.377	298.94
476.596	311.94
476.814	326.94
477.033	307.94
477.252	259.94
477.471	241.94
477.69	253.94
477.908	248.94
478.127	275.94
478.346	267.94
478.564	273.94
478.783	271.94
479.002	268.94
479.22	305.94
479.439	314.94
479.658	268.94
479.876	261.94
480.095	295.94
480.313	292.94
480.532	269.94
480.751	274.94
480.969	267.94
481.188	293.94
481.406	314.94
481.624	269.94
481.843	267.94
482.061	247.94
482.28	279.94
482.498	336.94
482.717	332.94
482.935	275.94
483.153	258.94
483.372	250.94
483.59	243.94
483.808	254.94
484.027	242.94
484.245	241.94
484.463	246.94
484.681	234.94
484.9	262.94
485.118	288.94
485.336	262.94
485.554	257.94
485.772	278.94
485.99	263.94
486.209	275.94
486.427	283.94
486.645	272.94
486.863	290.94
487.081	284.94
487.299	310.94
487.517	293.94
487.735	276.94
487.953	285.94
488.171	274.94
488.389	270.94
488.607	263.94
488.825	261.94
489.043	286.94
489.261	282.94
489.479	314.94
489.696	294.94
489.914	270.94
490.132	257.94
490.35	256.94
490.568	263.94
490.786	278.94
491.003	263.94
491.221	274.94
491.439	251.94
491.657	261.94
491.874	274.94
492.092	325.94
492.31	358.94
492.527	339.94
492.745	318.94
492.963	275.94
493.18	296.94
493.398	286.94
493.615	276.94
493.833	296.94
494.05	290.94
494.268	295.94
494.485	267.94
494.703	284.94
494.92	295.94
495.138	262.94
495.355	264.94
495.573	271.94
495.79	287.94
496.008	351.94
496.225	328.94
496.442	287.94
496.66	286.94
496.877	297.94
497.094	306.94
497.312	288.94
497.529	292.94
497.746	284.94
497.963	303.94
498.181	325.94
498.398	341.94
498.615	363.94
498.832	371.94
499.049	390.94
499.267	369.94
499.484	380.94
499.701	401.94
499.918	430.94
500.135	483.94
500.352	510.94
500.569	547.94
500.786	560.94
501.003	528.94
501.22	475.94
501.437	448.94
501.654	389.94
501.871	369.94
502.088	363.94
502.305	341.94
502.522	345.94
