Data from NickelSpatula_HRD10591_16-33-47-126.txt Node
Date: Mon Jul 22 16:33:47 EDT 2019
User: cochatt
Spectrometer: HR+D1059
Trigger mode: 1
Integration Time (sec): 1.000000E-1
Scans to average: 1
Electric dark correction enabled: true
Nonlinearity correction enabled: false
Boxcar width: 0
XAxis mode: Wavelengths
Number of Pixels in Spectrum: 2048
>>>>>Begin Spectral Data<<<<<
223.165	-6.81
223.4	-6.81
223.635	-6.81
223.869	-7.81
224.104	-21.81
224.338	-12.81
224.573	-14.81
224.808	-2.81
225.042	-12.81
225.277	-14.81
225.511	3.19
225.746	7.19
225.98	14.19
226.215	5.19
226.449	6.19
226.683	16.19
226.918	23.19
227.152	19.19
227.387	39.19
227.621	42.19
227.856	54.19
228.09	54.19
228.324	51.19
228.559	66.19
228.793	71.19
229.027	69.19
229.262	73.19
229.496	74.19
229.73	76.19
229.964	85.19
230.199	93.19
230.433	111.19
230.667	96.19
230.901	99.19
231.136	99.19
231.37	103.19
231.604	105.19
231.838	104.19
232.072	119.19
232.306	99.19
232.541	100.19
232.775	112.19
233.009	105.19
233.243	108.19
233.477	119.19
233.711	131.19
233.945	110.19
234.179	127.19
234.413	123.19
234.647	128.19
234.881	142.19
235.115	138.19
235.349	139.19
235.583	119.19
235.817	115.19
236.051	127.19
236.285	132.19
236.519	127.19
236.753	127.19
236.987	135.19
237.221	133.19
237.455	151.19
237.689	141.19
237.922	131.19
238.156	148.19
238.39	160.19
238.624	174.19
238.858	155.19
239.091	143.19
239.325	158.19
239.559	139.19
239.793	132.19
240.027	169.19
240.26	145.19
240.494	156.19
240.728	152.19
240.961	169.19
241.195	165.19
241.429	157.19
241.662	161.19
241.896	152.19
242.13	124.19
242.363	145.19
242.597	157.19
242.83	157.19
243.064	144.19
243.298	141.19
243.531	173.19
243.765	178.19
243.998	163.19
244.232	165.19
244.465	163.19
244.699	167.19
244.932	167.19
245.166	161.19
245.399	152.19
245.633	155.19
245.866	164.19
246.099	161.19
246.333	183.19
246.566	185.19
246.8	185.19
247.033	199.19
247.266	194.19
247.5	177.19
247.733	168.19
247.966	168.19
248.2	163.19
248.433	190.19
248.666	192.19
248.899	187.19
249.133	201.19
249.366	239.19
249.599	228.19
249.832	225.19
250.066	193.19
250.299	200.19
250.532	201.19
250.765	216.19
250.998	197.19
251.231	172.19
251.465	198.19
251.698	199.19
251.931	194.19
252.164	197.19
252.397	219.19
252.63	241.19
252.863	267.19
253.096	265.19
253.329	259.19
253.562	267.19
253.795	276.19
254.028	287.19
254.261	288.19
254.494	269.19
254.727	250.19
254.96	237.19
255.193	252.19
255.426	240.19
255.659	208.19
255.892	204.19
256.124	196.19
256.357	243.19
256.59	268.19
256.823	243.19
257.056	238.19
257.289	208.19
257.521	233.19
257.754	281.19
257.987	297.19
258.22	264.19
258.452	231.19
258.685	246.19
258.918	270.19
259.151	268.19
259.383	284.19
259.616	332.19
259.849	344.19
260.081	342.19
260.314	365.19
260.547	300.19
260.779	319.19
261.012	363.19
261.244	330.19
261.477	326.19
261.71	326.19
261.942	281.19
262.175	294.19
262.407	279.19
262.64	278.19
262.872	307.19
263.105	324.19
263.337	355.19
263.57	307.19
263.802	234.19
264.035	217.19
264.267	219.19
264.499	193.19
264.732	179.19
264.964	181.19
265.197	185.19
265.429	196.19
265.661	211.19
265.894	199.19
266.126	223.19
266.358	234.19
266.591	261.19
266.823	327.19
267.055	312.19
267.287	293.19
267.52	296.19
267.752	285.19
267.984	327.19
268.216	315.19
268.448	266.19
268.681	269.19
268.913	271.19
269.145	276.19
269.377	302.19
269.609	317.19
269.841	293.19
270.073	302.19
270.306	313.19
270.538	323.19
270.77	312.19
271.002	327.19
271.234	332.19
271.466	353.19
271.698	328.19
271.93	298.19
272.162	309.19
272.394	300.19
272.626	313.19
272.858	315.19
273.09	310.19
273.322	289.19
273.553	274.19
273.785	284.19
274.017	371.19
274.249	446.19
274.481	464.19
274.713	502.19
274.945	551.19
275.176	571.19
275.408	525.19
275.64	503.19
275.872	513.19
276.104	430.19
276.335	402.19
276.567	375.19
276.799	385.19
277.031	409.19
277.262	337.19
277.494	273.19
277.726	268.19
277.957	268.19
278.189	320.19
278.421	337.19
278.652	315.19
278.884	308.19
279.115	270.19
279.347	272.19
279.579	271.19
279.81	277.19
280.042	273.19
280.273	278.19
280.505	272.19
280.736	245.19
280.968	231.19
281.199	239.19
281.431	264.19
281.662	279.19
281.894	243.19
282.125	280.19
282.356	292.19
282.588	318.19
282.819	269.19
283.051	277.19
283.282	336.19
283.513	383.19
283.745	423.19
283.976	436.19
284.207	392.19
284.439	410.19
284.67	388.19
284.901	353.19
285.132	368.19
285.364	399.19
285.595	368.19
285.826	413.19
286.057	401.19
286.288	409.19
286.52	386.19
286.751	409.19
286.982	443.19
287.213	381.19
287.444	382.19
287.675	374.19
287.906	373.19
288.138	340.19
288.369	302.19
288.6	283.19
288.831	295.19
289.062	327.19
289.293	343.19
289.524	354.19
289.755	337.19
289.986	344.19
290.217	304.19
290.448	258.19
290.679	238.19
290.91	218.19
291.141	231.19
291.371	219.19
291.602	226.19
291.833	223.19
292.064	235.19
292.295	265.19
292.526	282.19
292.757	303.19
292.987	325.19
293.218	349.19
293.449	344.19
293.68	364.19
293.91	347.19
294.141	356.19
294.372	357.19
294.603	292.19
294.833	333.19
295.064	380.19
295.295	364.19
295.525	292.19
295.756	234.19
295.987	227.19
296.217	219.19
296.448	247.19
296.679	237.19
296.909	248.19
297.14	286.19
297.37	320.19
297.601	282.19
297.831	248.19
298.062	253.19
298.292	303.19
298.523	305.19
298.753	338.19
298.984	311.19
299.214	276.19
299.445	245.19
299.675	252.19
299.905	233.19
300.136	219.19
300.366	247.19
300.597	232.19
300.827	231.19
301.057	207.19
301.288	248.19
301.518	236.19
301.748	259.19
301.979	255.19
302.209	287.19
302.439	284.19
302.669	277.19
302.9	273.19
303.13	261.19
303.36	248.19
303.59	246.19
303.82	241.19
304.051	250.19
304.281	283.19
304.511	292.19
304.741	248.19
304.971	261.19
305.201	240.19
305.431	259.19
305.661	215.19
305.891	223.19
306.121	228.19
306.352	197.19
306.582	196.19
306.812	199.19
307.042	206.19
307.272	176.19
307.502	200.19
307.731	179.19
307.961	198.19
308.191	206.19
308.421	195.19
308.651	169.19
308.881	183.19
309.111	182.19
309.341	183.19
309.571	199.19
309.8	213.19
310.03	191.19
310.26	210.19
310.49	193.19
310.72	203.19
310.949	206.19
311.179	177.19
311.409	202.19
311.639	215.19
311.868	269.19
312.098	348.19
312.328	383.19
312.557	359.19
312.787	360.19
313.017	326.19
313.246	346.19
313.476	379.19
313.706	329.19
313.935	264.19
314.165	228.19
314.394	214.19
314.624	207.19
314.853	224.19
315.083	237.19
315.312	208.19
315.542	222.19
315.771	203.19
316.001	185.19
316.23	194.19
316.46	175.19
316.689	200.19
316.919	195.19
317.148	196.19
317.377	196.19
317.607	185.19
317.836	206.19
318.065	217.19
318.295	241.19
318.524	237.19
318.753	218.19
318.983	198.19
319.212	193.19
319.441	216.19
319.67	228.19
319.9	231.19
320.129	244.19
320.358	207.19
320.587	201.19
320.816	220.19
321.046	231.19
321.275	257.19
321.504	259.19
321.733	244.19
321.962	245.19
322.191	231.19
322.42	234.19
322.649	232.19
322.878	243.19
323.108	248.19
323.337	247.19
323.566	228.19
323.795	225.19
324.024	217.19
324.253	212.19
324.482	205.19
324.71	218.19
324.939	247.19
325.168	208.19
325.397	185.19
325.626	204.19
325.855	200.19
326.084	205.19
326.313	205.19
326.542	190.19
326.77	200.19
326.999	202.19
327.228	204.19
327.457	209.19
327.686	207.19
327.914	191.19
328.143	188.19
328.372	189.19
328.6	184.19
328.829	207.19
329.058	204.19
329.287	189.19
329.515	200.19
329.744	189.19
329.972	183.19
330.201	173.19
330.43	179.19
330.658	199.19
330.887	228.19
331.115	209.19
331.344	211.19
331.572	202.19
331.801	189.19
332.03	181.19
332.258	191.19
332.486	203.19
332.715	208.19
332.943	208.19
333.172	191.19
333.4	190.19
333.629	222.19
333.857	226.19
334.085	230.19
334.314	224.19
334.542	249.19
334.771	219.19
334.999	212.19
335.227	210.19
335.455	203.19
335.684	223.19
335.912	258.19
336.14	272.19
336.369	257.19
336.597	246.19
336.825	278.19
337.053	302.19
337.281	254.19
337.51	212.19
337.738	223.19
337.966	204.19
338.194	238.19
338.422	231.19
338.65	193.19
338.878	205.19
339.106	187.19
339.334	212.19
339.562	229.19
339.79	191.19
340.018	202.19
340.246	229.19
340.474	221.19
340.702	250.19
340.93	227.19
341.158	268.19
341.386	231.19
341.614	211.19
341.842	243.19
342.07	243.19
342.298	249.19
342.526	274.19
342.754	249.19
342.981	215.19
343.209	211.19
343.437	237.19
343.665	241.19
343.893	246.19
344.12	272.19
344.348	312.19
344.576	306.19
344.804	249.19
345.031	224.19
345.259	202.19
345.487	217.19
345.714	208.19
345.942	216.19
346.17	264.19
346.397	230.19
346.625	209.19
346.853	199.19
347.08	200.19
347.308	208.19
347.535	223.19
347.763	249.19
347.99	221.19
348.218	195.19
348.445	212.19
348.673	210.19
348.9	208.19
349.128	197.19
349.355	198.19
349.583	223.19
349.81	206.19
350.037	215.19
350.265	182.19
350.492	173.19
350.72	159.19
350.947	175.19
351.174	177.19
351.402	192.19
351.629	207.19
351.856	191.19
352.083	188.19
352.311	204.19
352.538	209.19
352.765	238.19
352.992	228.19
353.22	207.19
353.447	208.19
353.674	215.19
353.901	172.19
354.128	192.19
354.355	203.19
354.583	223.19
354.81	219.19
355.037	231.19
355.264	209.19
355.491	218.19
355.718	238.19
355.945	245.19
356.172	232.19
356.399	212.19
356.626	233.19
356.853	296.19
357.08	326.19
357.307	348.19
357.534	267.19
357.761	267.19
357.988	327.19
358.215	378.19
358.441	347.19
358.668	309.19
358.895	296.19
359.122	230.19
359.349	235.19
359.576	255.19
359.802	214.19
360.029	203.19
360.256	208.19
360.483	244.19
360.709	321.19
360.936	302.19
361.163	283.19
361.39	222.19
361.616	212.19
361.843	228.19
362.07	277.19
362.296	265.19
362.523	216.19
362.749	195.19
362.976	211.19
363.203	233.19
363.429	275.19
363.656	220.19
363.882	209.19
364.109	215.19
364.335	212.19
364.562	213.19
364.788	215.19
365.015	248.19
365.241	216.19
365.468	214.19
365.694	189.19
365.92	176.19
366.147	176.19
366.373	171.19
366.599	174.19
366.826	174.19
367.052	192.19
367.278	169.19
367.505	158.19
367.731	175.19
367.957	207.19
368.184	206.19
368.41	203.19
368.636	221.19
368.862	215.19
369.089	219.19
369.315	187.19
369.541	208.19
369.767	192.19
369.993	170.19
370.219	185.19
370.445	192.19
370.672	206.19
370.898	231.19
371.124	231.19
371.35	191.19
371.576	185.19
371.802	195.19
372.028	204.19
372.254	252.19
372.48	227.19
372.706	214.19
372.932	205.19
373.158	220.19
373.384	249.19
373.61	302.19
373.835	330.19
374.061	265.19
374.287	228.19
374.513	261.19
374.739	318.19
374.965	315.19
375.191	305.19
375.416	211.19
375.642	216.19
375.868	237.19
376.094	251.19
376.319	220.19
376.545	219.19
376.771	259.19
376.997	237.19
377.222	187.19
377.448	169.19
377.674	163.19
377.899	157.19
378.125	177.19
378.35	159.19
378.576	171.19
378.802	189.19
379.027	204.19
379.253	202.19
379.478	191.19
379.704	217.19
379.929	225.19
380.155	228.19
380.38	212.19
380.606	220.19
380.831	234.19
381.057	223.19
381.282	192.19
381.507	220.19
381.733	273.19
381.958	280.19
382.184	315.19
382.409	329.19
382.634	300.19
382.86	319.19
383.085	282.19
383.31	223.19
383.535	246.19
383.761	247.19
383.986	235.19
384.211	276.19
384.436	270.19
384.662	224.19
384.887	211.19
385.112	225.19
385.337	224.19
385.562	208.19
385.787	216.19
386.013	257.19
386.238	234.19
386.463	201.19
386.688	201.19
386.913	190.19
387.138	199.19
387.363	197.19
387.588	232.19
387.813	195.19
388.038	241.19
388.263	210.19
388.488	204.19
388.713	244.19
388.938	258.19
389.163	234.19
389.387	185.19
389.612	199.19
389.837	199.19
390.062	205.19
390.287	206.19
390.512	215.19
390.736	210.19
390.961	189.19
391.186	185.19
391.411	186.19
391.636	184.19
391.86	196.19
392.085	222.19
392.31	214.19
392.534	193.19
392.759	209.19
392.984	207.19
393.208	193.19
393.433	216.19
393.658	174.19
393.882	183.19
394.107	200.19
394.331	169.19
394.556	167.19
394.78	180.19
395.005	189.19
395.229	190.19
395.454	190.19
395.678	207.19
395.903	194.19
396.127	205.19
396.352	191.19
396.576	197.19
396.801	213.19
397.025	236.19
397.249	249.19
397.474	202.19
397.698	209.19
397.922	213.19
398.147	197.19
398.371	198.19
398.595	226.19
398.82	195.19
399.044	199.19
399.268	222.19
399.492	236.19
399.717	230.19
399.941	231.19
400.165	211.19
400.389	208.19
400.613	222.19
400.837	202.19
401.062	180.19
401.286	192.19
401.51	195.19
401.734	185.19
401.958	215.19
402.182	199.19
402.406	185.19
402.63	203.19
402.854	214.19
403.078	259.19
403.302	291.19
403.526	281.19
403.75	286.19
403.974	232.19
404.198	228.19
404.422	249.19
404.645	267.19
404.869	298.19
405.093	269.19
405.317	208.19
405.541	220.19
405.765	228.19
405.988	231.19
406.212	223.19
406.436	234.19
406.66	261.19
406.883	234.19
407.107	245.19
407.331	275.19
407.555	263.19
407.778	232.19
408.002	243.19
408.226	247.19
408.449	216.19
408.673	218.19
408.896	200.19
409.12	176.19
409.344	223.19
409.567	200.19
409.791	212.19
410.014	188.19
410.238	202.19
410.461	198.19
410.685	196.19
410.908	193.19
411.132	225.19
411.355	200.19
411.578	205.19
411.802	209.19
412.025	195.19
412.249	208.19
412.472	206.19
412.695	198.19
412.919	206.19
413.142	218.19
413.365	218.19
413.589	231.19
413.812	205.19
414.035	204.19
414.258	202.19
414.482	221.19
414.705	219.19
414.928	192.19
415.151	200.19
415.374	200.19
415.597	195.19
415.821	205.19
416.044	200.19
416.267	189.19
416.49	193.19
416.713	181.19
416.936	201.19
417.159	209.19
417.382	198.19
417.605	196.19
417.828	204.19
418.051	182.19
418.274	185.19
418.497	221.19
418.72	202.19
418.943	209.19
419.166	228.19
419.389	231.19
419.611	228.19
419.834	229.19
420.057	235.19
420.28	227.19
420.503	219.19
420.726	201.19
420.948	186.19
421.171	205.19
421.394	185.19
421.617	191.19
421.839	196.19
422.062	196.19
422.285	189.19
422.507	204.19
422.73	211.19
422.953	209.19
423.175	193.19
423.398	199.19
423.621	228.19
423.843	231.19
424.066	215.19
424.288	208.19
424.511	195.19
424.733	183.19
424.956	215.19
425.178	232.19
425.401	273.19
425.623	285.19
425.846	253.19
426.068	212.19
426.291	219.19
426.513	217.19
426.735	207.19
426.958	211.19
427.18	219.19
427.402	276.19
427.625	292.19
427.847	244.19
428.069	199.19
428.292	185.19
428.514	199.19
428.736	197.19
428.958	199.19
429.181	245.19
429.403	229.19
429.625	202.19
429.847	200.19
430.069	198.19
430.292	197.19
430.514	205.19
430.736	183.19
430.958	231.19
431.18	201.19
431.402	189.19
431.624	182.19
431.846	174.19
432.068	167.19
432.29	183.19
432.512	190.19
432.734	231.19
432.956	239.19
433.178	180.19
433.4	199.19
433.622	181.19
433.844	191.19
434.066	214.19
434.287	201.19
434.509	206.19
434.731	221.19
434.953	191.19
435.175	219.19
435.397	233.19
435.618	208.19
435.84	178.19
436.062	179.19
436.284	180.19
436.505	180.19
436.727	186.19
436.949	179.19
437.17	189.19
437.392	190.19
437.614	196.19
437.835	193.19
438.057	181.19
438.278	197.19
438.5	282.19
438.721	259.19
438.943	200.19
439.165	175.19
439.386	183.19
439.608	173.19
439.829	183.19
440.05	169.19
440.272	161.19
440.493	198.19
440.715	241.19
440.936	207.19
441.158	195.19
441.379	196.19
441.6	207.19
441.822	223.19
442.043	201.19
442.264	183.19
442.486	192.19
442.707	194.19
442.928	198.19
443.149	183.19
443.371	206.19
443.592	194.19
443.813	194.19
444.034	186.19
444.255	196.19
444.476	213.19
444.698	202.19
444.919	221.19
445.14	351.19
445.361	270.19
445.582	220.19
445.803	205.19
446.024	215.19
446.245	213.19
446.466	205.19
446.687	187.19
446.908	195.19
447.129	183.19
447.35	189.19
447.571	169.19
447.792	168.19
448.013	184.19
448.234	185.19
448.455	159.19
448.675	169.19
448.896	186.19
449.117	176.19
449.338	192.19
449.559	183.19
449.779	195.19
450	193.19
450.221	195.19
450.442	192.19
450.662	179.19
450.883	187.19
451.104	183.19
451.324	182.19
451.545	180.19
451.766	173.19
451.986	171.19
452.207	166.19
452.428	187.19
452.648	179.19
452.869	191.19
453.089	196.19
453.31	195.19
453.53	171.19
453.751	166.19
453.971	179.19
454.192	159.19
454.412	175.19
454.633	176.19
454.853	171.19
455.073	170.19
455.294	168.19
455.514	161.19
455.734	182.19
455.955	203.19
456.175	199.19
456.395	167.19
456.616	174.19
456.836	160.19
457.056	167.19
457.276	154.19
457.497	156.19
457.717	161.19
457.937	176.19
458.157	169.19
458.377	174.19
458.598	160.19
458.818	184.19
459.038	180.19
459.258	176.19
459.478	187.19
459.698	190.19
459.918	200.19
460.138	197.19
460.358	190.19
460.578	198.19
460.798	195.19
461.018	196.19
461.238	197.19
461.458	197.19
461.678	201.19
461.898	207.19
462.118	205.19
462.338	204.19
462.558	200.19
462.777	209.19
462.997	232.19
463.217	215.19
463.437	221.19
463.657	218.19
463.876	204.19
464.096	193.19
464.316	197.19
464.536	217.19
464.755	242.19
464.975	247.19
465.195	220.19
465.414	217.19
465.634	202.19
465.854	197.19
466.073	187.19
466.293	196.19
466.512	200.19
466.732	205.19
466.951	225.19
467.171	199.19
467.391	199.19
467.61	186.19
467.829	209.19
468.049	205.19
468.268	170.19
468.488	182.19
468.707	203.19
468.927	215.19
469.146	230.19
469.365	216.19
469.585	202.19
469.804	204.19
470.023	216.19
470.243	212.19
470.462	208.19
470.681	202.19
470.901	199.19
471.12	233.19
471.339	210.19
471.558	185.19
471.777	181.19
471.997	204.19
472.216	219.19
472.435	232.19
472.654	211.19
472.873	196.19
473.092	204.19
473.311	234.19
473.53	195.19
473.749	209.19
473.968	200.19
474.187	216.19
474.406	205.19
474.625	207.19
474.844	186.19
475.063	220.19
475.282	222.19
475.501	227.19
475.72	241.19
475.939	243.19
476.158	221.19
476.377	254.19
476.596	284.19
476.814	314.19
477.033	262.19
477.252	229.19
477.471	197.19
477.69	203.19
477.908	219.19
478.127	229.19
478.346	215.19
478.564	265.19
478.783	235.19
479.002	215.19
479.22	261.19
479.439	271.19
479.658	257.19
479.876	234.19
480.095	226.19
480.313	264.19
480.532	239.19
480.751	226.19
480.969	209.19
481.188	243.19
481.406	233.19
481.624	266.19
481.843	224.19
482.061	234.19
482.28	229.19
482.498	304.19
482.717	312.19
482.935	253.19
483.153	228.19
483.372	211.19
483.59	222.19
483.808	204.19
484.027	214.19
484.245	203.19
484.463	202.19
484.681	210.19
484.9	216.19
485.118	246.19
485.336	225.19
485.554	218.19
485.772	215.19
485.99	233.19
486.209	244.19
486.427	237.19
486.645	231.19
486.863	238.19
487.081	220.19
487.299	269.19
487.517	290.19
487.735	209.19
487.953	253.19
488.171	240.19
488.389	218.19
488.607	220.19
488.825	236.19
489.043	262.19
489.261	297.19
489.479	324.19
489.696	252.19
489.914	236.19
490.132	221.19
490.35	241.19
490.568	231.19
490.786	221.19
491.003	217.19
491.221	237.19
491.439	228.19
491.657	213.19
491.874	230.19
492.092	287.19
492.31	336.19
492.527	344.19
492.745	276.19
492.963	241.19
493.18	243.19
493.398	251.19
493.615	246.19
493.833	244.19
494.05	237.19
494.268	255.19
494.485	240.19
494.703	244.19
494.92	243.19
495.138	229.19
495.355	234.19
495.573	257.19
495.79	283.19
496.008	360.19
496.225	302.19
496.442	278.19
496.66	287.19
496.877	290.19
497.094	265.19
497.312	256.19
497.529	246.19
497.746	248.19
497.963	263.19
498.181	261.19
498.398	287.19
498.615	291.19
498.832	321.19
499.049	329.19
499.267	299.19
499.484	315.19
499.701	319.19
499.918	338.19
500.135	363.19
500.352	399.19
500.569	401.19
500.786	419.19
501.003	410.19
501.22	378.19
501.437	356.19
501.654	333.19
501.871	323.19
502.088	323.19
502.305	281.19
502.522	287.19
502.739	295.19
