Data from NickelSpatula_HRD10591_16-36-21-126.txt Node
Date: Mon Jul 22 16:36:21 EDT 2019
User: cochatt
Spectrometer: HR+D1059
Trigger mode: 1
Integration Time (sec): 1.000000E-1
Scans to average: 1
Electric dark correction enabled: true
Nonlinearity correction enabled: false
Boxcar width: 0
XAxis mode: Wavelengths
Number of Pixels in Spectrum: 2048
>>>>>Begin Spectral Data<<<<<
223.165	-21.25
223.4	-21.25
223.635	-21.25
223.869	-22.25
224.104	-15.25
224.338	-35.25
224.573	-8.25
224.808	-10.25
225.042	-4.25
225.277	-0.25
225.511	-1.25
225.746	9.75
225.98	16.75
226.215	3.75
226.449	8.75
226.683	21.75
226.918	21.75
227.152	35.75
227.387	55.75
227.621	41.75
227.856	51.75
228.09	40.75
228.324	62.75
228.559	47.75
228.793	64.75
229.027	65.75
229.262	58.75
229.496	71.75
229.73	67.75
229.964	87.75
230.199	63.75
230.433	59.75
230.667	81.75
230.901	79.75
231.136	82.75
231.37	90.75
231.604	90.75
231.838	97.75
232.072	83.75
232.306	92.75
232.541	80.75
232.775	85.75
233.009	92.75
233.243	97.75
233.477	87.75
233.711	102.75
233.945	96.75
234.179	86.75
234.413	94.75
234.647	83.75
234.881	98.75
235.115	99.75
235.349	85.75
235.583	98.75
235.817	88.75
236.051	95.75
236.285	97.75
236.519	95.75
236.753	89.75
236.987	102.75
237.221	93.75
237.455	104.75
237.689	111.75
237.922	100.75
238.156	88.75
238.39	119.75
238.624	117.75
238.858	114.75
239.091	92.75
239.325	97.75
239.559	96.75
239.793	105.75
240.027	125.75
240.26	106.75
240.494	101.75
240.728	98.75
240.961	120.75
241.195	119.75
241.429	111.75
241.662	111.75
241.896	90.75
242.13	113.75
242.363	108.75
242.597	103.75
242.83	110.75
243.064	100.75
243.298	105.75
243.531	102.75
243.765	105.75
243.998	108.75
244.232	89.75
244.465	99.75
244.699	94.75
244.932	100.75
245.166	99.75
245.399	105.75
245.633	106.75
245.866	99.75
246.099	95.75
246.333	119.75
246.566	129.75
246.8	115.75
247.033	129.75
247.266	101.75
247.5	115.75
247.733	106.75
247.966	115.75
248.2	118.75
248.433	118.75
248.666	112.75
248.899	115.75
249.133	106.75
249.366	116.75
249.599	136.75
249.832	121.75
250.066	120.75
250.299	113.75
250.532	132.75
250.765	123.75
250.998	112.75
251.231	127.75
251.465	125.75
251.698	123.75
251.931	118.75
252.164	120.75
252.397	117.75
252.63	122.75
252.863	142.75
253.096	132.75
253.329	137.75
253.562	135.75
253.795	138.75
254.028	142.75
254.261	145.75
254.494	158.75
254.727	141.75
254.96	125.75
255.193	136.75
255.426	130.75
255.659	126.75
255.892	135.75
256.124	128.75
256.357	131.75
256.59	131.75
256.823	145.75
257.056	145.75
257.289	110.75
257.521	123.75
257.754	120.75
257.987	154.75
258.22	134.75
258.452	124.75
258.685	124.75
258.918	150.75
259.151	153.75
259.383	142.75
259.616	170.75
259.849	172.75
260.081	168.75
260.314	183.75
260.547	155.75
260.779	138.75
261.012	166.75
261.244	179.75
261.477	173.75
261.71	159.75
261.942	144.75
262.175	140.75
262.407	146.75
262.64	142.75
262.872	137.75
263.105	174.75
263.337	171.75
263.57	141.75
263.802	120.75
264.035	130.75
264.267	127.75
264.499	107.75
264.732	127.75
264.964	116.75
265.197	109.75
265.429	121.75
265.661	123.75
265.894	135.75
266.126	114.75
266.358	129.75
266.591	150.75
266.823	159.75
267.055	152.75
267.287	139.75
267.52	139.75
267.752	145.75
267.984	163.75
268.216	158.75
268.448	132.75
268.681	136.75
268.913	155.75
269.145	160.75
269.377	159.75
269.609	149.75
269.841	146.75
270.073	151.75
270.306	148.75
270.538	151.75
270.77	154.75
271.002	163.75
271.234	168.75
271.466	154.75
271.698	156.75
271.93	151.75
272.162	163.75
272.394	170.75
272.626	151.75
272.858	157.75
273.09	155.75
273.322	127.75
273.553	148.75
273.785	154.75
274.017	170.75
274.249	195.75
274.481	205.75
274.713	223.75
274.945	253.75
275.176	249.75
275.408	232.75
275.64	205.75
275.872	205.75
276.104	185.75
276.335	182.75
276.567	175.75
276.799	181.75
277.031	195.75
277.262	160.75
277.494	129.75
277.726	155.75
277.957	156.75
278.189	152.75
278.421	151.75
278.652	145.75
278.884	146.75
279.115	135.75
279.347	145.75
279.579	146.75
279.81	149.75
280.042	143.75
280.273	147.75
280.505	141.75
280.736	139.75
280.968	129.75
281.199	133.75
281.431	135.75
281.662	138.75
281.894	133.75
282.125	144.75
282.356	141.75
282.588	147.75
282.819	147.75
283.051	159.75
283.282	162.75
283.513	188.75
283.745	183.75
283.976	202.75
284.207	176.75
284.439	187.75
284.67	165.75
284.901	173.75
285.132	184.75
285.364	186.75
285.595	192.75
285.826	192.75
286.057	194.75
286.288	195.75
286.52	204.75
286.751	192.75
286.982	195.75
287.213	177.75
287.444	165.75
287.675	184.75
287.906	190.75
288.138	152.75
288.369	154.75
288.6	164.75
288.831	139.75
289.062	169.75
289.293	189.75
289.524	166.75
289.755	189.75
289.986	164.75
290.217	168.75
290.448	125.75
290.679	138.75
290.91	136.75
291.141	126.75
291.371	129.75
291.602	127.75
291.833	124.75
292.064	129.75
292.295	156.75
292.526	151.75
292.757	159.75
292.987	153.75
293.218	175.75
293.449	174.75
293.68	182.75
293.91	167.75
294.141	183.75
294.372	169.75
294.603	156.75
294.833	155.75
295.064	180.75
295.295	187.75
295.525	150.75
295.756	142.75
295.987	130.75
296.217	129.75
296.448	125.75
296.679	135.75
296.909	132.75
297.14	143.75
297.37	159.75
297.601	153.75
297.831	135.75
298.062	132.75
298.292	144.75
298.523	156.75
298.753	157.75
298.984	149.75
299.214	141.75
299.445	136.75
299.675	131.75
299.905	131.75
300.136	123.75
300.366	118.75
300.597	132.75
300.827	122.75
301.057	122.75
301.288	125.75
301.518	131.75
301.748	151.75
301.979	135.75
302.209	133.75
302.439	141.75
302.669	144.75
302.9	141.75
303.13	139.75
303.36	131.75
303.59	136.75
303.82	131.75
304.051	138.75
304.281	144.75
304.511	140.75
304.741	145.75
304.971	135.75
305.201	129.75
305.431	137.75
305.661	122.75
305.891	131.75
306.121	129.75
306.352	120.75
306.582	103.75
306.812	121.75
307.042	122.75
307.272	103.75
307.502	122.75
307.731	121.75
307.961	124.75
308.191	110.75
308.421	118.75
308.651	116.75
308.881	135.75
309.111	113.75
309.341	123.75
309.571	113.75
309.8	124.75
310.03	125.75
310.26	107.75
310.49	125.75
310.72	119.75
310.949	114.75
311.179	107.75
311.409	121.75
311.639	135.75
311.868	146.75
312.098	183.75
312.328	183.75
312.557	168.75
312.787	178.75
313.017	151.75
313.246	183.75
313.476	176.75
313.706	147.75
313.935	140.75
314.165	131.75
314.394	132.75
314.624	125.75
314.853	127.75
315.083	119.75
315.312	121.75
315.542	131.75
315.771	123.75
316.001	105.75
316.23	120.75
316.46	119.75
316.689	130.75
316.919	121.75
317.148	127.75
317.377	125.75
317.607	123.75
317.836	114.75
318.065	126.75
318.295	127.75
318.524	132.75
318.753	121.75
318.983	124.75
319.212	136.75
319.441	114.75
319.67	137.75
319.9	136.75
320.129	129.75
320.358	125.75
320.587	118.75
320.816	134.75
321.046	136.75
321.275	139.75
321.504	123.75
321.733	135.75
321.962	138.75
322.191	136.75
322.42	121.75
322.649	134.75
322.878	127.75
323.108	123.75
323.337	132.75
323.566	132.75
323.795	123.75
324.024	132.75
324.253	132.75
324.482	127.75
324.71	124.75
324.939	141.75
325.168	125.75
325.397	114.75
325.626	128.75
325.855	133.75
326.084	119.75
326.313	120.75
326.542	110.75
326.77	121.75
326.999	116.75
327.228	121.75
327.457	122.75
327.686	119.75
327.914	127.75
328.143	115.75
328.372	115.75
328.6	120.75
328.829	113.75
329.058	113.75
329.287	119.75
329.515	131.75
329.744	126.75
329.972	130.75
330.201	115.75
330.43	120.75
330.658	131.75
330.887	119.75
331.115	120.75
331.344	129.75
331.572	114.75
331.801	129.75
332.03	131.75
332.258	131.75
332.486	121.75
332.715	134.75
332.943	125.75
333.172	118.75
333.4	137.75
333.629	135.75
333.857	133.75
334.085	115.75
334.314	150.75
334.542	121.75
334.771	131.75
334.999	129.75
335.227	118.75
335.455	120.75
335.684	129.75
335.912	144.75
336.14	145.75
336.369	152.75
336.597	135.75
336.825	142.75
337.053	143.75
337.281	144.75
337.51	137.75
337.738	128.75
337.966	117.75
338.194	134.75
338.422	111.75
338.65	112.75
338.878	125.75
339.106	116.75
339.334	131.75
339.562	134.75
339.79	122.75
340.018	133.75
340.246	141.75
340.474	146.75
340.702	147.75
340.93	153.75
341.158	149.75
341.386	125.75
341.614	129.75
341.842	132.75
342.07	132.75
342.298	163.75
342.526	159.75
342.754	138.75
342.981	129.75
343.209	136.75
343.437	140.75
343.665	127.75
343.893	135.75
344.12	144.75
344.348	153.75
344.576	155.75
344.804	124.75
345.031	129.75
345.259	124.75
345.487	125.75
345.714	124.75
345.942	132.75
346.17	145.75
346.397	137.75
346.625	119.75
346.853	118.75
347.08	128.75
347.308	135.75
347.535	133.75
347.763	130.75
347.99	131.75
348.218	135.75
348.445	123.75
348.673	121.75
348.9	116.75
349.128	121.75
349.355	129.75
349.583	145.75
349.81	135.75
350.037	131.75
350.265	119.75
350.492	92.75
350.72	102.75
350.947	116.75
351.174	125.75
351.402	120.75
351.629	109.75
351.856	113.75
352.083	123.75
352.311	121.75
352.538	128.75
352.765	125.75
352.992	125.75
353.22	122.75
353.447	127.75
353.674	135.75
353.901	122.75
354.128	126.75
354.355	125.75
354.583	122.75
354.81	132.75
355.037	117.75
355.264	121.75
355.491	133.75
355.718	144.75
355.945	125.75
356.172	124.75
356.399	128.75
356.626	126.75
356.853	138.75
357.08	163.75
357.307	143.75
357.534	137.75
357.761	141.75
357.988	161.75
358.215	177.75
358.441	160.75
358.668	141.75
358.895	153.75
359.122	138.75
359.349	144.75
359.576	152.75
359.802	138.75
360.029	121.75
360.256	127.75
360.483	151.75
360.709	146.75
360.936	149.75
361.163	131.75
361.39	105.75
361.616	125.75
361.843	131.75
362.07	159.75
362.296	134.75
362.523	117.75
362.749	111.75
362.976	125.75
363.203	123.75
363.429	136.75
363.656	111.75
363.882	113.75
364.109	140.75
364.335	127.75
364.562	129.75
364.788	125.75
365.015	139.75
365.241	132.75
365.468	127.75
365.694	134.75
365.92	124.75
366.147	114.75
366.373	109.75
366.599	121.75
366.826	120.75
367.052	114.75
367.278	113.75
367.505	122.75
367.731	111.75
367.957	122.75
368.184	128.75
368.41	119.75
368.636	128.75
368.862	139.75
369.089	128.75
369.315	123.75
369.541	126.75
369.767	122.75
369.993	97.75
370.219	113.75
370.445	107.75
370.672	127.75
370.898	123.75
371.124	130.75
371.35	119.75
371.576	122.75
371.802	112.75
372.028	138.75
372.254	139.75
372.48	137.75
372.706	123.75
372.932	120.75
373.158	124.75
373.384	127.75
373.61	161.75
373.835	167.75
374.061	146.75
374.287	134.75
374.513	155.75
374.739	134.75
374.965	169.75
375.191	160.75
375.416	125.75
375.642	125.75
375.868	153.75
376.094	127.75
376.319	136.75
376.545	133.75
376.771	142.75
376.997	122.75
377.222	109.75
377.448	109.75
377.674	120.75
377.899	116.75
378.125	104.75
378.35	115.75
378.576	126.75
378.802	125.75
379.027	124.75
379.253	114.75
379.478	118.75
379.704	135.75
379.929	131.75
380.155	123.75
380.38	122.75
380.606	141.75
380.831	137.75
381.057	144.75
381.282	132.75
381.507	145.75
381.733	145.75
381.958	135.75
382.184	149.75
382.409	167.75
382.634	175.75
382.86	166.75
383.085	148.75
383.31	139.75
383.535	139.75
383.761	136.75
383.986	139.75
384.211	148.75
384.436	143.75
384.662	127.75
384.887	109.75
385.112	131.75
385.337	128.75
385.562	138.75
385.787	135.75
386.013	136.75
386.238	152.75
386.463	120.75
386.688	135.75
386.913	121.75
387.138	122.75
387.363	118.75
387.588	129.75
387.813	139.75
388.038	138.75
388.263	134.75
388.488	116.75
388.713	142.75
388.938	141.75
389.163	143.75
389.387	145.75
389.612	135.75
389.837	119.75
390.062	124.75
390.287	137.75
390.512	139.75
390.736	118.75
390.961	124.75
391.186	123.75
391.411	114.75
391.636	113.75
391.86	129.75
392.085	127.75
392.31	140.75
392.534	143.75
392.759	130.75
392.984	131.75
393.208	142.75
393.433	129.75
393.658	120.75
393.882	121.75
394.107	124.75
394.331	122.75
394.556	133.75
394.78	118.75
395.005	107.75
395.229	129.75
395.454	109.75
395.678	115.75
395.903	138.75
396.127	123.75
396.352	128.75
396.576	124.75
396.801	135.75
397.025	140.75
397.249	140.75
397.474	136.75
397.698	131.75
397.922	149.75
398.147	123.75
398.371	112.75
398.595	124.75
398.82	127.75
399.044	119.75
399.268	137.75
399.492	139.75
399.717	138.75
399.941	137.75
400.165	129.75
400.389	132.75
400.613	118.75
400.837	115.75
401.062	117.75
401.286	117.75
401.51	122.75
401.734	132.75
401.958	123.75
402.182	114.75
402.406	122.75
402.63	134.75
402.854	128.75
403.078	130.75
403.302	159.75
403.526	161.75
403.75	165.75
403.974	140.75
404.198	141.75
404.422	149.75
404.645	144.75
404.869	149.75
405.093	139.75
405.317	140.75
405.541	136.75
405.765	131.75
405.988	129.75
406.212	140.75
406.436	144.75
406.66	157.75
406.883	136.75
407.107	130.75
407.331	136.75
407.555	132.75
407.778	139.75
408.002	135.75
408.226	139.75
408.449	141.75
408.673	132.75
408.896	128.75
409.12	120.75
409.344	126.75
409.567	126.75
409.791	120.75
410.014	118.75
410.238	129.75
410.461	122.75
410.685	131.75
410.908	127.75
411.132	127.75
411.355	128.75
411.578	136.75
411.802	130.75
412.025	133.75
412.249	131.75
412.472	135.75
412.695	136.75
412.919	134.75
413.142	128.75
413.365	136.75
413.589	146.75
413.812	122.75
414.035	139.75
414.258	132.75
414.482	124.75
414.705	136.75
414.928	144.75
415.151	120.75
415.374	131.75
415.597	135.75
415.821	128.75
416.044	136.75
416.267	133.75
416.49	134.75
416.713	131.75
416.936	113.75
417.159	119.75
417.382	116.75
417.605	117.75
417.828	125.75
418.051	124.75
418.274	127.75
418.497	118.75
418.72	123.75
418.943	131.75
419.166	134.75
419.389	119.75
419.611	138.75
419.834	133.75
420.057	144.75
420.28	139.75
420.503	120.75
420.726	122.75
420.948	128.75
421.171	138.75
421.394	123.75
421.617	123.75
421.839	125.75
422.062	128.75
422.285	115.75
422.507	122.75
422.73	129.75
422.953	137.75
423.175	113.75
423.398	117.75
423.621	142.75
423.843	142.75
424.066	127.75
424.288	118.75
424.511	127.75
424.733	124.75
424.956	127.75
425.178	125.75
425.401	148.75
425.623	153.75
425.846	135.75
426.068	152.75
426.291	141.75
426.513	132.75
426.735	130.75
426.958	132.75
427.18	165.75
427.402	162.75
427.625	158.75
427.847	153.75
428.069	125.75
428.292	125.75
428.514	125.75
428.736	130.75
428.958	133.75
429.181	129.75
429.403	144.75
429.625	130.75
429.847	129.75
430.069	123.75
430.292	131.75
430.514	132.75
430.736	132.75
430.958	136.75
431.18	146.75
431.402	115.75
431.624	126.75
431.846	120.75
432.068	121.75
432.29	125.75
432.512	130.75
432.734	135.75
432.956	127.75
433.178	127.75
433.4	120.75
433.622	118.75
433.844	117.75
434.066	141.75
434.287	131.75
434.509	124.75
434.731	139.75
434.953	113.75
435.175	124.75
435.397	135.75
435.618	125.75
435.84	123.75
436.062	120.75
436.284	117.75
436.505	130.75
436.727	120.75
436.949	135.75
437.17	112.75
437.392	120.75
437.614	121.75
437.835	140.75
438.057	121.75
438.278	150.75
438.5	148.75
438.721	139.75
438.943	133.75
439.165	113.75
439.386	111.75
439.608	126.75
439.829	128.75
440.05	133.75
440.272	117.75
440.493	132.75
440.715	138.75
440.936	130.75
441.158	129.75
441.379	113.75
441.6	130.75
441.822	137.75
442.043	131.75
442.264	138.75
442.486	125.75
442.707	125.75
442.928	131.75
443.149	123.75
443.371	121.75
443.592	131.75
443.813	138.75
444.034	120.75
444.255	132.75
444.476	124.75
444.698	133.75
444.919	132.75
445.14	262.75
445.361	190.75
445.582	131.75
445.803	150.75
446.024	136.75
446.245	152.75
446.466	117.75
446.687	115.75
446.908	132.75
447.129	117.75
447.35	123.75
447.571	121.75
447.792	108.75
448.013	104.75
448.234	115.75
448.455	116.75
448.675	125.75
448.896	114.75
449.117	121.75
449.338	106.75
449.559	124.75
449.779	124.75
450	117.75
450.221	135.75
450.442	114.75
450.662	124.75
450.883	114.75
451.104	117.75
451.324	121.75
451.545	121.75
451.766	117.75
451.986	117.75
452.207	111.75
452.428	120.75
452.648	122.75
452.869	122.75
453.089	136.75
453.31	119.75
453.53	105.75
453.751	127.75
453.971	122.75
454.192	127.75
454.412	124.75
454.633	101.75
454.853	111.75
455.073	111.75
455.294	123.75
455.514	131.75
455.734	115.75
455.955	117.75
456.175	124.75
456.395	131.75
456.616	124.75
456.836	122.75
457.056	116.75
457.276	113.75
457.497	123.75
457.717	113.75
457.937	135.75
458.157	120.75
458.377	121.75
458.598	107.75
458.818	111.75
459.038	121.75
459.258	136.75
459.478	128.75
459.698	124.75
459.918	128.75
460.138	120.75
460.358	130.75
460.578	116.75
460.798	140.75
461.018	119.75
461.238	116.75
461.458	119.75
461.678	137.75
461.898	135.75
462.118	132.75
462.338	141.75
462.558	113.75
462.777	141.75
462.997	131.75
463.217	139.75
463.437	130.75
463.657	133.75
463.876	137.75
464.096	141.75
464.316	133.75
464.536	131.75
464.755	142.75
464.975	123.75
465.195	130.75
465.414	130.75
465.634	135.75
465.854	125.75
466.073	131.75
466.293	137.75
466.512	133.75
466.732	121.75
466.951	133.75
467.171	132.75
467.391	114.75
467.61	128.75
467.829	127.75
468.049	119.75
468.268	113.75
468.488	122.75
468.707	121.75
468.927	145.75
469.146	121.75
469.365	131.75
469.585	132.75
469.804	129.75
470.023	137.75
470.243	128.75
470.462	107.75
470.681	114.75
470.901	127.75
471.12	121.75
471.339	128.75
471.558	123.75
471.777	134.75
471.997	142.75
472.216	128.75
472.435	139.75
472.654	135.75
472.873	121.75
473.092	129.75
473.311	137.75
473.53	136.75
473.749	118.75
473.968	141.75
474.187	136.75
474.406	144.75
474.625	131.75
474.844	134.75
475.063	126.75
475.282	153.75
475.501	142.75
475.72	151.75
475.939	133.75
476.158	121.75
476.377	153.75
476.596	159.75
476.814	182.75
477.033	146.75
477.252	124.75
477.471	137.75
477.69	138.75
477.908	124.75
478.127	136.75
478.346	145.75
478.564	157.75
478.783	144.75
479.002	141.75
479.22	164.75
479.439	162.75
479.658	127.75
479.876	134.75
480.095	145.75
480.313	155.75
480.532	147.75
480.751	151.75
480.969	135.75
481.188	148.75
481.406	152.75
481.624	134.75
481.843	132.75
482.061	129.75
482.28	130.75
482.498	180.75
482.717	153.75
482.935	157.75
483.153	137.75
483.372	143.75
483.59	138.75
483.808	135.75
484.027	125.75
484.245	115.75
484.463	118.75
484.681	116.75
484.9	131.75
485.118	136.75
485.336	133.75
485.554	143.75
485.772	137.75
485.99	146.75
486.209	147.75
486.427	139.75
486.645	150.75
486.863	135.75
487.081	145.75
487.299	137.75
487.517	131.75
487.735	133.75
487.953	142.75
488.171	137.75
488.389	139.75
488.607	136.75
488.825	123.75
489.043	133.75
489.261	167.75
489.479	168.75
489.696	145.75
489.914	144.75
490.132	122.75
490.35	126.75
490.568	129.75
490.786	162.75
491.003	131.75
491.221	141.75
491.439	125.75
491.657	138.75
491.874	139.75
492.092	149.75
492.31	171.75
492.527	179.75
492.745	156.75
492.963	146.75
493.18	133.75
493.398	144.75
493.615	150.75
493.833	145.75
494.05	147.75
494.268	144.75
494.485	141.75
494.703	157.75
494.92	142.75
495.138	139.75
495.355	123.75
495.573	141.75
495.79	157.75
496.008	178.75
496.225	157.75
496.442	167.75
496.66	161.75
496.877	135.75
497.094	154.75
497.312	157.75
497.529	154.75
497.746	151.75
497.963	148.75
498.181	142.75
498.398	162.75
498.615	170.75
498.832	188.75
499.049	170.75
499.267	176.75
499.484	158.75
499.701	176.75
499.918	186.75
500.135	200.75
500.352	204.75
500.569	200.75
500.786	208.75
501.003	194.75
501.22	164.75
501.437	192.75
501.654	179.75
501.871	189.75
502.088	161.75
502.305	167.75
502.522	163.75
502.739	154.75
502.956	154.75
503.172	152.75
