Data from NickelSpatula.Lamp.E10.P2_HRD10591_11-57-48-531.txt Node
Date: Tue Jul 23 11:57:48 EDT 2019
User: cochatt
Spectrometer: HR+D1059
Trigger mode: 1
Integration Time (sec): 1.000000E-1
Scans to average: 1
Electric dark correction enabled: true
Nonlinearity correction enabled: false
Boxcar width: 0
XAxis mode: Wavelengths
Number of Pixels in Spectrum: 2048
>>>>>Begin Spectral Data<<<<<
223.165	-27.25
223.4	-27.25
223.635	-27.25
223.869	-17.25
224.104	-17.25
224.338	-8.25
224.573	-9.25
224.808	-16.25
225.042	-2.25
225.277	-9.25
225.511	-0.25
225.746	2.75
225.98	10.75
226.215	-6.25
226.449	15.75
226.683	9.75
226.918	31.75
227.152	42.75
227.387	31.75
227.621	45.75
227.856	38.75
228.09	49.75
228.324	55.75
228.559	51.75
228.793	76.75
229.027	131.75
229.262	155.75
229.496	161.75
229.73	164.75
229.964	189.75
230.199	211.75
230.433	207.75
230.667	207.75
230.901	199.75
231.136	180.75
231.37	193.75
231.604	204.75
231.838	236.75
232.072	257.75
232.306	250.75
232.541	243.75
232.775	249.75
233.009	275.75
233.243	279.75
233.477	311.75
233.711	343.75
233.945	329.75
234.179	314.75
234.413	345.75
234.647	375.75
234.881	436.75
235.115	420.75
235.349	405.75
235.583	357.75
235.817	346.75
236.051	374.75
236.285	405.75
236.519	451.75
236.753	437.75
236.987	423.75
237.221	374.75
237.455	411.75
237.689	403.75
237.922	462.75
238.156	471.75
238.39	561.75
238.624	657.75
238.858	610.75
239.091	490.75
239.325	498.75
239.559	481.75
239.793	538.75
240.027	644.75
240.26	597.75
240.494	569.75
240.728	587.75
240.961	696.75
241.195	641.75
241.429	643.75
241.662	626.75
241.896	541.75
242.13	475.75
242.363	453.75
242.597	463.75
242.83	514.75
243.064	533.75
243.298	587.75
243.531	631.75
243.765	626.75
243.998	628.75
244.232	604.75
244.465	563.75
244.699	601.75
244.932	658.75
245.166	617.75
245.399	545.75
245.633	547.75
245.866	549.75
246.099	589.75
246.333	716.75
246.566	752.75
246.8	745.75
247.033	723.75
247.266	687.75
247.5	663.75
247.733	663.75
247.966	657.75
248.2	685.75
248.433	775.75
248.666	837.75
248.899	811.75
249.133	853.75
249.366	985.75
249.599	1041.75
249.832	913.75
250.066	809.75
250.299	825.75
250.532	796.75
250.765	762.75
250.998	730.75
251.231	723.75
251.465	813.75
251.698	837.75
251.931	771.75
252.164	808.75
252.397	927.75
252.63	1071.75
252.863	1134.75
253.096	1171.75
253.329	1143.75
253.562	1118.75
253.795	1233.75
254.028	1330.75
254.261	1347.75
254.494	1245.75
254.727	1144.75
254.96	1098.75
255.193	1163.75
255.426	1111.75
255.659	859.75
255.892	779.75
256.124	859.75
256.357	1018.75
256.59	1181.75
256.823	1106.75
257.056	953.75
257.289	882.75
257.521	956.75
257.754	1102.75
257.987	1269.75
258.22	1065.75
258.452	995.75
258.685	1139.75
258.918	1224.75
259.151	1224.75
259.383	1290.75
259.616	1485.75
259.849	1545.75
260.081	1701.75
260.314	1891.75
260.547	1463.75
260.779	1473.75
261.012	1701.75
261.244	1581.75
261.477	1626.75
261.71	1521.75
261.942	1264.75
262.175	1268.75
262.407	1228.75
262.64	1223.75
262.872	1464.75
263.105	1617.75
263.337	1690.75
263.57	1519.75
263.802	1030.75
264.035	884.75
264.267	864.75
264.499	776.75
264.732	695.75
264.964	691.75
265.197	705.75
265.429	757.75
265.661	785.75
265.894	874.75
266.126	904.75
266.358	1004.75
266.591	1227.75
266.823	1461.75
267.055	1394.75
267.287	1238.75
267.52	1242.75
267.752	1289.75
267.984	1445.75
268.216	1318.75
268.448	1109.75
268.681	1082.75
268.913	1160.75
269.145	1232.75
269.377	1317.75
269.609	1301.75
269.841	1209.75
270.073	1262.75
270.306	1327.75
270.538	1354.75
270.77	1382.75
271.002	1386.75
271.234	1463.75
271.466	1505.75
271.698	1400.75
271.93	1363.75
272.162	1409.75
272.394	1349.75
272.626	1362.75
272.858	1414.75
273.09	1435.75
273.322	1308.75
273.553	1246.75
273.785	1484.75
274.017	1923.75
274.249	2363.75
274.481	2472.75
274.713	2701.75
274.945	3091.75
275.176	3211.75
275.408	2838.75
275.64	2581.75
275.872	2563.75
276.104	2212.75
276.335	1906.75
276.567	1901.75
276.799	1937.75
277.031	1989.75
277.262	1543.75
277.494	1214.75
277.726	1169.75
277.957	1279.75
278.189	1467.75
278.421	1454.75
278.652	1380.75
278.884	1315.75
279.115	1226.75
279.347	1159.75
279.579	1182.75
279.81	1193.75
280.042	1159.75
280.273	1187.75
280.505	1105.75
280.736	986.75
280.968	986.75
281.199	1079.75
281.431	1220.75
281.662	1221.75
281.894	1174.75
282.125	1214.75
282.356	1322.75
282.588	1353.75
282.819	1249.75
283.051	1341.75
283.282	1668.75
283.513	1933.75
283.745	2176.75
283.976	2149.75
284.207	2004.75
284.439	2058.75
284.67	1980.75
284.901	1757.75
285.132	1893.75
285.364	1985.75
285.595	1829.75
285.826	1978.75
286.057	2009.75
286.288	1927.75
286.52	1991.75
286.751	2058.75
286.982	2062.75
287.213	1768.75
287.444	1702.75
287.675	1817.75
287.906	1810.75
288.138	1514.75
288.369	1354.75
288.6	1281.75
288.831	1313.75
289.062	1538.75
289.293	1654.75
289.524	1577.75
289.755	1569.75
289.986	1600.75
290.217	1409.75
290.448	1086.75
290.679	939.75
290.91	905.75
291.141	937.75
291.371	968.75
291.602	963.75
291.833	927.75
292.064	1045.75
292.295	1208.75
292.526	1374.75
292.757	1419.75
292.987	1515.75
293.218	1496.75
293.449	1576.75
293.68	1674.75
293.91	1590.75
294.141	1616.75
294.372	1493.75
294.603	1421.75
294.833	1565.75
295.064	1823.75
295.295	1701.75
295.525	1318.75
295.756	1125.75
295.987	983.75
296.217	1001.75
296.448	1024.75
296.679	1066.75
296.909	1226.75
297.14	1266.75
297.37	1394.75
297.601	1300.75
297.831	1151.75
298.062	1232.75
298.292	1417.75
298.523	1539.75
298.753	1735.75
298.984	1581.75
299.214	1249.75
299.445	1067.75
299.675	984.75
299.905	1002.75
300.136	1018.75
300.366	1146.75
300.597	1108.75
300.827	990.75
301.057	960.75
301.288	966.75
301.518	1048.75
301.748	1176.75
301.979	1283.75
302.209	1389.75
302.439	1390.75
302.669	1210.75
302.9	1219.75
303.13	1119.75
303.36	1053.75
303.59	1004.75
303.82	1077.75
304.051	1179.75
304.281	1293.75
304.511	1275.75
304.741	1092.75
304.971	1158.75
305.201	1274.75
305.431	1194.75
305.661	1024.75
305.891	999.75
306.121	1017.75
306.352	937.75
306.582	836.75
306.812	830.75
307.042	838.75
307.272	777.75
307.502	807.75
307.731	854.75
307.961	873.75
308.191	835.75
308.421	803.75
308.651	783.75
308.881	749.75
309.111	733.75
309.341	828.75
309.571	872.75
309.8	911.75
310.03	919.75
310.26	962.75
310.49	938.75
310.72	849.75
310.949	850.75
311.179	874.75
311.409	930.75
311.639	1065.75
311.868	1364.75
312.098	1745.75
312.328	1895.75
312.557	1853.75
312.787	1853.75
313.017	1670.75
313.246	1825.75
313.476	1891.75
313.706	1559.75
313.935	1234.75
314.165	1009.75
314.394	961.75
314.624	962.75
314.853	1001.75
315.083	1006.75
315.312	1003.75
315.542	967.75
315.771	925.75
316.001	838.75
316.23	829.75
316.46	829.75
316.689	848.75
316.919	879.75
317.148	865.75
317.377	869.75
317.607	853.75
317.836	938.75
318.065	1050.75
318.295	1229.75
318.524	1085.75
318.753	964.75
318.983	886.75
319.212	914.75
319.441	968.75
319.67	1082.75
319.9	1163.75
320.129	1119.75
320.358	938.75
320.587	934.75
320.816	986.75
321.046	1130.75
321.275	1257.75
321.504	1283.75
321.733	1234.75
321.962	1164.75
322.191	1121.75
322.42	1045.75
322.649	1096.75
322.878	1169.75
323.108	1179.75
323.337	1071.75
323.566	1056.75
323.795	1025.75
324.024	969.75
324.253	947.75
324.482	931.75
324.71	1064.75
324.939	1170.75
325.168	1068.75
325.397	893.75
325.626	875.75
325.855	879.75
326.084	896.75
326.313	865.75
326.542	815.75
326.77	838.75
326.999	858.75
327.228	937.75
327.457	990.75
327.686	975.75
327.914	858.75
328.143	806.75
328.372	803.75
328.6	805.75
328.829	842.75
329.058	884.75
329.287	861.75
329.515	879.75
329.744	841.75
329.972	829.75
330.201	782.75
330.43	821.75
330.658	928.75
330.887	1023.75
331.115	999.75
331.344	958.75
331.572	913.75
331.801	873.75
332.03	826.75
332.258	883.75
332.486	897.75
332.715	961.75
332.943	880.75
333.172	907.75
333.4	935.75
333.629	1033.75
333.857	1131.75
334.085	1084.75
334.314	1088.75
334.542	1015.75
334.771	944.75
334.999	955.75
335.227	892.75
335.455	925.75
335.684	1022.75
335.912	1150.75
336.14	1289.75
336.369	1234.75
336.597	1215.75
336.825	1344.75
337.053	1456.75
337.281	1206.75
337.51	955.75
337.738	957.75
337.966	1040.75
338.194	1163.75
338.422	1092.75
338.65	945.75
338.878	863.75
339.106	893.75
339.334	971.75
339.562	1029.75
339.79	980.75
340.018	945.75
340.246	1031.75
340.474	1185.75
340.702	1273.75
340.93	1263.75
341.158	1265.75
341.386	1091.75
341.614	1081.75
341.842	1089.75
342.07	1098.75
342.298	1292.75
342.526	1359.75
342.754	1192.75
342.981	1057.75
343.209	1022.75
343.437	1110.75
343.665	1166.75
343.893	1128.75
344.12	1320.75
344.348	1511.75
344.576	1373.75
344.804	1124.75
345.031	1026.75
345.259	961.75
345.487	949.75
345.714	999.75
345.942	1069.75
346.17	1129.75
346.397	1100.75
346.625	967.75
346.853	930.75
347.08	925.75
347.308	964.75
347.535	1061.75
347.763	1104.75
347.99	975.75
348.218	906.75
348.445	945.75
348.673	973.75
348.9	956.75
349.128	1045.75
349.355	1053.75
349.583	1052.75
349.81	994.75
350.037	913.75
350.265	801.75
350.492	790.75
350.72	743.75
350.947	819.75
351.174	858.75
351.402	922.75
351.629	953.75
351.856	915.75
352.083	864.75
352.311	945.75
352.538	1037.75
352.765	1107.75
352.992	1018.75
353.22	925.75
353.447	977.75
353.674	925.75
353.901	923.75
354.128	927.75
354.355	945.75
354.583	936.75
354.81	949.75
355.037	960.75
355.264	961.75
355.491	1054.75
355.718	1096.75
355.945	1077.75
356.172	1033.75
356.399	1058.75
356.626	1268.75
356.853	1499.75
357.08	1630.75
357.307	1635.75
357.534	1299.75
357.761	1346.75
357.988	1638.75
358.215	1943.75
358.441	1851.75
358.668	1538.75
358.895	1416.75
359.122	1173.75
359.349	1158.75
359.576	1273.75
359.802	1029.75
360.029	905.75
360.256	967.75
360.483	1225.75
360.709	1514.75
360.936	1578.75
361.163	1374.75
361.39	1078.75
361.616	996.75
361.843	1185.75
362.07	1423.75
362.296	1313.75
362.523	1045.75
362.749	905.75
362.976	947.75
363.203	1156.75
363.429	1259.75
363.656	1027.75
363.882	963.75
364.109	962.75
364.335	973.75
364.562	951.75
364.788	1050.75
365.015	1254.75
365.241	1128.75
365.468	927.75
365.694	822.75
365.92	807.75
366.147	775.75
366.373	760.75
366.599	768.75
366.826	778.75
367.052	795.75
367.278	830.75
367.505	816.75
367.731	881.75
367.957	981.75
368.184	988.75
368.41	975.75
368.636	978.75
368.862	1008.75
369.089	979.75
369.315	889.75
369.541	846.75
369.767	847.75
369.993	841.75
370.219	849.75
370.445	873.75
370.672	980.75
370.898	1030.75
371.124	1036.75
371.35	896.75
371.576	871.75
371.802	979.75
372.028	1067.75
372.254	1241.75
372.48	1081.75
372.706	974.75
372.932	1047.75
373.158	1100.75
373.384	1291.75
373.61	1703.75
373.835	1786.75
374.061	1297.75
374.287	1126.75
374.513	1337.75
374.739	1541.75
374.965	1574.75
375.191	1569.75
375.416	1118.75
375.642	996.75
375.868	1159.75
376.094	1317.75
376.319	1115.75
376.545	1254.75
376.771	1302.75
376.997	1129.75
377.222	877.75
377.448	725.75
377.674	723.75
377.899	749.75
378.125	745.75
378.35	760.75
378.576	769.75
378.802	834.75
379.027	887.75
379.253	868.75
379.478	887.75
379.704	1008.75
379.929	1017.75
380.155	1030.75
380.38	897.75
380.606	976.75
380.831	1063.75
381.057	986.75
381.282	939.75
381.507	1133.75
381.733	1381.75
381.958	1419.75
382.184	1541.75
382.409	1615.75
382.634	1574.75
382.86	1669.75
383.085	1369.75
383.31	1089.75
383.535	1140.75
383.761	1183.75
383.986	1122.75
384.211	1359.75
384.436	1310.75
384.662	982.75
384.887	967.75
385.112	1013.75
385.337	1000.75
385.562	947.75
385.787	1082.75
386.013	1171.75
386.238	1233.75
386.463	990.75
386.688	949.75
386.913	905.75
387.138	876.75
387.363	915.75
387.588	960.75
387.813	963.75
388.038	1050.75
388.263	931.75
388.488	929.75
388.713	1066.75
388.938	1151.75
389.163	1008.75
389.387	899.75
389.612	897.75
389.837	922.75
390.062	938.75
390.287	961.75
390.512	981.75
390.736	931.75
390.961	862.75
391.186	851.75
391.411	823.75
391.636	854.75
391.86	891.75
392.085	969.75
392.31	961.75
392.534	930.75
392.759	942.75
392.984	959.75
393.208	932.75
393.433	878.75
393.658	806.75
393.882	801.75
394.107	775.75
394.331	805.75
394.556	815.75
394.78	817.75
395.005	823.75
395.229	822.75
395.454	854.75
395.678	889.75
395.903	874.75
396.127	853.75
396.352	864.75
396.576	946.75
396.801	975.75
397.025	1059.75
397.249	1094.75
397.474	925.75
397.698	920.75
397.922	957.75
398.147	907.75
398.371	899.75
398.595	942.75
398.82	921.75
399.044	957.75
399.268	990.75
399.492	1043.75
399.717	1023.75
399.941	1050.75
400.165	1055.75
400.389	1026.75
400.613	1048.75
400.837	998.75
401.062	896.75
401.286	886.75
401.51	895.75
401.734	911.75
401.958	904.75
402.182	891.75
402.406	893.75
402.63	902.75
402.854	963.75
403.078	1052.75
403.302	1267.75
403.526	1295.75
403.75	1152.75
403.974	1039.75
404.198	1079.75
404.422	1190.75
404.645	1374.75
404.869	1529.75
405.093	1159.75
405.317	970.75
405.541	945.75
405.765	991.75
405.988	1016.75
406.212	1061.75
406.436	1265.75
406.66	1355.75
406.883	1099.75
407.107	1138.75
407.331	1344.75
407.555	1256.75
407.778	1077.75
408.002	1050.75
408.226	1051.75
408.449	1030.75
408.673	1002.75
408.896	926.75
409.12	895.75
409.344	872.75
409.567	889.75
409.791	885.75
410.014	878.75
410.238	864.75
410.461	870.75
410.685	884.75
410.908	905.75
411.132	919.75
411.355	953.75
411.578	931.75
411.802	927.75
412.025	986.75
412.249	993.75
412.472	943.75
412.695	952.75
412.919	955.75
413.142	952.75
413.365	1039.75
413.589	1041.75
413.812	932.75
414.035	916.75
414.258	903.75
414.482	1022.75
414.705	1051.75
414.928	912.75
415.151	841.75
415.374	872.75
415.597	906.75
415.821	897.75
416.044	878.75
416.267	837.75
416.49	870.75
416.713	840.75
416.936	837.75
417.159	852.75
417.382	890.75
417.605	887.75
417.828	902.75
418.051	885.75
418.274	901.75
418.497	930.75
418.72	897.75
418.943	941.75
419.166	971.75
419.389	1041.75
419.611	996.75
419.834	1023.75
420.057	1107.75
420.28	1096.75
420.503	980.75
420.726	898.75
420.948	853.75
421.171	881.75
421.394	882.75
421.617	842.75
421.839	890.75
422.062	893.75
422.285	915.75
422.507	901.75
422.73	928.75
422.953	962.75
423.175	915.75
423.398	895.75
423.621	979.75
423.843	1033.75
424.066	949.75
424.288	943.75
424.511	911.75
424.733	925.75
424.956	945.75
425.178	1041.75
425.401	1178.75
425.623	1334.75
425.846	1095.75
426.068	994.75
426.291	1092.75
426.513	1025.75
426.735	951.75
426.958	964.75
427.18	1118.75
427.402	1447.75
427.625	1402.75
427.847	1159.75
428.069	922.75
428.292	893.75
428.514	872.75
428.736	833.75
428.958	950.75
429.181	1084.75
429.403	954.75
429.625	879.75
429.847	853.75
430.069	885.75
430.292	886.75
430.514	844.75
430.736	951.75
430.958	1153.75
431.18	1059.75
431.402	826.75
431.624	813.75
431.846	789.75
432.068	797.75
432.29	827.75
432.512	915.75
432.734	1169.75
432.956	1079.75
433.178	863.75
433.4	833.75
433.622	843.75
433.844	885.75
434.066	925.75
434.287	856.75
434.509	889.75
434.731	896.75
434.953	855.75
435.175	932.75
435.397	1024.75
435.618	871.75
435.84	804.75
436.062	804.75
436.284	809.75
436.505	788.75
436.727	757.75
436.949	810.75
437.17	825.75
437.392	834.75
437.614	830.75
437.835	834.75
438.057	838.75
438.278	941.75
438.5	1348.75
438.721	1336.75
438.943	957.75
439.165	792.75
439.386	775.75
439.608	781.75
439.829	753.75
440.05	791.75
440.272	831.75
440.493	936.75
440.715	1173.75
440.936	983.75
441.158	851.75
441.379	878.75
441.6	981.75
441.822	999.75
442.043	855.75
442.264	887.75
442.486	888.75
442.707	858.75
442.928	858.75
443.149	867.75
443.371	888.75
443.592	919.75
443.813	918.75
444.034	928.75
444.255	916.75
444.476	968.75
444.698	933.75
444.919	951.75
445.14	1029.75
445.361	1010.75
445.582	949.75
445.803	922.75
446.024	928.75
446.245	938.75
446.466	912.75
446.687	886.75
446.908	868.75
447.129	820.75
447.35	786.75
447.571	783.75
447.792	803.75
448.013	782.75
448.234	788.75
448.455	767.75
448.675	774.75
448.896	810.75
449.117	799.75
449.338	783.75
449.559	818.75
449.779	854.75
450	826.75
450.221	808.75
450.442	819.75
450.662	780.75
450.883	796.75
451.104	811.75
451.324	775.75
451.545	786.75
451.766	823.75
451.986	777.75
452.207	775.75
452.428	767.75
452.648	774.75
452.869	788.75
453.089	843.75
453.31	837.75
453.53	728.75
453.751	752.75
453.971	782.75
454.192	778.75
454.412	789.75
454.633	737.75
454.853	758.75
455.073	723.75
455.294	734.75
455.514	749.75
455.734	746.75
455.955	800.75
456.175	838.75
456.395	747.75
456.616	715.75
456.836	693.75
457.056	695.75
457.276	692.75
457.497	701.75
457.717	711.75
457.937	718.75
458.157	736.75
458.377	723.75
458.598	751.75
458.818	788.75
459.038	802.75
459.258	811.75
459.478	837.75
459.698	909.75
459.918	881.75
460.138	897.75
460.358	898.75
460.578	861.75
460.798	901.75
461.018	871.75
461.238	849.75
461.458	868.75
461.678	882.75
461.898	925.75
462.118	921.75
462.338	941.75
462.558	949.75
462.777	998.75
462.997	981.75
463.217	1009.75
463.437	1021.75
463.657	1024.75
463.876	982.75
464.096	950.75
464.316	969.75
464.536	962.75
464.755	1016.75
464.975	972.75
465.195	914.75
465.414	991.75
465.634	924.75
465.854	923.75
466.073	867.75
466.293	866.75
466.512	934.75
466.732	983.75
466.951	1028.75
467.171	916.75
467.391	869.75
467.61	861.75
467.829	931.75
468.049	933.75
468.268	868.75
468.488	873.75
468.707	915.75
468.927	1039.75
469.146	1154.75
469.365	1011.75
469.585	946.75
469.804	984.75
470.023	1088.75
470.243	933.75
470.462	910.75
470.681	899.75
470.901	931.75
471.12	962.75
471.339	948.75
471.558	914.75
471.777	934.75
471.997	987.75
472.216	1103.75
472.435	1066.75
472.654	969.75
472.873	947.75
473.092	990.75
473.311	1044.75
473.53	963.75
473.749	954.75
473.968	964.75
474.187	977.75
474.406	921.75
474.625	910.75
474.844	985.75
475.063	1037.75
475.282	1021.75
475.501	1064.75
475.72	1120.75
475.939	1077.75
476.158	1078.75
476.377	1233.75
476.596	1399.75
476.814	1482.75
477.033	1250.75
477.252	1081.75
477.471	994.75
477.69	1002.75
477.908	1106.75
478.127	1144.75
478.346	1051.75
478.564	1116.75
478.783	1060.75
479.002	1089.75
479.22	1297.75
479.439	1391.75
479.658	1211.75
479.876	1125.75
480.095	1218.75
480.313	1231.75
480.532	1124.75
480.751	1082.75
480.969	1091.75
481.188	1261.75
481.406	1295.75
481.624	1226.75
481.843	1131.75
482.061	1058.75
482.28	1206.75
482.498	1420.75
482.717	1357.75
482.935	1184.75
483.153	1115.75
483.372	1033.75
483.59	1058.75
483.808	1045.75
484.027	1068.75
484.245	966.75
484.463	969.75
484.681	1013.75
484.9	1097.75
485.118	1176.75
485.336	1115.75
485.554	1049.75
485.772	1070.75
485.99	1133.75
486.209	1215.75
486.427	1200.75
486.645	1164.75
486.863	1232.75
487.081	1189.75
487.299	1325.75
487.517	1311.75
487.735	1190.75
487.953	1220.75
488.171	1236.75
488.389	1150.75
488.607	1109.75
488.825	1151.75
489.043	1232.75
489.261	1410.75
489.479	1519.75
489.696	1229.75
489.914	1172.75
490.132	1085.75
490.35	1081.75
490.568	1110.75
490.786	1111.75
491.003	1109.75
491.221	1155.75
491.439	1145.75
491.657	1110.75
491.874	1204.75
492.092	1402.75
492.31	1691.75
492.527	1685.75
492.745	1521.75
492.963	1285.75
493.18	1300.75
493.398	1275.75
493.615	1307.75
493.833	1256.75
494.05	1225.75
494.268	1198.75
494.485	1247.75
494.703	1195.75
494.92	1248.75
