Data from NickelSpatula.Lamp.E5.5.P2_HRD10591_11-52-06-557.txt Node
Date: Tue Jul 23 11:52:06 EDT 2019
User: cochatt
Spectrometer: HR+D1059
Trigger mode: 1
Integration Time (sec): 1.000000E-1
Scans to average: 1
Electric dark correction enabled: true
Nonlinearity correction enabled: false
Boxcar width: 0
XAxis mode: Wavelengths
Number of Pixels in Spectrum: 2048
>>>>>Begin Spectral Data<<<<<
223.165	-18.81
223.4	-18.81
223.635	-18.81
223.869	-19.81
224.104	-7.81
224.338	-7.81
224.573	-21.81
224.808	-16.81
225.042	-8.81
225.277	-16.81
225.511	8.19
225.746	6.19
225.98	-2.81
226.215	17.19
226.449	13.19
226.683	31.19
226.918	24.19
227.152	21.19
227.387	29.19
227.621	33.19
227.856	51.19
228.09	52.19
228.324	49.19
228.559	53.19
228.793	66.19
229.027	73.19
229.262	77.19
229.496	86.19
229.73	95.19
229.964	92.19
230.199	106.19
230.433	113.19
230.667	100.19
230.901	91.19
231.136	87.19
231.37	101.19
231.604	104.19
231.838	95.19
232.072	103.19
232.306	109.19
232.541	112.19
232.775	111.19
233.009	112.19
233.243	109.19
233.477	116.19
233.711	124.19
233.945	128.19
234.179	130.19
234.413	139.19
234.647	135.19
234.881	147.19
235.115	143.19
235.349	124.19
235.583	134.19
235.817	128.19
236.051	135.19
236.285	142.19
236.519	153.19
236.753	141.19
236.987	129.19
237.221	145.19
237.455	147.19
237.689	137.19
237.922	143.19
238.156	152.19
238.39	175.19
238.624	203.19
238.858	180.19
239.091	150.19
239.325	143.19
239.559	142.19
239.793	154.19
240.027	177.19
240.26	168.19
240.494	177.19
240.728	168.19
240.961	179.19
241.195	180.19
241.429	195.19
241.662	163.19
241.896	148.19
242.13	132.19
242.363	148.19
242.597	155.19
242.83	162.19
243.064	160.19
243.298	190.19
243.531	188.19
243.765	184.19
243.998	176.19
244.232	155.19
244.465	179.19
244.699	176.19
244.932	188.19
245.166	165.19
245.399	147.19
245.633	153.19
245.866	160.19
246.099	167.19
246.333	188.19
246.566	191.19
246.8	211.19
247.033	202.19
247.266	202.19
247.5	187.19
247.733	180.19
247.966	178.19
248.2	186.19
248.433	200.19
248.666	204.19
248.899	204.19
249.133	204.19
249.366	244.19
249.599	258.19
249.832	250.19
250.066	221.19
250.299	207.19
250.532	210.19
250.765	218.19
250.998	201.19
251.231	188.19
251.465	222.19
251.698	205.19
251.931	200.19
252.164	225.19
252.397	239.19
252.63	252.19
252.863	282.19
253.096	273.19
253.329	267.19
253.562	275.19
253.795	301.19
254.028	320.19
254.261	321.19
254.494	304.19
254.727	280.19
254.96	266.19
255.193	279.19
255.426	280.19
255.659	233.19
255.892	209.19
256.124	226.19
256.357	257.19
256.59	311.19
256.823	303.19
257.056	255.19
257.289	219.19
257.521	256.19
257.754	293.19
257.987	333.19
258.22	298.19
258.452	262.19
258.685	278.19
258.918	313.19
259.151	296.19
259.383	319.19
259.616	386.19
259.849	375.19
260.081	379.19
260.314	425.19
260.547	338.19
260.779	360.19
261.012	397.19
261.244	377.19
261.477	380.19
261.71	364.19
261.942	328.19
262.175	313.19
262.407	291.19
262.64	297.19
262.872	348.19
263.105	375.19
263.337	417.19
263.57	367.19
263.802	262.19
264.035	228.19
264.267	227.19
264.499	214.19
264.732	204.19
264.964	185.19
265.197	197.19
265.429	217.19
265.661	227.19
265.894	236.19
266.126	250.19
266.358	248.19
266.591	325.19
266.823	364.19
267.055	333.19
267.287	315.19
267.52	316.19
267.752	322.19
267.984	352.19
268.216	336.19
268.448	277.19
268.681	270.19
268.913	273.19
269.145	315.19
269.377	319.19
269.609	336.19
269.841	298.19
270.073	325.19
270.306	339.19
270.538	332.19
270.77	339.19
271.002	348.19
271.234	359.19
271.466	372.19
271.698	335.19
271.93	340.19
272.162	346.19
272.394	322.19
272.626	322.19
272.858	328.19
273.09	339.19
273.322	296.19
273.553	306.19
273.785	355.19
274.017	420.19
274.249	518.19
274.481	532.19
274.713	570.19
274.945	654.19
275.176	681.19
275.408	634.19
275.64	561.19
275.872	557.19
276.104	470.19
276.335	445.19
276.567	437.19
276.799	423.19
277.031	471.19
277.262	369.19
277.494	298.19
277.726	281.19
277.957	307.19
278.189	358.19
278.421	334.19
278.652	338.19
278.884	318.19
279.115	298.19
279.347	297.19
279.579	305.19
279.81	307.19
280.042	307.19
280.273	328.19
280.505	300.19
280.736	258.19
280.968	246.19
281.199	278.19
281.431	304.19
281.662	297.19
281.894	281.19
282.125	306.19
282.356	303.19
282.588	316.19
282.819	299.19
283.051	303.19
283.282	388.19
283.513	439.19
283.745	472.19
283.976	493.19
284.207	456.19
284.439	480.19
284.67	431.19
284.901	409.19
285.132	423.19
285.364	457.19
285.595	411.19
285.826	435.19
286.057	475.19
286.288	448.19
286.52	462.19
286.751	477.19
286.982	473.19
287.213	437.19
287.444	411.19
287.675	431.19
287.906	437.19
288.138	361.19
288.369	313.19
288.6	323.19
288.831	345.19
289.062	379.19
289.293	396.19
289.524	383.19
289.755	368.19
289.986	395.19
290.217	359.19
290.448	261.19
290.679	257.19
290.91	233.19
291.141	240.19
291.371	231.19
291.602	248.19
291.833	266.19
292.064	248.19
292.295	293.19
292.526	351.19
292.757	342.19
292.987	354.19
293.218	354.19
293.449	394.19
293.68	410.19
293.91	387.19
294.141	424.19
294.372	392.19
294.603	351.19
294.833	359.19
295.064	432.19
295.295	409.19
295.525	330.19
295.756	277.19
295.987	239.19
296.217	261.19
296.448	249.19
296.679	268.19
296.909	282.19
297.14	291.19
297.37	343.19
297.601	311.19
297.831	264.19
298.062	290.19
298.292	322.19
298.523	367.19
298.753	425.19
298.984	378.19
299.214	303.19
299.445	288.19
299.675	275.19
299.905	249.19
300.136	263.19
300.366	289.19
300.597	275.19
300.827	259.19
301.057	242.19
301.288	247.19
301.518	264.19
301.748	297.19
301.979	331.19
302.209	351.19
302.439	341.19
302.669	292.19
302.9	284.19
303.13	291.19
303.36	257.19
303.59	265.19
303.82	285.19
304.051	311.19
304.281	327.19
304.511	305.19
304.741	282.19
304.971	266.19
305.201	317.19
305.431	299.19
305.661	264.19
305.891	258.19
306.121	266.19
306.352	244.19
306.582	225.19
306.812	217.19
307.042	208.19
307.272	214.19
307.502	191.19
307.731	209.19
307.961	216.19
308.191	217.19
308.421	204.19
308.651	189.19
308.881	209.19
309.111	218.19
309.341	212.19
309.571	219.19
309.8	205.19
310.03	231.19
310.26	254.19
310.49	238.19
310.72	239.19
310.949	222.19
311.179	222.19
311.409	229.19
311.639	252.19
311.868	331.19
312.098	396.19
312.328	447.19
312.557	428.19
312.787	424.19
313.017	376.19
313.246	409.19
313.476	447.19
313.706	370.19
313.935	299.19
314.165	259.19
314.394	236.19
314.624	263.19
314.853	245.19
315.083	257.19
315.312	250.19
315.542	223.19
315.771	218.19
316.001	208.19
316.23	192.19
316.46	210.19
316.689	218.19
316.919	211.19
317.148	223.19
317.377	222.19
317.607	226.19
317.836	225.19
318.065	243.19
318.295	292.19
318.524	267.19
318.753	237.19
318.983	221.19
319.212	226.19
319.441	244.19
319.67	273.19
319.9	293.19
320.129	281.19
320.358	235.19
320.587	208.19
320.816	240.19
321.046	268.19
321.275	294.19
321.504	288.19
321.733	285.19
321.962	276.19
322.191	269.19
322.42	253.19
322.649	252.19
322.878	279.19
323.108	282.19
323.337	255.19
323.566	263.19
323.795	254.19
324.024	248.19
324.253	233.19
324.482	242.19
324.71	255.19
324.939	287.19
325.168	285.19
325.397	243.19
325.626	228.19
325.855	227.19
326.084	240.19
326.313	219.19
326.542	212.19
326.77	215.19
326.999	202.19
327.228	240.19
327.457	236.19
327.686	234.19
327.914	212.19
328.143	220.19
328.372	207.19
328.6	205.19
328.829	198.19
329.058	215.19
329.287	210.19
329.515	226.19
329.744	204.19
329.972	214.19
330.201	193.19
330.43	199.19
330.658	220.19
330.887	246.19
331.115	264.19
331.344	260.19
331.572	234.19
331.801	228.19
332.03	225.19
332.258	230.19
332.486	245.19
332.715	243.19
332.943	219.19
333.172	242.19
333.4	230.19
333.629	255.19
333.857	267.19
334.085	273.19
334.314	283.19
334.542	251.19
334.771	229.19
334.999	223.19
335.227	229.19
335.455	227.19
335.684	243.19
335.912	281.19
336.14	299.19
336.369	314.19
336.597	283.19
336.825	309.19
337.053	362.19
337.281	277.19
337.51	260.19
337.738	235.19
337.966	236.19
338.194	293.19
338.422	277.19
338.65	233.19
338.878	215.19
339.106	227.19
339.334	249.19
339.562	261.19
339.79	261.19
340.018	234.19
340.246	231.19
340.474	291.19
340.702	308.19
340.93	319.19
341.158	313.19
341.386	266.19
341.614	248.19
341.842	266.19
342.07	267.19
342.298	318.19
342.526	332.19
342.754	261.19
342.981	246.19
343.209	267.19
343.437	259.19
343.665	287.19
343.893	288.19
344.12	335.19
344.348	376.19
344.576	336.19
344.804	285.19
345.031	261.19
345.259	240.19
345.487	248.19
345.714	242.19
345.942	268.19
346.17	289.19
346.397	278.19
346.625	256.19
346.853	237.19
347.08	240.19
347.308	247.19
347.535	296.19
347.763	307.19
347.99	252.19
348.218	259.19
348.445	251.19
348.673	244.19
348.9	247.19
349.128	265.19
349.355	266.19
349.583	245.19
349.81	244.19
350.037	252.19
350.265	220.19
350.492	203.19
350.72	197.19
350.947	221.19
351.174	220.19
351.402	216.19
351.629	228.19
351.856	231.19
352.083	221.19
352.311	240.19
352.538	262.19
352.765	274.19
352.992	252.19
353.22	241.19
353.447	244.19
353.674	249.19
353.901	223.19
354.128	228.19
354.355	236.19
354.583	253.19
354.81	236.19
355.037	254.19
355.264	243.19
355.491	267.19
355.718	263.19
355.945	267.19
356.172	263.19
356.399	255.19
356.626	307.19
356.853	380.19
357.08	419.19
357.307	409.19
357.534	321.19
357.761	321.19
357.988	393.19
358.215	467.19
358.441	397.19
358.668	368.19
358.895	337.19
359.122	292.19
359.349	283.19
359.576	333.19
359.802	260.19
360.029	241.19
360.256	245.19
360.483	322.19
360.709	373.19
360.936	387.19
361.163	331.19
361.39	267.19
361.616	244.19
361.843	276.19
362.07	329.19
362.296	323.19
362.523	258.19
362.749	232.19
362.976	242.19
363.203	275.19
363.429	316.19
363.656	263.19
363.882	251.19
364.109	230.19
364.335	257.19
364.562	237.19
364.788	266.19
365.015	296.19
365.241	277.19
365.468	238.19
365.694	205.19
365.92	215.19
366.147	188.19
366.373	207.19
366.599	195.19
366.826	193.19
367.052	188.19
367.278	208.19
367.505	207.19
367.731	215.19
367.957	241.19
368.184	243.19
368.41	249.19
368.636	252.19
368.862	268.19
369.089	248.19
369.315	231.19
369.541	231.19
369.767	218.19
369.993	218.19
370.219	212.19
370.445	227.19
370.672	239.19
370.898	277.19
371.124	257.19
371.35	228.19
371.576	221.19
371.802	234.19
372.028	276.19
372.254	309.19
372.48	290.19
372.706	241.19
372.932	255.19
373.158	279.19
373.384	332.19
373.61	400.19
373.835	414.19
374.061	316.19
374.287	275.19
374.513	347.19
374.739	389.19
374.965	391.19
375.191	386.19
375.416	297.19
375.642	250.19
375.868	281.19
376.094	313.19
376.319	276.19
376.545	307.19
376.771	310.19
376.997	282.19
377.222	220.19
377.448	216.19
377.674	210.19
377.899	192.19
378.125	198.19
378.35	207.19
378.576	198.19
378.802	214.19
379.027	231.19
379.253	245.19
379.478	259.19
379.704	265.19
379.929	241.19
380.155	263.19
380.38	255.19
380.606	232.19
380.831	298.19
381.057	251.19
381.282	230.19
381.507	270.19
381.733	329.19
381.958	341.19
382.184	344.19
382.409	401.19
382.634	380.19
382.86	403.19
383.085	328.19
383.31	283.19
383.535	289.19
383.761	315.19
383.986	269.19
384.211	326.19
384.436	313.19
384.662	240.19
384.887	251.19
385.112	272.19
385.337	265.19
385.562	259.19
385.787	282.19
386.013	309.19
386.238	314.19
386.463	259.19
386.688	245.19
386.913	244.19
387.138	233.19
387.363	245.19
387.588	238.19
387.813	254.19
388.038	292.19
388.263	243.19
388.488	245.19
388.713	277.19
388.938	292.19
389.163	242.19
389.387	219.19
389.612	231.19
389.837	252.19
390.062	219.19
390.287	257.19
390.512	247.19
390.736	245.19
390.961	218.19
391.186	199.19
391.411	210.19
391.636	237.19
391.86	229.19
392.085	269.19
392.31	270.19
392.534	243.19
392.759	245.19
392.984	250.19
393.208	243.19
393.433	217.19
393.658	211.19
393.882	215.19
394.107	213.19
394.331	207.19
394.556	223.19
394.78	210.19
395.005	218.19
395.229	224.19
395.454	227.19
395.678	198.19
395.903	237.19
396.127	214.19
396.352	232.19
396.576	253.19
396.801	244.19
397.025	278.19
397.249	269.19
397.474	261.19
397.698	240.19
397.922	255.19
398.147	225.19
398.371	239.19
398.595	267.19
398.82	241.19
399.044	244.19
399.268	271.19
399.492	275.19
399.717	266.19
399.941	287.19
400.165	272.19
400.389	268.19
400.613	255.19
400.837	250.19
401.062	231.19
401.286	232.19
401.51	218.19
401.734	232.19
401.958	246.19
402.182	250.19
402.406	245.19
402.63	251.19
402.854	241.19
403.078	301.19
403.302	377.19
403.526	385.19
403.75	343.19
403.974	300.19
404.198	308.19
404.422	320.19
404.645	337.19
404.869	389.19
405.093	300.19
405.317	271.19
405.541	257.19
405.765	254.19
405.988	260.19
406.212	297.19
406.436	305.19
406.66	335.19
406.883	281.19
407.107	277.19
407.331	327.19
407.555	327.19
407.778	273.19
408.002	288.19
408.226	285.19
408.449	275.19
408.673	284.19
408.896	243.19
409.12	240.19
409.344	250.19
409.567	247.19
409.791	217.19
410.014	251.19
410.238	253.19
410.461	247.19
410.685	247.19
410.908	231.19
411.132	240.19
411.355	257.19
411.578	254.19
411.802	261.19
412.025	261.19
412.249	257.19
412.472	239.19
412.695	256.19
412.919	230.19
413.142	245.19
413.365	259.19
413.589	274.19
413.812	240.19
414.035	230.19
414.258	227.19
414.482	244.19
414.705	285.19
414.928	244.19
415.151	232.19
415.374	236.19
415.597	251.19
415.821	221.19
416.044	237.19
416.267	223.19
416.49	231.19
416.713	218.19
416.936	229.19
417.159	220.19
417.382	257.19
417.605	239.19
417.828	235.19
418.051	246.19
418.274	243.19
418.497	244.19
418.72	247.19
418.943	252.19
419.166	255.19
419.389	271.19
419.611	289.19
419.834	266.19
420.057	277.19
420.28	287.19
420.503	264.19
420.726	239.19
420.948	240.19
421.171	241.19
421.394	233.19
421.617	233.19
421.839	218.19
422.062	228.19
422.285	242.19
422.507	245.19
422.73	245.19
422.953	243.19
423.175	249.19
423.398	256.19
423.621	259.19
423.843	294.19
424.066	263.19
424.288	248.19
424.511	236.19
424.733	256.19
424.956	284.19
425.178	273.19
425.401	313.19
425.623	360.19
425.846	317.19
426.068	277.19
426.291	293.19
426.513	266.19
426.735	269.19
426.958	257.19
427.18	301.19
427.402	363.19
427.625	369.19
427.847	327.19
428.069	239.19
428.292	246.19
428.514	241.19
428.736	243.19
428.958	267.19
429.181	334.19
429.403	276.19
429.625	236.19
429.847	237.19
430.069	225.19
430.292	236.19
430.514	231.19
430.736	264.19
430.958	311.19
431.18	259.19
431.402	227.19
431.624	224.19
431.846	216.19
432.068	225.19
432.29	235.19
432.512	237.19
432.734	300.19
432.956	281.19
433.178	218.19
433.4	237.19
433.622	229.19
433.844	248.19
434.066	246.19
434.287	254.19
434.509	264.19
434.731	278.19
434.953	224.19
435.175	247.19
435.397	296.19
435.618	241.19
435.84	231.19
436.062	228.19
436.284	234.19
436.505	206.19
436.727	205.19
436.949	217.19
437.17	226.19
437.392	237.19
437.614	227.19
437.835	205.19
438.057	233.19
438.278	252.19
438.5	330.19
438.721	330.19
438.943	239.19
439.165	225.19
439.386	213.19
439.608	213.19
439.829	201.19
440.05	217.19
440.272	220.19
440.493	246.19
440.715	306.19
440.936	255.19
441.158	230.19
441.379	235.19
441.6	264.19
441.822	269.19
442.043	232.19
442.264	245.19
442.486	237.19
442.707	251.19
442.928	251.19
443.149	233.19
443.371	239.19
443.592	250.19
443.813	242.19
444.034	243.19
444.255	240.19
444.476	248.19
444.698	258.19
444.919	264.19
445.14	321.19
445.361	298.19
445.582	271.19
445.803	240.19
446.024	251.19
446.245	255.19
446.466	269.19
446.687	230.19
446.908	225.19
447.129	214.19
447.35	211.19
447.571	213.19
447.792	213.19
448.013	218.19
448.234	205.19
448.455	214.19
448.675	200.19
448.896	222.19
449.117	216.19
449.338	236.19
449.559	228.19
449.779	230.19
450	245.19
450.221	232.19
450.442	231.19
450.662	217.19
450.883	218.19
451.104	221.19
451.324	228.19
451.545	233.19
451.766	239.19
451.986	222.19
452.207	205.19
452.428	229.19
452.648	205.19
452.869	224.19
453.089	230.19
453.31	218.19
453.53	196.19
453.751	201.19
453.971	205.19
454.192	228.19
454.412	219.19
454.633	203.19
454.853	209.19
455.073	201.19
455.294	214.19
455.514	200.19
455.734	201.19
455.955	227.19
456.175	223.19
456.395	191.19
456.616	180.19
456.836	193.19
457.056	201.19
457.276	203.19
457.497	212.19
457.717	193.19
457.937	213.19
458.157	208.19
458.377	195.19
458.598	208.19
458.818	206.19
459.038	234.19
459.258	244.19
459.478	236.19
459.698	232.19
459.918	238.19
460.138	246.19
460.358	242.19
460.578	221.19
460.798	246.19
461.018	247.19
461.238	235.19
461.458	244.19
461.678	253.19
461.898	263.19
462.118	259.19
462.338	242.19
462.558	257.19
462.777	266.19
462.997	284.19
463.217	281.19
463.437	291.19
463.657	278.19
463.876	275.19
464.096	265.19
464.316	267.19
464.536	276.19
464.755	292.19
464.975	279.19
465.195	269.19
465.414	281.19
465.634	255.19
465.854	230.19
466.073	226.19
466.293	223.19
466.512	228.19
466.732	250.19
466.951	264.19
467.171	254.19
467.391	229.19
467.61	244.19
467.829	253.19
468.049	252.19
468.268	246.19
468.488	208.19
468.707	220.19
468.927	246.19
469.146	276.19
469.365	284.19
469.585	244.19
469.804	256.19
470.023	267.19
470.243	255.19
470.462	256.19
470.681	245.19
470.901	265.19
471.12	270.19
471.339	249.19
471.558	229.19
471.777	240.19
471.997	251.19
472.216	279.19
472.435	281.19
472.654	249.19
472.873	257.19
473.092	261.19
473.311	258.19
473.53	240.19
473.749	220.19
473.968	251.19
474.187	252.19
474.406	234.19
474.625	234.19
474.844	245.19
475.063	265.19
475.282	262.19
475.501	274.19
475.72	307.19
475.939	268.19
476.158	253.19
476.377	315.19
476.596	368.19
476.814	363.19
477.033	291.19
477.252	266.19
477.471	245.19
477.69	251.19
477.908	271.19
478.127	299.19
478.346	271.19
478.564	303.19
478.783	289.19
479.002	280.19
479.22	319.19
479.439	342.19
479.658	297.19
479.876	274.19
480.095	295.19
480.313	322.19
480.532	284.19
480.751	279.19
480.969	293.19
481.188	311.19
481.406	312.19
481.624	308.19
481.843	272.19
482.061	260.19
482.28	297.19
482.498	357.19
482.717	349.19
482.935	289.19
483.153	271.19
483.372	248.19
483.59	268.19
483.808	261.19
484.027	260.19
484.245	262.19
484.463	231.19
484.681	267.19
484.9	267.19
485.118	288.19
485.336	291.19
485.554	257.19
485.772	265.19
485.99	289.19
486.209	315.19
486.427	305.19
486.645	300.19
486.863	292.19
487.081	294.19
487.299	323.19
487.517	325.19
487.735	293.19
487.953	290.19
488.171	294.19
488.389	277.19
488.607	251.19
488.825	295.19
489.043	311.19
489.261	346.19
489.479	334.19
489.696	313.19
489.914	291.19
490.132	276.19
490.35	268.19
490.568	277.19
490.786	260.19
491.003	282.19
491.221	279.19
491.439	267.19
491.657	248.19
491.874	275.19
492.092	344.19
492.31	387.19
492.527	389.19
492.745	326.19
492.963	303.19
493.18	308.19
493.398	317.19
493.615	311.19
493.833	294.19
494.05	281.19
494.268	296.19
494.485	292.19
494.703	297.19
494.92	300.19
495.138	287.19
495.355	285.19
495.573	297.19
495.79	309.19
496.008	395.19
496.225	323.19
496.442	309.19
496.66	309.19
496.877	327.19
497.094	338.19
497.312	317.19
497.529	318.19
497.746	301.19
497.963	331.19
498.181	332.19
498.398	347.19
498.615	390.19
498.832	381.19
499.049	399.19
499.267	393.19
499.484	383.19
499.701	416.19
499.918	467.19
500.135	488.19
500.352	541.19
500.569	563.19
500.786	555.19
501.003	525.19
501.22	463.19
501.437	460.19
501.654	399.19
501.871	380.19
502.088	375.19
502.305	351.19
502.522	349.19
