Data from NickelSpatula_HRD10591_16-35-33-126.txt Node
Date: Mon Jul 22 16:35:33 EDT 2019
User: cochatt
Spectrometer: HR+D1059
Trigger mode: 1
Integration Time (sec): 1.000000E-1
Scans to average: 1
Electric dark correction enabled: true
Nonlinearity correction enabled: false
Boxcar width: 0
XAxis mode: Wavelengths
Number of Pixels in Spectrum: 2048
>>>>>Begin Spectral Data<<<<<
223.165	-11.94
223.4	-11.94
223.635	-11.94
223.869	-19.94
224.104	-23.94
224.338	-13.94
224.573	-14.94
224.808	-7.94
225.042	4.06
225.277	-10.94
225.511	8.06
225.746	9.06
225.98	4.06
226.215	12.06
226.449	13.06
226.683	18.06
226.918	1.06
227.152	34.06
227.387	43.06
227.621	36.06
227.856	39.06
228.09	42.06
228.324	51.06
228.559	63.06
228.793	65.06
229.027	76.06
229.262	70.06
229.496	79.06
229.73	73.06
229.964	89.06
230.199	105.06
230.433	109.06
230.667	94.06
230.901	83.06
231.136	110.06
231.37	101.06
231.604	97.06
231.838	105.06
232.072	82.06
232.306	101.06
232.541	96.06
232.775	104.06
233.009	119.06
233.243	120.06
233.477	115.06
233.711	118.06
233.945	118.06
234.179	122.06
234.413	115.06
234.647	128.06
234.881	143.06
235.115	114.06
235.349	129.06
235.583	123.06
235.817	94.06
236.051	125.06
236.285	113.06
236.519	135.06
236.753	147.06
236.987	118.06
237.221	109.06
237.455	119.06
237.689	135.06
237.922	121.06
238.156	133.06
238.39	143.06
238.624	166.06
238.858	155.06
239.091	133.06
239.325	117.06
239.559	133.06
239.793	137.06
240.027	158.06
240.26	153.06
240.494	157.06
240.728	151.06
240.961	156.06
241.195	157.06
241.429	156.06
241.662	141.06
241.896	150.06
242.13	143.06
242.363	137.06
242.597	126.06
242.83	134.06
243.064	136.06
243.298	138.06
243.531	153.06
243.765	167.06
243.998	153.06
244.232	137.06
244.465	161.06
244.699	144.06
244.932	163.06
245.166	143.06
245.399	154.06
245.633	154.06
245.866	142.06
246.099	154.06
246.333	157.06
246.566	168.06
246.8	181.06
247.033	174.06
247.266	165.06
247.5	154.06
247.733	159.06
247.966	161.06
248.2	164.06
248.433	154.06
248.666	184.06
248.899	172.06
249.133	184.06
249.366	202.06
249.599	212.06
249.832	210.06
250.066	179.06
250.299	195.06
250.532	175.06
250.765	186.06
250.998	157.06
251.231	153.06
251.465	180.06
251.698	190.06
251.931	186.06
252.164	193.06
252.397	183.06
252.63	220.06
252.863	245.06
253.096	242.06
253.329	229.06
253.562	223.06
253.795	241.06
254.028	272.06
254.261	276.06
254.494	242.06
254.727	223.06
254.96	235.06
255.193	243.06
255.426	219.06
255.659	201.06
255.892	177.06
256.124	178.06
256.357	201.06
256.59	239.06
256.823	220.06
257.056	217.06
257.289	206.06
257.521	211.06
257.754	243.06
257.987	261.06
258.22	230.06
258.452	203.06
258.685	213.06
258.918	255.06
259.151	261.06
259.383	260.06
259.616	285.06
259.849	291.06
260.081	317.06
260.314	323.06
260.547	270.06
260.779	281.06
261.012	301.06
261.244	261.06
261.477	301.06
261.71	279.06
261.942	254.06
262.175	254.06
262.407	229.06
262.64	242.06
262.872	284.06
263.105	308.06
263.337	318.06
263.57	288.06
263.802	207.06
264.035	187.06
264.267	199.06
264.499	170.06
264.732	153.06
264.964	159.06
265.197	159.06
265.429	167.06
265.661	181.06
265.894	191.06
266.126	190.06
266.358	205.06
266.591	248.06
266.823	290.06
267.055	284.06
267.287	220.06
267.52	242.06
267.752	275.06
267.984	271.06
268.216	265.06
268.448	239.06
268.681	225.06
268.913	245.06
269.145	264.06
269.377	271.06
269.609	263.06
269.841	250.06
270.073	267.06
270.306	261.06
270.538	279.06
270.77	269.06
271.002	261.06
271.234	281.06
271.466	293.06
271.698	284.06
271.93	287.06
272.162	261.06
272.394	262.06
272.626	265.06
272.858	268.06
273.09	276.06
273.322	234.06
273.553	221.06
273.785	260.06
274.017	329.06
274.249	377.06
274.481	379.06
274.713	441.06
274.945	485.06
275.176	503.06
275.408	464.06
275.64	407.06
275.872	412.06
276.104	382.06
276.335	344.06
276.567	343.06
276.799	345.06
277.031	345.06
277.262	266.06
277.494	230.06
277.726	230.06
277.957	247.06
278.189	269.06
278.421	281.06
278.652	244.06
278.884	261.06
279.115	246.06
279.347	221.06
279.579	233.06
279.81	221.06
280.042	252.06
280.273	247.06
280.505	231.06
280.736	214.06
280.968	207.06
281.199	226.06
281.431	244.06
281.662	231.06
281.894	232.06
282.125	251.06
282.356	284.06
282.588	282.06
282.819	240.06
283.051	261.06
283.282	318.06
283.513	330.06
283.745	371.06
283.976	375.06
284.207	330.06
284.439	360.06
284.67	333.06
284.901	307.06
285.132	338.06
285.364	330.06
285.595	323.06
285.826	347.06
286.057	362.06
286.288	349.06
286.52	341.06
286.751	363.06
286.982	360.06
287.213	322.06
287.444	322.06
287.675	328.06
287.906	325.06
288.138	287.06
288.369	267.06
288.6	245.06
288.831	253.06
289.062	289.06
289.293	323.06
289.524	296.06
289.755	293.06
289.986	315.06
290.217	288.06
290.448	217.06
290.679	201.06
290.91	196.06
291.141	196.06
291.371	196.06
291.602	203.06
291.833	185.06
292.064	197.06
292.295	218.06
292.526	269.06
292.757	265.06
292.987	289.06
293.218	283.06
293.449	293.06
293.68	323.06
293.91	309.06
294.141	311.06
294.372	300.06
294.603	272.06
294.833	300.06
295.064	358.06
295.295	321.06
295.525	267.06
295.756	203.06
295.987	188.06
296.217	187.06
296.448	192.06
296.679	220.06
296.909	206.06
297.14	213.06
297.37	265.06
297.601	247.06
297.831	223.06
298.062	245.06
298.292	241.06
298.523	238.06
298.753	289.06
298.984	276.06
299.214	237.06
299.445	212.06
299.675	206.06
299.905	195.06
300.136	185.06
300.366	217.06
300.597	202.06
300.827	192.06
301.057	196.06
301.288	188.06
301.518	213.06
301.748	225.06
301.979	247.06
302.209	268.06
302.439	233.06
302.669	242.06
302.9	246.06
303.13	213.06
303.36	223.06
303.59	201.06
303.82	211.06
304.051	249.06
304.281	233.06
304.511	252.06
304.741	229.06
304.971	231.06
305.201	222.06
305.431	212.06
305.661	209.06
305.891	196.06
306.121	207.06
306.352	178.06
306.582	157.06
306.812	181.06
307.042	179.06
307.272	165.06
307.502	163.06
307.731	172.06
307.961	157.06
308.191	167.06
308.421	157.06
308.651	157.06
308.881	157.06
309.111	157.06
309.341	159.06
309.571	178.06
309.8	197.06
310.03	183.06
310.26	193.06
310.49	188.06
310.72	181.06
310.949	170.06
311.179	181.06
311.409	187.06
311.639	189.06
311.868	255.06
312.098	291.06
312.328	325.06
312.557	320.06
312.787	348.06
313.017	289.06
313.246	314.06
313.476	329.06
313.706	281.06
313.935	239.06
314.165	197.06
314.394	193.06
314.624	196.06
314.853	187.06
315.083	194.06
315.312	200.06
315.542	177.06
315.771	182.06
316.001	164.06
316.23	174.06
316.46	158.06
316.689	178.06
316.919	170.06
317.148	162.06
317.377	178.06
317.607	178.06
317.836	181.06
318.065	204.06
318.295	212.06
318.524	221.06
318.753	198.06
318.983	180.06
319.212	179.06
319.441	189.06
319.67	212.06
319.9	221.06
320.129	217.06
320.358	183.06
320.587	178.06
320.816	202.06
321.046	199.06
321.275	233.06
321.504	241.06
321.733	217.06
321.962	214.06
322.191	211.06
322.42	191.06
322.649	191.06
322.878	222.06
323.108	216.06
323.337	197.06
323.566	197.06
323.795	201.06
324.024	193.06
324.253	184.06
324.482	182.06
324.71	179.06
324.939	191.06
325.168	178.06
325.397	184.06
325.626	174.06
325.855	180.06
326.084	180.06
326.313	168.06
326.542	170.06
326.77	174.06
326.999	180.06
327.228	180.06
327.457	182.06
327.686	177.06
327.914	163.06
328.143	166.06
328.372	138.06
328.6	161.06
328.829	171.06
329.058	188.06
329.287	171.06
329.515	179.06
329.744	187.06
329.972	173.06
330.201	171.06
330.43	170.06
330.658	159.06
330.887	190.06
331.115	187.06
331.344	188.06
331.572	193.06
331.801	183.06
332.03	165.06
332.258	167.06
332.486	185.06
332.715	170.06
332.943	173.06
333.172	181.06
333.4	189.06
333.629	207.06
333.857	216.06
334.085	198.06
334.314	199.06
334.542	185.06
334.771	187.06
334.999	183.06
335.227	169.06
335.455	174.06
335.684	212.06
335.912	226.06
336.14	244.06
336.369	210.06
336.597	222.06
336.825	230.06
337.053	258.06
337.281	229.06
337.51	196.06
337.738	182.06
337.966	198.06
338.194	209.06
338.422	171.06
338.65	189.06
338.878	174.06
339.106	181.06
339.334	203.06
339.562	203.06
339.79	190.06
340.018	173.06
340.246	183.06
340.474	194.06
340.702	206.06
340.93	225.06
341.158	217.06
341.386	185.06
341.614	194.06
341.842	178.06
342.07	191.06
342.298	221.06
342.526	241.06
342.754	213.06
342.981	185.06
343.209	192.06
343.437	195.06
343.665	198.06
343.893	225.06
344.12	227.06
344.348	272.06
344.576	246.06
344.804	201.06
345.031	192.06
345.259	186.06
345.487	175.06
345.714	184.06
345.942	210.06
346.17	213.06
346.397	221.06
346.625	178.06
346.853	190.06
347.08	175.06
347.308	189.06
347.535	191.06
347.763	215.06
347.99	191.06
348.218	171.06
348.445	187.06
348.673	179.06
348.9	184.06
349.128	177.06
349.355	185.06
349.583	200.06
349.81	170.06
350.037	171.06
350.265	163.06
350.492	154.06
350.72	153.06
350.947	166.06
351.174	156.06
351.402	179.06
351.629	189.06
351.856	163.06
352.083	159.06
352.311	172.06
352.538	192.06
352.765	180.06
352.992	182.06
353.22	195.06
353.447	205.06
353.674	177.06
353.901	193.06
354.128	173.06
354.355	169.06
354.583	191.06
354.81	188.06
355.037	208.06
355.264	188.06
355.491	195.06
355.718	205.06
355.945	193.06
356.172	184.06
356.399	200.06
356.626	201.06
356.853	266.06
357.08	286.06
357.307	275.06
357.534	234.06
357.761	229.06
357.988	292.06
358.215	295.06
358.441	292.06
358.668	261.06
358.895	240.06
359.122	212.06
359.349	203.06
359.576	231.06
359.802	188.06
360.029	174.06
360.256	197.06
360.483	207.06
360.709	267.06
360.936	276.06
361.163	239.06
361.39	204.06
361.616	195.06
361.843	205.06
362.07	232.06
362.296	226.06
362.523	182.06
362.749	174.06
362.976	166.06
363.203	191.06
363.429	222.06
363.656	198.06
363.882	179.06
364.109	190.06
364.335	190.06
364.562	177.06
364.788	191.06
365.015	205.06
365.241	197.06
365.468	169.06
365.694	164.06
365.92	157.06
366.147	144.06
366.373	165.06
366.599	159.06
366.826	154.06
367.052	168.06
367.278	150.06
367.505	163.06
367.731	169.06
367.957	195.06
368.184	182.06
368.41	181.06
368.636	170.06
368.862	177.06
369.089	170.06
369.315	177.06
369.541	173.06
369.767	164.06
369.993	157.06
370.219	174.06
370.445	161.06
370.672	189.06
370.898	209.06
371.124	196.06
371.35	170.06
371.576	161.06
371.802	187.06
372.028	195.06
372.254	222.06
372.48	180.06
372.706	175.06
372.932	197.06
373.158	177.06
373.384	220.06
373.61	274.06
373.835	277.06
374.061	206.06
374.287	200.06
374.513	231.06
374.739	231.06
374.965	248.06
375.191	263.06
375.416	203.06
375.642	179.06
375.868	215.06
376.094	217.06
376.319	182.06
376.545	185.06
376.771	213.06
376.997	207.06
377.222	158.06
377.448	144.06
377.674	142.06
377.899	153.06
378.125	149.06
378.35	134.06
378.576	154.06
378.802	177.06
379.027	171.06
379.253	172.06
379.478	173.06
379.704	196.06
379.929	183.06
380.155	198.06
380.38	180.06
380.606	184.06
380.831	201.06
381.057	197.06
381.282	170.06
381.507	209.06
381.733	230.06
381.958	261.06
382.184	238.06
382.409	250.06
382.634	257.06
382.86	258.06
383.085	228.06
383.31	199.06
383.535	204.06
383.761	214.06
383.986	196.06
384.211	237.06
384.436	246.06
384.662	186.06
384.887	202.06
385.112	186.06
385.337	196.06
385.562	185.06
385.787	189.06
386.013	222.06
386.238	186.06
386.463	177.06
386.688	181.06
386.913	187.06
387.138	159.06
387.363	190.06
387.588	195.06
387.813	197.06
388.038	203.06
388.263	182.06
388.488	170.06
388.713	199.06
388.938	200.06
389.163	179.06
389.387	168.06
389.612	161.06
389.837	178.06
390.062	198.06
390.287	178.06
390.512	188.06
390.736	175.06
390.961	163.06
391.186	157.06
391.411	160.06
391.636	178.06
391.86	181.06
392.085	201.06
392.31	195.06
392.534	183.06
392.759	165.06
392.984	177.06
393.208	175.06
393.433	179.06
393.658	171.06
393.882	165.06
394.107	163.06
394.331	168.06
394.556	157.06
394.78	153.06
395.005	168.06
395.229	181.06
395.454	175.06
395.678	159.06
395.903	176.06
396.127	173.06
396.352	172.06
396.576	184.06
396.801	190.06
397.025	210.06
397.249	212.06
397.474	184.06
397.698	173.06
397.922	178.06
398.147	174.06
398.371	181.06
398.595	187.06
398.82	174.06
399.044	183.06
399.268	207.06
399.492	185.06
399.717	204.06
399.941	195.06
400.165	206.06
400.389	193.06
400.613	182.06
400.837	209.06
401.062	166.06
401.286	166.06
401.51	174.06
401.734	183.06
401.958	185.06
402.182	179.06
402.406	176.06
402.63	166.06
402.854	185.06
403.078	197.06
403.302	250.06
403.526	265.06
403.75	260.06
403.974	211.06
404.198	203.06
404.422	222.06
404.645	235.06
404.869	260.06
405.093	218.06
405.317	219.06
405.541	187.06
405.765	201.06
405.988	215.06
406.212	219.06
406.436	217.06
406.66	236.06
406.883	197.06
407.107	212.06
407.331	243.06
407.555	220.06
407.778	207.06
408.002	205.06
408.226	195.06
408.449	214.06
408.673	191.06
408.896	206.06
409.12	183.06
409.344	186.06
409.567	178.06
409.791	192.06
410.014	184.06
410.238	183.06
410.461	183.06
410.685	194.06
410.908	178.06
411.132	181.06
411.355	185.06
411.578	214.06
411.802	173.06
412.025	179.06
412.249	191.06
412.472	173.06
412.695	174.06
412.919	184.06
413.142	187.06
413.365	191.06
413.589	183.06
413.812	211.06
414.035	161.06
414.258	190.06
414.482	190.06
414.705	204.06
414.928	182.06
415.151	174.06
415.374	183.06
415.597	181.06
415.821	188.06
416.044	191.06
416.267	150.06
416.49	165.06
416.713	172.06
416.936	164.06
417.159	161.06
417.382	181.06
417.605	172.06
417.828	210.06
418.051	193.06
418.274	181.06
418.497	183.06
418.72	169.06
418.943	188.06
419.166	184.06
419.389	197.06
419.611	193.06
419.834	204.06
420.057	198.06
420.28	202.06
420.503	206.06
420.726	178.06
420.948	172.06
421.171	176.06
421.394	169.06
421.617	182.06
421.839	174.06
422.062	164.06
422.285	184.06
422.507	174.06
422.73	188.06
422.953	182.06
423.175	180.06
423.398	198.06
423.621	189.06
423.843	216.06
424.066	195.06
424.288	182.06
424.511	184.06
424.733	178.06
424.956	208.06
425.178	213.06
425.401	229.06
425.623	246.06
425.846	217.06
426.068	189.06
426.291	209.06
426.513	196.06
426.735	196.06
426.958	180.06
427.18	213.06
427.402	256.06
427.625	255.06
427.847	243.06
428.069	185.06
428.292	169.06
428.514	171.06
428.736	167.06
428.958	196.06
429.181	213.06
429.403	206.06
429.625	173.06
429.847	189.06
430.069	185.06
430.292	181.06
430.514	159.06
430.736	182.06
430.958	206.06
431.18	211.06
431.402	186.06
431.624	172.06
431.846	155.06
432.068	165.06
432.29	162.06
432.512	178.06
432.734	209.06
432.956	202.06
433.178	174.06
433.4	185.06
433.622	180.06
433.844	178.06
434.066	201.06
434.287	189.06
434.509	172.06
434.731	199.06
434.953	194.06
435.175	206.06
435.397	215.06
435.618	190.06
435.84	172.06
436.062	172.06
436.284	165.06
436.505	169.06
436.727	168.06
436.949	164.06
437.17	174.06
437.392	193.06
437.614	163.06
437.835	165.06
438.057	158.06
438.278	195.06
438.5	253.06
438.721	238.06
438.943	197.06
439.165	174.06
439.386	172.06
439.608	163.06
439.829	149.06
440.05	174.06
440.272	186.06
440.493	191.06
440.715	216.06
440.936	182.06
441.158	163.06
441.379	164.06
441.6	194.06
441.822	185.06
442.043	196.06
442.264	173.06
442.486	185.06
442.707	189.06
442.928	181.06
443.149	174.06
443.371	193.06
443.592	189.06
443.813	173.06
444.034	179.06
444.255	177.06
444.476	171.06
444.698	176.06
444.919	187.06
445.14	321.06
445.361	245.06
445.582	186.06
445.803	212.06
446.024	202.06
446.245	197.06
446.466	185.06
446.687	191.06
446.908	179.06
447.129	181.06
447.35	186.06
447.571	171.06
447.792	163.06
448.013	170.06
448.234	171.06
448.455	144.06
448.675	156.06
448.896	163.06
449.117	169.06
449.338	173.06
449.559	179.06
449.779	171.06
450	181.06
450.221	162.06
450.442	154.06
450.662	167.06
450.883	178.06
451.104	163.06
451.324	157.06
451.545	178.06
451.766	155.06
451.986	155.06
452.207	158.06
452.428	151.06
452.648	162.06
452.869	162.06
453.089	177.06
453.31	177.06
453.53	164.06
453.751	158.06
453.971	156.06
454.192	162.06
454.412	165.06
454.633	173.06
454.853	173.06
455.073	163.06
455.294	150.06
455.514	170.06
455.734	171.06
455.955	165.06
456.175	170.06
456.395	155.06
456.616	159.06
456.836	146.06
457.056	153.06
457.276	166.06
457.497	150.06
457.717	153.06
457.937	152.06
458.157	151.06
458.377	154.06
458.598	169.06
458.818	156.06
459.038	148.06
459.258	178.06
459.478	171.06
459.698	174.06
459.918	171.06
460.138	179.06
460.358	192.06
460.578	185.06
460.798	177.06
461.018	176.06
461.238	159.06
461.458	170.06
461.678	178.06
461.898	189.06
462.118	185.06
462.338	198.06
462.558	188.06
462.777	203.06
462.997	203.06
463.217	208.06
463.437	220.06
463.657	202.06
463.876	190.06
464.096	203.06
464.316	186.06
464.536	194.06
464.755	220.06
464.975	202.06
465.195	207.06
465.414	198.06
465.634	172.06
465.854	184.06
466.073	184.06
466.293	178.06
466.512	182.06
466.732	193.06
466.951	199.06
467.171	183.06
467.391	169.06
467.61	172.06
467.829	177.06
468.049	183.06
468.268	177.06
468.488	191.06
468.707	173.06
468.927	213.06
469.146	211.06
469.365	200.06
469.585	193.06
469.804	203.06
470.023	201.06
470.243	189.06
470.462	188.06
470.681	189.06
470.901	180.06
471.12	193.06
471.339	204.06
471.558	171.06
471.777	183.06
471.997	207.06
472.216	211.06
472.435	210.06
472.654	200.06
472.873	189.06
473.092	203.06
473.311	205.06
473.53	181.06
473.749	182.06
473.968	208.06
474.187	189.06
474.406	172.06
474.625	179.06
474.844	181.06
475.063	207.06
475.282	204.06
475.501	212.06
475.72	243.06
475.939	194.06
476.158	207.06
476.377	231.06
476.596	285.06
476.814	289.06
477.033	234.06
477.252	200.06
477.471	214.06
477.69	170.06
477.908	207.06
478.127	222.06
478.346	206.06
478.564	244.06
478.783	210.06
479.002	221.06
479.22	238.06
479.439	238.06
479.658	244.06
479.876	204.06
480.095	203.06
480.313	230.06
480.532	223.06
480.751	195.06
480.969	205.06
481.188	217.06
481.406	235.06
481.624	211.06
481.843	190.06
482.061	193.06
482.28	212.06
482.498	271.06
482.717	269.06
482.935	237.06
483.153	190.06
483.372	190.06
483.59	196.06
483.808	188.06
484.027	209.06
484.245	195.06
484.463	199.06
484.681	196.06
484.9	221.06
485.118	234.06
485.336	195.06
485.554	199.06
485.772	201.06
485.99	234.06
486.209	239.06
486.427	206.06
486.645	195.06
486.863	220.06
487.081	217.06
487.299	253.06
487.517	251.06
487.735	212.06
487.953	229.06
488.171	215.06
488.389	212.06
488.607	207.06
488.825	227.06
489.043	242.06
489.261	265.06
489.479	280.06
489.696	231.06
489.914	224.06
490.132	201.06
490.35	210.06
490.568	207.06
490.786	193.06
491.003	212.06
491.221	222.06
491.439	202.06
491.657	196.06
491.874	198.06
492.092	263.06
492.31	295.06
492.527	283.06
492.745	256.06
492.963	236.06
493.18	222.06
493.398	228.06
493.615	230.06
493.833	220.06
494.05	230.06
494.268	224.06
494.485	237.06
494.703	200.06
494.92	206.06
495.138	229.06
495.355	210.06
495.573	230.06
495.79	246.06
496.008	318.06
496.225	277.06
496.442	228.06
496.66	228.06
496.877	259.06
497.094	227.06
497.312	230.06
497.529	234.06
497.746	251.06
497.963	226.06
498.181	261.06
498.398	259.06
498.615	265.06
498.832	289.06
499.049	278.06
499.267	274.06
499.484	264.06
499.701	294.06
499.918	303.06
500.135	340.06
500.352	337.06
500.569	345.06
500.786	380.06
501.003	342.06
501.22	330.06
501.437	295.06
501.654	283.06
501.871	269.06
502.088	296.06
502.305	264.06
502.522	275.06
502.739	268.06
