Data from NickelSpatula_HRD10591_16-35-44-125.txt Node
Date: Mon Jul 22 16:35:44 EDT 2019
User: cochatt
Spectrometer: HR+D1059
Trigger mode: 1
Integration Time (sec): 1.000000E-1
Scans to average: 1
Electric dark correction enabled: true
Nonlinearity correction enabled: false
Boxcar width: 0
XAxis mode: Wavelengths
Number of Pixels in Spectrum: 2048
>>>>>Begin Spectral Data<<<<<
223.165	-15.69
223.4	-15.69
223.635	-15.69
223.869	-0.69
224.104	-25.69
224.338	4.31
224.573	-9.69
224.808	-12.69
225.042	-16.69
225.277	-6.69
225.511	-14.69
225.746	6.31
225.98	10.31
226.215	14.31
226.449	10.31
226.683	19.31
226.918	14.31
227.152	23.31
227.387	38.31
227.621	22.31
227.856	53.31
228.09	49.31
228.324	50.31
228.559	51.31
228.793	54.31
229.027	69.31
229.262	69.31
229.496	72.31
229.73	79.31
229.964	68.31
230.199	86.31
230.433	97.31
230.667	72.31
230.901	87.31
231.136	78.31
231.37	75.31
231.604	88.31
231.838	98.31
232.072	103.31
232.306	106.31
232.541	100.31
232.775	81.31
233.009	104.31
233.243	106.31
233.477	110.31
233.711	102.31
233.945	92.31
234.179	97.31
234.413	114.31
234.647	109.31
234.881	118.31
235.115	119.31
235.349	109.31
235.583	111.31
235.817	106.31
236.051	101.31
236.285	106.31
236.519	125.31
236.753	121.31
236.987	129.31
237.221	112.31
237.455	111.31
237.689	122.31
237.922	114.31
238.156	128.31
238.39	127.31
238.624	139.31
238.858	146.31
239.091	126.31
239.325	120.31
239.559	116.31
239.793	125.31
240.027	140.31
240.26	139.31
240.494	128.31
240.728	115.31
240.961	133.31
241.195	136.31
241.429	142.31
241.662	144.31
241.896	125.31
242.13	118.31
242.363	125.31
242.597	119.31
242.83	133.31
243.064	133.31
243.298	148.31
243.531	136.31
243.765	136.31
243.998	148.31
244.232	134.31
244.465	127.31
244.699	124.31
244.932	137.31
245.166	136.31
245.399	142.31
245.633	142.31
245.866	120.31
246.099	142.31
246.333	158.31
246.566	165.31
246.8	160.31
247.033	164.31
247.266	150.31
247.5	144.31
247.733	142.31
247.966	149.31
248.2	155.31
248.433	163.31
248.666	147.31
248.899	186.31
249.133	167.31
249.366	184.31
249.599	183.31
249.832	193.31
250.066	169.31
250.299	158.31
250.532	166.31
250.765	157.31
250.998	146.31
251.231	154.31
251.465	144.31
251.698	175.31
251.931	152.31
252.164	161.31
252.397	185.31
252.63	190.31
252.863	204.31
253.096	220.31
253.329	210.31
253.562	222.31
253.795	221.31
254.028	229.31
254.261	240.31
254.494	215.31
254.727	232.31
254.96	196.31
255.193	199.31
255.426	207.31
255.659	157.31
255.892	156.31
256.124	160.31
256.357	181.31
256.59	193.31
256.823	199.31
257.056	175.31
257.289	169.31
257.521	192.31
257.754	207.31
257.987	215.31
258.22	203.31
258.452	181.31
258.685	193.31
258.918	201.31
259.151	217.31
259.383	226.31
259.616	261.31
259.849	257.31
260.081	274.31
260.314	271.31
260.547	231.31
260.779	238.31
261.012	282.31
261.244	265.31
261.477	254.31
261.71	255.31
261.942	219.31
262.175	213.31
262.407	207.31
262.64	231.31
262.872	256.31
263.105	262.31
263.337	275.31
263.57	246.31
263.802	190.31
264.035	160.31
264.267	183.31
264.499	148.31
264.732	138.31
264.964	150.31
265.197	146.31
265.429	174.31
265.661	168.31
265.894	167.31
266.126	187.31
266.358	188.31
266.591	212.31
266.823	258.31
267.055	221.31
267.287	226.31
267.52	207.31
267.752	223.31
267.984	247.31
268.216	221.31
268.448	196.31
268.681	196.31
268.913	207.31
269.145	220.31
269.377	248.31
269.609	229.31
269.841	199.31
270.073	206.31
270.306	234.31
270.538	239.31
270.77	223.31
271.002	242.31
271.234	238.31
271.466	252.31
271.698	233.31
271.93	229.31
272.162	243.31
272.394	240.31
272.626	236.31
272.858	235.31
273.09	244.31
273.322	220.31
273.553	203.31
273.785	250.31
274.017	296.31
274.249	348.31
274.481	368.31
274.713	404.31
274.945	420.31
275.176	438.31
275.408	392.31
275.64	372.31
275.872	381.31
276.104	352.31
276.335	292.31
276.567	301.31
276.799	302.31
277.031	316.31
277.262	261.31
277.494	214.31
277.726	204.31
277.957	224.31
278.189	251.31
278.421	232.31
278.652	222.31
278.884	215.31
279.115	190.31
279.347	192.31
279.579	202.31
279.81	214.31
280.042	192.31
280.273	211.31
280.505	198.31
280.736	186.31
280.968	180.31
281.199	213.31
281.431	213.31
281.662	211.31
281.894	202.31
282.125	206.31
282.356	229.31
282.588	223.31
282.819	205.31
283.051	212.31
283.282	255.31
283.513	276.31
283.745	310.31
283.976	321.31
284.207	306.31
284.439	315.31
284.67	310.31
284.901	275.31
285.132	293.31
285.364	318.31
285.595	284.31
285.826	282.31
286.057	300.31
286.288	294.31
286.52	288.31
286.751	301.31
286.982	286.31
287.213	267.31
287.444	266.31
287.675	296.31
287.906	293.31
288.138	236.31
288.369	224.31
288.6	219.31
288.831	210.31
289.062	262.31
289.293	279.31
289.524	256.31
289.755	255.31
289.986	247.31
290.217	240.31
290.448	174.31
290.679	168.31
290.91	164.31
291.141	162.31
291.371	161.31
291.602	180.31
291.833	174.31
292.064	181.31
292.295	202.31
292.526	223.31
292.757	212.31
292.987	257.31
293.218	242.31
293.449	253.31
293.68	260.31
293.91	257.31
294.141	270.31
294.372	258.31
294.603	245.31
294.833	233.31
295.064	283.31
295.295	270.31
295.525	213.31
295.756	191.31
295.987	167.31
296.217	178.31
296.448	163.31
296.679	168.31
296.909	188.31
297.14	200.31
297.37	218.31
297.601	204.31
297.831	200.31
298.062	217.31
298.292	205.31
298.523	239.31
298.753	260.31
298.984	237.31
299.214	191.31
299.445	172.31
299.675	177.31
299.905	163.31
300.136	164.31
300.366	198.31
300.597	187.31
300.827	165.31
301.057	160.31
301.288	147.31
301.518	201.31
301.748	201.31
301.979	189.31
302.209	206.31
302.439	207.31
302.669	198.31
302.9	198.31
303.13	179.31
303.36	180.31
303.59	178.31
303.82	185.31
304.051	201.31
304.281	213.31
304.511	220.31
304.741	175.31
304.971	180.31
305.201	205.31
305.431	183.31
305.661	172.31
305.891	160.31
306.121	176.31
306.352	159.31
306.582	156.31
306.812	153.31
307.042	138.31
307.272	151.31
307.502	162.31
307.731	150.31
307.961	146.31
308.191	156.31
308.421	141.31
308.651	125.31
308.881	143.31
309.111	133.31
309.341	130.31
309.571	135.31
309.8	168.31
310.03	150.31
310.26	176.31
310.49	146.31
310.72	154.31
310.949	137.31
311.179	151.31
311.409	151.31
311.639	184.31
311.868	206.31
312.098	255.31
312.328	286.31
312.557	268.31
312.787	257.31
313.017	248.31
313.246	279.31
313.476	296.31
313.706	236.31
313.935	199.31
314.165	180.31
314.394	160.31
314.624	163.31
314.853	177.31
315.083	177.31
315.312	169.31
315.542	167.31
315.771	153.31
316.001	141.31
316.23	153.31
316.46	133.31
316.689	159.31
316.919	144.31
317.148	146.31
317.377	143.31
317.607	144.31
317.836	168.31
318.065	169.31
318.295	181.31
318.524	184.31
318.753	149.31
318.983	156.31
319.212	145.31
319.441	172.31
319.67	161.31
319.9	192.31
320.129	179.31
320.358	157.31
320.587	151.31
320.816	162.31
321.046	174.31
321.275	185.31
321.504	213.31
321.733	153.31
321.962	183.31
322.191	170.31
322.42	168.31
322.649	157.31
322.878	189.31
323.108	182.31
323.337	176.31
323.566	162.31
323.795	153.31
324.024	150.31
324.253	161.31
324.482	150.31
324.71	148.31
324.939	180.31
325.168	185.31
325.397	142.31
325.626	131.31
325.855	142.31
326.084	166.31
326.313	148.31
326.542	153.31
326.77	147.31
326.999	146.31
327.228	152.31
327.457	154.31
327.686	144.31
327.914	145.31
328.143	153.31
328.372	142.31
328.6	128.31
328.829	132.31
329.058	136.31
329.287	144.31
329.515	159.31
329.744	148.31
329.972	136.31
330.201	130.31
330.43	128.31
330.658	146.31
330.887	173.31
331.115	156.31
331.344	160.31
331.572	161.31
331.801	137.31
332.03	136.31
332.258	130.31
332.486	149.31
332.715	167.31
332.943	144.31
333.172	158.31
333.4	144.31
333.629	159.31
333.857	176.31
334.085	167.31
334.314	173.31
334.542	160.31
334.771	144.31
334.999	160.31
335.227	168.31
335.455	158.31
335.684	166.31
335.912	176.31
336.14	199.31
336.369	190.31
336.597	183.31
336.825	204.31
337.053	221.31
337.281	209.31
337.51	167.31
337.738	161.31
337.966	168.31
338.194	176.31
338.422	173.31
338.65	152.31
338.878	165.31
339.106	152.31
339.334	167.31
339.562	164.31
339.79	165.31
340.018	159.31
340.246	166.31
340.474	178.31
340.702	196.31
340.93	188.31
341.158	169.31
341.386	149.31
341.614	159.31
341.842	174.31
342.07	182.31
342.298	197.31
342.526	198.31
342.754	170.31
342.981	156.31
343.209	169.31
343.437	179.31
343.665	172.31
343.893	188.31
344.12	207.31
344.348	223.31
344.576	206.31
344.804	190.31
345.031	165.31
345.259	156.31
345.487	146.31
345.714	161.31
345.942	167.31
346.17	190.31
346.397	171.31
346.625	157.31
346.853	147.31
347.08	163.31
347.308	145.31
347.535	185.31
347.763	170.31
347.99	151.31
348.218	151.31
348.445	157.31
348.673	167.31
348.9	165.31
349.128	154.31
349.355	155.31
349.583	153.31
349.81	159.31
350.037	164.31
350.265	150.31
350.492	136.31
350.72	133.31
350.947	155.31
351.174	146.31
351.402	154.31
351.629	151.31
351.856	153.31
352.083	136.31
352.311	152.31
352.538	161.31
352.765	188.31
352.992	166.31
353.22	172.31
353.447	167.31
353.674	148.31
353.901	144.31
354.128	144.31
354.355	158.31
354.583	152.31
354.81	164.31
355.037	154.31
355.264	165.31
355.491	168.31
355.718	182.31
355.945	172.31
356.172	177.31
356.399	178.31
356.626	188.31
356.853	231.31
357.08	239.31
357.307	234.31
357.534	202.31
357.761	221.31
357.988	239.31
358.215	274.31
358.441	242.31
358.668	222.31
358.895	217.31
359.122	164.31
359.349	188.31
359.576	195.31
359.802	175.31
360.029	170.31
360.256	155.31
360.483	153.31
360.709	221.31
360.936	226.31
361.163	205.31
361.39	182.31
361.616	164.31
361.843	190.31
362.07	196.31
362.296	192.31
362.523	165.31
362.749	151.31
362.976	146.31
363.203	161.31
363.429	194.31
363.656	160.31
363.882	147.31
364.109	169.31
364.335	159.31
364.562	160.31
364.788	143.31
365.015	200.31
365.241	178.31
365.468	161.31
365.694	144.31
365.92	150.31
366.147	139.31
366.373	137.31
366.599	137.31
366.826	134.31
367.052	151.31
367.278	146.31
367.505	134.31
367.731	142.31
367.957	164.31
368.184	174.31
368.41	157.31
368.636	158.31
368.862	159.31
369.089	157.31
369.315	151.31
369.541	160.31
369.767	149.31
369.993	137.31
370.219	142.31
370.445	152.31
370.672	161.31
370.898	175.31
371.124	165.31
371.35	147.31
371.576	148.31
371.802	166.31
372.028	163.31
372.254	184.31
372.48	171.31
372.706	165.31
372.932	172.31
373.158	164.31
373.384	191.31
373.61	235.31
373.835	240.31
374.061	208.31
374.287	172.31
374.513	195.31
374.739	209.31
374.965	210.31
375.191	225.31
375.416	182.31
375.642	168.31
375.868	180.31
376.094	213.31
376.319	172.31
376.545	184.31
376.771	196.31
376.997	185.31
377.222	140.31
377.448	138.31
377.674	136.31
377.899	144.31
378.125	143.31
378.35	129.31
378.576	128.31
378.802	151.31
379.027	145.31
379.253	144.31
379.478	148.31
379.704	175.31
379.929	169.31
380.155	160.31
380.38	162.31
380.606	151.31
380.831	172.31
381.057	176.31
381.282	142.31
381.507	184.31
381.733	217.31
381.958	209.31
382.184	222.31
382.409	214.31
382.634	231.31
382.86	238.31
383.085	202.31
383.31	170.31
383.535	179.31
383.761	200.31
383.986	178.31
384.211	207.31
384.436	200.31
384.662	169.31
384.887	160.31
385.112	177.31
385.337	163.31
385.562	170.31
385.787	161.31
386.013	199.31
386.238	186.31
386.463	168.31
386.688	146.31
386.913	159.31
387.138	154.31
387.363	155.31
387.588	156.31
387.813	165.31
388.038	201.31
388.263	166.31
388.488	161.31
388.713	173.31
388.938	193.31
389.163	174.31
389.387	144.31
389.612	150.31
389.837	168.31
390.062	174.31
390.287	168.31
390.512	172.31
390.736	156.31
390.961	143.31
391.186	157.31
391.411	139.31
391.636	151.31
391.86	157.31
392.085	181.31
392.31	173.31
392.534	155.31
392.759	165.31
392.984	175.31
393.208	173.31
393.433	152.31
393.658	134.31
393.882	136.31
394.107	150.31
394.331	133.31
394.556	142.31
394.78	133.31
395.005	132.31
395.229	131.31
395.454	156.31
395.678	150.31
395.903	151.31
396.127	152.31
396.352	149.31
396.576	161.31
396.801	160.31
397.025	176.31
397.249	189.31
397.474	156.31
397.698	151.31
397.922	164.31
398.147	162.31
398.371	164.31
398.595	161.31
398.82	151.31
399.044	166.31
399.268	167.31
399.492	159.31
399.717	161.31
399.941	173.31
400.165	177.31
400.389	175.31
400.613	182.31
400.837	177.31
401.062	155.31
401.286	156.31
401.51	149.31
401.734	156.31
401.958	169.31
402.182	162.31
402.406	137.31
402.63	160.31
402.854	161.31
403.078	179.31
403.302	214.31
403.526	231.31
403.75	201.31
403.974	179.31
404.198	173.31
404.422	193.31
404.645	191.31
404.869	237.31
405.093	198.31
405.317	154.31
405.541	161.31
405.765	170.31
405.988	177.31
406.212	167.31
406.436	187.31
406.66	199.31
406.883	166.31
407.107	170.31
407.331	198.31
407.555	204.31
407.778	179.31
408.002	166.31
408.226	155.31
408.449	168.31
408.673	173.31
408.896	150.31
409.12	156.31
409.344	142.31
409.567	163.31
409.791	146.31
410.014	141.31
410.238	141.31
410.461	149.31
410.685	168.31
410.908	159.31
411.132	170.31
411.355	157.31
411.578	148.31
411.802	148.31
412.025	159.31
412.249	152.31
412.472	145.31
412.695	169.31
412.919	156.31
413.142	152.31
413.365	173.31
413.589	160.31
413.812	149.31
414.035	152.31
414.258	160.31
414.482	169.31
414.705	156.31
414.928	147.31
415.151	150.31
415.374	141.31
415.597	144.31
415.821	165.31
416.044	155.31
416.267	159.31
416.49	143.31
416.713	137.31
416.936	146.31
417.159	161.31
417.382	154.31
417.605	150.31
417.828	161.31
418.051	154.31
418.274	163.31
418.497	154.31
418.72	157.31
418.943	175.31
419.166	179.31
419.389	169.31
419.611	163.31
419.834	165.31
420.057	173.31
420.28	183.31
420.503	169.31
420.726	164.31
420.948	143.31
421.171	137.31
421.394	149.31
421.617	152.31
421.839	145.31
422.062	159.31
422.285	153.31
422.507	152.31
422.73	148.31
422.953	154.31
423.175	172.31
423.398	164.31
423.621	180.31
423.843	183.31
424.066	152.31
424.288	148.31
424.511	157.31
424.733	170.31
424.956	182.31
425.178	198.31
425.401	199.31
425.623	210.31
425.846	189.31
426.068	170.31
426.291	181.31
426.513	171.31
426.735	178.31
426.958	194.31
427.18	182.31
427.402	243.31
427.625	226.31
427.847	201.31
428.069	143.31
428.292	154.31
428.514	166.31
428.736	160.31
428.958	170.31
429.181	185.31
429.403	184.31
429.625	150.31
429.847	144.31
430.069	167.31
430.292	163.31
430.514	161.31
430.736	170.31
430.958	188.31
431.18	176.31
431.402	139.31
431.624	142.31
431.846	154.31
432.068	140.31
432.29	146.31
432.512	167.31
432.734	193.31
432.956	181.31
433.178	150.31
433.4	136.31
433.622	151.31
433.844	153.31
434.066	168.31
434.287	160.31
434.509	152.31
434.731	174.31
434.953	166.31
435.175	156.31
435.397	187.31
435.618	169.31
435.84	146.31
436.062	149.31
436.284	145.31
436.505	141.31
436.727	138.31
436.949	130.31
437.17	154.31
437.392	141.31
437.614	145.31
437.835	145.31
438.057	138.31
438.278	181.31
438.5	201.31
438.721	201.31
438.943	156.31
439.165	148.31
439.386	127.31
439.608	141.31
439.829	144.31
440.05	156.31
440.272	161.31
440.493	169.31
440.715	190.31
440.936	180.31
441.158	143.31
441.379	150.31
441.6	156.31
441.822	172.31
442.043	156.31
442.264	151.31
442.486	158.31
442.707	154.31
442.928	160.31
443.149	138.31
443.371	152.31
443.592	148.31
443.813	141.31
444.034	151.31
444.255	161.31
444.476	159.31
444.698	160.31
444.919	169.31
445.14	306.31
445.361	231.31
445.582	167.31
445.803	163.31
446.024	182.31
446.245	183.31
446.466	162.31
446.687	164.31
446.908	165.31
447.129	157.31
447.35	138.31
447.571	143.31
447.792	142.31
448.013	129.31
448.234	134.31
448.455	139.31
448.675	146.31
448.896	144.31
449.117	152.31
449.338	141.31
449.559	145.31
449.779	170.31
450	161.31
450.221	158.31
450.442	153.31
450.662	169.31
450.883	156.31
451.104	149.31
451.324	141.31
451.545	149.31
451.766	150.31
451.986	156.31
452.207	142.31
452.428	149.31
452.648	153.31
452.869	154.31
453.089	165.31
453.31	152.31
453.53	135.31
453.751	135.31
453.971	137.31
454.192	155.31
454.412	153.31
454.633	141.31
454.853	135.31
455.073	144.31
455.294	135.31
455.514	144.31
455.734	137.31
455.955	158.31
456.175	155.31
456.395	147.31
456.616	145.31
456.836	136.31
457.056	121.31
457.276	136.31
457.497	123.31
457.717	134.31
457.937	140.31
458.157	134.31
458.377	155.31
458.598	139.31
458.818	139.31
459.038	141.31
459.258	144.31
459.478	146.31
459.698	181.31
459.918	158.31
460.138	156.31
460.358	159.31
460.578	150.31
460.798	150.31
461.018	161.31
461.238	160.31
461.458	150.31
461.678	168.31
461.898	180.31
462.118	174.31
462.338	172.31
462.558	166.31
462.777	176.31
462.997	178.31
463.217	178.31
463.437	169.31
463.657	173.31
463.876	168.31
464.096	160.31
464.316	168.31
464.536	161.31
464.755	170.31
464.975	169.31
465.195	156.31
465.414	183.31
465.634	180.31
465.854	179.31
466.073	158.31
466.293	150.31
466.512	171.31
466.732	185.31
466.951	189.31
467.171	165.31
467.391	157.31
467.61	152.31
467.829	150.31
468.049	173.31
468.268	138.31
468.488	161.31
468.707	169.31
468.927	178.31
469.146	176.31
469.365	181.31
469.585	163.31
469.804	177.31
470.023	197.31
470.243	159.31
470.462	156.31
470.681	159.31
470.901	163.31
471.12	172.31
471.339	176.31
471.558	164.31
471.777	169.31
471.997	173.31
472.216	194.31
472.435	183.31
472.654	172.31
472.873	167.31
473.092	172.31
473.311	166.31
473.53	165.31
473.749	158.31
473.968	174.31
474.187	172.31
474.406	164.31
474.625	170.31
474.844	170.31
475.063	165.31
475.282	159.31
475.501	188.31
475.72	201.31
475.939	193.31
476.158	189.31
476.377	206.31
476.596	239.31
476.814	264.31
477.033	228.31
477.252	185.31
477.471	175.31
477.69	170.31
477.908	179.31
478.127	186.31
478.346	191.31
478.564	204.31
478.783	194.31
479.002	180.31
479.22	197.31
479.439	212.31
479.658	190.31
479.876	191.31
480.095	194.31
480.313	193.31
480.532	178.31
480.751	176.31
480.969	189.31
481.188	209.31
481.406	203.31
481.624	210.31
481.843	192.31
482.061	167.31
482.28	204.31
482.498	232.31
482.717	246.31
482.935	191.31
483.153	200.31
483.372	164.31
483.59	176.31
483.808	169.31
484.027	178.31
484.245	178.31
484.463	180.31
484.681	167.31
484.9	204.31
485.118	202.31
485.336	197.31
485.554	174.31
485.772	172.31
485.99	186.31
486.209	191.31
486.427	190.31
486.645	183.31
486.863	182.31
487.081	196.31
487.299	212.31
487.517	208.31
487.735	193.31
487.953	192.31
488.171	190.31
488.389	190.31
488.607	192.31
488.825	167.31
489.043	193.31
489.261	241.31
489.479	242.31
489.696	214.31
489.914	191.31
490.132	166.31
490.35	181.31
490.568	161.31
490.786	169.31
491.003	169.31
491.221	192.31
491.439	180.31
491.657	185.31
491.874	192.31
492.092	231.31
492.31	273.31
492.527	262.31
492.745	219.31
492.963	207.31
493.18	214.31
493.398	200.31
493.615	203.31
493.833	196.31
494.05	195.31
494.268	201.31
494.485	188.31
494.703	196.31
494.92	188.31
495.138	201.31
495.355	187.31
495.573	191.31
495.79	226.31
496.008	286.31
496.225	225.31
496.442	194.31
496.66	197.31
496.877	231.31
497.094	223.31
497.312	193.31
497.529	201.31
497.746	203.31
497.963	200.31
498.181	215.31
498.398	248.31
498.615	247.31
498.832	257.31
499.049	262.31
499.267	222.31
499.484	245.31
499.701	241.31
499.918	250.31
500.135	285.31
500.352	279.31
500.569	291.31
500.786	316.31
501.003	275.31
501.22	295.31
501.437	251.31
501.654	245.31
501.871	262.31
502.088	254.31
502.305	238.31
502.522	221.31
502.739	241.31
