Data from NickelSpatula_HRD10591_16-36-03-127.txt Node
Date: Mon Jul 22 16:36:03 EDT 2019
User: cochatt
Spectrometer: HR+D1059
Trigger mode: 1
Integration Time (sec): 1.000000E-1
Scans to average: 1
Electric dark correction enabled: true
Nonlinearity correction enabled: false
Boxcar width: 0
XAxis mode: Wavelengths
Number of Pixels in Spectrum: 2048
>>>>>Begin Spectral Data<<<<<
223.165	-12.25
223.4	-12.25
223.635	-12.25
223.869	-2.25
224.104	-8.25
224.338	-27.25
224.573	-13.25
224.808	-0.25
225.042	-17.25
225.277	-10.25
225.511	4.75
225.746	-5.25
225.98	11.75
226.215	19.75
226.449	10.75
226.683	27.75
226.918	10.75
227.152	10.75
227.387	40.75
227.621	44.75
227.856	50.75
228.09	40.75
228.324	45.75
228.559	63.75
228.793	69.75
229.027	68.75
229.262	59.75
229.496	76.75
229.73	75.75
229.964	74.75
230.199	94.75
230.433	76.75
230.667	78.75
230.901	100.75
231.136	91.75
231.37	89.75
231.604	95.75
231.838	102.75
232.072	100.75
232.306	100.75
232.541	98.75
232.775	83.75
233.009	109.75
233.243	94.75
233.477	122.75
233.711	103.75
233.945	105.75
234.179	100.75
234.413	106.75
234.647	94.75
234.881	87.75
235.115	114.75
235.349	109.75
235.583	104.75
235.817	91.75
236.051	105.75
236.285	107.75
236.519	109.75
236.753	106.75
236.987	104.75
237.221	102.75
237.455	108.75
237.689	112.75
237.922	101.75
238.156	103.75
238.39	117.75
238.624	141.75
238.858	121.75
239.091	124.75
239.325	98.75
239.559	114.75
239.793	116.75
240.027	131.75
240.26	119.75
240.494	124.75
240.728	127.75
240.961	128.75
241.195	111.75
241.429	120.75
241.662	127.75
241.896	104.75
242.13	113.75
242.363	99.75
242.597	114.75
242.83	119.75
243.064	107.75
243.298	115.75
243.531	129.75
243.765	127.75
243.998	136.75
244.232	140.75
244.465	100.75
244.699	104.75
244.932	125.75
245.166	135.75
245.399	122.75
245.633	129.75
245.866	123.75
246.099	131.75
246.333	130.75
246.566	146.75
246.8	146.75
247.033	127.75
247.266	120.75
247.5	120.75
247.733	126.75
247.966	135.75
248.2	133.75
248.433	148.75
248.666	147.75
248.899	145.75
249.133	156.75
249.366	163.75
249.599	165.75
249.832	152.75
250.066	147.75
250.299	152.75
250.532	157.75
250.765	149.75
250.998	121.75
251.231	139.75
251.465	146.75
251.698	147.75
251.931	146.75
252.164	157.75
252.397	149.75
252.63	168.75
252.863	166.75
253.096	182.75
253.329	166.75
253.562	160.75
253.795	190.75
254.028	187.75
254.261	191.75
254.494	189.75
254.727	179.75
254.96	166.75
255.193	187.75
255.426	177.75
255.659	139.75
255.892	138.75
256.124	152.75
256.357	168.75
256.59	165.75
256.823	172.75
257.056	151.75
257.289	159.75
257.521	167.75
257.754	168.75
257.987	191.75
258.22	171.75
258.452	160.75
258.685	177.75
258.918	170.75
259.151	196.75
259.383	200.75
259.616	201.75
259.849	214.75
260.081	212.75
260.314	232.75
260.547	196.75
260.779	208.75
261.012	238.75
261.244	209.75
261.477	225.75
261.71	184.75
261.942	200.75
262.175	170.75
262.407	187.75
262.64	185.75
262.872	205.75
263.105	213.75
263.337	234.75
263.57	202.75
263.802	147.75
264.035	143.75
264.267	160.75
264.499	136.75
264.732	104.75
264.964	133.75
265.197	137.75
265.429	140.75
265.661	134.75
265.894	139.75
266.126	154.75
266.358	165.75
266.591	193.75
266.823	219.75
267.055	194.75
267.287	182.75
267.52	188.75
267.752	185.75
267.984	197.75
268.216	180.75
268.448	165.75
268.681	159.75
268.913	167.75
269.145	183.75
269.377	199.75
269.609	196.75
269.841	194.75
270.073	171.75
270.306	193.75
270.538	193.75
270.77	192.75
271.002	194.75
271.234	201.75
271.466	212.75
271.698	200.75
271.93	187.75
272.162	193.75
272.394	184.75
272.626	205.75
272.858	190.75
273.09	187.75
273.322	189.75
273.553	196.75
273.785	207.75
274.017	239.75
274.249	269.75
274.481	287.75
274.713	282.75
274.945	334.75
275.176	364.75
275.408	341.75
275.64	300.75
275.872	286.75
276.104	275.75
276.335	241.75
276.567	228.75
276.799	231.75
277.031	239.75
277.262	214.75
277.494	188.75
277.726	170.75
277.957	184.75
278.189	191.75
278.421	199.75
278.652	198.75
278.884	181.75
279.115	183.75
279.347	181.75
279.579	169.75
279.81	187.75
280.042	178.75
280.273	184.75
280.505	168.75
280.736	152.75
280.968	165.75
281.199	177.75
281.431	177.75
281.662	160.75
281.894	182.75
282.125	169.75
282.356	193.75
282.588	190.75
282.819	183.75
283.051	193.75
283.282	228.75
283.513	255.75
283.745	257.75
283.976	264.75
284.207	238.75
284.439	255.75
284.67	241.75
284.901	226.75
285.132	236.75
285.364	245.75
285.595	245.75
285.826	242.75
286.057	250.75
286.288	224.75
286.52	240.75
286.751	260.75
286.982	247.75
287.213	228.75
287.444	222.75
287.675	236.75
287.906	262.75
288.138	203.75
288.369	182.75
288.6	175.75
288.831	172.75
289.062	216.75
289.293	220.75
289.524	199.75
289.755	218.75
289.986	222.75
290.217	195.75
290.448	166.75
290.679	152.75
290.91	133.75
291.141	145.75
291.371	145.75
291.602	151.75
291.833	161.75
292.064	152.75
292.295	170.75
292.526	168.75
292.757	180.75
292.987	195.75
293.218	193.75
293.449	208.75
293.68	212.75
293.91	211.75
294.141	219.75
294.372	203.75
294.603	184.75
294.833	213.75
295.064	233.75
295.295	229.75
295.525	185.75
295.756	165.75
295.987	161.75
296.217	159.75
296.448	139.75
296.679	142.75
296.909	171.75
297.14	164.75
297.37	177.75
297.601	189.75
297.831	164.75
298.062	171.75
298.292	193.75
298.523	198.75
298.753	232.75
298.984	199.75
299.214	185.75
299.445	161.75
299.675	154.75
299.905	153.75
300.136	147.75
300.366	153.75
300.597	169.75
300.827	175.75
301.057	151.75
301.288	149.75
301.518	164.75
301.748	181.75
301.979	183.75
302.209	160.75
302.439	179.75
302.669	161.75
302.9	191.75
303.13	166.75
303.36	186.75
303.59	183.75
303.82	146.75
304.051	183.75
304.281	177.75
304.511	189.75
304.741	162.75
304.971	168.75
305.201	171.75
305.431	156.75
305.661	151.75
305.891	150.75
306.121	152.75
306.352	140.75
306.582	145.75
306.812	135.75
307.042	129.75
307.272	142.75
307.502	129.75
307.731	147.75
307.961	147.75
308.191	126.75
308.421	140.75
308.651	140.75
308.881	123.75
309.111	148.75
309.341	145.75
309.571	131.75
309.8	137.75
310.03	151.75
310.26	152.75
310.49	159.75
310.72	141.75
310.949	134.75
311.179	131.75
311.409	166.75
311.639	143.75
311.868	179.75
312.098	218.75
312.328	233.75
312.557	234.75
312.787	243.75
313.017	212.75
313.246	215.75
313.476	221.75
313.706	209.75
313.935	171.75
314.165	162.75
314.394	156.75
314.624	147.75
314.853	149.75
315.083	158.75
315.312	155.75
315.542	168.75
315.771	138.75
316.001	126.75
316.23	137.75
316.46	153.75
316.689	128.75
316.919	140.75
317.148	130.75
317.377	125.75
317.607	145.75
317.836	141.75
318.065	157.75
318.295	175.75
318.524	170.75
318.753	137.75
318.983	147.75
319.212	153.75
319.441	136.75
319.67	151.75
319.9	157.75
320.129	158.75
320.358	153.75
320.587	157.75
320.816	149.75
321.046	163.75
321.275	184.75
321.504	151.75
321.733	154.75
321.962	171.75
322.191	169.75
322.42	163.75
322.649	158.75
322.878	153.75
323.108	153.75
323.337	171.75
323.566	151.75
323.795	162.75
324.024	149.75
324.253	147.75
324.482	135.75
324.71	162.75
324.939	179.75
325.168	169.75
325.397	155.75
325.626	155.75
325.855	144.75
326.084	145.75
326.313	145.75
326.542	127.75
326.77	135.75
326.999	124.75
327.228	154.75
327.457	140.75
327.686	138.75
327.914	134.75
328.143	135.75
328.372	132.75
328.6	123.75
328.829	130.75
329.058	137.75
329.287	129.75
329.515	140.75
329.744	153.75
329.972	133.75
330.201	137.75
330.43	137.75
330.658	144.75
330.887	152.75
331.115	140.75
331.344	132.75
331.572	156.75
331.801	147.75
332.03	150.75
332.258	147.75
332.486	162.75
332.715	150.75
332.943	128.75
333.172	136.75
333.4	138.75
333.629	141.75
333.857	169.75
334.085	154.75
334.314	149.75
334.542	158.75
334.771	152.75
334.999	141.75
335.227	141.75
335.455	135.75
335.684	158.75
335.912	167.75
336.14	201.75
336.369	170.75
336.597	160.75
336.825	172.75
337.053	179.75
337.281	155.75
337.51	145.75
337.738	148.75
337.966	157.75
338.194	157.75
338.422	151.75
338.65	144.75
338.878	143.75
339.106	123.75
339.334	147.75
339.562	157.75
339.79	157.75
340.018	150.75
340.246	151.75
340.474	167.75
340.702	191.75
340.93	165.75
341.158	164.75
341.386	149.75
341.614	141.75
341.842	163.75
342.07	148.75
342.298	185.75
342.526	188.75
342.754	161.75
342.981	151.75
343.209	142.75
343.437	160.75
343.665	177.75
343.893	147.75
344.12	176.75
344.348	195.75
344.576	201.75
344.804	168.75
345.031	163.75
345.259	138.75
345.487	147.75
345.714	141.75
345.942	161.75
346.17	164.75
346.397	158.75
346.625	139.75
346.853	147.75
347.08	145.75
347.308	140.75
347.535	163.75
347.763	148.75
347.99	148.75
348.218	135.75
348.445	133.75
348.673	135.75
348.9	156.75
349.128	149.75
349.355	151.75
349.583	151.75
349.81	157.75
350.037	146.75
350.265	133.75
350.492	131.75
350.72	130.75
350.947	132.75
351.174	121.75
351.402	142.75
351.629	136.75
351.856	154.75
352.083	141.75
352.311	147.75
352.538	145.75
352.765	146.75
352.992	157.75
353.22	158.75
353.447	170.75
353.674	153.75
353.901	149.75
354.128	145.75
354.355	160.75
354.583	146.75
354.81	171.75
355.037	164.75
355.264	152.75
355.491	181.75
355.718	162.75
355.945	164.75
356.172	166.75
356.399	154.75
356.626	172.75
356.853	201.75
357.08	220.75
357.307	225.75
357.534	188.75
357.761	196.75
357.988	213.75
358.215	256.75
358.441	254.75
358.668	226.75
358.895	188.75
359.122	188.75
359.349	182.75
359.576	183.75
359.802	171.75
360.029	140.75
360.256	162.75
360.483	193.75
360.709	199.75
360.936	225.75
361.163	181.75
361.39	167.75
361.616	138.75
361.843	153.75
362.07	196.75
362.296	172.75
362.523	154.75
362.749	141.75
362.976	150.75
363.203	177.75
363.429	187.75
363.656	153.75
363.882	159.75
364.109	159.75
364.335	160.75
364.562	147.75
364.788	171.75
365.015	185.75
365.241	151.75
365.468	148.75
365.694	155.75
365.92	152.75
366.147	131.75
366.373	127.75
366.599	129.75
366.826	122.75
367.052	138.75
367.278	142.75
367.505	147.75
367.731	146.75
367.957	132.75
368.184	163.75
368.41	146.75
368.636	153.75
368.862	163.75
369.089	160.75
369.315	140.75
369.541	137.75
369.767	133.75
369.993	149.75
370.219	159.75
370.445	146.75
370.672	147.75
370.898	164.75
371.124	163.75
371.35	110.75
371.576	139.75
371.802	164.75
372.028	166.75
372.254	168.75
372.48	162.75
372.706	147.75
372.932	169.75
373.158	147.75
373.384	187.75
373.61	226.75
373.835	243.75
374.061	168.75
374.287	157.75
374.513	191.75
374.739	221.75
374.965	210.75
375.191	194.75
375.416	162.75
375.642	155.75
375.868	175.75
376.094	177.75
376.319	168.75
376.545	170.75
376.771	167.75
376.997	156.75
377.222	140.75
377.448	141.75
377.674	122.75
377.899	124.75
378.125	125.75
378.35	135.75
378.576	121.75
378.802	139.75
379.027	147.75
379.253	147.75
379.478	157.75
379.704	155.75
379.929	181.75
380.155	157.75
380.38	147.75
380.606	146.75
380.831	168.75
381.057	158.75
381.282	157.75
381.507	179.75
381.733	220.75
381.958	197.75
382.184	210.75
382.409	239.75
382.634	216.75
382.86	223.75
383.085	199.75
383.31	168.75
383.535	177.75
383.761	178.75
383.986	179.75
384.211	185.75
384.436	171.75
384.662	140.75
384.887	147.75
385.112	171.75
385.337	169.75
385.562	148.75
385.787	161.75
386.013	179.75
386.238	176.75
386.463	152.75
386.688	148.75
386.913	158.75
387.138	149.75
387.363	147.75
387.588	151.75
387.813	161.75
388.038	139.75
388.263	151.75
388.488	142.75
388.713	179.75
388.938	193.75
389.163	159.75
389.387	142.75
389.612	157.75
389.837	140.75
390.062	137.75
390.287	158.75
390.512	172.75
390.736	137.75
390.961	144.75
391.186	128.75
391.411	140.75
391.636	137.75
391.86	165.75
392.085	149.75
392.31	162.75
392.534	155.75
392.759	169.75
392.984	132.75
393.208	157.75
393.433	148.75
393.658	119.75
393.882	133.75
394.107	135.75
394.331	142.75
394.556	140.75
394.78	129.75
395.005	141.75
395.229	156.75
395.454	148.75
395.678	145.75
395.903	142.75
396.127	151.75
396.352	147.75
396.576	173.75
396.801	167.75
397.025	161.75
397.249	169.75
397.474	144.75
397.698	140.75
397.922	167.75
398.147	160.75
398.371	140.75
398.595	165.75
398.82	126.75
399.044	160.75
399.268	154.75
399.492	151.75
399.717	166.75
399.941	161.75
400.165	135.75
400.389	169.75
400.613	162.75
400.837	168.75
401.062	140.75
401.286	144.75
401.51	143.75
401.734	143.75
401.958	141.75
402.182	140.75
402.406	146.75
402.63	143.75
402.854	143.75
403.078	164.75
403.302	212.75
403.526	204.75
403.75	193.75
403.974	177.75
404.198	160.75
404.422	197.75
404.645	183.75
404.869	207.75
405.093	168.75
405.317	150.75
405.541	163.75
405.765	162.75
405.988	154.75
406.212	169.75
406.436	177.75
406.66	200.75
406.883	168.75
407.107	170.75
407.331	172.75
407.555	192.75
407.778	151.75
408.002	153.75
408.226	155.75
408.449	169.75
408.673	155.75
408.896	154.75
409.12	140.75
409.344	137.75
409.567	136.75
409.791	148.75
410.014	132.75
410.238	138.75
410.461	140.75
410.685	146.75
410.908	155.75
411.132	151.75
411.355	140.75
411.578	139.75
411.802	135.75
412.025	147.75
412.249	167.75
412.472	150.75
412.695	154.75
412.919	168.75
413.142	154.75
413.365	151.75
413.589	159.75
413.812	152.75
414.035	140.75
414.258	145.75
414.482	153.75
414.705	155.75
414.928	144.75
415.151	140.75
415.374	152.75
415.597	139.75
415.821	147.75
416.044	137.75
416.267	144.75
416.49	156.75
416.713	138.75
416.936	145.75
417.159	143.75
417.382	153.75
417.605	157.75
417.828	132.75
418.051	155.75
418.274	143.75
418.497	161.75
418.72	133.75
418.943	150.75
419.166	159.75
419.389	147.75
419.611	167.75
419.834	143.75
420.057	181.75
420.28	151.75
420.503	165.75
420.726	134.75
420.948	147.75
421.171	131.75
421.394	134.75
421.617	156.75
421.839	139.75
422.062	149.75
422.285	169.75
422.507	149.75
422.73	141.75
422.953	146.75
423.175	147.75
423.398	153.75
423.621	160.75
423.843	162.75
424.066	156.75
424.288	159.75
424.511	140.75
424.733	153.75
424.956	155.75
425.178	162.75
425.401	172.75
425.623	202.75
425.846	175.75
426.068	162.75
426.291	159.75
426.513	160.75
426.735	146.75
426.958	161.75
427.18	185.75
427.402	217.75
427.625	208.75
427.847	186.75
428.069	137.75
428.292	147.75
428.514	147.75
428.736	142.75
428.958	179.75
429.181	188.75
429.403	148.75
429.625	159.75
429.847	140.75
430.069	147.75
430.292	145.75
430.514	145.75
430.736	154.75
430.958	177.75
431.18	166.75
431.402	140.75
431.624	135.75
431.846	153.75
432.068	148.75
432.29	142.75
432.512	153.75
432.734	171.75
432.956	164.75
433.178	161.75
433.4	150.75
433.622	135.75
433.844	148.75
434.066	165.75
434.287	151.75
434.509	154.75
434.731	156.75
434.953	156.75
435.175	152.75
435.397	163.75
435.618	140.75
435.84	145.75
436.062	139.75
436.284	157.75
436.505	136.75
436.727	147.75
436.949	135.75
437.17	139.75
437.392	150.75
437.614	128.75
437.835	140.75
438.057	135.75
438.278	167.75
438.5	194.75
438.721	179.75
438.943	141.75
439.165	132.75
439.386	132.75
439.608	158.75
439.829	131.75
440.05	132.75
440.272	135.75
440.493	163.75
440.715	170.75
440.936	166.75
441.158	141.75
441.379	141.75
441.6	151.75
441.822	157.75
442.043	158.75
442.264	149.75
442.486	148.75
442.707	161.75
442.928	148.75
443.149	142.75
443.371	146.75
443.592	160.75
443.813	143.75
444.034	157.75
444.255	159.75
444.476	138.75
444.698	147.75
444.919	151.75
445.14	284.75
445.361	226.75
445.582	158.75
445.803	168.75
446.024	161.75
446.245	151.75
446.466	156.75
446.687	157.75
446.908	138.75
447.129	139.75
447.35	126.75
447.571	143.75
447.792	136.75
448.013	131.75
448.234	137.75
448.455	153.75
448.675	125.75
448.896	141.75
449.117	146.75
449.338	147.75
449.559	144.75
449.779	153.75
450	156.75
450.221	136.75
450.442	131.75
450.662	115.75
450.883	149.75
451.104	147.75
451.324	138.75
451.545	149.75
451.766	151.75
451.986	126.75
452.207	136.75
452.428	144.75
452.648	142.75
452.869	144.75
453.089	157.75
453.31	157.75
453.53	144.75
453.751	154.75
453.971	125.75
454.192	131.75
454.412	140.75
454.633	140.75
454.853	117.75
455.073	140.75
455.294	139.75
455.514	139.75
455.734	124.75
455.955	125.75
456.175	149.75
456.395	137.75
456.616	131.75
456.836	138.75
457.056	136.75
457.276	122.75
457.497	131.75
457.717	114.75
457.937	125.75
458.157	135.75
458.377	123.75
458.598	131.75
458.818	120.75
459.038	142.75
459.258	141.75
459.478	159.75
459.698	150.75
459.918	139.75
460.138	150.75
460.358	160.75
460.578	158.75
460.798	135.75
461.018	163.75
461.238	147.75
461.458	149.75
461.678	154.75
461.898	146.75
462.118	163.75
462.338	157.75
462.558	170.75
462.777	155.75
462.997	168.75
463.217	146.75
463.437	167.75
463.657	163.75
463.876	154.75
464.096	161.75
464.316	165.75
464.536	154.75
464.755	164.75
464.975	179.75
465.195	156.75
465.414	166.75
465.634	148.75
465.854	155.75
466.073	137.75
466.293	145.75
466.512	152.75
466.732	166.75
466.951	155.75
467.171	163.75
467.391	150.75
467.61	135.75
467.829	154.75
468.049	154.75
468.268	140.75
468.488	150.75
468.707	151.75
468.927	162.75
469.146	175.75
469.365	156.75
469.585	149.75
469.804	158.75
470.023	162.75
470.243	161.75
470.462	157.75
470.681	149.75
470.901	155.75
471.12	164.75
471.339	153.75
471.558	135.75
471.777	150.75
471.997	151.75
472.216	156.75
472.435	173.75
472.654	151.75
472.873	161.75
473.092	160.75
473.311	167.75
473.53	151.75
473.749	152.75
473.968	164.75
474.187	147.75
474.406	149.75
474.625	153.75
474.844	151.75
475.063	165.75
475.282	178.75
475.501	179.75
475.72	193.75
475.939	161.75
476.158	146.75
476.377	201.75
476.596	213.75
476.814	208.75
477.033	185.75
477.252	159.75
477.471	153.75
477.69	163.75
477.908	156.75
478.127	173.75
478.346	185.75
478.564	180.75
478.783	168.75
479.002	171.75
479.22	194.75
479.439	204.75
479.658	172.75
479.876	170.75
480.095	180.75
480.313	186.75
480.532	180.75
480.751	152.75
480.969	165.75
481.188	180.75
481.406	191.75
481.624	168.75
481.843	169.75
482.061	153.75
482.28	165.75
482.498	187.75
482.717	215.75
482.935	189.75
483.153	184.75
483.372	172.75
483.59	154.75
483.808	169.75
484.027	175.75
484.245	165.75
484.463	159.75
484.681	160.75
484.9	170.75
485.118	199.75
485.336	153.75
485.554	166.75
485.772	157.75
485.99	172.75
486.209	182.75
486.427	185.75
486.645	177.75
486.863	189.75
487.081	184.75
487.299	205.75
487.517	181.75
487.735	169.75
487.953	167.75
488.171	186.75
488.389	178.75
488.607	164.75
488.825	183.75
489.043	181.75
489.261	222.75
489.479	211.75
489.696	185.75
489.914	169.75
490.132	168.75
490.35	150.75
490.568	172.75
490.786	170.75
491.003	165.75
491.221	155.75
491.439	173.75
491.657	165.75
491.874	171.75
492.092	222.75
492.31	261.75
492.527	263.75
492.745	207.75
492.963	188.75
493.18	186.75
493.398	192.75
493.615	189.75
493.833	177.75
494.05	191.75
494.268	172.75
494.485	171.75
494.703	159.75
494.92	172.75
495.138	181.75
495.355	169.75
495.573	191.75
495.79	196.75
496.008	249.75
496.225	210.75
496.442	187.75
496.66	168.75
496.877	185.75
497.094	183.75
497.312	179.75
497.529	187.75
497.746	172.75
497.963	208.75
498.181	197.75
498.398	211.75
498.615	221.75
498.832	239.75
499.049	213.75
499.267	201.75
499.484	214.75
499.701	220.75
499.918	240.75
500.135	241.75
500.352	248.75
500.569	240.75
500.786	271.75
501.003	265.75
501.22	230.75
501.437	212.75
501.654	221.75
501.871	212.75
502.088	213.75
502.305	204.75
502.522	197.75
502.739	205.75
