Data from NickelSpatula.Lamp.E5.5.P2_HRD10591_11-52-34-554.txt Node
Date: Tue Jul 23 11:52:34 EDT 2019
User: cochatt
Spectrometer: HR+D1059
Trigger mode: 1
Integration Time (sec): 1.000000E-1
Scans to average: 1
Electric dark correction enabled: true
Nonlinearity correction enabled: false
Boxcar width: 0
XAxis mode: Wavelengths
Number of Pixels in Spectrum: 2048
>>>>>Begin Spectral Data<<<<<
223.165	-20.94
223.4	-20.94
223.635	-20.94
223.869	-26.94
224.104	-29.94
224.338	-14.94
224.573	-12.94
224.808	-11.94
225.042	-6.94
225.277	-8.94
225.511	4.06
225.746	4.06
225.98	13.06
226.215	10.06
226.449	9.06
226.683	19.06
226.918	39.06
227.152	35.06
227.387	34.06
227.621	46.06
227.856	33.06
228.09	41.06
228.324	46.06
228.559	49.06
228.793	56.06
229.027	77.06
229.262	76.06
229.496	78.06
229.73	92.06
229.964	92.06
230.199	98.06
230.433	93.06
230.667	107.06
230.901	115.06
231.136	97.06
231.37	103.06
231.604	101.06
231.838	107.06
232.072	109.06
232.306	116.06
232.541	93.06
232.775	104.06
233.009	121.06
233.243	116.06
233.477	118.06
233.711	136.06
233.945	123.06
234.179	98.06
234.413	121.06
234.647	148.06
234.881	141.06
235.115	127.06
235.349	129.06
235.583	124.06
235.817	110.06
236.051	123.06
236.285	131.06
236.519	137.06
236.753	138.06
236.987	152.06
237.221	125.06
237.455	129.06
237.689	131.06
237.922	137.06
238.156	147.06
238.39	164.06
238.624	187.06
238.858	151.06
239.091	149.06
239.325	135.06
239.559	148.06
239.793	160.06
240.027	166.06
240.26	177.06
240.494	155.06
240.728	168.06
240.961	175.06
241.195	177.06
241.429	170.06
241.662	172.06
241.896	151.06
242.13	123.06
242.363	137.06
242.597	133.06
242.83	171.06
243.064	165.06
243.298	173.06
243.531	169.06
243.765	178.06
243.998	192.06
244.232	161.06
244.465	178.06
244.699	173.06
244.932	192.06
245.166	180.06
245.399	167.06
245.633	147.06
245.866	169.06
246.099	147.06
246.333	173.06
246.566	198.06
246.8	204.06
247.033	203.06
247.266	191.06
247.5	185.06
247.733	175.06
247.966	179.06
248.2	177.06
248.433	194.06
248.666	196.06
248.899	207.06
249.133	205.06
249.366	222.06
249.599	258.06
249.832	228.06
250.066	224.06
250.299	207.06
250.532	215.06
250.765	199.06
250.998	190.06
251.231	190.06
251.465	209.06
251.698	202.06
251.931	193.06
252.164	206.06
252.397	239.06
252.63	243.06
252.863	266.06
253.096	271.06
253.329	278.06
253.562	282.06
253.795	282.06
254.028	326.06
254.261	335.06
254.494	287.06
254.727	258.06
254.96	263.06
255.193	284.06
255.426	273.06
255.659	212.06
255.892	203.06
256.124	196.06
256.357	238.06
256.59	274.06
256.823	273.06
257.056	229.06
257.289	233.06
257.521	221.06
257.754	282.06
257.987	307.06
258.22	255.06
258.452	261.06
258.685	256.06
258.918	280.06
259.151	287.06
259.383	312.06
259.616	348.06
259.849	332.06
260.081	371.06
260.314	403.06
260.547	330.06
260.779	330.06
261.012	384.06
261.244	337.06
261.477	374.06
261.71	347.06
261.942	277.06
262.175	295.06
262.407	271.06
262.64	284.06
262.872	334.06
263.105	376.06
263.337	393.06
263.57	343.06
263.802	247.06
264.035	215.06
264.267	224.06
264.499	201.06
264.732	178.06
264.964	175.06
265.197	181.06
265.429	189.06
265.661	215.06
265.894	203.06
266.126	239.06
266.358	258.06
266.591	301.06
266.823	332.06
267.055	329.06
267.287	291.06
267.52	288.06
267.752	299.06
267.984	337.06
268.216	318.06
268.448	269.06
268.681	271.06
268.913	286.06
269.145	302.06
269.377	319.06
269.609	297.06
269.841	289.06
270.073	315.06
270.306	323.06
270.538	321.06
270.77	321.06
271.002	334.06
271.234	344.06
271.466	311.06
271.698	320.06
271.93	326.06
272.162	320.06
272.394	312.06
272.626	289.06
272.858	311.06
273.09	328.06
273.322	295.06
273.553	271.06
273.785	312.06
274.017	399.06
274.249	513.06
274.481	503.06
274.713	558.06
274.945	630.06
275.176	643.06
275.408	598.06
275.64	547.06
275.872	540.06
276.104	441.06
276.335	415.06
276.567	397.06
276.799	445.06
277.031	465.06
277.262	344.06
277.494	284.06
277.726	267.06
277.957	294.06
278.189	335.06
278.421	325.06
278.652	310.06
278.884	312.06
279.115	287.06
279.347	272.06
279.579	283.06
279.81	279.06
280.042	296.06
280.273	289.06
280.505	266.06
280.736	260.06
280.968	243.06
281.199	261.06
281.431	300.06
281.662	275.06
281.894	274.06
282.125	276.06
282.356	314.06
282.588	311.06
282.819	278.06
283.051	317.06
283.282	347.06
283.513	431.06
283.745	468.06
283.976	459.06
284.207	404.06
284.439	432.06
284.67	430.06
284.901	372.06
285.132	402.06
285.364	420.06
285.595	395.06
285.826	411.06
286.057	424.06
286.288	412.06
286.52	429.06
286.751	443.06
286.982	430.06
287.213	376.06
287.444	387.06
287.675	402.06
287.906	396.06
288.138	339.06
288.369	316.06
288.6	305.06
288.831	322.06
289.062	344.06
289.293	382.06
289.524	371.06
289.755	327.06
289.986	367.06
290.217	336.06
290.448	283.06
290.679	230.06
290.91	223.06
291.141	206.06
291.371	234.06
291.602	243.06
291.833	232.06
292.064	252.06
292.295	263.06
292.526	311.06
292.757	316.06
292.987	333.06
293.218	349.06
293.449	364.06
293.68	395.06
293.91	358.06
294.141	377.06
294.372	340.06
294.603	328.06
294.833	365.06
295.064	433.06
295.295	390.06
295.525	291.06
295.756	269.06
295.987	238.06
296.217	235.06
296.448	249.06
296.679	235.06
296.909	269.06
297.14	294.06
297.37	328.06
297.601	305.06
297.831	267.06
298.062	275.06
298.292	320.06
298.523	318.06
298.753	389.06
298.984	354.06
299.214	277.06
299.445	253.06
299.675	251.06
299.905	246.06
300.136	240.06
300.366	252.06
300.597	270.06
300.827	238.06
301.057	229.06
301.288	247.06
301.518	253.06
301.748	271.06
301.979	301.06
302.209	309.06
302.439	308.06
302.669	284.06
302.9	277.06
303.13	269.06
303.36	263.06
303.59	239.06
303.82	243.06
304.051	269.06
304.281	294.06
304.511	288.06
304.741	275.06
304.971	296.06
305.201	312.06
305.431	285.06
305.661	254.06
305.891	238.06
306.121	240.06
306.352	214.06
306.582	205.06
306.812	201.06
307.042	203.06
307.272	202.06
307.502	198.06
307.731	200.06
307.961	217.06
308.191	193.06
308.421	191.06
308.651	194.06
308.881	193.06
309.111	197.06
309.341	199.06
309.571	222.06
309.8	236.06
310.03	220.06
310.26	216.06
310.49	221.06
310.72	219.06
310.949	229.06
311.179	192.06
311.409	210.06
311.639	257.06
311.868	280.06
312.098	356.06
312.328	406.06
312.557	405.06
312.787	401.06
313.017	349.06
313.246	380.06
313.476	436.06
313.706	357.06
313.935	270.06
314.165	261.06
314.394	240.06
314.624	227.06
314.853	249.06
315.083	245.06
315.312	237.06
315.542	236.06
315.771	228.06
316.001	212.06
316.23	201.06
316.46	213.06
316.689	188.06
316.919	198.06
317.148	211.06
317.377	213.06
317.607	192.06
317.836	223.06
318.065	244.06
318.295	251.06
318.524	249.06
318.753	206.06
318.983	223.06
319.212	237.06
319.441	218.06
319.67	257.06
319.9	261.06
320.129	252.06
320.358	199.06
320.587	224.06
320.816	227.06
321.046	243.06
321.275	282.06
321.504	269.06
321.733	263.06
321.962	244.06
322.191	233.06
322.42	254.06
322.649	226.06
322.878	257.06
323.108	277.06
323.337	255.06
323.566	238.06
323.795	243.06
324.024	229.06
324.253	223.06
324.482	225.06
324.71	234.06
324.939	250.06
325.168	247.06
325.397	211.06
325.626	227.06
325.855	223.06
326.084	229.06
326.313	213.06
326.542	204.06
326.77	190.06
326.999	207.06
327.228	228.06
327.457	226.06
327.686	247.06
327.914	216.06
328.143	200.06
328.372	205.06
328.6	214.06
328.829	199.06
329.058	203.06
329.287	196.06
329.515	208.06
329.744	209.06
329.972	204.06
330.201	194.06
330.43	189.06
330.658	210.06
330.887	224.06
331.115	246.06
331.344	227.06
331.572	215.06
331.801	216.06
332.03	203.06
332.258	212.06
332.486	226.06
332.715	236.06
332.943	212.06
333.172	213.06
333.4	216.06
333.629	250.06
333.857	255.06
334.085	256.06
334.314	254.06
334.542	262.06
334.771	229.06
334.999	229.06
335.227	228.06
335.455	222.06
335.684	245.06
335.912	267.06
336.14	295.06
336.369	275.06
336.597	290.06
336.825	306.06
337.053	337.06
337.281	280.06
337.51	219.06
337.738	219.06
337.966	218.06
338.194	254.06
338.422	253.06
338.65	233.06
338.878	215.06
339.106	200.06
339.334	230.06
339.562	213.06
339.79	224.06
340.018	231.06
340.246	221.06
340.474	255.06
340.702	262.06
340.93	263.06
341.158	291.06
341.386	245.06
341.614	243.06
341.842	235.06
342.07	255.06
342.298	282.06
342.526	301.06
342.754	257.06
342.981	232.06
343.209	252.06
343.437	269.06
343.665	285.06
343.893	284.06
344.12	290.06
344.348	351.06
344.576	327.06
344.804	271.06
345.031	249.06
345.259	228.06
345.487	230.06
345.714	236.06
345.942	239.06
346.17	277.06
346.397	269.06
346.625	226.06
346.853	235.06
347.08	227.06
347.308	231.06
347.535	241.06
347.763	253.06
347.99	242.06
348.218	228.06
348.445	235.06
348.673	244.06
348.9	238.06
349.128	235.06
349.355	261.06
349.583	242.06
349.81	238.06
350.037	224.06
350.265	199.06
350.492	191.06
350.72	177.06
350.947	203.06
351.174	207.06
351.402	221.06
351.629	238.06
351.856	211.06
352.083	207.06
352.311	217.06
352.538	243.06
352.765	252.06
352.992	225.06
353.22	226.06
353.447	237.06
353.674	232.06
353.901	212.06
354.128	212.06
354.355	226.06
354.583	234.06
354.81	223.06
355.037	244.06
355.264	219.06
355.491	232.06
355.718	233.06
355.945	254.06
356.172	231.06
356.399	235.06
356.626	285.06
356.853	330.06
357.08	359.06
357.307	340.06
357.534	293.06
357.761	295.06
357.988	357.06
358.215	402.06
358.441	377.06
358.668	324.06
358.895	301.06
359.122	272.06
359.349	279.06
359.576	301.06
359.802	252.06
360.029	232.06
360.256	243.06
360.483	290.06
360.709	324.06
360.936	345.06
361.163	304.06
361.39	252.06
361.616	227.06
361.843	269.06
362.07	297.06
362.296	288.06
362.523	239.06
362.749	214.06
362.976	227.06
363.203	272.06
363.429	275.06
363.656	233.06
363.882	235.06
364.109	223.06
364.335	213.06
364.562	224.06
364.788	244.06
365.015	280.06
365.241	243.06
365.468	215.06
365.694	205.06
365.92	184.06
366.147	189.06
366.373	196.06
366.599	183.06
366.826	193.06
367.052	188.06
367.278	201.06
367.505	193.06
367.731	211.06
367.957	225.06
368.184	227.06
368.41	232.06
368.636	227.06
368.862	222.06
369.089	237.06
369.315	209.06
369.541	207.06
369.767	202.06
369.993	194.06
370.219	204.06
370.445	220.06
370.672	223.06
370.898	246.06
371.124	235.06
371.35	237.06
371.576	213.06
371.802	232.06
372.028	266.06
372.254	276.06
372.48	269.06
372.706	244.06
372.932	236.06
373.158	257.06
373.384	313.06
373.61	370.06
373.835	387.06
374.061	279.06
374.287	246.06
374.513	300.06
374.739	338.06
374.965	344.06
375.191	365.06
375.416	265.06
375.642	239.06
375.868	267.06
376.094	295.06
376.319	249.06
376.545	279.06
376.771	292.06
376.997	256.06
377.222	221.06
377.448	190.06
377.674	205.06
377.899	177.06
378.125	176.06
378.35	189.06
378.576	198.06
378.802	183.06
379.027	230.06
379.253	208.06
379.478	212.06
379.704	249.06
379.929	260.06
380.155	237.06
380.38	211.06
380.606	237.06
380.831	229.06
381.057	241.06
381.282	224.06
381.507	255.06
381.733	313.06
381.958	314.06
382.184	326.06
382.409	344.06
382.634	340.06
382.86	365.06
383.085	324.06
383.31	259.06
383.535	283.06
383.761	300.06
383.986	269.06
384.211	294.06
384.436	293.06
384.662	245.06
384.887	250.06
385.112	247.06
385.337	227.06
385.562	233.06
385.787	264.06
386.013	274.06
386.238	283.06
386.463	251.06
386.688	244.06
386.913	230.06
387.138	225.06
387.363	243.06
387.588	235.06
387.813	232.06
388.038	248.06
388.263	257.06
388.488	239.06
388.713	243.06
388.938	243.06
389.163	222.06
389.387	228.06
389.612	218.06
389.837	231.06
390.062	217.06
390.287	219.06
390.512	240.06
390.736	217.06
390.961	210.06
391.186	217.06
391.411	222.06
391.636	219.06
391.86	245.06
392.085	238.06
392.31	240.06
392.534	237.06
392.759	244.06
392.984	253.06
393.208	237.06
393.433	219.06
393.658	209.06
393.882	201.06
394.107	204.06
394.331	190.06
394.556	216.06
394.78	197.06
395.005	211.06
395.229	215.06
395.454	224.06
395.678	230.06
395.903	224.06
396.127	198.06
396.352	217.06
396.576	222.06
396.801	225.06
397.025	240.06
397.249	263.06
397.474	243.06
397.698	225.06
397.922	227.06
398.147	229.06
398.371	226.06
398.595	231.06
398.82	228.06
399.044	239.06
399.268	271.06
399.492	263.06
399.717	290.06
399.941	265.06
400.165	277.06
400.389	258.06
400.613	273.06
400.837	244.06
401.062	217.06
401.286	205.06
401.51	237.06
401.734	224.06
401.958	246.06
402.182	212.06
402.406	249.06
402.63	219.06
402.854	243.06
403.078	291.06
403.302	366.06
403.526	359.06
403.75	336.06
403.974	283.06
404.198	268.06
404.422	319.06
404.645	318.06
404.869	337.06
405.093	287.06
405.317	261.06
405.541	263.06
405.765	268.06
405.988	256.06
406.212	272.06
406.436	284.06
406.66	301.06
406.883	261.06
407.107	286.06
407.331	323.06
407.555	308.06
407.778	273.06
408.002	282.06
408.226	282.06
408.449	263.06
408.673	263.06
408.896	254.06
409.12	228.06
409.344	241.06
409.567	245.06
409.791	234.06
410.014	236.06
410.238	212.06
410.461	239.06
410.685	238.06
410.908	228.06
411.132	245.06
411.355	242.06
411.578	259.06
411.802	230.06
412.025	230.06
412.249	248.06
412.472	256.06
412.695	240.06
412.919	230.06
413.142	246.06
413.365	263.06
413.589	255.06
413.812	240.06
414.035	222.06
414.258	232.06
414.482	259.06
414.705	257.06
414.928	233.06
415.151	237.06
415.374	211.06
415.597	243.06
415.821	230.06
416.044	215.06
416.267	230.06
416.49	228.06
416.713	227.06
416.936	226.06
417.159	232.06
417.382	226.06
417.605	233.06
417.828	229.06
418.051	232.06
418.274	237.06
418.497	233.06
418.72	237.06
418.943	254.06
419.166	248.06
419.389	238.06
419.611	254.06
419.834	252.06
420.057	261.06
420.28	254.06
420.503	258.06
420.726	236.06
420.948	228.06
421.171	242.06
421.394	231.06
421.617	220.06
421.839	227.06
422.062	235.06
422.285	238.06
422.507	232.06
422.73	215.06
422.953	238.06
423.175	249.06
423.398	235.06
423.621	246.06
423.843	282.06
424.066	255.06
424.288	232.06
424.511	253.06
424.733	235.06
424.956	236.06
425.178	273.06
425.401	302.06
425.623	353.06
425.846	294.06
426.068	255.06
426.291	258.06
426.513	247.06
426.735	245.06
426.958	257.06
427.18	277.06
427.402	339.06
427.625	363.06
427.847	296.06
428.069	223.06
428.292	224.06
428.514	220.06
428.736	217.06
428.958	249.06
429.181	295.06
429.403	275.06
429.625	218.06
429.847	226.06
430.069	232.06
430.292	224.06
430.514	212.06
430.736	244.06
430.958	274.06
431.18	274.06
431.402	220.06
431.624	201.06
431.846	205.06
432.068	223.06
432.29	234.06
432.512	232.06
432.734	261.06
432.956	275.06
433.178	221.06
433.4	231.06
433.622	205.06
433.844	243.06
434.066	233.06
434.287	230.06
434.509	229.06
434.731	261.06
434.953	241.06
435.175	247.06
435.397	286.06
435.618	239.06
435.84	210.06
436.062	214.06
436.284	229.06
436.505	215.06
436.727	224.06
436.949	210.06
437.17	223.06
437.392	242.06
437.614	226.06
437.835	215.06
438.057	221.06
438.278	246.06
438.5	301.06
438.721	303.06
438.943	233.06
439.165	201.06
439.386	199.06
439.608	210.06
439.829	218.06
440.05	205.06
440.272	199.06
440.493	237.06
440.715	273.06
440.936	255.06
441.158	237.06
441.379	224.06
441.6	256.06
441.822	263.06
442.043	222.06
442.264	238.06
442.486	224.06
442.707	215.06
442.928	224.06
443.149	246.06
443.371	216.06
443.592	244.06
443.813	243.06
444.034	233.06
444.255	251.06
444.476	244.06
444.698	240.06
444.919	261.06
445.14	355.06
445.361	301.06
445.582	255.06
445.803	258.06
446.024	236.06
446.245	237.06
446.466	257.06
446.687	235.06
446.908	240.06
447.129	215.06
447.35	221.06
447.571	218.06
447.792	204.06
448.013	193.06
448.234	196.06
448.455	209.06
448.675	203.06
448.896	210.06
449.117	204.06
449.338	208.06
449.559	213.06
449.779	215.06
450	226.06
450.221	237.06
450.442	219.06
450.662	210.06
450.883	235.06
451.104	209.06
451.324	228.06
451.545	228.06
451.766	232.06
451.986	220.06
452.207	197.06
452.428	191.06
452.648	209.06
452.869	227.06
453.089	217.06
453.31	212.06
453.53	183.06
453.751	209.06
453.971	208.06
454.192	204.06
454.412	208.06
454.633	210.06
454.853	209.06
455.073	206.06
455.294	211.06
455.514	182.06
455.734	207.06
455.955	210.06
456.175	209.06
456.395	204.06
456.616	195.06
456.836	209.06
457.056	169.06
457.276	200.06
457.497	199.06
457.717	208.06
457.937	190.06
458.157	199.06
458.377	195.06
458.598	194.06
458.818	194.06
459.038	231.06
459.258	228.06
459.478	219.06
459.698	215.06
459.918	226.06
460.138	242.06
460.358	240.06
460.578	219.06
460.798	243.06
461.018	243.06
461.238	239.06
461.458	232.06
461.678	230.06
461.898	256.06
462.118	260.06
462.338	249.06
462.558	243.06
462.777	278.06
462.997	275.06
463.217	287.06
463.437	287.06
463.657	283.06
463.876	282.06
464.096	261.06
464.316	280.06
464.536	258.06
464.755	281.06
464.975	281.06
465.195	255.06
465.414	255.06
465.634	226.06
465.854	234.06
466.073	231.06
466.293	211.06
466.512	241.06
466.732	275.06
466.951	250.06
467.171	243.06
467.391	238.06
467.61	222.06
467.829	234.06
468.049	228.06
468.268	217.06
468.488	217.06
468.707	235.06
468.927	259.06
469.146	271.06
469.365	253.06
469.585	221.06
469.804	241.06
470.023	253.06
470.243	236.06
470.462	248.06
470.681	238.06
470.901	239.06
471.12	245.06
471.339	221.06
471.558	230.06
471.777	215.06
471.997	252.06
472.216	283.06
472.435	266.06
472.654	241.06
472.873	238.06
473.092	239.06
473.311	264.06
473.53	222.06
473.749	235.06
473.968	239.06
474.187	240.06
474.406	208.06
474.625	231.06
474.844	229.06
475.063	242.06
475.282	236.06
475.501	257.06
475.72	286.06
475.939	271.06
476.158	271.06
476.377	286.06
476.596	360.06
476.814	366.06
477.033	309.06
477.252	271.06
477.471	242.06
477.69	232.06
477.908	276.06
478.127	279.06
478.346	265.06
478.564	289.06
478.783	285.06
479.002	272.06
479.22	297.06
479.439	325.06
479.658	299.06
479.876	279.06
480.095	276.06
480.313	311.06
480.532	276.06
480.751	287.06
480.969	290.06
481.188	320.06
481.406	307.06
481.624	296.06
481.843	272.06
482.061	258.06
482.28	281.06
482.498	331.06
482.717	326.06
482.935	284.06
483.153	283.06
483.372	252.06
483.59	256.06
483.808	268.06
484.027	259.06
484.245	239.06
484.463	232.06
484.681	267.06
484.9	276.06
485.118	283.06
485.336	251.06
485.554	260.06
485.772	273.06
485.99	301.06
486.209	304.06
486.427	288.06
486.645	312.06
486.863	284.06
487.081	293.06
487.299	292.06
487.517	316.06
487.735	272.06
487.953	297.06
488.171	289.06
488.389	277.06
488.607	257.06
488.825	260.06
489.043	295.06
489.261	329.06
489.479	327.06
489.696	286.06
489.914	260.06
490.132	252.06
490.35	274.06
490.568	279.06
490.786	258.06
491.003	264.06
491.221	263.06
491.439	284.06
491.657	275.06
491.874	276.06
492.092	306.06
492.31	364.06
492.527	361.06
492.745	333.06
492.963	300.06
493.18	293.06
493.398	312.06
493.615	294.06
493.833	263.06
494.05	289.06
494.268	299.06
494.485	304.06
494.703	269.06
494.92	289.06
495.138	294.06
495.355	272.06
495.573	277.06
495.79	305.06
496.008	351.06
496.225	318.06
496.442	302.06
496.66	304.06
496.877	315.06
497.094	316.06
497.312	292.06
497.529	289.06
497.746	307.06
497.963	303.06
498.181	345.06
498.398	379.06
498.615	379.06
498.832	386.06
499.049	393.06
499.267	372.06
499.484	397.06
499.701	415.06
499.918	452.06
500.135	489.06
500.352	527.06
500.569	545.06
500.786	559.06
501.003	522.06
501.22	488.06
501.437	401.06
501.654	390.06
501.871	383.06
502.088	378.06
502.305	355.06
502.522	351.06
