Data from NickelSpatula_HRD10591_16-36-17-126.txt Node
Date: Mon Jul 22 16:36:17 EDT 2019
User: cochatt
Spectrometer: HR+D1059
Trigger mode: 1
Integration Time (sec): 1.000000E-1
Scans to average: 1
Electric dark correction enabled: true
Nonlinearity correction enabled: false
Boxcar width: 0
XAxis mode: Wavelengths
Number of Pixels in Spectrum: 2048
>>>>>Begin Spectral Data<<<<<
223.165	-12.81
223.4	-12.81
223.635	-12.81
223.869	-27.81
224.104	-4.81
224.338	2.19
224.573	-0.81
224.808	-16.81
225.042	0.19
225.277	-2.81
225.511	-23.81
225.746	2.19
225.98	2.19
226.215	5.19
226.449	12.19
226.683	13.19
226.918	29.19
227.152	23.19
227.387	29.19
227.621	46.19
227.856	43.19
228.09	42.19
228.324	49.19
228.559	57.19
228.793	63.19
229.027	74.19
229.262	79.19
229.496	61.19
229.73	88.19
229.964	89.19
230.199	74.19
230.433	83.19
230.667	93.19
230.901	78.19
231.136	79.19
231.37	92.19
231.604	87.19
231.838	97.19
232.072	110.19
232.306	92.19
232.541	88.19
232.775	89.19
233.009	98.19
233.243	104.19
233.477	112.19
233.711	107.19
233.945	88.19
234.179	98.19
234.413	98.19
234.647	101.19
234.881	115.19
235.115	108.19
235.349	98.19
235.583	98.19
235.817	113.19
236.051	114.19
236.285	110.19
236.519	111.19
236.753	104.19
236.987	110.19
237.221	100.19
237.455	110.19
237.689	105.19
237.922	99.19
238.156	100.19
238.39	100.19
238.624	130.19
238.858	122.19
239.091	124.19
239.325	104.19
239.559	107.19
239.793	103.19
240.027	126.19
240.26	122.19
240.494	117.19
240.728	116.19
240.961	104.19
241.195	123.19
241.429	115.19
241.662	127.19
241.896	122.19
242.13	99.19
242.363	102.19
242.597	113.19
242.83	121.19
243.064	137.19
243.298	130.19
243.531	115.19
243.765	119.19
243.998	119.19
244.232	117.19
244.465	124.19
244.699	120.19
244.932	131.19
245.166	104.19
245.399	120.19
245.633	108.19
245.866	126.19
246.099	120.19
246.333	133.19
246.566	128.19
246.8	140.19
247.033	132.19
247.266	143.19
247.5	131.19
247.733	124.19
247.966	117.19
248.2	130.19
248.433	138.19
248.666	146.19
248.899	128.19
249.133	133.19
249.366	154.19
249.599	145.19
249.832	140.19
250.066	138.19
250.299	132.19
250.532	140.19
250.765	118.19
250.998	121.19
251.231	126.19
251.465	130.19
251.698	149.19
251.931	134.19
252.164	147.19
252.397	154.19
252.63	178.19
252.863	165.19
253.096	171.19
253.329	169.19
253.562	159.19
253.795	176.19
254.028	193.19
254.261	174.19
254.494	175.19
254.727	168.19
254.96	166.19
255.193	179.19
255.426	169.19
255.659	153.19
255.892	144.19
256.124	144.19
256.357	166.19
256.59	155.19
256.823	156.19
257.056	156.19
257.289	151.19
257.521	148.19
257.754	157.19
257.987	169.19
258.22	166.19
258.452	170.19
258.685	171.19
258.918	165.19
259.151	186.19
259.383	182.19
259.616	199.19
259.849	193.19
260.081	193.19
260.314	204.19
260.547	181.19
260.779	185.19
261.012	210.19
261.244	205.19
261.477	210.19
261.71	189.19
261.942	160.19
262.175	180.19
262.407	175.19
262.64	178.19
262.872	168.19
263.105	200.19
263.337	213.19
263.57	184.19
263.802	158.19
264.035	140.19
264.267	142.19
264.499	127.19
264.732	132.19
264.964	125.19
265.197	116.19
265.429	129.19
265.661	140.19
265.894	144.19
266.126	138.19
266.358	158.19
266.591	180.19
266.823	192.19
267.055	195.19
267.287	172.19
267.52	176.19
267.752	175.19
267.984	180.19
268.216	178.19
268.448	151.19
268.681	182.19
268.913	183.19
269.145	178.19
269.377	186.19
269.609	175.19
269.841	160.19
270.073	169.19
270.306	186.19
270.538	179.19
270.77	208.19
271.002	185.19
271.234	201.19
271.466	194.19
271.698	190.19
271.93	174.19
272.162	172.19
272.394	189.19
272.626	188.19
272.858	184.19
273.09	182.19
273.322	178.19
273.553	163.19
273.785	186.19
274.017	223.19
274.249	254.19
274.481	292.19
274.713	295.19
274.945	312.19
275.176	313.19
275.408	294.19
275.64	281.19
275.872	276.19
276.104	263.19
276.335	218.19
276.567	222.19
276.799	223.19
277.031	234.19
277.262	200.19
277.494	167.19
277.726	170.19
277.957	166.19
278.189	193.19
278.421	200.19
278.652	194.19
278.884	186.19
279.115	170.19
279.347	145.19
279.579	156.19
279.81	158.19
280.042	176.19
280.273	161.19
280.505	177.19
280.736	161.19
280.968	162.19
281.199	155.19
281.431	182.19
281.662	199.19
281.894	158.19
282.125	177.19
282.356	180.19
282.588	183.19
282.819	178.19
283.051	194.19
283.282	212.19
283.513	217.19
283.745	250.19
283.976	271.19
284.207	232.19
284.439	226.19
284.67	246.19
284.901	202.19
285.132	227.19
285.364	226.19
285.595	224.19
285.826	243.19
286.057	227.19
286.288	238.19
286.52	234.19
286.751	233.19
286.982	232.19
287.213	209.19
287.444	217.19
287.675	214.19
287.906	225.19
288.138	209.19
288.369	190.19
288.6	171.19
288.831	165.19
289.062	216.19
289.293	200.19
289.524	212.19
289.755	206.19
289.986	193.19
290.217	194.19
290.448	148.19
290.679	156.19
290.91	149.19
291.141	142.19
291.371	125.19
291.602	138.19
291.833	156.19
292.064	148.19
292.295	176.19
292.526	184.19
292.757	200.19
292.987	196.19
293.218	204.19
293.449	203.19
293.68	214.19
293.91	223.19
294.141	214.19
294.372	199.19
294.603	198.19
294.833	202.19
295.064	215.19
295.295	223.19
295.525	172.19
295.756	160.19
295.987	145.19
296.217	162.19
296.448	150.19
296.679	148.19
296.909	155.19
297.14	170.19
297.37	180.19
297.601	158.19
297.831	165.19
298.062	171.19
298.292	178.19
298.523	196.19
298.753	203.19
298.984	199.19
299.214	169.19
299.445	145.19
299.675	149.19
299.905	149.19
300.136	147.19
300.366	135.19
300.597	159.19
300.827	152.19
301.057	138.19
301.288	137.19
301.518	157.19
301.748	168.19
301.979	170.19
302.209	160.19
302.439	169.19
302.669	158.19
302.9	161.19
303.13	159.19
303.36	168.19
303.59	149.19
303.82	160.19
304.051	175.19
304.281	161.19
304.511	173.19
304.741	169.19
304.971	167.19
305.201	174.19
305.431	164.19
305.661	138.19
305.891	141.19
306.121	137.19
306.352	132.19
306.582	127.19
306.812	114.19
307.042	140.19
307.272	124.19
307.502	120.19
307.731	143.19
307.961	141.19
308.191	133.19
308.421	128.19
308.651	131.19
308.881	115.19
309.111	122.19
309.341	145.19
309.571	124.19
309.8	137.19
310.03	153.19
310.26	143.19
310.49	146.19
310.72	124.19
310.949	132.19
311.179	151.19
311.409	136.19
311.639	142.19
311.868	192.19
312.098	218.19
312.328	233.19
312.557	220.19
312.787	198.19
313.017	196.19
313.246	216.19
313.476	229.19
313.706	196.19
313.935	168.19
314.165	148.19
314.394	127.19
314.624	129.19
314.853	163.19
315.083	139.19
315.312	131.19
315.542	146.19
315.771	134.19
316.001	135.19
316.23	119.19
316.46	120.19
316.689	124.19
316.919	124.19
317.148	133.19
317.377	134.19
317.607	135.19
317.836	134.19
318.065	150.19
318.295	167.19
318.524	149.19
318.753	132.19
318.983	145.19
319.212	130.19
319.441	150.19
319.67	166.19
319.9	160.19
320.129	148.19
320.358	156.19
320.587	152.19
320.816	140.19
321.046	155.19
321.275	162.19
321.504	174.19
321.733	153.19
321.962	175.19
322.191	149.19
322.42	152.19
322.649	144.19
322.878	163.19
323.108	163.19
323.337	186.19
323.566	150.19
323.795	151.19
324.024	135.19
324.253	133.19
324.482	133.19
324.71	152.19
324.939	156.19
325.168	140.19
325.397	132.19
325.626	133.19
325.855	133.19
326.084	139.19
326.313	139.19
326.542	135.19
326.77	141.19
326.999	145.19
327.228	141.19
327.457	127.19
327.686	132.19
327.914	135.19
328.143	140.19
328.372	132.19
328.6	128.19
328.829	126.19
329.058	120.19
329.287	127.19
329.515	132.19
329.744	131.19
329.972	119.19
330.201	133.19
330.43	123.19
330.658	137.19
330.887	130.19
331.115	144.19
331.344	154.19
331.572	144.19
331.801	136.19
332.03	128.19
332.258	120.19
332.486	134.19
332.715	141.19
332.943	133.19
333.172	127.19
333.4	116.19
333.629	143.19
333.857	147.19
334.085	140.19
334.314	154.19
334.542	125.19
334.771	135.19
334.999	136.19
335.227	134.19
335.455	143.19
335.684	148.19
335.912	157.19
336.14	160.19
336.369	150.19
336.597	160.19
336.825	155.19
337.053	202.19
337.281	155.19
337.51	135.19
337.738	126.19
337.966	156.19
338.194	148.19
338.422	166.19
338.65	131.19
338.878	140.19
339.106	126.19
339.334	135.19
339.562	140.19
339.79	147.19
340.018	130.19
340.246	153.19
340.474	158.19
340.702	167.19
340.93	175.19
341.158	178.19
341.386	149.19
341.614	148.19
341.842	134.19
342.07	152.19
342.298	176.19
342.526	184.19
342.754	159.19
342.981	138.19
343.209	132.19
343.437	166.19
343.665	162.19
343.893	158.19
344.12	182.19
344.348	191.19
344.576	171.19
344.804	140.19
345.031	143.19
345.259	123.19
345.487	140.19
345.714	141.19
345.942	150.19
346.17	168.19
346.397	165.19
346.625	144.19
346.853	144.19
347.08	131.19
347.308	136.19
347.535	151.19
347.763	159.19
347.99	148.19
348.218	132.19
348.445	139.19
348.673	152.19
348.9	149.19
349.128	161.19
349.355	143.19
349.583	134.19
349.81	131.19
350.037	138.19
350.265	136.19
350.492	137.19
350.72	126.19
350.947	127.19
351.174	131.19
351.402	140.19
351.629	147.19
351.856	139.19
352.083	134.19
352.311	143.19
352.538	159.19
352.765	137.19
352.992	137.19
353.22	137.19
353.447	157.19
353.674	144.19
353.901	131.19
354.128	146.19
354.355	153.19
354.583	136.19
354.81	154.19
355.037	154.19
355.264	144.19
355.491	141.19
355.718	159.19
355.945	144.19
356.172	137.19
356.399	154.19
356.626	169.19
356.853	192.19
357.08	184.19
357.307	198.19
357.534	164.19
357.761	186.19
357.988	217.19
358.215	209.19
358.441	216.19
358.668	189.19
358.895	193.19
359.122	170.19
359.349	174.19
359.576	178.19
359.802	151.19
360.029	138.19
360.256	147.19
360.483	167.19
360.709	188.19
360.936	194.19
361.163	170.19
361.39	155.19
361.616	144.19
361.843	155.19
362.07	175.19
362.296	179.19
362.523	137.19
362.749	128.19
362.976	130.19
363.203	146.19
363.429	156.19
363.656	145.19
363.882	143.19
364.109	145.19
364.335	139.19
364.562	148.19
364.788	156.19
365.015	151.19
365.241	158.19
365.468	144.19
365.694	137.19
365.92	130.19
366.147	137.19
366.373	124.19
366.599	136.19
366.826	121.19
367.052	127.19
367.278	118.19
367.505	127.19
367.731	138.19
367.957	136.19
368.184	152.19
368.41	159.19
368.636	144.19
368.862	134.19
369.089	150.19
369.315	121.19
369.541	137.19
369.767	123.19
369.993	129.19
370.219	126.19
370.445	122.19
370.672	139.19
370.898	159.19
371.124	128.19
371.35	148.19
371.576	142.19
371.802	139.19
372.028	136.19
372.254	177.19
372.48	138.19
372.706	141.19
372.932	144.19
373.158	158.19
373.384	185.19
373.61	203.19
373.835	190.19
374.061	167.19
374.287	146.19
374.513	166.19
374.739	199.19
374.965	195.19
375.191	197.19
375.416	164.19
375.642	136.19
375.868	161.19
376.094	176.19
376.319	157.19
376.545	167.19
376.771	173.19
376.997	144.19
377.222	135.19
377.448	137.19
377.674	118.19
377.899	126.19
378.125	117.19
378.35	121.19
378.576	126.19
378.802	126.19
379.027	137.19
379.253	138.19
379.478	128.19
379.704	146.19
379.929	171.19
380.155	149.19
380.38	146.19
380.606	155.19
380.831	163.19
381.057	144.19
381.282	147.19
381.507	149.19
381.733	169.19
381.958	192.19
382.184	178.19
382.409	197.19
382.634	206.19
382.86	196.19
383.085	184.19
383.31	138.19
383.535	162.19
383.761	166.19
383.986	176.19
384.211	183.19
384.436	166.19
384.662	152.19
384.887	138.19
385.112	139.19
385.337	146.19
385.562	156.19
385.787	167.19
386.013	159.19
386.238	168.19
386.463	131.19
386.688	146.19
386.913	130.19
387.138	137.19
387.363	137.19
387.588	146.19
387.813	147.19
388.038	152.19
388.263	154.19
388.488	145.19
388.713	163.19
388.938	164.19
389.163	135.19
389.387	134.19
389.612	145.19
389.837	139.19
390.062	143.19
390.287	149.19
390.512	145.19
390.736	128.19
390.961	122.19
391.186	150.19
391.411	128.19
391.636	137.19
391.86	146.19
392.085	150.19
392.31	148.19
392.534	134.19
392.759	138.19
392.984	150.19
393.208	138.19
393.433	122.19
393.658	126.19
393.882	129.19
394.107	136.19
394.331	132.19
394.556	118.19
394.78	118.19
395.005	133.19
395.229	129.19
395.454	138.19
395.678	142.19
395.903	136.19
396.127	137.19
396.352	133.19
396.576	162.19
396.801	146.19
397.025	159.19
397.249	162.19
397.474	138.19
397.698	128.19
397.922	147.19
398.147	140.19
398.371	139.19
398.595	159.19
398.82	124.19
399.044	149.19
399.268	156.19
399.492	151.19
399.717	141.19
399.941	137.19
400.165	124.19
400.389	151.19
400.613	154.19
400.837	132.19
401.062	121.19
401.286	133.19
401.51	133.19
401.734	130.19
401.958	133.19
402.182	136.19
402.406	128.19
402.63	138.19
402.854	165.19
403.078	162.19
403.302	188.19
403.526	199.19
403.75	170.19
403.974	145.19
404.198	158.19
404.422	183.19
404.645	169.19
404.869	176.19
405.093	161.19
405.317	142.19
405.541	147.19
405.765	155.19
405.988	163.19
406.212	163.19
406.436	158.19
406.66	177.19
406.883	150.19
407.107	152.19
407.331	179.19
407.555	165.19
407.778	143.19
408.002	146.19
408.226	145.19
408.449	148.19
408.673	145.19
408.896	142.19
409.12	136.19
409.344	132.19
409.567	127.19
409.791	126.19
410.014	129.19
410.238	149.19
410.461	126.19
410.685	133.19
410.908	124.19
411.132	134.19
411.355	146.19
411.578	156.19
411.802	138.19
412.025	151.19
412.249	142.19
412.472	127.19
412.695	140.19
412.919	140.19
413.142	153.19
413.365	162.19
413.589	141.19
413.812	138.19
414.035	147.19
414.258	164.19
414.482	152.19
414.705	160.19
414.928	143.19
415.151	131.19
415.374	137.19
415.597	136.19
415.821	145.19
416.044	122.19
416.267	121.19
416.49	143.19
416.713	136.19
416.936	138.19
417.159	118.19
417.382	138.19
417.605	128.19
417.828	137.19
418.051	153.19
418.274	136.19
418.497	139.19
418.72	148.19
418.943	132.19
419.166	138.19
419.389	144.19
419.611	144.19
419.834	145.19
420.057	176.19
420.28	159.19
420.503	145.19
420.726	138.19
420.948	138.19
421.171	141.19
421.394	121.19
421.617	140.19
421.839	139.19
422.062	150.19
422.285	148.19
422.507	151.19
422.73	141.19
422.953	141.19
423.175	139.19
423.398	142.19
423.621	144.19
423.843	163.19
424.066	140.19
424.288	150.19
424.511	146.19
424.733	121.19
424.956	146.19
425.178	157.19
425.401	178.19
425.623	191.19
425.846	170.19
426.068	146.19
426.291	156.19
426.513	134.19
426.735	144.19
426.958	136.19
427.18	172.19
427.402	199.19
427.625	195.19
427.847	155.19
428.069	137.19
428.292	143.19
428.514	140.19
428.736	125.19
428.958	147.19
429.181	159.19
429.403	141.19
429.625	136.19
429.847	152.19
430.069	137.19
430.292	142.19
430.514	142.19
430.736	150.19
430.958	171.19
431.18	165.19
431.402	133.19
431.624	133.19
431.846	133.19
432.068	122.19
432.29	139.19
432.512	137.19
432.734	157.19
432.956	155.19
433.178	131.19
433.4	150.19
433.622	138.19
433.844	142.19
434.066	169.19
434.287	162.19
434.509	153.19
434.731	146.19
434.953	135.19
435.175	147.19
435.397	150.19
435.618	132.19
435.84	138.19
436.062	152.19
436.284	130.19
436.505	130.19
436.727	121.19
436.949	116.19
437.17	143.19
437.392	150.19
437.614	144.19
437.835	134.19
438.057	136.19
438.278	138.19
438.5	174.19
438.721	184.19
438.943	145.19
439.165	142.19
439.386	140.19
439.608	142.19
439.829	131.19
440.05	133.19
440.272	134.19
440.493	145.19
440.715	180.19
440.936	149.19
441.158	131.19
441.379	118.19
441.6	137.19
441.822	158.19
442.043	146.19
442.264	144.19
442.486	129.19
442.707	128.19
442.928	130.19
443.149	148.19
443.371	144.19
443.592	152.19
443.813	155.19
444.034	138.19
444.255	129.19
444.476	127.19
444.698	124.19
444.919	149.19
445.14	267.19
445.361	211.19
445.582	161.19
445.803	162.19
446.024	170.19
446.245	148.19
446.466	137.19
446.687	128.19
446.908	123.19
447.129	132.19
447.35	115.19
447.571	140.19
447.792	121.19
448.013	124.19
448.234	134.19
448.455	134.19
448.675	135.19
448.896	132.19
449.117	127.19
449.338	120.19
449.559	135.19
449.779	143.19
450	140.19
450.221	115.19
450.442	132.19
450.662	143.19
450.883	130.19
451.104	132.19
451.324	128.19
451.545	121.19
451.766	128.19
451.986	127.19
452.207	129.19
452.428	123.19
452.648	128.19
452.869	132.19
453.089	116.19
453.31	131.19
453.53	137.19
453.751	120.19
453.971	135.19
454.192	148.19
454.412	144.19
454.633	133.19
454.853	137.19
455.073	108.19
455.294	134.19
455.514	137.19
455.734	149.19
455.955	127.19
456.175	130.19
456.395	140.19
456.616	117.19
456.836	131.19
457.056	118.19
457.276	117.19
457.497	130.19
457.717	122.19
457.937	123.19
458.157	123.19
458.377	123.19
458.598	108.19
458.818	118.19
459.038	141.19
459.258	140.19
459.478	138.19
459.698	152.19
459.918	134.19
460.138	144.19
460.358	128.19
460.578	138.19
460.798	133.19
461.018	144.19
461.238	135.19
461.458	140.19
461.678	145.19
461.898	146.19
462.118	145.19
462.338	130.19
462.558	140.19
462.777	154.19
462.997	135.19
463.217	134.19
463.437	146.19
463.657	158.19
463.876	153.19
464.096	145.19
464.316	151.19
464.536	146.19
464.755	154.19
464.975	150.19
465.195	155.19
465.414	163.19
465.634	154.19
465.854	140.19
466.073	129.19
466.293	120.19
466.512	116.19
466.732	147.19
466.951	161.19
467.171	142.19
467.391	132.19
467.61	135.19
467.829	143.19
468.049	150.19
468.268	145.19
468.488	136.19
468.707	138.19
468.927	155.19
469.146	151.19
469.365	158.19
469.585	148.19
469.804	154.19
470.023	143.19
470.243	153.19
470.462	128.19
470.681	146.19
470.901	151.19
471.12	154.19
471.339	136.19
471.558	146.19
471.777	155.19
471.997	158.19
472.216	158.19
472.435	145.19
472.654	155.19
472.873	168.19
473.092	153.19
473.311	152.19
473.53	132.19
473.749	138.19
473.968	155.19
474.187	158.19
474.406	155.19
474.625	153.19
474.844	148.19
475.063	149.19
475.282	144.19
475.501	151.19
475.72	189.19
475.939	164.19
476.158	152.19
476.377	180.19
476.596	204.19
476.814	207.19
477.033	166.19
477.252	139.19
477.471	144.19
477.69	153.19
477.908	150.19
478.127	149.19
478.346	158.19
478.564	179.19
478.783	151.19
479.002	148.19
479.22	170.19
479.439	174.19
479.658	171.19
479.876	152.19
480.095	160.19
480.313	165.19
480.532	158.19
480.751	160.19
480.969	164.19
481.188	159.19
481.406	161.19
481.624	168.19
481.843	144.19
482.061	150.19
482.28	166.19
482.498	188.19
482.717	205.19
482.935	151.19
483.153	151.19
483.372	150.19
483.59	139.19
483.808	150.19
484.027	158.19
484.245	156.19
484.463	135.19
484.681	143.19
484.9	170.19
485.118	169.19
485.336	156.19
485.554	146.19
485.772	160.19
485.99	161.19
486.209	176.19
486.427	169.19
486.645	154.19
486.863	160.19
487.081	162.19
487.299	188.19
487.517	169.19
487.735	156.19
487.953	175.19
488.171	183.19
488.389	159.19
488.607	148.19
488.825	170.19
489.043	154.19
489.261	190.19
489.479	199.19
489.696	166.19
489.914	151.19
490.132	146.19
490.35	158.19
490.568	159.19
490.786	154.19
491.003	151.19
491.221	162.19
491.439	161.19
491.657	156.19
491.874	173.19
492.092	190.19
492.31	214.19
492.527	219.19
492.745	187.19
492.963	178.19
493.18	176.19
493.398	190.19
493.615	166.19
493.833	186.19
494.05	173.19
494.268	168.19
494.485	161.19
494.703	164.19
494.92	168.19
495.138	166.19
495.355	160.19
495.573	161.19
495.79	196.19
496.008	226.19
496.225	180.19
496.442	167.19
496.66	167.19
496.877	178.19
497.094	179.19
497.312	172.19
497.529	161.19
497.746	187.19
497.963	152.19
498.181	184.19
498.398	208.19
498.615	209.19
498.832	199.19
499.049	195.19
499.267	176.19
499.484	192.19
499.701	199.19
499.918	184.19
500.135	217.19
500.352	218.19
500.569	221.19
500.786	226.19
501.003	240.19
501.22	226.19
501.437	201.19
501.654	209.19
501.871	192.19
502.088	191.19
502.305	187.19
502.522	207.19
502.739	179.19
502.956	170.19
