Data from NickelSpatula.Lamp.E10.P2_HRD10591_11-58-43-527.txt Node
Date: Tue Jul 23 11:58:43 EDT 2019
User: cochatt
Spectrometer: HR+D1059
Trigger mode: 1
Integration Time (sec): 1.000000E-1
Scans to average: 1
Electric dark correction enabled: true
Nonlinearity correction enabled: false
Boxcar width: 0
XAxis mode: Wavelengths
Number of Pixels in Spectrum: 2048
>>>>>Begin Spectral Data<<<<<
223.165	-24.75
223.4	-24.75
223.635	-24.75
223.869	-18.75
224.104	-29.75
224.338	-15.75
224.573	-12.75
224.808	-18.75
225.042	-16.75
225.277	-5.75
225.511	8.25
225.746	11.25
225.98	4.25
226.215	5.25
226.449	17.25
226.683	19.25
226.918	34.25
227.152	43.25
227.387	45.25
227.621	41.25
227.856	36.25
228.09	37.25
228.324	34.25
228.559	53.25
228.793	84.25
229.027	137.25
229.262	161.25
229.496	153.25
229.73	162.25
229.964	180.25
230.199	213.25
230.433	217.25
230.667	210.25
230.901	190.25
231.136	206.25
231.37	208.25
231.604	229.25
231.838	244.25
232.072	239.25
232.306	232.25
232.541	245.25
232.775	238.25
233.009	249.25
233.243	297.25
233.477	301.25
233.711	346.25
233.945	317.25
234.179	315.25
234.413	345.25
234.647	389.25
234.881	461.25
235.115	409.25
235.349	405.25
235.583	349.25
235.817	356.25
236.051	398.25
236.285	413.25
236.519	454.25
236.753	440.25
236.987	434.25
237.221	416.25
237.455	439.25
237.689	447.25
237.922	455.25
238.156	490.25
238.39	570.25
238.624	667.25
238.858	583.25
239.091	483.25
239.325	495.25
239.559	493.25
239.793	545.25
240.027	660.25
240.26	598.25
240.494	591.25
240.728	593.25
240.961	691.25
241.195	627.25
241.429	660.25
241.662	614.25
241.896	512.25
242.13	477.25
242.363	438.25
242.597	465.25
242.83	539.25
243.064	541.25
243.298	570.25
243.531	613.25
243.765	637.25
243.998	629.25
244.232	605.25
244.465	607.25
244.699	582.25
244.932	648.25
245.166	626.25
245.399	564.25
245.633	542.25
245.866	573.25
246.099	613.25
246.333	693.25
246.566	783.25
246.8	773.25
247.033	745.25
247.266	692.25
247.5	697.25
247.733	681.25
247.966	651.25
248.2	671.25
248.433	793.25
248.666	826.25
248.899	825.25
249.133	833.25
249.366	973.25
249.599	1057.25
249.832	962.25
250.066	815.25
250.299	837.25
250.532	833.25
250.765	820.25
250.998	741.25
251.231	696.25
251.465	761.25
251.698	816.25
251.931	778.25
252.164	847.25
252.397	930.25
252.63	1067.25
252.863	1174.25
253.096	1191.25
253.329	1145.25
253.562	1101.25
253.795	1215.25
254.028	1368.25
254.261	1398.25
254.494	1271.25
254.727	1148.25
254.96	1110.25
255.193	1186.25
255.426	1124.25
255.659	839.25
255.892	802.25
256.124	869.25
256.357	1014.25
256.59	1178.25
256.823	1147.25
257.056	981.25
257.289	912.25
257.521	961.25
257.754	1146.25
257.987	1282.25
258.22	1082.25
258.452	984.25
258.685	1107.25
258.918	1256.25
259.151	1241.25
259.383	1285.25
259.616	1469.25
259.849	1534.25
260.081	1686.25
260.314	1890.25
260.547	1488.25
260.779	1477.25
261.012	1671.25
261.244	1595.25
261.477	1634.25
261.71	1534.25
261.942	1261.25
262.175	1301.25
262.407	1236.25
262.64	1248.25
262.872	1493.25
263.105	1637.25
263.337	1734.25
263.57	1513.25
263.802	1023.25
264.035	876.25
264.267	849.25
264.499	751.25
264.732	721.25
264.964	698.25
265.197	723.25
265.429	759.25
265.661	794.25
265.894	847.25
266.126	918.25
266.358	1001.25
266.591	1228.25
266.823	1447.25
267.055	1400.25
267.287	1226.25
267.52	1233.25
267.752	1288.25
267.984	1407.25
268.216	1373.25
268.448	1139.25
268.681	1070.25
268.913	1184.25
269.145	1268.25
269.377	1289.25
269.609	1312.25
269.841	1223.25
270.073	1310.25
270.306	1370.25
270.538	1365.25
270.77	1414.25
271.002	1416.25
271.234	1452.25
271.466	1457.25
271.698	1430.25
271.93	1445.25
272.162	1419.25
272.394	1396.25
272.626	1394.25
272.858	1455.25
273.09	1485.25
273.322	1302.25
273.553	1259.25
273.785	1472.25
274.017	1971.25
274.249	2414.25
274.481	2509.25
274.713	2769.25
274.945	3135.25
275.176	3283.25
275.408	2887.25
275.64	2621.25
275.872	2633.25
276.104	2207.25
276.335	1873.25
276.567	1901.25
276.799	1961.25
277.031	2028.25
277.262	1581.25
277.494	1233.25
277.726	1215.25
277.957	1338.25
278.189	1498.25
278.421	1438.25
278.652	1431.25
278.884	1359.25
279.115	1274.25
279.347	1166.25
279.579	1209.25
279.81	1209.25
280.042	1194.25
280.273	1254.25
280.505	1118.25
280.736	1002.25
280.968	1022.25
281.199	1083.25
281.431	1200.25
281.662	1237.25
281.894	1149.25
282.125	1246.25
282.356	1355.25
282.588	1421.25
282.819	1238.25
283.051	1375.25
283.282	1670.25
283.513	1935.25
283.745	2163.25
283.976	2147.25
284.207	1977.25
284.439	2034.25
284.67	1967.25
284.901	1753.25
285.132	1917.25
285.364	2000.25
285.595	1871.25
285.826	1984.25
286.057	2029.25
286.288	1949.25
286.52	1999.25
286.751	2066.25
286.982	2049.25
287.213	1798.25
287.444	1750.25
287.675	1853.25
287.906	1813.25
288.138	1571.25
288.369	1374.25
288.6	1280.25
288.831	1369.25
289.062	1531.25
289.293	1645.25
289.524	1569.25
289.755	1554.25
289.986	1590.25
290.217	1397.25
290.448	1072.25
290.679	956.25
290.91	923.25
291.141	935.25
291.371	978.25
291.602	965.25
291.833	981.25
292.064	1038.25
292.295	1227.25
292.526	1375.25
292.757	1434.25
292.987	1533.25
293.218	1535.25
293.449	1599.25
293.68	1678.25
293.91	1585.25
294.141	1576.25
294.372	1472.25
294.603	1396.25
294.833	1545.25
295.064	1829.25
295.295	1705.25
295.525	1297.25
295.756	1120.25
295.987	986.25
296.217	989.25
296.448	1034.25
296.679	1100.25
296.909	1232.25
297.14	1304.25
297.37	1425.25
297.601	1322.25
297.831	1149.25
298.062	1230.25
298.292	1420.25
298.523	1564.25
298.753	1811.25
298.984	1574.25
299.214	1233.25
299.445	1058.25
299.675	1033.25
299.905	991.25
300.136	1069.25
300.366	1123.25
300.597	1144.25
300.827	1017.25
301.057	990.25
301.288	1017.25
301.518	1057.25
301.748	1217.25
301.979	1303.25
302.209	1429.25
302.439	1431.25
302.669	1247.25
302.9	1213.25
303.13	1137.25
303.36	1089.25
303.59	1031.25
303.82	1109.25
304.051	1226.25
304.281	1346.25
304.511	1288.25
304.741	1141.25
304.971	1185.25
305.201	1250.25
305.431	1209.25
305.661	1075.25
305.891	1069.25
306.121	1059.25
306.352	922.25
306.582	868.25
306.812	839.25
307.042	843.25
307.272	799.25
307.502	819.25
307.731	874.25
307.961	916.25
308.191	870.25
308.421	798.25
308.651	792.25
308.881	736.25
309.111	773.25
309.341	799.25
309.571	883.25
309.8	925.25
310.03	963.25
310.26	990.25
310.49	941.25
310.72	852.25
310.949	841.25
311.179	899.25
311.409	916.25
311.639	1109.25
311.868	1376.25
312.098	1775.25
312.328	1926.25
312.557	1822.25
312.787	1842.25
313.017	1640.25
313.246	1807.25
313.476	1928.25
313.706	1599.25
313.935	1285.25
314.165	1040.25
314.394	957.25
314.624	954.25
314.853	1002.25
315.083	1032.25
315.312	1000.25
315.542	1007.25
315.771	945.25
316.001	859.25
316.23	824.25
316.46	875.25
316.689	879.25
316.919	885.25
317.148	916.25
317.377	853.25
317.607	891.25
317.836	943.25
318.065	1078.25
318.295	1244.25
318.524	1118.25
318.753	993.25
318.983	900.25
319.212	888.25
319.441	994.25
319.67	1119.25
319.9	1180.25
320.129	1111.25
320.358	951.25
320.587	944.25
320.816	1047.25
321.046	1180.25
321.275	1341.25
321.504	1309.25
321.733	1239.25
321.962	1194.25
322.191	1153.25
322.42	1099.25
322.649	1115.25
322.878	1190.25
323.108	1185.25
323.337	1082.25
323.566	1097.25
323.795	1030.25
324.024	1015.25
324.253	972.25
324.482	1007.25
324.71	1066.25
324.939	1198.25
325.168	1103.25
325.397	931.25
325.626	911.25
325.855	922.25
326.084	930.25
326.313	863.25
326.542	831.25
326.77	882.25
326.999	899.25
327.228	935.25
327.457	995.25
327.686	1025.25
327.914	882.25
328.143	840.25
328.372	833.25
328.6	851.25
328.829	878.25
329.058	891.25
329.287	884.25
329.515	900.25
329.744	842.25
329.972	836.25
330.201	809.25
330.43	855.25
330.658	925.25
330.887	1073.25
331.115	1026.25
331.344	984.25
331.572	957.25
331.801	907.25
332.03	858.25
332.258	879.25
332.486	961.25
332.715	955.25
332.943	885.25
333.172	913.25
333.4	911.25
333.629	1005.25
333.857	1093.25
334.085	1110.25
334.314	1096.25
334.542	1043.25
334.771	963.25
334.999	939.25
335.227	927.25
335.455	943.25
335.684	1022.25
335.912	1186.25
336.14	1306.25
336.369	1251.25
336.597	1203.25
336.825	1349.25
337.053	1544.25
337.281	1234.25
337.51	965.25
337.738	973.25
337.966	1057.25
338.194	1158.25
338.422	1111.25
338.65	959.25
338.878	870.25
339.106	913.25
339.334	1027.25
339.562	1078.25
339.79	995.25
340.018	972.25
340.246	1053.25
340.474	1181.25
340.702	1256.25
340.93	1341.25
341.158	1319.25
341.386	1101.25
341.614	1114.25
341.842	1131.25
342.07	1166.25
342.298	1335.25
342.526	1389.25
342.754	1179.25
342.981	1097.25
343.209	1055.25
343.437	1142.25
343.665	1187.25
343.893	1160.25
344.12	1415.25
344.348	1612.25
344.576	1411.25
344.804	1210.25
345.031	1015.25
345.259	964.25
345.487	1007.25
345.714	996.25
345.942	1098.25
346.17	1189.25
346.397	1136.25
346.625	971.25
346.853	944.25
347.08	932.25
347.308	1027.25
347.535	1115.25
347.763	1133.25
347.99	978.25
348.218	917.25
348.445	966.25
348.673	995.25
348.9	966.25
349.128	1050.25
349.355	1120.25
349.583	1046.25
349.81	1005.25
350.037	933.25
350.265	852.25
350.492	791.25
350.72	806.25
350.947	833.25
351.174	884.25
351.402	931.25
351.629	989.25
351.856	932.25
352.083	868.25
352.311	953.25
352.538	1056.25
352.765	1174.25
352.992	1036.25
353.22	980.25
353.447	1025.25
353.674	953.25
353.901	946.25
354.128	971.25
354.355	1020.25
354.583	999.25
354.81	995.25
355.037	1015.25
355.264	983.25
355.491	1060.25
355.718	1171.25
355.945	1119.25
356.172	1064.25
356.399	1094.25
356.626	1314.25
356.853	1598.25
357.08	1715.25
357.307	1726.25
357.534	1361.25
357.761	1365.25
357.988	1747.25
358.215	2047.25
358.441	1905.25
358.668	1607.25
358.895	1489.25
359.122	1238.25
359.349	1205.25
359.576	1298.25
359.802	1078.25
360.029	943.25
360.256	1071.25
360.483	1263.25
360.709	1571.25
360.936	1637.25
361.163	1449.25
361.39	1129.25
361.616	1054.25
361.843	1227.25
362.07	1487.25
362.296	1332.25
362.523	1064.25
362.749	919.25
362.976	995.25
363.203	1197.25
363.429	1347.25
363.656	1096.25
363.882	984.25
364.109	1013.25
364.335	981.25
364.562	1001.25
364.788	1114.25
365.015	1319.25
365.241	1155.25
365.468	953.25
365.694	841.25
365.92	810.25
366.147	785.25
366.373	803.25
366.599	778.25
366.826	805.25
367.052	835.25
367.278	842.25
367.505	830.25
367.731	885.25
367.957	1008.25
368.184	1053.25
368.41	1034.25
368.636	1019.25
368.862	1079.25
369.089	1045.25
369.315	884.25
369.541	881.25
369.767	871.25
369.993	823.25
370.219	852.25
370.445	907.25
370.672	1032.25
370.898	1089.25
371.124	1065.25
371.35	949.25
371.576	943.25
371.802	1005.25
372.028	1128.25
372.254	1294.25
372.48	1130.25
372.706	1049.25
372.932	1087.25
373.158	1139.25
373.384	1355.25
373.61	1782.25
373.835	1847.25
374.061	1367.25
374.287	1177.25
374.513	1409.25
374.739	1647.25
374.965	1686.25
375.191	1627.25
375.416	1163.25
375.642	1012.25
375.868	1163.25
376.094	1327.25
376.319	1136.25
376.545	1274.25
376.771	1336.25
376.997	1127.25
377.222	839.25
377.448	767.25
377.674	743.25
377.899	754.25
378.125	755.25
378.35	760.25
378.576	751.25
378.802	851.25
379.027	944.25
379.253	872.25
379.478	927.25
379.704	1050.25
379.929	1101.25
380.155	1124.25
380.38	969.25
380.606	981.25
380.831	1116.25
381.057	1005.25
381.282	975.25
381.507	1135.25
381.733	1439.25
381.958	1485.25
382.184	1613.25
382.409	1674.25
382.634	1661.25
382.86	1741.25
383.085	1415.25
383.31	1140.25
383.535	1182.25
383.761	1233.25
383.986	1143.25
384.211	1412.25
384.436	1358.25
384.662	1011.25
384.887	1001.25
385.112	1036.25
385.337	1033.25
385.562	988.25
385.787	1073.25
386.013	1207.25
386.238	1252.25
386.463	1007.25
386.688	973.25
386.913	942.25
387.138	906.25
387.363	953.25
387.588	986.25
387.813	973.25
388.038	1064.25
388.263	1007.25
388.488	956.25
388.713	1126.25
388.938	1226.25
389.163	1034.25
389.387	905.25
389.612	935.25
389.837	968.25
390.062	959.25
390.287	1005.25
390.512	1021.25
390.736	968.25
390.961	883.25
391.186	849.25
391.411	836.25
391.636	863.25
391.86	927.25
392.085	1042.25
392.31	1021.25
392.534	955.25
392.759	919.25
392.984	972.25
393.208	930.25
393.433	874.25
393.658	826.25
393.882	770.25
394.107	792.25
394.331	791.25
394.556	798.25
394.78	804.25
395.005	853.25
395.229	840.25
395.454	902.25
395.678	890.25
395.903	904.25
396.127	906.25
396.352	928.25
396.576	955.25
396.801	1011.25
397.025	1127.25
397.249	1162.25
397.474	950.25
397.698	891.25
397.922	969.25
398.147	937.25
398.371	881.25
398.595	964.25
398.82	969.25
399.044	966.25
399.268	1006.25
399.492	1050.25
399.717	1077.25
399.941	1101.25
400.165	1070.25
400.389	1031.25
400.613	1070.25
400.837	1013.25
401.062	919.25
401.286	901.25
401.51	912.25
401.734	885.25
401.958	909.25
402.182	911.25
402.406	911.25
402.63	898.25
402.854	933.25
403.078	1065.25
403.302	1296.25
403.526	1331.25
403.75	1198.25
403.974	1042.25
404.198	1084.25
404.422	1231.25
404.645	1455.25
404.869	1612.25
405.093	1195.25
405.317	1003.25
405.541	984.25
405.765	1009.25
405.988	1008.25
406.212	1110.25
406.436	1310.25
406.66	1415.25
406.883	1113.25
407.107	1163.25
407.331	1376.25
407.555	1271.25
407.778	1067.25
408.002	1059.25
408.226	1058.25
408.449	1055.25
408.673	1017.25
408.896	907.25
409.12	897.25
409.344	905.25
409.567	872.25
409.791	880.25
410.014	885.25
410.238	878.25
410.461	893.25
410.685	919.25
410.908	892.25
411.132	916.25
411.355	924.25
411.578	961.25
411.802	952.25
412.025	971.25
412.249	1002.25
412.472	967.25
412.695	913.25
412.919	933.25
413.142	968.25
413.365	1064.25
413.589	1041.25
413.812	959.25
414.035	909.25
414.258	942.25
414.482	1035.25
414.705	1078.25
414.928	906.25
415.151	854.25
415.374	890.25
415.597	894.25
415.821	910.25
416.044	902.25
416.267	854.25
416.49	894.25
416.713	861.25
416.936	855.25
417.159	878.25
417.382	902.25
417.605	903.25
417.828	933.25
418.051	930.25
418.274	939.25
418.497	933.25
418.72	914.25
418.943	955.25
419.166	997.25
419.389	1006.25
419.611	1012.25
419.834	1027.25
420.057	1115.25
420.28	1141.25
420.503	1065.25
420.726	890.25
420.948	856.25
421.171	900.25
421.394	875.25
421.617	842.25
421.839	878.25
422.062	929.25
422.285	931.25
422.507	958.25
422.73	955.25
422.953	984.25
423.175	929.25
423.398	953.25
423.621	1000.25
423.843	1072.25
424.066	989.25
424.288	942.25
424.511	894.25
424.733	936.25
424.956	986.25
425.178	1073.25
425.401	1253.25
425.623	1387.25
425.846	1172.25
426.068	1005.25
426.291	1127.25
426.513	1018.25
426.735	953.25
426.958	973.25
427.18	1156.25
427.402	1461.25
427.625	1469.25
427.847	1159.25
428.069	919.25
428.292	899.25
428.514	923.25
428.736	890.25
428.958	956.25
429.181	1103.25
429.403	999.25
429.625	907.25
429.847	861.25
430.069	901.25
430.292	922.25
430.514	877.25
430.736	941.25
430.958	1194.25
431.18	1085.25
431.402	843.25
431.624	806.25
431.846	788.25
432.068	795.25
432.29	851.25
432.512	934.25
432.734	1239.25
432.956	1150.25
433.178	886.25
433.4	845.25
433.622	861.25
433.844	877.25
434.066	907.25
434.287	913.25
434.509	866.25
434.731	916.25
434.953	861.25
435.175	934.25
435.397	1023.25
435.618	901.25
435.84	818.25
436.062	839.25
436.284	821.25
436.505	789.25
436.727	790.25
436.949	798.25
437.17	857.25
437.392	860.25
437.614	810.25
437.835	806.25
438.057	850.25
438.278	963.25
438.5	1407.25
438.721	1370.25
438.943	971.25
439.165	820.25
439.386	775.25
439.608	778.25
439.829	751.25
440.05	800.25
440.272	851.25
440.493	995.25
440.715	1194.25
440.936	995.25
441.158	841.25
441.379	859.25
441.6	966.25
441.822	1035.25
442.043	883.25
442.264	879.25
442.486	879.25
442.707	878.25
442.928	849.25
443.149	896.25
443.371	889.25
443.592	885.25
443.813	889.25
444.034	885.25
444.255	907.25
444.476	950.25
444.698	921.25
444.919	976.25
445.14	1099.25
445.361	993.25
445.582	975.25
445.803	911.25
446.024	905.25
446.245	911.25
446.466	927.25
446.687	854.25
446.908	883.25
447.129	816.25
447.35	808.25
447.571	786.25
447.792	814.25
448.013	761.25
448.234	776.25
448.455	762.25
448.675	787.25
448.896	805.25
449.117	799.25
449.338	800.25
449.559	818.25
449.779	846.25
450	878.25
450.221	857.25
450.442	794.25
450.662	789.25
450.883	780.25
451.104	807.25
451.324	785.25
451.545	794.25
451.766	818.25
451.986	792.25
452.207	753.25
452.428	746.25
452.648	755.25
452.869	829.25
453.089	834.25
453.31	829.25
453.53	744.25
453.751	749.25
453.971	745.25
454.192	783.25
454.412	797.25
454.633	736.25
454.853	751.25
455.073	705.25
455.294	727.25
455.514	730.25
455.734	750.25
455.955	826.25
456.175	813.25
456.395	736.25
456.616	712.25
456.836	705.25
457.056	705.25
457.276	690.25
457.497	705.25
457.717	737.25
457.937	755.25
458.157	721.25
458.377	724.25
458.598	737.25
458.818	773.25
459.038	798.25
459.258	808.25
459.478	836.25
459.698	897.25
459.918	901.25
460.138	885.25
460.358	878.25
460.578	858.25
460.798	889.25
461.018	887.25
461.238	847.25
461.458	850.25
461.678	903.25
461.898	913.25
462.118	929.25
462.338	944.25
462.558	964.25
462.777	976.25
462.997	991.25
463.217	983.25
463.437	1027.25
463.657	1007.25
463.876	961.25
464.096	958.25
464.316	972.25
464.536	964.25
464.755	1018.25
464.975	1005.25
465.195	955.25
465.414	984.25
465.634	969.25
465.854	905.25
466.073	872.25
466.293	858.25
466.512	943.25
466.732	1036.25
466.951	1069.25
467.171	932.25
467.391	900.25
467.61	856.25
467.829	917.25
468.049	952.25
468.268	880.25
468.488	892.25
468.707	917.25
468.927	1057.25
469.146	1145.25
469.365	1020.25
469.585	941.25
469.804	981.25
470.023	1112.25
470.243	982.25
470.462	935.25
470.681	938.25
470.901	920.25
471.12	967.25
471.339	979.25
471.558	905.25
471.777	941.25
471.997	996.25
472.216	1110.25
472.435	1071.25
472.654	1012.25
472.873	965.25
473.092	1009.25
473.311	1045.25
473.53	931.25
473.749	935.25
473.968	980.25
474.187	960.25
474.406	948.25
474.625	919.25
474.844	945.25
475.063	1048.25
475.282	1009.25
475.501	1043.25
475.72	1117.25
475.939	1077.25
476.158	1095.25
476.377	1257.25
476.596	1445.25
476.814	1507.25
477.033	1227.25
477.252	1057.25
477.471	975.25
477.69	983.25
477.908	1097.25
478.127	1145.25
478.346	1049.25
478.564	1136.25
478.783	1080.25
479.002	1122.25
479.22	1250.25
479.439	1416.25
479.658	1227.25
479.876	1138.25
480.095	1208.25
480.313	1252.25
480.532	1139.25
480.751	1071.25
480.969	1107.25
481.188	1262.25
481.406	1301.25
481.624	1225.25
481.843	1119.25
482.061	1115.25
482.28	1194.25
482.498	1440.25
482.717	1363.25
482.935	1201.25
483.153	1145.25
483.372	1076.25
483.59	1063.25
483.808	1037.25
484.027	1026.25
484.245	988.25
484.463	987.25
484.681	1035.25
484.9	1093.25
485.118	1204.25
485.336	1140.25
485.554	1058.25
485.772	1086.25
485.99	1186.25
486.209	1243.25
486.427	1256.25
486.645	1172.25
486.863	1241.25
487.081	1242.25
487.299	1378.25
487.517	1330.25
487.735	1207.25
487.953	1226.25
488.171	1277.25
488.389	1213.25
488.607	1082.25
488.825	1149.25
489.043	1274.25
489.261	1455.25
489.479	1567.25
489.696	1305.25
489.914	1181.25
490.132	1107.25
490.35	1141.25
490.568	1139.25
490.786	1135.25
491.003	1114.25
491.221	1159.25
491.439	1121.25
491.657	1138.25
491.874	1218.25
492.092	1496.25
492.31	1784.25
492.527	1737.25
492.745	1511.25
492.963	1321.25
493.18	1296.25
493.398	1276.25
493.615	1332.25
493.833	1266.25
494.05	1214.25
494.268	1235.25
