Data from NickelSpatula.Lamp.E10.P2_HRD10591_11-59-36-525.txt Node
Date: Tue Jul 23 11:59:36 EDT 2019
User: cochatt
Spectrometer: HR+D1059
Trigger mode: 1
Integration Time (sec): 1.000000E-1
Scans to average: 1
Electric dark correction enabled: true
Nonlinearity correction enabled: false
Boxcar width: 0
XAxis mode: Wavelengths
Number of Pixels in Spectrum: 2048
>>>>>Begin Spectral Data<<<<<
223.165	-13.81
223.4	-13.81
223.635	-13.81
223.869	-22.81
224.104	-5.81
224.338	-9.81
224.573	-17.81
224.808	-14.81
225.042	3.19
225.277	-15.81
225.511	-10.81
225.746	18.19
225.98	8.19
226.215	17.19
226.449	9.19
226.683	12.19
226.918	13.19
227.152	30.19
227.387	45.19
227.621	35.19
227.856	39.19
228.09	47.19
228.324	45.19
228.559	58.19
228.793	72.19
229.027	135.19
229.262	161.19
229.496	165.19
229.73	178.19
229.964	185.19
230.199	211.19
230.433	227.19
230.667	204.19
230.901	223.19
231.136	199.19
231.37	214.19
231.604	220.19
231.838	237.19
232.072	249.19
232.306	261.19
232.541	246.19
232.775	243.19
233.009	282.19
233.243	303.19
233.477	311.19
233.711	345.19
233.945	318.19
234.179	328.19
234.413	357.19
234.647	387.19
234.881	477.19
235.115	441.19
235.349	419.19
235.583	371.19
235.817	353.19
236.051	385.19
236.285	435.19
236.519	458.19
236.753	455.19
236.987	431.19
237.221	422.19
237.455	424.19
237.689	429.19
237.922	472.19
238.156	484.19
238.39	561.19
238.624	687.19
238.858	601.19
239.091	478.19
239.325	511.19
239.559	481.19
239.793	542.19
240.027	665.19
240.26	606.19
240.494	574.19
240.728	570.19
240.961	697.19
241.195	647.19
241.429	648.19
241.662	598.19
241.896	543.19
242.13	469.19
242.363	437.19
242.597	475.19
242.83	534.19
243.064	537.19
243.298	594.19
243.531	632.19
243.765	635.19
243.998	631.19
244.232	601.19
244.465	589.19
244.699	570.19
244.932	694.19
245.166	616.19
245.399	551.19
245.633	555.19
245.866	565.19
246.099	586.19
246.333	721.19
246.566	783.19
246.8	762.19
247.033	755.19
247.266	673.19
247.5	676.19
247.733	679.19
247.966	655.19
248.2	698.19
248.433	773.19
248.666	845.19
248.899	874.19
249.133	866.19
249.366	1002.19
249.599	1079.19
249.832	938.19
250.066	819.19
250.299	832.19
250.532	799.19
250.765	807.19
250.998	726.19
251.231	735.19
251.465	785.19
251.698	833.19
251.931	813.19
252.164	837.19
252.397	953.19
252.63	1042.19
252.863	1192.19
253.096	1213.19
253.329	1155.19
253.562	1099.19
253.795	1257.19
254.028	1367.19
254.261	1393.19
254.494	1255.19
254.727	1153.19
254.96	1128.19
255.193	1175.19
255.426	1142.19
255.659	859.19
255.892	786.19
256.124	847.19
256.357	1014.19
256.59	1194.19
256.823	1135.19
257.056	968.19
257.289	911.19
257.521	993.19
257.754	1145.19
257.987	1281.19
258.22	1118.19
258.452	1026.19
258.685	1161.19
258.918	1289.19
259.151	1231.19
259.383	1303.19
259.616	1498.19
259.849	1559.19
260.081	1714.19
260.314	1898.19
260.547	1456.19
260.779	1471.19
261.012	1704.19
261.244	1627.19
261.477	1612.19
261.71	1541.19
261.942	1273.19
262.175	1284.19
262.407	1229.19
262.64	1272.19
262.872	1508.19
263.105	1657.19
263.337	1697.19
263.57	1534.19
263.802	1033.19
264.035	885.19
264.267	868.19
264.499	776.19
264.732	713.19
264.964	706.19
265.197	728.19
265.429	775.19
265.661	824.19
265.894	867.19
266.126	890.19
266.358	1007.19
266.591	1254.19
266.823	1451.19
267.055	1428.19
267.287	1229.19
267.52	1235.19
267.752	1307.19
267.984	1420.19
268.216	1349.19
268.448	1114.19
268.681	1146.19
268.913	1171.19
269.145	1290.19
269.377	1289.19
269.609	1293.19
269.841	1233.19
270.073	1281.19
270.306	1358.19
270.538	1361.19
270.77	1413.19
271.002	1405.19
271.234	1450.19
271.466	1491.19
271.698	1440.19
271.93	1455.19
272.162	1415.19
272.394	1400.19
272.626	1383.19
272.858	1463.19
273.09	1508.19
273.322	1334.19
273.553	1313.19
273.785	1555.19
274.017	1994.19
274.249	2421.19
274.481	2535.19
274.713	2796.19
274.945	3195.19
275.176	3281.19
275.408	2856.19
275.64	2641.19
275.872	2631.19
276.104	2243.19
276.335	1971.19
276.567	1917.19
276.799	1965.19
277.031	2071.19
277.262	1646.19
277.494	1222.19
277.726	1208.19
277.957	1292.19
278.189	1442.19
278.421	1487.19
278.652	1429.19
278.884	1349.19
279.115	1261.19
279.347	1198.19
279.579	1182.19
279.81	1214.19
280.042	1223.19
280.273	1248.19
280.505	1167.19
280.736	1014.19
280.968	1027.19
281.199	1055.19
281.431	1213.19
281.662	1225.19
281.894	1160.19
282.125	1251.19
282.356	1324.19
282.588	1382.19
282.819	1262.19
283.051	1349.19
283.282	1661.19
283.513	1961.19
283.745	2189.19
283.976	2161.19
284.207	2045.19
284.439	2066.19
284.67	1998.19
284.901	1765.19
285.132	1949.19
285.364	2015.19
285.595	1833.19
285.826	1979.19
286.057	1980.19
286.288	1951.19
286.52	1947.19
286.751	2084.19
286.982	2082.19
287.213	1761.19
287.444	1764.19
287.675	1871.19
287.906	1831.19
288.138	1559.19
288.369	1352.19
288.6	1291.19
288.831	1330.19
289.062	1537.19
289.293	1669.19
289.524	1620.19
289.755	1587.19
289.986	1630.19
290.217	1401.19
290.448	1090.19
290.679	947.19
290.91	897.19
291.141	932.19
291.371	976.19
291.602	1018.19
291.833	962.19
292.064	1070.19
292.295	1253.19
292.526	1368.19
292.757	1468.19
292.987	1557.19
293.218	1539.19
293.449	1555.19
293.68	1687.19
293.91	1614.19
294.141	1605.19
294.372	1498.19
294.603	1398.19
294.833	1608.19
295.064	1825.19
295.295	1720.19
295.525	1338.19
295.756	1118.19
295.987	1007.19
296.217	1019.19
296.448	1036.19
296.679	1108.19
296.909	1280.19
297.14	1310.19
297.37	1426.19
297.601	1362.19
297.831	1173.19
298.062	1258.19
298.292	1448.19
298.523	1588.19
298.753	1824.19
298.984	1594.19
299.214	1252.19
299.445	1078.19
299.675	1041.19
299.905	1066.19
300.136	1083.19
300.366	1178.19
300.597	1162.19
300.827	1016.19
301.057	1005.19
301.288	1011.19
301.518	1092.19
301.748	1233.19
301.979	1330.19
302.209	1448.19
302.439	1501.19
302.669	1271.19
302.9	1251.19
303.13	1111.19
303.36	1113.19
303.59	1053.19
303.82	1101.19
304.051	1254.19
304.281	1360.19
304.511	1263.19
304.741	1117.19
304.971	1210.19
305.201	1296.19
305.431	1231.19
305.661	1092.19
305.891	1086.19
306.121	1096.19
306.352	975.19
306.582	891.19
306.812	869.19
307.042	890.19
307.272	802.19
307.502	803.19
307.731	919.19
307.961	938.19
308.191	872.19
308.421	801.19
308.651	808.19
308.881	769.19
309.111	777.19
309.341	812.19
309.571	894.19
309.8	931.19
310.03	937.19
310.26	1023.19
310.49	969.19
310.72	871.19
310.949	863.19
311.179	886.19
311.409	915.19
311.639	1080.19
311.868	1392.19
312.098	1803.19
312.328	1904.19
312.557	1877.19
312.787	1857.19
313.017	1679.19
313.246	1815.19
313.476	1942.19
313.706	1604.19
313.935	1275.19
314.165	1050.19
314.394	953.19
314.624	989.19
314.853	1020.19
315.083	1062.19
315.312	1026.19
315.542	1030.19
315.771	961.19
316.001	885.19
316.23	844.19
316.46	861.19
316.689	866.19
316.919	899.19
317.148	897.19
317.377	906.19
317.607	894.19
317.836	958.19
318.065	1090.19
318.295	1258.19
318.524	1145.19
318.753	987.19
318.983	926.19
319.212	931.19
319.441	1026.19
319.67	1145.19
319.9	1210.19
320.129	1142.19
320.358	964.19
320.587	947.19
320.816	1027.19
321.046	1200.19
321.275	1347.19
321.504	1364.19
321.733	1307.19
321.962	1207.19
322.191	1169.19
322.42	1094.19
322.649	1173.19
322.878	1246.19
323.108	1236.19
323.337	1104.19
323.566	1102.19
323.795	1061.19
324.024	1000.19
324.253	974.19
324.482	974.19
324.71	1113.19
324.939	1238.19
325.168	1125.19
325.397	955.19
325.626	903.19
325.855	942.19
326.084	934.19
326.313	900.19
326.542	855.19
326.77	879.19
326.999	916.19
327.228	978.19
327.457	1018.19
327.686	1028.19
327.914	905.19
328.143	831.19
328.372	829.19
328.6	860.19
328.829	902.19
329.058	923.19
329.287	907.19
329.515	885.19
329.744	885.19
329.972	839.19
330.201	807.19
330.43	872.19
330.658	981.19
330.887	1104.19
331.115	1034.19
331.344	980.19
331.572	951.19
331.801	886.19
332.03	858.19
332.258	869.19
332.486	948.19
332.715	998.19
332.943	925.19
333.172	950.19
333.4	952.19
333.629	1015.19
333.857	1133.19
334.085	1127.19
334.314	1128.19
334.542	1053.19
334.771	958.19
334.999	917.19
335.227	913.19
335.455	931.19
335.684	1019.19
335.912	1186.19
336.14	1298.19
336.369	1254.19
336.597	1209.19
336.825	1366.19
337.053	1508.19
337.281	1250.19
337.51	993.19
337.738	962.19
337.966	1066.19
338.194	1199.19
338.422	1102.19
338.65	947.19
338.878	880.19
339.106	933.19
339.334	1003.19
339.562	1068.19
339.79	1012.19
340.018	977.19
340.246	1046.19
340.474	1204.19
340.702	1281.19
340.93	1339.19
341.158	1329.19
341.386	1133.19
341.614	1148.19
341.842	1105.19
342.07	1138.19
342.298	1339.19
342.526	1413.19
342.754	1235.19
342.981	1111.19
343.209	1057.19
343.437	1123.19
343.665	1191.19
343.893	1179.19
344.12	1385.19
344.348	1636.19
344.576	1481.19
344.804	1234.19
345.031	1067.19
345.259	988.19
345.487	1012.19
345.714	1012.19
345.942	1101.19
346.17	1188.19
346.397	1133.19
346.625	1007.19
346.853	980.19
347.08	957.19
347.308	999.19
347.535	1121.19
347.763	1167.19
347.99	1007.19
348.218	911.19
348.445	977.19
348.673	951.19
348.9	1005.19
349.128	1066.19
349.355	1098.19
349.583	1088.19
349.81	1024.19
350.037	947.19
350.265	840.19
350.492	827.19
350.72	816.19
350.947	834.19
351.174	895.19
351.402	974.19
351.629	1002.19
351.856	975.19
352.083	889.19
352.311	990.19
352.538	1092.19
352.765	1155.19
352.992	1047.19
353.22	986.19
353.447	1032.19
353.674	981.19
353.901	992.19
354.128	996.19
354.355	1023.19
354.583	997.19
354.81	988.19
355.037	1048.19
355.264	993.19
355.491	1097.19
355.718	1227.19
355.945	1167.19
356.172	1120.19
356.399	1095.19
356.626	1396.19
356.853	1659.19
357.08	1761.19
357.307	1812.19
357.534	1401.19
357.761	1470.19
357.988	1809.19
358.215	2069.19
358.441	2017.19
358.668	1657.19
358.895	1529.19
359.122	1224.19
359.349	1222.19
359.576	1358.19
359.802	1111.19
360.029	966.19
360.256	1055.19
360.483	1323.19
360.709	1658.19
360.936	1687.19
361.163	1497.19
361.39	1158.19
361.616	1084.19
361.843	1251.19
362.07	1561.19
362.296	1386.19
362.523	1101.19
362.749	967.19
362.976	979.19
363.203	1243.19
363.429	1394.19
363.656	1077.19
363.882	1003.19
364.109	1037.19
364.335	1016.19
364.562	994.19
364.788	1161.19
365.015	1375.19
365.241	1187.19
365.468	952.19
365.694	855.19
365.92	809.19
366.147	779.19
366.373	756.19
366.599	783.19
366.826	803.19
367.052	861.19
367.278	843.19
367.505	845.19
367.731	925.19
367.957	1049.19
368.184	1057.19
368.41	1030.19
368.636	1035.19
368.862	1087.19
369.089	1059.19
369.315	923.19
369.541	893.19
369.767	883.19
369.993	847.19
370.219	867.19
370.445	960.19
370.672	1018.19
370.898	1121.19
371.124	1145.19
371.35	991.19
371.576	899.19
371.802	993.19
372.028	1218.19
372.254	1363.19
372.48	1143.19
372.706	1068.19
372.932	1114.19
373.158	1168.19
373.384	1425.19
373.61	1923.19
373.835	1973.19
374.061	1433.19
374.287	1201.19
374.513	1443.19
374.739	1719.19
374.965	1762.19
375.191	1705.19
375.416	1230.19
375.642	1040.19
375.868	1235.19
376.094	1375.19
376.319	1174.19
376.545	1369.19
376.771	1398.19
376.997	1203.19
377.222	894.19
377.448	750.19
377.674	744.19
377.899	749.19
378.125	758.19
378.35	756.19
378.576	795.19
378.802	878.19
379.027	978.19
379.253	916.19
379.478	946.19
379.704	1073.19
379.929	1119.19
380.155	1117.19
380.38	948.19
380.606	1022.19
380.831	1121.19
381.057	1030.19
381.282	988.19
381.507	1209.19
381.733	1482.19
381.958	1619.19
382.184	1705.19
382.409	1749.19
382.634	1732.19
382.86	1854.19
383.085	1494.19
383.31	1151.19
383.535	1261.19
383.761	1277.19
383.986	1162.19
384.211	1449.19
384.436	1427.19
384.662	1066.19
384.887	1013.19
385.112	1063.19
385.337	1082.19
385.562	1027.19
385.787	1138.19
386.013	1269.19
386.238	1302.19
386.463	1043.19
386.688	1009.19
386.913	948.19
387.138	919.19
387.363	947.19
387.588	1013.19
387.813	1009.19
388.038	1145.19
388.263	975.19
388.488	933.19
388.713	1133.19
388.938	1261.19
389.163	1077.19
389.387	926.19
389.612	949.19
389.837	945.19
390.062	997.19
390.287	1023.19
390.512	1024.19
390.736	969.19
390.961	899.19
391.186	877.19
391.411	850.19
391.636	861.19
391.86	948.19
392.085	1014.19
392.31	998.19
392.534	945.19
392.759	973.19
392.984	1005.19
393.208	1005.19
393.433	881.19
393.658	822.19
393.882	791.19
394.107	790.19
394.331	806.19
394.556	805.19
394.78	823.19
395.005	858.19
395.229	879.19
395.454	885.19
395.678	859.19
395.903	920.19
396.127	871.19
396.352	905.19
396.576	989.19
396.801	1007.19
397.025	1111.19
397.249	1135.19
397.474	945.19
397.698	918.19
397.922	965.19
398.147	921.19
398.371	941.19
398.595	965.19
398.82	945.19
399.044	983.19
399.268	1025.19
399.492	1047.19
399.717	1067.19
399.941	1098.19
400.165	1066.19
400.389	1029.19
400.613	1061.19
400.837	1027.19
401.062	935.19
401.286	893.19
401.51	898.19
401.734	929.19
401.958	917.19
402.182	905.19
402.406	906.19
402.63	922.19
402.854	955.19
403.078	1079.19
403.302	1330.19
403.526	1361.19
403.75	1192.19
403.974	1069.19
404.198	1101.19
404.422	1227.19
404.645	1469.19
404.869	1632.19
405.093	1171.19
405.317	1011.19
405.541	962.19
405.765	1024.19
405.988	1001.19
406.212	1145.19
406.436	1317.19
406.66	1479.19
406.883	1137.19
407.107	1194.19
407.331	1391.19
407.555	1332.19
407.778	1092.19
408.002	1067.19
408.226	1054.19
408.449	1067.19
408.673	1047.19
408.896	978.19
409.12	930.19
409.344	924.19
409.567	901.19
409.791	907.19
410.014	893.19
410.238	896.19
410.461	893.19
410.685	901.19
410.908	925.19
411.132	929.19
411.355	935.19
411.578	952.19
411.802	936.19
412.025	996.19
412.249	1013.19
412.472	957.19
412.695	972.19
412.919	964.19
413.142	978.19
413.365	1073.19
413.589	1098.19
413.812	978.19
414.035	921.19
414.258	960.19
414.482	1072.19
414.705	1099.19
414.928	906.19
415.151	882.19
415.374	895.19
415.597	954.19
415.821	923.19
416.044	883.19
416.267	885.19
416.49	867.19
416.713	878.19
416.936	883.19
417.159	871.19
417.382	897.19
417.605	929.19
417.828	921.19
418.051	901.19
418.274	927.19
418.497	928.19
418.72	950.19
418.943	969.19
419.166	1036.19
419.389	1046.19
419.611	1010.19
419.834	1053.19
420.057	1103.19
420.28	1148.19
420.503	1047.19
420.726	939.19
420.948	901.19
421.171	911.19
421.394	906.19
421.617	858.19
421.839	897.19
422.062	929.19
422.285	942.19
422.507	921.19
422.73	952.19
422.953	1001.19
423.175	919.19
423.398	968.19
423.621	1027.19
423.843	1059.19
424.066	983.19
424.288	941.19
424.511	903.19
424.733	931.19
424.956	987.19
425.178	1115.19
425.401	1257.19
425.623	1392.19
425.846	1171.19
426.068	1019.19
426.291	1152.19
426.513	1037.19
426.735	967.19
426.958	989.19
427.18	1190.19
427.402	1565.19
427.625	1482.19
427.847	1201.19
428.069	930.19
428.292	903.19
428.514	920.19
428.736	880.19
428.958	946.19
429.181	1136.19
429.403	982.19
429.625	894.19
429.847	864.19
430.069	919.19
430.292	941.19
430.514	860.19
430.736	941.19
430.958	1213.19
431.18	1103.19
431.402	858.19
431.624	809.19
431.846	786.19
432.068	787.19
432.29	840.19
432.512	938.19
432.734	1274.19
432.956	1164.19
433.178	897.19
433.4	836.19
433.622	841.19
433.844	898.19
434.066	943.19
434.287	928.19
434.509	887.19
434.731	899.19
434.953	856.19
435.175	926.19
435.397	1033.19
435.618	886.19
435.84	831.19
436.062	823.19
436.284	829.19
436.505	798.19
436.727	780.19
436.949	787.19
437.17	849.19
437.392	882.19
437.614	848.19
437.835	828.19
438.057	864.19
438.278	1009.19
438.5	1439.19
438.721	1411.19
438.943	958.19
439.165	821.19
439.386	806.19
439.608	770.19
439.829	809.19
440.05	807.19
440.272	853.19
440.493	1014.19
440.715	1248.19
440.936	1007.19
441.158	865.19
441.379	845.19
441.6	988.19
441.822	1040.19
442.043	887.19
442.264	875.19
442.486	903.19
442.707	874.19
442.928	863.19
443.149	919.19
443.371	891.19
443.592	916.19
443.813	912.19
444.034	894.19
444.255	933.19
444.476	968.19
444.698	933.19
444.919	959.19
445.14	1049.19
445.361	1018.19
445.582	975.19
445.803	921.19
446.024	946.19
446.245	947.19
446.466	891.19
446.687	867.19
446.908	901.19
447.129	851.19
447.35	809.19
447.571	788.19
447.792	806.19
448.013	786.19
448.234	772.19
448.455	799.19
448.675	792.19
448.896	834.19
449.117	788.19
449.338	803.19
449.559	823.19
449.779	880.19
450	879.19
450.221	843.19
450.442	790.19
450.662	777.19
450.883	803.19
451.104	795.19
451.324	819.19
451.545	823.19
451.766	797.19
451.986	779.19
452.207	753.19
452.428	800.19
452.648	790.19
452.869	826.19
453.089	825.19
453.31	853.19
453.53	760.19
453.751	760.19
453.971	737.19
454.192	789.19
454.412	777.19
454.633	765.19
454.853	753.19
455.073	727.19
455.294	724.19
455.514	744.19
455.734	782.19
455.955	809.19
456.175	832.19
456.395	752.19
456.616	715.19
456.836	705.19
457.056	665.19
457.276	683.19
457.497	726.19
457.717	753.19
457.937	702.19
458.157	721.19
458.377	720.19
458.598	736.19
458.818	772.19
459.038	813.19
459.258	827.19
459.478	843.19
459.698	913.19
459.918	898.19
460.138	865.19
460.358	911.19
460.578	852.19
460.798	916.19
461.018	917.19
461.238	831.19
461.458	877.19
461.678	877.19
461.898	932.19
462.118	904.19
462.338	913.19
462.558	955.19
462.777	1030.19
462.997	1026.19
463.217	1023.19
463.437	1037.19
463.657	980.19
463.876	955.19
464.096	963.19
464.316	966.19
464.536	1010.19
464.755	1041.19
464.975	998.19
465.195	963.19
465.414	1000.19
465.634	952.19
465.854	938.19
466.073	879.19
466.293	852.19
466.512	937.19
466.732	1007.19
466.951	1028.19
467.171	921.19
467.391	878.19
467.61	883.19
467.829	948.19
468.049	925.19
468.268	866.19
468.488	912.19
468.707	925.19
468.927	1065.19
469.146	1150.19
469.365	1021.19
469.585	923.19
469.804	1031.19
470.023	1125.19
470.243	979.19
470.462	946.19
470.681	928.19
470.901	942.19
471.12	957.19
471.339	968.19
471.558	911.19
471.777	959.19
471.997	1026.19
472.216	1118.19
472.435	1099.19
472.654	1006.19
472.873	993.19
473.092	1013.19
473.311	1056.19
473.53	948.19
473.749	908.19
473.968	971.19
474.187	964.19
474.406	943.19
474.625	921.19
474.844	952.19
475.063	1030.19
475.282	1065.19
475.501	1080.19
475.72	1110.19
475.939	1081.19
476.158	1116.19
476.377	1275.19
476.596	1427.19
476.814	1521.19
477.033	1248.19
477.252	1057.19
477.471	989.19
477.69	1044.19
477.908	1130.19
478.127	1151.19
478.346	1049.19
478.564	1117.19
478.783	1105.19
479.002	1118.19
479.22	1293.19
479.439	1432.19
479.658	1241.19
479.876	1128.19
480.095	1224.19
480.313	1236.19
480.532	1135.19
480.751	1093.19
480.969	1130.19
481.188	1289.19
481.406	1291.19
481.624	1226.19
481.843	1149.19
482.061	1080.19
482.28	1192.19
482.498	1453.19
482.717	1401.19
482.935	1181.19
483.153	1133.19
483.372	1074.19
483.59	1049.19
483.808	1054.19
484.027	1027.19
484.245	991.19
484.463	983.19
484.681	996.19
484.9	1103.19
485.118	1204.19
485.336	1088.19
485.554	1028.19
485.772	1092.19
485.99	1193.19
486.209	1234.19
486.427	1223.19
486.645	1185.19
486.863	1258.19
487.081	1249.19
487.299	1406.19
487.517	1341.19
487.735	1208.19
487.953	1221.19
488.171	1283.19
488.389	1153.19
488.607	1110.19
488.825	1150.19
489.043	1269.19
489.261	1490.19
489.479	1607.19
489.696	1305.19
489.914	1169.19
490.132	1106.19
490.35	1133.19
490.568	1149.19
490.786	1105.19
491.003	1123.19
491.221	1194.19
491.439	1128.19
491.657	1153.19
491.874	1229.19
492.092	1482.19
492.31	1803.19
492.527	1807.19
492.745	1537.19
492.963	1331.19
493.18	1283.19
493.398	1283.19
493.615	1295.19
493.833	1261.19
