Data from NickelSpatula.Lamp.E5.5.P2_HRD10591_11-51-25-561.txt Node
Date: Tue Jul 23 11:51:25 EDT 2019
User: cochatt
Spectrometer: HR+D1059
Trigger mode: 1
Integration Time (sec): 1.000000E-1
Scans to average: 1
Electric dark correction enabled: true
Nonlinearity correction enabled: false
Boxcar width: 0
XAxis mode: Wavelengths
Number of Pixels in Spectrum: 2048
>>>>>Begin Spectral Data<<<<<
223.165	-23.81
223.4	-23.81
223.635	-23.81
223.869	-8.81
224.104	-10.81
224.338	-17.81
224.573	-10.81
224.808	-23.81
225.042	7.19
225.277	-7.81
225.511	-2.81
225.746	14.19
225.98	7.19
226.215	17.19
226.449	4.19
226.683	15.19
226.918	16.19
227.152	25.19
227.387	33.19
227.621	49.19
227.856	50.19
228.09	49.19
228.324	50.19
228.559	48.19
228.793	66.19
229.027	86.19
229.262	68.19
229.496	68.19
229.73	94.19
229.964	96.19
230.199	93.19
230.433	99.19
230.667	87.19
230.901	102.19
231.136	88.19
231.37	103.19
231.604	104.19
231.838	91.19
232.072	114.19
232.306	100.19
232.541	113.19
232.775	121.19
233.009	107.19
233.243	123.19
233.477	111.19
233.711	122.19
233.945	130.19
234.179	121.19
234.413	128.19
234.647	114.19
234.881	147.19
235.115	117.19
235.349	118.19
235.583	99.19
235.817	108.19
236.051	129.19
236.285	134.19
236.519	145.19
236.753	137.19
236.987	133.19
237.221	127.19
237.455	131.19
237.689	125.19
237.922	145.19
238.156	131.19
238.39	157.19
238.624	170.19
238.858	158.19
239.091	147.19
239.325	149.19
239.559	125.19
239.793	160.19
240.027	173.19
240.26	147.19
240.494	157.19
240.728	145.19
240.961	160.19
241.195	170.19
241.429	168.19
241.662	151.19
241.896	143.19
242.13	135.19
242.363	142.19
242.597	136.19
242.83	141.19
243.064	158.19
243.298	168.19
243.531	161.19
243.765	179.19
243.998	149.19
244.232	154.19
244.465	159.19
244.699	157.19
244.932	163.19
245.166	179.19
245.399	153.19
245.633	158.19
245.866	155.19
246.099	168.19
246.333	178.19
246.566	191.19
246.8	189.19
247.033	185.19
247.266	193.19
247.5	180.19
247.733	187.19
247.966	169.19
248.2	177.19
248.433	195.19
248.666	199.19
248.899	181.19
249.133	208.19
249.366	214.19
249.599	232.19
249.832	210.19
250.066	193.19
250.299	201.19
250.532	184.19
250.765	200.19
250.998	174.19
251.231	168.19
251.465	193.19
251.698	181.19
251.931	198.19
252.164	210.19
252.397	216.19
252.63	234.19
252.863	257.19
253.096	275.19
253.329	248.19
253.562	246.19
253.795	275.19
254.028	314.19
254.261	315.19
254.494	266.19
254.727	250.19
254.96	246.19
255.193	251.19
255.426	246.19
255.659	215.19
255.892	188.19
256.124	214.19
256.357	254.19
256.59	265.19
256.823	276.19
257.056	214.19
257.289	209.19
257.521	242.19
257.754	277.19
257.987	314.19
258.22	256.19
258.452	231.19
258.685	241.19
258.918	287.19
259.151	303.19
259.383	298.19
259.616	334.19
259.849	360.19
260.081	377.19
260.314	403.19
260.547	337.19
260.779	337.19
261.012	395.19
261.244	352.19
261.477	344.19
261.71	330.19
261.942	287.19
262.175	291.19
262.407	279.19
262.64	277.19
262.872	330.19
263.105	356.19
263.337	366.19
263.57	343.19
263.802	245.19
264.035	242.19
264.267	226.19
264.499	214.19
264.732	163.19
264.964	191.19
265.197	190.19
265.429	198.19
265.661	203.19
265.894	205.19
266.126	209.19
266.358	230.19
266.591	257.19
266.823	338.19
267.055	310.19
267.287	270.19
267.52	289.19
267.752	295.19
267.984	317.19
268.216	303.19
268.448	259.19
268.681	249.19
268.913	259.19
269.145	284.19
269.377	291.19
269.609	289.19
269.841	284.19
270.073	296.19
270.306	306.19
270.538	322.19
270.77	323.19
271.002	304.19
271.234	323.19
271.466	331.19
271.698	313.19
271.93	305.19
272.162	315.19
272.394	278.19
272.626	294.19
272.858	319.19
273.09	332.19
273.322	271.19
273.553	261.19
273.785	301.19
274.017	381.19
274.249	479.19
274.481	494.19
274.713	551.19
274.945	615.19
275.176	624.19
275.408	573.19
275.64	515.19
275.872	522.19
276.104	457.19
276.335	391.19
276.567	391.19
276.799	387.19
277.031	436.19
277.262	333.19
277.494	293.19
277.726	268.19
277.957	281.19
278.189	312.19
278.421	315.19
278.652	295.19
278.884	284.19
279.115	265.19
279.347	272.19
279.579	267.19
279.81	284.19
280.042	268.19
280.273	291.19
280.505	275.19
280.736	238.19
280.968	247.19
281.199	239.19
281.431	285.19
281.662	303.19
281.894	272.19
282.125	274.19
282.356	291.19
282.588	321.19
282.819	273.19
283.051	310.19
283.282	340.19
283.513	385.19
283.745	432.19
283.976	434.19
284.207	381.19
284.439	414.19
284.67	396.19
284.901	377.19
285.132	401.19
285.364	411.19
285.595	400.19
285.826	407.19
286.057	415.19
286.288	389.19
286.52	401.19
286.751	421.19
286.982	422.19
287.213	380.19
287.444	351.19
287.675	379.19
287.906	376.19
288.138	336.19
288.369	307.19
288.6	309.19
288.831	312.19
289.062	345.19
289.293	355.19
289.524	353.19
289.755	338.19
289.986	365.19
290.217	325.19
290.448	255.19
290.679	216.19
290.91	218.19
291.141	210.19
291.371	232.19
291.602	233.19
291.833	240.19
292.064	230.19
292.295	267.19
292.526	296.19
292.757	302.19
292.987	347.19
293.218	334.19
293.449	351.19
293.68	369.19
293.91	356.19
294.141	371.19
294.372	350.19
294.603	309.19
294.833	320.19
295.064	395.19
295.295	387.19
295.525	295.19
295.756	255.19
295.987	237.19
296.217	241.19
296.448	241.19
296.679	252.19
296.909	247.19
297.14	298.19
297.37	291.19
297.601	288.19
297.831	265.19
298.062	269.19
298.292	317.19
298.523	314.19
298.753	375.19
298.984	330.19
299.214	273.19
299.445	254.19
299.675	253.19
299.905	240.19
300.136	250.19
300.366	254.19
300.597	265.19
300.827	245.19
301.057	218.19
301.288	222.19
301.518	254.19
301.748	289.19
301.979	303.19
302.209	304.19
302.439	309.19
302.669	273.19
302.9	292.19
303.13	257.19
303.36	240.19
303.59	227.19
303.82	267.19
304.051	262.19
304.281	262.19
304.511	280.19
304.741	275.19
304.971	265.19
305.201	272.19
305.431	253.19
305.661	249.19
305.891	218.19
306.121	235.19
306.352	225.19
306.582	202.19
306.812	192.19
307.042	199.19
307.272	185.19
307.502	191.19
307.731	210.19
307.961	205.19
308.191	201.19
308.421	191.19
308.651	210.19
308.881	185.19
309.111	208.19
309.341	206.19
309.571	209.19
309.8	206.19
310.03	210.19
310.26	235.19
310.49	230.19
310.72	224.19
310.949	215.19
311.179	210.19
311.409	217.19
311.639	241.19
311.868	281.19
312.098	369.19
312.328	408.19
312.557	379.19
312.787	397.19
313.017	346.19
313.246	375.19
313.476	411.19
313.706	333.19
313.935	293.19
314.165	241.19
314.394	214.19
314.624	223.19
314.853	238.19
315.083	238.19
315.312	219.19
315.542	233.19
315.771	206.19
316.001	219.19
316.23	205.19
316.46	208.19
316.689	202.19
316.919	216.19
317.148	227.19
317.377	208.19
317.607	211.19
317.836	206.19
318.065	228.19
318.295	242.19
318.524	247.19
318.753	221.19
318.983	225.19
319.212	222.19
319.441	215.19
319.67	245.19
319.9	249.19
320.129	242.19
320.358	218.19
320.587	201.19
320.816	226.19
321.046	237.19
321.275	275.19
321.504	265.19
321.733	281.19
321.962	261.19
322.191	240.19
322.42	232.19
322.649	232.19
322.878	267.19
323.108	246.19
323.337	230.19
323.566	234.19
323.795	242.19
324.024	219.19
324.253	222.19
324.482	221.19
324.71	241.19
324.939	243.19
325.168	238.19
325.397	215.19
325.626	218.19
325.855	210.19
326.084	208.19
326.313	223.19
326.542	221.19
326.77	213.19
326.999	217.19
327.228	210.19
327.457	221.19
327.686	205.19
327.914	217.19
328.143	206.19
328.372	203.19
328.6	204.19
328.829	227.19
329.058	195.19
329.287	214.19
329.515	214.19
329.744	213.19
329.972	198.19
330.201	198.19
330.43	201.19
330.658	218.19
330.887	239.19
331.115	217.19
331.344	234.19
331.572	230.19
331.801	211.19
332.03	206.19
332.258	229.19
332.486	247.19
332.715	242.19
332.943	213.19
333.172	226.19
333.4	227.19
333.629	263.19
333.857	272.19
334.085	260.19
334.314	252.19
334.542	261.19
334.771	238.19
334.999	229.19
335.227	233.19
335.455	233.19
335.684	225.19
335.912	271.19
336.14	283.19
336.369	273.19
336.597	284.19
336.825	311.19
337.053	326.19
337.281	257.19
337.51	239.19
337.738	230.19
337.966	253.19
338.194	253.19
338.422	267.19
338.65	229.19
338.878	207.19
339.106	209.19
339.334	239.19
339.562	243.19
339.79	234.19
340.018	213.19
340.246	219.19
340.474	242.19
340.702	281.19
340.93	283.19
341.158	279.19
341.386	247.19
341.614	239.19
341.842	242.19
342.07	249.19
342.298	274.19
342.526	288.19
342.754	248.19
342.981	233.19
343.209	233.19
343.437	265.19
343.665	282.19
343.893	273.19
344.12	289.19
344.348	350.19
344.576	324.19
344.804	266.19
345.031	243.19
345.259	228.19
345.487	239.19
345.714	235.19
345.942	243.19
346.17	266.19
346.397	269.19
346.625	220.19
346.853	220.19
347.08	216.19
347.308	224.19
347.535	239.19
347.763	278.19
347.99	233.19
348.218	234.19
348.445	235.19
348.673	246.19
348.9	237.19
349.128	260.19
349.355	230.19
349.583	244.19
349.81	221.19
350.037	223.19
350.265	202.19
350.492	209.19
350.72	191.19
350.947	202.19
351.174	212.19
351.402	226.19
351.629	227.19
351.856	218.19
352.083	206.19
352.311	216.19
352.538	243.19
352.765	252.19
352.992	229.19
353.22	219.19
353.447	234.19
353.674	224.19
353.901	208.19
354.128	215.19
354.355	250.19
354.583	233.19
354.81	249.19
355.037	249.19
355.264	226.19
355.491	221.19
355.718	237.19
355.945	245.19
356.172	233.19
356.399	227.19
356.626	270.19
356.853	323.19
357.08	352.19
357.307	347.19
357.534	276.19
357.761	285.19
357.988	352.19
358.215	395.19
358.441	388.19
358.668	312.19
358.895	305.19
359.122	257.19
359.349	276.19
359.576	301.19
359.802	259.19
360.029	228.19
360.256	239.19
360.483	277.19
360.709	327.19
360.936	338.19
361.163	299.19
361.39	265.19
361.616	222.19
361.843	266.19
362.07	311.19
362.296	265.19
362.523	227.19
362.749	209.19
362.976	223.19
363.203	258.19
363.429	262.19
363.656	251.19
363.882	209.19
364.109	232.19
364.335	239.19
364.562	205.19
364.788	246.19
365.015	268.19
365.241	250.19
365.468	231.19
365.694	198.19
365.92	196.19
366.147	203.19
366.373	190.19
366.599	207.19
366.826	206.19
367.052	190.19
367.278	219.19
367.505	192.19
367.731	221.19
367.957	216.19
368.184	242.19
368.41	240.19
368.636	215.19
368.862	247.19
369.089	223.19
369.315	227.19
369.541	211.19
369.767	213.19
369.993	207.19
370.219	221.19
370.445	212.19
370.672	235.19
370.898	255.19
371.124	254.19
371.35	214.19
371.576	203.19
371.802	223.19
372.028	279.19
372.254	275.19
372.48	256.19
372.706	258.19
372.932	237.19
373.158	241.19
373.384	295.19
373.61	339.19
373.835	373.19
374.061	292.19
374.287	264.19
374.513	286.19
374.739	350.19
374.965	346.19
375.191	337.19
375.416	261.19
375.642	215.19
375.868	243.19
376.094	300.19
376.319	270.19
376.545	265.19
376.771	276.19
376.997	261.19
377.222	221.19
377.448	186.19
377.674	201.19
377.899	177.19
378.125	184.19
378.35	197.19
378.576	196.19
378.802	211.19
379.027	248.19
379.253	210.19
379.478	199.19
379.704	241.19
379.929	252.19
380.155	253.19
380.38	227.19
380.606	241.19
380.831	250.19
381.057	246.19
381.282	226.19
381.507	257.19
381.733	306.19
381.958	325.19
382.184	344.19
382.409	343.19
382.634	345.19
382.86	334.19
383.085	292.19
383.31	265.19
383.535	276.19
383.761	289.19
383.986	273.19
384.211	328.19
384.436	309.19
384.662	232.19
384.887	234.19
385.112	259.19
385.337	253.19
385.562	242.19
385.787	259.19
386.013	258.19
386.238	281.19
386.463	260.19
386.688	226.19
386.913	241.19
387.138	209.19
387.363	220.19
387.588	246.19
387.813	247.19
388.038	259.19
388.263	238.19
388.488	231.19
388.713	263.19
388.938	272.19
389.163	224.19
389.387	213.19
389.612	212.19
389.837	244.19
390.062	234.19
390.287	233.19
390.512	242.19
390.736	225.19
390.961	205.19
391.186	224.19
391.411	221.19
391.636	225.19
391.86	234.19
392.085	244.19
392.31	254.19
392.534	240.19
392.759	237.19
392.984	253.19
393.208	244.19
393.433	217.19
393.658	218.19
393.882	199.19
394.107	203.19
394.331	213.19
394.556	202.19
394.78	210.19
395.005	215.19
395.229	208.19
395.454	214.19
395.678	224.19
395.903	235.19
396.127	201.19
396.352	222.19
396.576	226.19
396.801	227.19
397.025	252.19
397.249	257.19
397.474	243.19
397.698	221.19
397.922	218.19
398.147	228.19
398.371	222.19
398.595	240.19
398.82	247.19
399.044	248.19
399.268	251.19
399.492	278.19
399.717	302.19
399.941	302.19
400.165	266.19
400.389	251.19
400.613	264.19
400.837	251.19
401.062	220.19
401.286	215.19
401.51	207.19
401.734	225.19
401.958	237.19
402.182	229.19
402.406	225.19
402.63	224.19
402.854	262.19
403.078	289.19
403.302	352.19
403.526	385.19
403.75	335.19
403.974	289.19
404.198	282.19
404.422	317.19
404.645	323.19
404.869	335.19
405.093	283.19
405.317	251.19
405.541	246.19
405.765	273.19
405.988	245.19
406.212	283.19
406.436	299.19
406.66	324.19
406.883	270.19
407.107	304.19
407.331	309.19
407.555	318.19
407.778	297.19
408.002	289.19
408.226	275.19
408.449	270.19
408.673	283.19
408.896	267.19
409.12	224.19
409.344	245.19
409.567	233.19
409.791	259.19
410.014	246.19
410.238	240.19
410.461	249.19
410.685	248.19
410.908	228.19
411.132	243.19
411.355	257.19
411.578	231.19
411.802	241.19
412.025	243.19
412.249	243.19
412.472	235.19
412.695	261.19
412.919	236.19
413.142	254.19
413.365	240.19
413.589	250.19
413.812	257.19
414.035	230.19
414.258	243.19
414.482	264.19
414.705	259.19
414.928	233.19
415.151	246.19
415.374	232.19
415.597	236.19
415.821	240.19
416.044	228.19
416.267	229.19
416.49	227.19
416.713	239.19
416.936	220.19
417.159	230.19
417.382	238.19
417.605	233.19
417.828	265.19
418.051	242.19
418.274	222.19
418.497	231.19
418.72	238.19
418.943	270.19
419.166	262.19
419.389	285.19
419.611	265.19
419.834	258.19
420.057	275.19
420.28	242.19
420.503	263.19
420.726	231.19
420.948	245.19
421.171	238.19
421.394	228.19
421.617	237.19
421.839	221.19
422.062	243.19
422.285	226.19
422.507	236.19
422.73	241.19
422.953	220.19
423.175	237.19
423.398	250.19
423.621	258.19
423.843	265.19
424.066	257.19
424.288	251.19
424.511	228.19
424.733	233.19
424.956	249.19
425.178	278.19
425.401	309.19
425.623	346.19
425.846	279.19
426.068	276.19
426.291	246.19
426.513	258.19
426.735	247.19
426.958	256.19
427.18	276.19
427.402	334.19
427.625	354.19
427.847	319.19
428.069	243.19
428.292	226.19
428.514	230.19
428.736	230.19
428.958	258.19
429.181	307.19
429.403	261.19
429.625	232.19
429.847	224.19
430.069	227.19
430.292	228.19
430.514	223.19
430.736	230.19
430.958	296.19
431.18	245.19
431.402	223.19
431.624	234.19
431.846	207.19
432.068	222.19
432.29	217.19
432.512	224.19
432.734	283.19
432.956	279.19
433.178	224.19
433.4	219.19
433.622	219.19
433.844	243.19
434.066	239.19
434.287	240.19
434.509	247.19
434.731	255.19
434.953	226.19
435.175	237.19
435.397	285.19
435.618	222.19
435.84	223.19
436.062	229.19
436.284	238.19
436.505	229.19
436.727	217.19
436.949	227.19
437.17	228.19
437.392	212.19
437.614	213.19
437.835	223.19
438.057	238.19
438.278	242.19
438.5	309.19
438.721	329.19
438.943	229.19
439.165	210.19
439.386	219.19
439.608	208.19
439.829	211.19
440.05	210.19
440.272	215.19
440.493	243.19
440.715	286.19
440.936	254.19
441.158	221.19
441.379	238.19
441.6	240.19
441.822	274.19
442.043	244.19
442.264	238.19
442.486	232.19
442.707	233.19
442.928	241.19
443.149	214.19
443.371	238.19
443.592	245.19
443.813	238.19
444.034	237.19
444.255	244.19
444.476	235.19
444.698	263.19
444.919	270.19
445.14	350.19
445.361	298.19
445.582	255.19
445.803	230.19
446.024	245.19
446.245	251.19
446.466	241.19
446.687	227.19
446.908	232.19
447.129	200.19
447.35	212.19
447.571	217.19
447.792	219.19
448.013	209.19
448.234	213.19
448.455	207.19
448.675	207.19
448.896	214.19
449.117	210.19
449.338	219.19
449.559	215.19
449.779	243.19
450	231.19
450.221	234.19
450.442	238.19
450.662	230.19
450.883	212.19
451.104	217.19
451.324	223.19
451.545	230.19
451.766	211.19
451.986	225.19
452.207	214.19
452.428	202.19
452.648	217.19
452.869	199.19
453.089	209.19
453.31	202.19
453.53	217.19
453.751	193.19
453.971	195.19
454.192	214.19
454.412	210.19
454.633	200.19
454.853	231.19
455.073	194.19
455.294	205.19
455.514	208.19
455.734	221.19
455.955	215.19
456.175	234.19
456.395	205.19
456.616	202.19
456.836	200.19
457.056	191.19
457.276	201.19
457.497	198.19
457.717	193.19
457.937	192.19
458.157	199.19
458.377	211.19
458.598	210.19
458.818	231.19
459.038	209.19
459.258	232.19
459.478	223.19
459.698	246.19
459.918	253.19
460.138	237.19
460.358	242.19
460.578	222.19
460.798	227.19
461.018	248.19
461.238	250.19
461.458	228.19
461.678	256.19
461.898	261.19
462.118	247.19
462.338	251.19
462.558	256.19
462.777	268.19
462.997	286.19
463.217	297.19
463.437	283.19
463.657	277.19
463.876	270.19
464.096	270.19
464.316	277.19
464.536	263.19
464.755	283.19
464.975	273.19
465.195	265.19
465.414	267.19
465.634	261.19
465.854	245.19
466.073	226.19
466.293	238.19
466.512	232.19
466.732	249.19
466.951	268.19
467.171	234.19
467.391	234.19
467.61	211.19
467.829	230.19
468.049	238.19
468.268	218.19
468.488	217.19
468.707	212.19
468.927	257.19
469.146	285.19
469.365	265.19
469.585	230.19
469.804	235.19
470.023	280.19
470.243	238.19
470.462	221.19
470.681	229.19
470.901	230.19
471.12	241.19
471.339	257.19
471.558	230.19
471.777	221.19
471.997	233.19
472.216	266.19
472.435	263.19
472.654	235.19
472.873	239.19
473.092	225.19
473.311	261.19
473.53	238.19
473.749	239.19
473.968	246.19
474.187	232.19
474.406	234.19
474.625	251.19
474.844	237.19
475.063	253.19
475.282	259.19
475.501	269.19
475.72	276.19
475.939	274.19
476.158	279.19
476.377	294.19
476.596	314.19
476.814	338.19
477.033	306.19
477.252	266.19
477.471	235.19
477.69	261.19
477.908	269.19
478.127	281.19
478.346	275.19
478.564	282.19
478.783	280.19
479.002	279.19
479.22	307.19
479.439	330.19
479.658	295.19
479.876	277.19
480.095	303.19
480.313	303.19
480.532	306.19
480.751	283.19
480.969	265.19
481.188	297.19
481.406	312.19
481.624	297.19
481.843	269.19
482.061	275.19
482.28	281.19
482.498	344.19
482.717	327.19
482.935	305.19
483.153	282.19
483.372	251.19
483.59	264.19
483.808	261.19
484.027	269.19
484.245	256.19
484.463	257.19
484.681	255.19
484.9	273.19
485.118	288.19
485.336	261.19
485.554	266.19
485.772	280.19
485.99	293.19
486.209	316.19
486.427	297.19
486.645	301.19
486.863	305.19
487.081	294.19
487.299	321.19
487.517	314.19
487.735	293.19
487.953	295.19
488.171	294.19
488.389	289.19
488.607	275.19
488.825	288.19
489.043	278.19
489.261	304.19
489.479	328.19
489.696	306.19
489.914	272.19
490.132	264.19
490.35	277.19
490.568	286.19
490.786	256.19
491.003	276.19
491.221	271.19
491.439	278.19
491.657	256.19
491.874	286.19
492.092	304.19
492.31	360.19
492.527	354.19
492.745	336.19
492.963	292.19
493.18	280.19
493.398	282.19
493.615	280.19
493.833	281.19
494.05	299.19
494.268	299.19
494.485	285.19
494.703	271.19
494.92	287.19
495.138	277.19
495.355	275.19
495.573	298.19
495.79	304.19
496.008	374.19
496.225	335.19
496.442	313.19
496.66	321.19
496.877	328.19
497.094	316.19
497.312	310.19
497.529	291.19
497.746	289.19
497.963	302.19
498.181	326.19
498.398	350.19
498.615	375.19
498.832	375.19
499.049	413.19
499.267	392.19
499.484	371.19
499.701	417.19
499.918	470.19
500.135	489.19
500.352	528.19
500.569	534.19
500.786	563.19
501.003	549.19
501.22	481.19
501.437	435.19
501.654	398.19
501.871	379.19
502.088	375.19
502.305	341.19
502.522	365.19
