Data from NickelSpatula_HRD10591_16-36-33-127.txt Node
Date: Mon Jul 22 16:36:33 EDT 2019
User: cochatt
Spectrometer: HR+D1059
Trigger mode: 1
Integration Time (sec): 1.000000E-1
Scans to average: 1
Electric dark correction enabled: true
Nonlinearity correction enabled: false
Boxcar width: 0
XAxis mode: Wavelengths
Number of Pixels in Spectrum: 2048
>>>>>Begin Spectral Data<<<<<
223.165	-8.62
223.4	-8.62
223.635	-8.62
223.869	-21.62
224.104	-21.62
224.338	-5.62
224.573	-16.62
224.808	-19.62
225.042	-12.62
225.277	3.38
225.511	-10.62
225.746	7.38
225.98	10.38
226.215	14.38
226.449	11.38
226.683	15.38
226.918	22.38
227.152	32.38
227.387	28.38
227.621	37.38
227.856	36.38
228.09	54.38
228.324	41.38
228.559	57.38
228.793	77.38
229.027	64.38
229.262	64.38
229.496	90.38
229.73	73.38
229.964	61.38
230.199	80.38
230.433	88.38
230.667	82.38
230.901	71.38
231.136	82.38
231.37	112.38
231.604	89.38
231.838	94.38
232.072	96.38
232.306	82.38
232.541	84.38
232.775	74.38
233.009	101.38
233.243	82.38
233.477	96.38
233.711	94.38
233.945	109.38
234.179	97.38
234.413	110.38
234.647	92.38
234.881	100.38
235.115	100.38
235.349	95.38
235.583	96.38
235.817	92.38
236.051	83.38
236.285	100.38
236.519	92.38
236.753	101.38
236.987	88.38
237.221	70.38
237.455	100.38
237.689	87.38
237.922	96.38
238.156	80.38
238.39	93.38
238.624	94.38
238.858	101.38
239.091	92.38
239.325	106.38
239.559	100.38
239.793	99.38
240.027	112.38
240.26	95.38
240.494	103.38
240.728	88.38
240.961	101.38
241.195	107.38
241.429	106.38
241.662	100.38
241.896	108.38
242.13	88.38
242.363	85.38
242.597	96.38
242.83	106.38
243.064	112.38
243.298	111.38
243.531	97.38
243.765	116.38
243.998	101.38
244.232	111.38
244.465	104.38
244.699	92.38
244.932	113.38
245.166	107.38
245.399	96.38
245.633	86.38
245.866	87.38
246.099	83.38
246.333	117.38
246.566	120.38
246.8	104.38
247.033	102.38
247.266	107.38
247.5	103.38
247.733	100.38
247.966	112.38
248.2	107.38
248.433	106.38
248.666	114.38
248.899	95.38
249.133	113.38
249.366	119.38
249.599	123.38
249.832	116.38
250.066	104.38
250.299	105.38
250.532	122.38
250.765	124.38
250.998	104.38
251.231	103.38
251.465	93.38
251.698	100.38
251.931	100.38
252.164	114.38
252.397	102.38
252.63	117.38
252.863	129.38
253.096	121.38
253.329	130.38
253.562	124.38
253.795	130.38
254.028	139.38
254.261	124.38
254.494	127.38
254.727	127.38
254.96	121.38
255.193	136.38
255.426	117.38
255.659	104.38
255.892	112.38
256.124	111.38
256.357	123.38
256.59	130.38
256.823	124.38
257.056	115.38
257.289	108.38
257.521	123.38
257.754	128.38
257.987	132.38
258.22	125.38
258.452	121.38
258.685	122.38
258.918	123.38
259.151	134.38
259.383	143.38
259.616	156.38
259.849	143.38
260.081	162.38
260.314	160.38
260.547	147.38
260.779	139.38
261.012	145.38
261.244	144.38
261.477	145.38
261.71	150.38
261.942	143.38
262.175	133.38
262.407	130.38
262.64	125.38
262.872	142.38
263.105	148.38
263.337	166.38
263.57	137.38
263.802	123.38
264.035	125.38
264.267	119.38
264.499	106.38
264.732	107.38
264.964	108.38
265.197	110.38
265.429	129.38
265.661	121.38
265.894	108.38
266.126	108.38
266.358	126.38
266.591	124.38
266.823	137.38
267.055	139.38
267.287	123.38
267.52	134.38
267.752	148.38
267.984	150.38
268.216	122.38
268.448	126.38
268.681	124.38
268.913	149.38
269.145	133.38
269.377	133.38
269.609	136.38
269.841	145.38
270.073	133.38
270.306	138.38
270.538	121.38
270.77	135.38
271.002	136.38
271.234	144.38
271.466	137.38
271.698	129.38
271.93	123.38
272.162	135.38
272.394	132.38
272.626	144.38
272.858	148.38
273.09	139.38
273.322	131.38
273.553	131.38
273.785	137.38
274.017	149.38
274.249	173.38
274.481	166.38
274.713	193.38
274.945	199.38
275.176	236.38
275.408	216.38
275.64	196.38
275.872	175.38
276.104	160.38
276.335	162.38
276.567	153.38
276.799	155.38
277.031	169.38
277.262	133.38
277.494	134.38
277.726	135.38
277.957	125.38
278.189	138.38
278.421	137.38
278.652	127.38
278.884	135.38
279.115	123.38
279.347	142.38
279.579	130.38
279.81	132.38
280.042	134.38
280.273	126.38
280.505	131.38
280.736	121.38
280.968	115.38
281.199	122.38
281.431	141.38
281.662	136.38
281.894	131.38
282.125	140.38
282.356	137.38
282.588	149.38
282.819	130.38
283.051	131.38
283.282	141.38
283.513	169.38
283.745	176.38
283.976	161.38
284.207	169.38
284.439	145.38
284.67	167.38
284.901	142.38
285.132	160.38
285.364	161.38
285.595	157.38
285.826	172.38
286.057	172.38
286.288	156.38
286.52	148.38
286.751	159.38
286.982	137.38
287.213	153.38
287.444	151.38
287.675	164.38
287.906	149.38
288.138	137.38
288.369	124.38
288.6	140.38
288.831	145.38
289.062	153.38
289.293	171.38
289.524	131.38
289.755	135.38
289.986	139.38
290.217	141.38
290.448	145.38
290.679	131.38
290.91	127.38
291.141	114.38
291.371	131.38
291.602	120.38
291.833	106.38
292.064	123.38
292.295	133.38
292.526	134.38
292.757	127.38
292.987	136.38
293.218	137.38
293.449	146.38
293.68	156.38
293.91	142.38
294.141	159.38
294.372	133.38
294.603	149.38
294.833	153.38
295.064	159.38
295.295	142.38
295.525	137.38
295.756	135.38
295.987	122.38
296.217	112.38
296.448	120.38
296.679	117.38
296.909	119.38
297.14	134.38
297.37	151.38
297.601	129.38
297.831	124.38
298.062	132.38
298.292	141.38
298.523	152.38
298.753	133.38
298.984	127.38
299.214	119.38
299.445	111.38
299.675	116.38
299.905	124.38
300.136	111.38
300.366	128.38
300.597	121.38
300.827	121.38
301.057	105.38
301.288	105.38
301.518	102.38
301.748	114.38
301.979	119.38
302.209	127.38
302.439	116.38
302.669	115.38
302.9	112.38
303.13	106.38
303.36	109.38
303.59	113.38
303.82	113.38
304.051	122.38
304.281	141.38
304.511	136.38
304.741	121.38
304.971	112.38
305.201	129.38
305.431	123.38
305.661	123.38
305.891	113.38
306.121	123.38
306.352	123.38
306.582	114.38
306.812	107.38
307.042	111.38
307.272	113.38
307.502	105.38
307.731	105.38
307.961	123.38
308.191	121.38
308.421	104.38
308.651	103.38
308.881	97.38
309.111	101.38
309.341	100.38
309.571	115.38
309.8	113.38
310.03	112.38
310.26	117.38
310.49	117.38
310.72	97.38
310.949	125.38
311.179	119.38
311.409	108.38
311.639	122.38
311.868	136.38
312.098	156.38
312.328	145.38
312.557	150.38
312.787	148.38
313.017	149.38
313.246	156.38
313.476	147.38
313.706	136.38
313.935	141.38
314.165	108.38
314.394	96.38
314.624	104.38
314.853	116.38
315.083	107.38
315.312	114.38
315.542	121.38
315.771	115.38
316.001	109.38
316.23	108.38
316.46	99.38
316.689	105.38
316.919	100.38
317.148	98.38
317.377	106.38
317.607	98.38
317.836	107.38
318.065	99.38
318.295	128.38
318.524	123.38
318.753	108.38
318.983	127.38
319.212	121.38
319.441	119.38
319.67	101.38
319.9	123.38
320.129	105.38
320.358	115.38
320.587	116.38
320.816	124.38
321.046	122.38
321.275	115.38
321.504	129.38
321.733	117.38
321.962	108.38
322.191	123.38
322.42	109.38
322.649	137.38
322.878	127.38
323.108	111.38
323.337	118.38
323.566	122.38
323.795	115.38
324.024	112.38
324.253	109.38
324.482	109.38
324.71	119.38
324.939	120.38
325.168	105.38
325.397	97.38
325.626	112.38
325.855	94.38
326.084	123.38
326.313	109.38
326.542	120.38
326.77	95.38
326.999	116.38
327.228	116.38
327.457	117.38
327.686	128.38
327.914	113.38
328.143	117.38
328.372	101.38
328.6	108.38
328.829	112.38
329.058	108.38
329.287	118.38
329.515	101.38
329.744	113.38
329.972	117.38
330.201	105.38
330.43	100.38
330.658	119.38
330.887	123.38
331.115	118.38
331.344	122.38
331.572	107.38
331.801	97.38
332.03	99.38
332.258	105.38
332.486	114.38
332.715	117.38
332.943	113.38
333.172	103.38
333.4	113.38
333.629	128.38
333.857	135.38
334.085	108.38
334.314	112.38
334.542	129.38
334.771	122.38
334.999	112.38
335.227	103.38
335.455	113.38
335.684	117.38
335.912	124.38
336.14	132.38
336.369	117.38
336.597	117.38
336.825	128.38
337.053	153.38
337.281	125.38
337.51	108.38
337.738	113.38
337.966	124.38
338.194	130.38
338.422	124.38
338.65	116.38
338.878	111.38
339.106	115.38
339.334	109.38
339.562	128.38
339.79	127.38
340.018	124.38
340.246	114.38
340.474	105.38
340.702	118.38
340.93	122.38
341.158	105.38
341.386	100.38
341.614	113.38
341.842	125.38
342.07	123.38
342.298	136.38
342.526	147.38
342.754	116.38
342.981	106.38
343.209	115.38
343.437	115.38
343.665	104.38
343.893	103.38
344.12	122.38
344.348	137.38
344.576	135.38
344.804	118.38
345.031	119.38
345.259	112.38
345.487	107.38
345.714	119.38
345.942	123.38
346.17	123.38
346.397	123.38
346.625	126.38
346.853	119.38
347.08	112.38
347.308	118.38
347.535	121.38
347.763	112.38
347.99	97.38
348.218	107.38
348.445	102.38
348.673	120.38
348.9	109.38
349.128	108.38
349.355	122.38
349.583	116.38
349.81	117.38
350.037	115.38
350.265	121.38
350.492	100.38
350.72	110.38
350.947	113.38
351.174	108.38
351.402	115.38
351.629	119.38
351.856	117.38
352.083	99.38
352.311	120.38
352.538	92.38
352.765	104.38
352.992	104.38
353.22	108.38
353.447	116.38
353.674	113.38
353.901	112.38
354.128	99.38
354.355	104.38
354.583	103.38
354.81	95.38
355.037	119.38
355.264	119.38
355.491	109.38
355.718	110.38
355.945	117.38
356.172	100.38
356.399	117.38
356.626	129.38
356.853	137.38
357.08	144.38
357.307	139.38
357.534	119.38
357.761	128.38
357.988	137.38
358.215	138.38
358.441	126.38
358.668	123.38
358.895	123.38
359.122	108.38
359.349	119.38
359.576	114.38
359.802	109.38
360.029	123.38
360.256	108.38
360.483	122.38
360.709	128.38
360.936	142.38
361.163	117.38
361.39	112.38
361.616	106.38
361.843	114.38
362.07	127.38
362.296	119.38
362.523	116.38
362.749	108.38
362.976	121.38
363.203	120.38
363.429	114.38
363.656	99.38
363.882	121.38
364.109	116.38
364.335	117.38
364.562	94.38
364.788	117.38
365.015	121.38
365.241	120.38
365.468	118.38
365.694	116.38
365.92	100.38
366.147	103.38
366.373	111.38
366.599	89.38
366.826	98.38
367.052	99.38
367.278	113.38
367.505	101.38
367.731	111.38
367.957	117.38
368.184	114.38
368.41	115.38
368.636	115.38
368.862	120.38
369.089	119.38
369.315	96.38
369.541	115.38
369.767	111.38
369.993	102.38
370.219	109.38
370.445	105.38
370.672	104.38
370.898	109.38
371.124	123.38
371.35	99.38
371.576	111.38
371.802	106.38
372.028	102.38
372.254	118.38
372.48	115.38
372.706	123.38
372.932	108.38
373.158	112.38
373.384	131.38
373.61	151.38
373.835	135.38
374.061	131.38
374.287	123.38
374.513	107.38
374.739	122.38
374.965	139.38
375.191	123.38
375.416	115.38
375.642	98.38
375.868	123.38
376.094	119.38
376.319	113.38
376.545	114.38
376.771	116.38
376.997	114.38
377.222	107.38
377.448	107.38
377.674	114.38
377.899	102.38
378.125	85.38
378.35	87.38
378.576	105.38
378.802	101.38
379.027	110.38
379.253	110.38
379.478	116.38
379.704	124.38
379.929	123.38
380.155	107.38
380.38	120.38
380.606	118.38
380.831	117.38
381.057	126.38
381.282	118.38
381.507	121.38
381.733	122.38
381.958	126.38
382.184	131.38
382.409	136.38
382.634	131.38
382.86	131.38
383.085	137.38
383.31	107.38
383.535	128.38
383.761	125.38
383.986	119.38
384.211	145.38
384.436	120.38
384.662	124.38
384.887	122.38
385.112	115.38
385.337	126.38
385.562	116.38
385.787	117.38
386.013	127.38
386.238	132.38
386.463	127.38
386.688	124.38
386.913	106.38
387.138	100.38
387.363	122.38
387.588	108.38
387.813	113.38
388.038	114.38
388.263	100.38
388.488	120.38
388.713	127.38
388.938	133.38
389.163	123.38
389.387	112.38
389.612	111.38
389.837	117.38
390.062	112.38
390.287	114.38
390.512	119.38
390.736	132.38
390.961	113.38
391.186	114.38
391.411	100.38
391.636	102.38
391.86	105.38
392.085	114.38
392.31	108.38
392.534	109.38
392.759	131.38
392.984	107.38
393.208	125.38
393.433	117.38
393.658	124.38
393.882	96.38
394.107	103.38
394.331	101.38
394.556	107.38
394.78	111.38
395.005	103.38
395.229	117.38
395.454	115.38
395.678	112.38
395.903	104.38
396.127	92.38
396.352	114.38
396.576	108.38
396.801	123.38
397.025	117.38
397.249	112.38
397.474	116.38
397.698	112.38
397.922	117.38
398.147	116.38
398.371	107.38
398.595	106.38
398.82	114.38
399.044	121.38
399.268	121.38
399.492	125.38
399.717	120.38
399.941	110.38
400.165	127.38
400.389	120.38
400.613	120.38
400.837	126.38
401.062	117.38
401.286	104.38
401.51	101.38
401.734	108.38
401.958	106.38
402.182	113.38
402.406	114.38
402.63	117.38
402.854	125.38
403.078	120.38
403.302	123.38
403.526	130.38
403.75	127.38
403.974	114.38
404.198	121.38
404.422	125.38
404.645	134.38
404.869	121.38
405.093	131.38
405.317	114.38
405.541	122.38
405.765	106.38
405.988	123.38
406.212	121.38
406.436	132.38
406.66	139.38
406.883	120.38
407.107	135.38
407.331	135.38
407.555	114.38
407.778	119.38
408.002	119.38
408.226	120.38
408.449	110.38
408.673	113.38
408.896	105.38
409.12	93.38
409.344	107.38
409.567	106.38
409.791	123.38
410.014	108.38
410.238	119.38
410.461	94.38
410.685	117.38
410.908	111.38
411.132	113.38
411.355	122.38
411.578	113.38
411.802	124.38
412.025	105.38
412.249	125.38
412.472	120.38
412.695	120.38
412.919	113.38
413.142	111.38
413.365	109.38
413.589	122.38
413.812	128.38
414.035	117.38
414.258	112.38
414.482	124.38
414.705	125.38
414.928	124.38
415.151	128.38
415.374	115.38
415.597	120.38
415.821	117.38
416.044	109.38
416.267	127.38
416.49	114.38
416.713	121.38
416.936	123.38
417.159	110.38
417.382	112.38
417.605	116.38
417.828	122.38
418.051	109.38
418.274	123.38
418.497	114.38
418.72	124.38
418.943	99.38
419.166	117.38
419.389	116.38
419.611	123.38
419.834	112.38
420.057	127.38
420.28	137.38
420.503	117.38
420.726	111.38
420.948	120.38
421.171	113.38
421.394	116.38
421.617	103.38
421.839	118.38
422.062	107.38
422.285	106.38
422.507	121.38
422.73	121.38
422.953	121.38
423.175	116.38
423.398	119.38
423.621	117.38
423.843	128.38
424.066	119.38
424.288	123.38
424.511	108.38
424.733	114.38
424.956	114.38
425.178	131.38
425.401	128.38
425.623	130.38
425.846	129.38
426.068	124.38
426.291	107.38
426.513	123.38
426.735	121.38
426.958	115.38
427.18	139.38
427.402	127.38
427.625	132.38
427.847	122.38
428.069	105.38
428.292	115.38
428.514	111.38
428.736	117.38
428.958	120.38
429.181	127.38
429.403	123.38
429.625	120.38
429.847	115.38
430.069	103.38
430.292	127.38
430.514	123.38
430.736	123.38
430.958	115.38
431.18	130.38
431.402	115.38
431.624	104.38
431.846	118.38
432.068	108.38
432.29	107.38
432.512	120.38
432.734	121.38
432.956	120.38
433.178	106.38
433.4	113.38
433.622	116.38
433.844	124.38
434.066	120.38
434.287	109.38
434.509	114.38
434.731	129.38
434.953	122.38
435.175	110.38
435.397	118.38
435.618	114.38
435.84	109.38
436.062	104.38
436.284	113.38
436.505	122.38
436.727	115.38
436.949	108.38
437.17	116.38
437.392	105.38
437.614	107.38
437.835	121.38
438.057	103.38
438.278	133.38
438.5	137.38
438.721	124.38
438.943	130.38
439.165	120.38
439.386	125.38
439.608	115.38
439.829	110.38
440.05	133.38
440.272	121.38
440.493	125.38
440.715	136.38
440.936	119.38
441.158	130.38
441.379	124.38
441.6	115.38
441.822	124.38
442.043	111.38
442.264	116.38
442.486	103.38
442.707	110.38
442.928	109.38
443.149	122.38
443.371	120.38
443.592	107.38
443.813	123.38
444.034	117.38
444.255	123.38
444.476	117.38
444.698	131.38
444.919	123.38
445.14	251.38
445.361	172.38
445.582	111.38
445.803	119.38
446.024	122.38
446.245	119.38
446.466	124.38
446.687	108.38
446.908	116.38
447.129	122.38
447.35	105.38
447.571	111.38
447.792	114.38
448.013	113.38
448.234	91.38
448.455	104.38
448.675	112.38
448.896	120.38
449.117	125.38
449.338	112.38
449.559	121.38
449.779	119.38
450	124.38
450.221	136.38
450.442	118.38
450.662	118.38
450.883	109.38
451.104	116.38
451.324	100.38
451.545	124.38
451.766	120.38
451.986	117.38
452.207	115.38
452.428	102.38
452.648	118.38
452.869	115.38
453.089	115.38
453.31	108.38
453.53	102.38
453.751	112.38
453.971	107.38
454.192	101.38
454.412	114.38
454.633	111.38
454.853	110.38
455.073	102.38
455.294	108.38
455.514	104.38
455.734	109.38
455.955	118.38
456.175	110.38
456.395	113.38
456.616	103.38
456.836	110.38
457.056	107.38
457.276	121.38
457.497	117.38
457.717	107.38
457.937	107.38
458.157	106.38
458.377	116.38
458.598	109.38
458.818	110.38
459.038	103.38
459.258	100.38
459.478	128.38
459.698	113.38
459.918	118.38
460.138	113.38
460.358	111.38
460.578	123.38
460.798	118.38
461.018	105.38
461.238	118.38
461.458	130.38
461.678	123.38
461.898	117.38
462.118	120.38
462.338	120.38
462.558	129.38
462.777	124.38
462.997	123.38
463.217	125.38
463.437	120.38
463.657	107.38
463.876	112.38
464.096	124.38
464.316	130.38
464.536	122.38
464.755	121.38
464.975	120.38
465.195	125.38
465.414	123.38
465.634	125.38
465.854	120.38
466.073	109.38
466.293	119.38
466.512	131.38
466.732	117.38
466.951	134.38
467.171	116.38
467.391	107.38
467.61	125.38
467.829	108.38
468.049	127.38
468.268	105.38
468.488	107.38
468.707	120.38
468.927	124.38
469.146	135.38
469.365	119.38
469.585	125.38
469.804	102.38
470.023	134.38
470.243	114.38
470.462	117.38
470.681	116.38
470.901	112.38
471.12	131.38
471.339	118.38
471.558	113.38
471.777	116.38
471.997	111.38
472.216	107.38
472.435	119.38
472.654	127.38
472.873	116.38
473.092	120.38
473.311	125.38
473.53	121.38
473.749	128.38
473.968	133.38
474.187	118.38
474.406	114.38
474.625	112.38
474.844	117.38
475.063	118.38
475.282	119.38
475.501	128.38
475.72	140.38
475.939	138.38
476.158	135.38
476.377	137.38
476.596	141.38
476.814	160.38
477.033	149.38
477.252	121.38
477.471	124.38
477.69	124.38
477.908	126.38
478.127	123.38
478.346	123.38
478.564	127.38
478.783	116.38
479.002	125.38
479.22	136.38
479.439	145.38
479.658	142.38
479.876	115.38
480.095	119.38
480.313	127.38
480.532	120.38
480.751	131.38
480.969	125.38
481.188	124.38
481.406	129.38
481.624	131.38
481.843	110.38
482.061	114.38
482.28	142.38
482.498	132.38
482.717	148.38
482.935	137.38
483.153	125.38
483.372	140.38
483.59	124.38
483.808	124.38
484.027	120.38
484.245	127.38
484.463	129.38
484.681	122.38
484.9	127.38
485.118	133.38
485.336	124.38
485.554	119.38
485.772	133.38
485.99	131.38
486.209	140.38
486.427	137.38
486.645	129.38
486.863	130.38
487.081	134.38
487.299	146.38
487.517	139.38
487.735	130.38
487.953	134.38
488.171	147.38
488.389	123.38
488.607	131.38
488.825	119.38
489.043	149.38
489.261	148.38
489.479	142.38
489.696	133.38
489.914	133.38
490.132	118.38
490.35	131.38
490.568	125.38
490.786	121.38
491.003	135.38
491.221	121.38
491.439	132.38
491.657	125.38
491.874	122.38
492.092	133.38
492.31	154.38
492.527	155.38
492.745	134.38
492.963	129.38
493.18	130.38
493.398	138.38
493.615	150.38
493.833	127.38
494.05	132.38
494.268	125.38
494.485	124.38
494.703	122.38
494.92	133.38
495.138	142.38
495.355	134.38
495.573	133.38
495.79	135.38
496.008	135.38
496.225	139.38
496.442	132.38
496.66	145.38
496.877	141.38
497.094	154.38
497.312	139.38
497.529	124.38
497.746	145.38
497.963	135.38
498.181	139.38
498.398	160.38
498.615	153.38
498.832	155.38
499.049	162.38
499.267	141.38
499.484	146.38
499.701	143.38
499.918	161.38
500.135	168.38
500.352	155.38
500.569	177.38
500.786	172.38
501.003	174.38
501.22	165.38
501.437	168.38
501.654	157.38
501.871	161.38
502.088	153.38
502.305	159.38
502.522	152.38
502.739	152.38
502.956	152.38
503.172	156.38
503.389	139.38
503.606	149.38
