Data from NickelSpatula.Lamp.E10.P2_HRD10591_11-59-56-524.txt Node
Date: Tue Jul 23 11:59:56 EDT 2019
User: cochatt
Spectrometer: HR+D1059
Trigger mode: 1
Integration Time (sec): 1.000000E-1
Scans to average: 1
Electric dark correction enabled: true
Nonlinearity correction enabled: false
Boxcar width: 0
XAxis mode: Wavelengths
Number of Pixels in Spectrum: 2048
>>>>>Begin Spectral Data<<<<<
223.165	-17.31
223.4	-17.31
223.635	-17.31
223.869	-33.31
224.104	-22.31
224.338	-15.31
224.573	-9.31
224.808	-11.31
225.042	10.69
225.277	-6.31
225.511	1.69
225.746	0.69
225.98	-9.31
226.215	-0.31
226.449	15.69
226.683	25.69
226.918	40.69
227.152	29.69
227.387	37.69
227.621	51.69
227.856	60.69
228.09	45.69
228.324	43.69
228.559	68.69
228.793	102.69
229.027	151.69
229.262	178.69
229.496	157.69
229.73	163.69
229.964	207.69
230.199	216.69
230.433	204.69
230.667	205.69
230.901	199.69
231.136	207.69
231.37	211.69
231.604	237.69
231.838	229.69
232.072	264.69
232.306	261.69
232.541	255.69
232.775	250.69
233.009	288.69
233.243	305.69
233.477	301.69
233.711	360.69
233.945	353.69
234.179	349.69
234.413	361.69
234.647	395.69
234.881	469.69
235.115	446.69
235.349	410.69
235.583	365.69
235.817	353.69
236.051	377.69
236.285	423.69
236.519	480.69
236.753	465.69
236.987	432.69
237.221	417.69
237.455	435.69
237.689	453.69
237.922	474.69
238.156	487.69
238.39	571.69
238.624	679.69
238.858	607.69
239.091	490.69
239.325	528.69
239.559	499.69
239.793	560.69
240.027	665.69
240.26	618.69
240.494	592.69
240.728	587.69
240.961	693.69
241.195	671.69
241.429	658.69
241.662	627.69
241.896	542.69
242.13	498.69
242.363	447.69
242.597	511.69
242.83	553.69
243.064	552.69
243.298	595.69
243.531	655.69
243.765	647.69
243.998	652.69
244.232	623.69
244.465	627.69
244.699	581.69
244.932	693.69
245.166	635.69
245.399	559.69
245.633	554.69
245.866	594.69
246.099	613.69
246.333	765.69
246.566	782.69
246.8	802.69
247.033	771.69
247.266	703.69
247.5	712.69
247.733	697.69
247.966	671.69
248.2	727.69
248.433	785.69
248.666	863.69
248.899	863.69
249.133	897.69
249.366	1013.69
249.599	1093.69
249.832	951.69
250.066	819.69
250.299	867.69
250.532	826.69
250.765	822.69
250.998	760.69
251.231	740.69
251.465	820.69
251.698	883.69
251.931	821.69
252.164	868.69
252.397	978.69
252.63	1071.69
252.863	1221.69
253.096	1279.69
253.329	1176.69
253.562	1143.69
253.795	1287.69
254.028	1400.69
254.261	1427.69
254.494	1264.69
254.727	1207.69
254.96	1167.69
255.193	1222.69
255.426	1165.69
255.659	880.69
255.892	840.69
256.124	900.69
256.357	1072.69
256.59	1232.69
256.823	1169.69
257.056	1012.69
257.289	932.69
257.521	979.69
257.754	1174.69
257.987	1296.69
258.22	1163.69
258.452	1067.69
258.685	1191.69
258.918	1313.69
259.151	1279.69
259.383	1334.69
259.616	1523.69
259.849	1613.69
260.081	1781.69
260.314	1944.69
260.547	1497.69
260.779	1493.69
261.012	1749.69
261.244	1660.69
261.477	1661.69
261.71	1533.69
261.942	1336.69
262.175	1377.69
262.407	1322.69
262.64	1312.69
262.872	1576.69
263.105	1719.69
263.337	1797.69
263.57	1606.69
263.802	1092.69
264.035	912.69
264.267	891.69
264.499	797.69
264.732	747.69
264.964	707.69
265.197	736.69
265.429	800.69
265.661	820.69
265.894	870.69
266.126	916.69
266.358	1050.69
266.591	1265.69
266.823	1557.69
267.055	1432.69
267.287	1268.69
267.52	1292.69
267.752	1357.69
267.984	1482.69
268.216	1405.69
268.448	1153.69
268.681	1134.69
268.913	1208.69
269.145	1297.69
269.377	1355.69
269.609	1338.69
269.841	1255.69
270.073	1321.69
270.306	1385.69
270.538	1421.69
270.77	1444.69
271.002	1427.69
271.234	1506.69
271.466	1535.69
271.698	1461.69
271.93	1448.69
272.162	1520.69
272.394	1498.69
272.626	1460.69
272.858	1500.69
273.09	1566.69
273.322	1314.69
273.553	1316.69
273.785	1527.69
274.017	2063.69
274.249	2503.69
274.481	2635.69
274.713	2849.69
274.945	3279.69
275.176	3382.69
275.408	2989.69
275.64	2721.69
275.872	2747.69
276.104	2297.69
276.335	1976.69
276.567	2011.69
276.799	2034.69
277.031	2105.69
277.262	1693.69
277.494	1267.69
277.726	1194.69
277.957	1355.69
278.189	1514.69
278.421	1508.69
278.652	1507.69
278.884	1417.69
279.115	1304.69
279.347	1240.69
279.579	1226.69
279.81	1237.69
280.042	1232.69
280.273	1278.69
280.505	1162.69
280.736	1037.69
280.968	1031.69
281.199	1089.69
281.431	1256.69
281.662	1246.69
281.894	1205.69
282.125	1269.69
282.356	1357.69
282.588	1414.69
282.819	1254.69
283.051	1435.69
283.282	1736.69
283.513	1979.69
283.745	2230.69
283.976	2246.69
284.207	2120.69
284.439	2154.69
284.67	2096.69
284.901	1857.69
285.132	1991.69
285.364	2097.69
285.595	1940.69
285.826	2027.69
286.057	2119.69
286.288	2040.69
286.52	2060.69
286.751	2187.69
286.982	2157.69
287.213	1859.69
287.444	1797.69
287.675	1918.69
287.906	1875.69
288.138	1596.69
288.369	1400.69
288.6	1291.69
288.831	1357.69
289.062	1581.69
289.293	1729.69
289.524	1669.69
289.755	1624.69
289.986	1687.69
290.217	1470.69
290.448	1120.69
290.679	981.69
290.91	926.69
291.141	947.69
291.371	992.69
291.602	972.69
291.833	1023.69
292.064	1065.69
292.295	1242.69
292.526	1425.69
292.757	1525.69
292.987	1592.69
293.218	1632.69
293.449	1641.69
293.68	1715.69
293.91	1635.69
294.141	1645.69
294.372	1528.69
294.603	1464.69
294.833	1639.69
295.064	1878.69
295.295	1784.69
295.525	1370.69
295.756	1181.69
295.987	1031.69
296.217	1033.69
296.448	1053.69
296.679	1102.69
296.909	1236.69
297.14	1355.69
297.37	1485.69
297.601	1405.69
297.831	1203.69
298.062	1259.69
298.292	1491.69
298.523	1637.69
298.753	1841.69
298.984	1652.69
299.214	1308.69
299.445	1102.69
299.675	1051.69
299.905	1081.69
300.136	1087.69
300.366	1201.69
300.597	1178.69
300.827	1058.69
301.057	1038.69
301.288	1058.69
301.518	1120.69
301.748	1255.69
301.979	1391.69
302.209	1513.69
302.439	1511.69
302.669	1282.69
302.9	1252.69
303.13	1186.69
303.36	1085.69
303.59	1073.69
303.82	1127.69
304.051	1261.69
304.281	1352.69
304.511	1288.69
304.741	1157.69
304.971	1244.69
305.201	1325.69
305.431	1235.69
305.661	1067.69
305.891	1081.69
306.121	1101.69
306.352	977.69
306.582	893.69
306.812	861.69
307.042	865.69
307.272	834.69
307.502	825.69
307.731	885.69
307.961	922.69
308.191	862.69
308.421	812.69
308.651	811.69
308.881	791.69
309.111	797.69
309.341	817.69
309.571	911.69
309.8	950.69
310.03	962.69
310.26	1031.69
310.49	975.69
310.72	889.69
310.949	879.69
311.179	887.69
311.409	929.69
311.639	1127.69
311.868	1444.69
312.098	1859.69
312.328	1999.69
312.557	1898.69
312.787	1942.69
313.017	1756.69
313.246	1839.69
313.476	2008.69
313.706	1670.69
313.935	1316.69
314.165	1065.69
314.394	984.69
314.624	990.69
314.853	1043.69
315.083	1037.69
315.312	1051.69
315.542	1021.69
315.771	960.69
316.001	887.69
316.23	846.69
316.46	853.69
316.689	888.69
316.919	921.69
317.148	909.69
317.377	887.69
317.607	899.69
317.836	966.69
318.065	1137.69
318.295	1283.69
318.524	1178.69
318.753	1001.69
318.983	955.69
319.212	938.69
319.441	1077.69
319.67	1142.69
319.9	1257.69
320.129	1167.69
320.358	973.69
320.587	956.69
320.816	1053.69
321.046	1205.69
321.275	1383.69
321.504	1373.69
321.733	1330.69
321.962	1249.69
322.191	1191.69
322.42	1127.69
322.649	1168.69
322.878	1237.69
323.108	1233.69
323.337	1131.69
323.566	1107.69
323.795	1106.69
324.024	1038.69
324.253	982.69
324.482	1000.69
324.71	1117.69
324.939	1226.69
325.168	1185.69
325.397	951.69
325.626	917.69
325.855	911.69
326.084	934.69
326.313	910.69
326.542	851.69
326.77	887.69
326.999	901.69
327.228	966.69
327.457	1045.69
327.686	1021.69
327.914	893.69
328.143	834.69
328.372	839.69
328.6	853.69
328.829	862.69
329.058	911.69
329.287	904.69
329.515	901.69
329.744	871.69
329.972	857.69
330.201	821.69
330.43	834.69
330.658	984.69
330.887	1093.69
331.115	1039.69
331.344	1007.69
331.572	975.69
331.801	909.69
332.03	883.69
332.258	881.69
332.486	975.69
332.715	1008.69
332.943	920.69
333.172	951.69
333.4	947.69
333.629	1020.69
333.857	1145.69
334.085	1101.69
334.314	1108.69
334.542	1056.69
334.771	976.69
334.999	957.69
335.227	945.69
335.455	966.69
335.684	1037.69
335.912	1219.69
336.14	1349.69
336.369	1283.69
336.597	1239.69
336.825	1415.69
337.053	1569.69
337.281	1258.69
337.51	1019.69
337.738	992.69
337.966	1098.69
338.194	1188.69
338.422	1141.69
338.65	979.69
338.878	888.69
339.106	930.69
339.334	998.69
339.562	1110.69
339.79	1010.69
340.018	997.69
340.246	1065.69
340.474	1219.69
340.702	1302.69
340.93	1373.69
341.158	1355.69
341.386	1127.69
341.614	1139.69
341.842	1150.69
342.07	1173.69
342.298	1371.69
342.526	1437.69
342.754	1218.69
342.981	1152.69
343.209	1082.69
343.437	1145.69
343.665	1209.69
343.893	1225.69
344.12	1420.69
344.348	1645.69
344.576	1461.69
344.804	1188.69
345.031	1063.69
345.259	981.69
345.487	1008.69
345.714	1035.69
345.942	1123.69
346.17	1197.69
346.397	1159.69
346.625	1029.69
346.853	987.69
347.08	982.69
347.308	1016.69
347.535	1117.69
347.763	1181.69
347.99	1004.69
348.218	929.69
348.445	996.69
348.673	985.69
348.9	970.69
349.128	1061.69
349.355	1115.69
349.583	1099.69
349.81	1026.69
350.037	934.69
350.265	851.69
350.492	775.69
350.72	800.69
350.947	863.69
351.174	918.69
351.402	981.69
351.629	991.69
351.856	971.69
352.083	913.69
352.311	992.69
352.538	1076.69
352.765	1193.69
352.992	1052.69
353.22	959.69
353.447	1013.69
353.674	1009.69
353.901	977.69
354.128	970.69
354.355	1052.69
354.583	1005.69
354.81	989.69
355.037	1059.69
355.264	1015.69
355.491	1111.69
355.718	1194.69
355.945	1159.69
356.172	1092.69
356.399	1111.69
356.626	1373.69
356.853	1695.69
357.08	1747.69
357.307	1819.69
357.534	1435.69
357.761	1461.69
357.988	1794.69
358.215	2143.69
358.441	2009.69
358.668	1677.69
358.895	1549.69
359.122	1262.69
359.349	1242.69
359.576	1376.69
359.802	1149.69
360.029	989.69
360.256	1081.69
360.483	1329.69
360.709	1650.69
360.936	1707.69
361.163	1508.69
361.39	1144.69
361.616	1097.69
361.843	1253.69
362.07	1557.69
362.296	1411.69
362.523	1074.69
362.749	941.69
362.976	1001.69
363.203	1242.69
363.429	1382.69
363.656	1112.69
363.882	1009.69
364.109	1028.69
364.335	1012.69
364.562	996.69
364.788	1145.69
365.015	1333.69
365.241	1178.69
365.468	986.69
365.694	858.69
365.92	825.69
366.147	801.69
366.373	804.69
366.599	803.69
366.826	783.69
367.052	871.69
367.278	854.69
367.505	845.69
367.731	906.69
367.957	1046.69
368.184	1046.69
368.41	1023.69
368.636	1066.69
368.862	1074.69
369.089	1027.69
369.315	930.69
369.541	929.69
369.767	887.69
369.993	865.69
370.219	871.69
370.445	936.69
370.672	1041.69
370.898	1110.69
371.124	1105.69
371.35	970.69
371.576	890.69
371.802	1010.69
372.028	1192.69
372.254	1343.69
372.48	1161.69
372.706	1042.69
372.932	1114.69
373.158	1194.69
373.384	1403.69
373.61	1882.69
373.835	1973.69
374.061	1412.69
374.287	1206.69
374.513	1445.69
374.739	1709.69
374.965	1773.69
375.191	1736.69
375.416	1182.69
375.642	1033.69
375.868	1238.69
376.094	1423.69
376.319	1201.69
376.545	1358.69
376.771	1369.69
376.997	1191.69
377.222	886.69
377.448	767.69
377.674	751.69
377.899	759.69
378.125	744.69
378.35	767.69
378.576	831.69
378.802	884.69
379.027	956.69
379.253	873.69
379.478	945.69
379.704	1062.69
379.929	1113.69
380.155	1120.69
380.38	969.69
380.606	1029.69
380.831	1128.69
381.057	1006.69
381.282	1000.69
381.507	1197.69
381.733	1485.69
381.958	1615.69
382.184	1706.69
382.409	1754.69
382.634	1714.69
382.86	1849.69
383.085	1493.69
383.31	1184.69
383.535	1235.69
383.761	1255.69
383.986	1201.69
384.211	1464.69
384.436	1389.69
384.662	1039.69
384.887	1039.69
385.112	1071.69
385.337	1035.69
385.562	1000.69
385.787	1103.69
386.013	1256.69
386.238	1299.69
386.463	1063.69
386.688	995.69
386.913	971.69
387.138	945.69
387.363	950.69
387.588	997.69
387.813	987.69
388.038	1120.69
388.263	1015.69
388.488	964.69
388.713	1132.69
388.938	1261.69
389.163	1052.69
389.387	921.69
389.612	932.69
389.837	938.69
390.062	957.69
390.287	1013.69
390.512	1031.69
390.736	955.69
390.961	901.69
391.186	863.69
391.411	849.69
391.636	864.69
391.86	950.69
392.085	1029.69
392.31	1048.69
392.534	973.69
392.759	937.69
392.984	990.69
393.208	985.69
393.433	875.69
393.658	805.69
393.882	805.69
394.107	789.69
394.331	813.69
394.556	792.69
394.78	805.69
395.005	845.69
395.229	883.69
395.454	877.69
395.678	911.69
395.903	911.69
396.127	871.69
396.352	893.69
396.576	968.69
396.801	1028.69
397.025	1133.69
397.249	1169.69
397.474	929.69
397.698	933.69
397.922	988.69
398.147	921.69
398.371	914.69
398.595	976.69
398.82	963.69
399.044	929.69
399.268	1048.69
399.492	1061.69
399.717	1091.69
399.941	1103.69
400.165	1074.69
400.389	1080.69
400.613	1068.69
400.837	1057.69
401.062	939.69
401.286	879.69
401.51	904.69
401.734	932.69
401.958	919.69
402.182	898.69
402.406	917.69
402.63	909.69
402.854	959.69
403.078	1105.69
403.302	1311.69
403.526	1373.69
403.75	1202.69
403.974	1090.69
404.198	1094.69
404.422	1215.69
404.645	1481.69
404.869	1629.69
405.093	1185.69
405.317	971.69
405.541	985.69
405.765	1022.69
405.988	1020.69
406.212	1092.69
406.436	1335.69
406.66	1472.69
406.883	1139.69
407.107	1199.69
407.331	1413.69
407.555	1313.69
407.778	1099.69
408.002	1045.69
408.226	1073.69
408.449	1046.69
408.673	1031.69
408.896	956.69
409.12	940.69
409.344	895.69
409.567	924.69
409.791	894.69
410.014	898.69
410.238	917.69
410.461	891.69
410.685	916.69
410.908	909.69
411.132	926.69
411.355	937.69
411.578	930.69
411.802	963.69
412.025	994.69
412.249	995.69
412.472	982.69
412.695	954.69
412.919	965.69
413.142	993.69
413.365	1041.69
413.589	1061.69
413.812	970.69
414.035	925.69
414.258	953.69
414.482	1056.69
414.705	1093.69
414.928	919.69
415.151	891.69
415.374	897.69
415.597	961.69
415.821	938.69
416.044	910.69
416.267	875.69
416.49	906.69
416.713	881.69
416.936	888.69
417.159	877.69
417.382	883.69
417.605	916.69
417.828	933.69
418.051	936.69
418.274	952.69
418.497	929.69
418.72	974.69
418.943	970.69
419.166	973.69
419.389	1061.69
419.611	1021.69
419.834	1050.69
420.057	1114.69
420.28	1128.69
420.503	1049.69
420.726	922.69
420.948	866.69
421.171	887.69
421.394	885.69
421.617	852.69
421.839	919.69
422.062	947.69
422.285	943.69
422.507	942.69
422.73	971.69
422.953	987.69
423.175	949.69
423.398	969.69
423.621	1001.69
423.843	1079.69
424.066	1010.69
424.288	961.69
424.511	917.69
424.733	913.69
424.956	989.69
425.178	1141.69
425.401	1268.69
425.623	1411.69
425.846	1181.69
426.068	1044.69
426.291	1136.69
426.513	1045.69
426.735	922.69
426.958	1002.69
427.18	1200.69
427.402	1544.69
427.625	1494.69
427.847	1233.69
428.069	915.69
428.292	921.69
428.514	925.69
428.736	882.69
428.958	962.69
429.181	1144.69
429.403	989.69
429.625	895.69
429.847	885.69
430.069	900.69
430.292	934.69
430.514	913.69
430.736	952.69
430.958	1265.69
431.18	1144.69
431.402	857.69
431.624	851.69
431.846	814.69
432.068	781.69
432.29	841.69
432.512	926.69
432.734	1223.69
432.956	1151.69
433.178	894.69
433.4	854.69
433.622	861.69
433.844	878.69
434.066	933.69
434.287	954.69
434.509	915.69
434.731	931.69
434.953	877.69
435.175	936.69
435.397	1067.69
435.618	923.69
435.84	831.69
436.062	840.69
436.284	809.69
436.505	795.69
436.727	770.69
436.949	788.69
437.17	855.69
437.392	847.69
437.614	853.69
437.835	837.69
438.057	843.69
438.278	1010.69
438.5	1409.69
438.721	1440.69
438.943	959.69
439.165	797.69
439.386	811.69
439.608	804.69
439.829	779.69
440.05	799.69
440.272	863.69
440.493	1034.69
440.715	1304.69
440.936	996.69
441.158	849.69
441.379	851.69
441.6	978.69
441.822	1029.69
442.043	901.69
442.264	872.69
442.486	881.69
442.707	893.69
442.928	884.69
443.149	917.69
443.371	895.69
443.592	948.69
443.813	944.69
444.034	898.69
444.255	910.69
444.476	967.69
444.698	980.69
444.919	978.69
445.14	1055.69
445.361	984.69
445.582	949.69
445.803	934.69
446.024	953.69
446.245	934.69
446.466	909.69
446.687	868.69
446.908	914.69
447.129	856.69
447.35	813.69
447.571	807.69
447.792	810.69
448.013	813.69
448.234	791.69
448.455	809.69
448.675	803.69
448.896	801.69
449.117	780.69
449.338	833.69
449.559	847.69
449.779	886.69
450	867.69
450.221	845.69
450.442	841.69
450.662	796.69
450.883	800.69
451.104	809.69
451.324	790.69
451.545	831.69
451.766	821.69
451.986	769.69
452.207	773.69
452.428	782.69
452.648	762.69
452.869	823.69
453.089	882.69
453.31	845.69
453.53	771.69
453.751	754.69
453.971	753.69
454.192	788.69
454.412	822.69
454.633	754.69
454.853	744.69
455.073	730.69
455.294	724.69
455.514	749.69
455.734	793.69
455.955	822.69
456.175	859.69
456.395	770.69
456.616	705.69
456.836	708.69
457.056	700.69
457.276	725.69
457.497	716.69
457.717	725.69
457.937	740.69
458.157	751.69
458.377	742.69
458.598	757.69
458.818	779.69
459.038	825.69
459.258	847.69
459.478	850.69
459.698	938.69
459.918	897.69
460.138	870.69
460.358	895.69
460.578	887.69
460.798	916.69
461.018	893.69
461.238	875.69
461.458	863.69
461.678	926.69
461.898	945.69
462.118	949.69
462.338	955.69
462.558	961.69
462.777	997.69
462.997	1029.69
463.217	1056.69
463.437	1038.69
463.657	1052.69
463.876	955.69
464.096	988.69
464.316	987.69
464.536	981.69
464.755	1023.69
464.975	1015.69
465.195	961.69
465.414	999.69
465.634	970.69
465.854	925.69
466.073	865.69
466.293	853.69
466.512	961.69
466.732	1058.69
466.951	1075.69
467.171	957.69
467.391	900.69
467.61	885.69
467.829	942.69
468.049	938.69
468.268	917.69
468.488	898.69
468.707	936.69
468.927	1079.69
469.146	1165.69
469.365	1048.69
469.585	961.69
469.804	1014.69
470.023	1123.69
470.243	984.69
470.462	937.69
470.681	932.69
470.901	938.69
471.12	998.69
471.339	977.69
471.558	938.69
471.777	928.69
471.997	1039.69
472.216	1112.69
472.435	1062.69
472.654	996.69
472.873	952.69
473.092	998.69
473.311	1090.69
473.53	989.69
473.749	921.69
473.968	1015.69
474.187	983.69
474.406	958.69
474.625	912.69
474.844	978.69
475.063	1030.69
475.282	1049.69
475.501	1104.69
475.72	1155.69
475.939	1105.69
476.158	1144.69
476.377	1280.69
476.596	1478.69
476.814	1524.69
477.033	1265.69
477.252	1076.69
477.471	1018.69
477.69	1022.69
477.908	1095.69
478.127	1173.69
478.346	1080.69
478.564	1135.69
478.783	1105.69
479.002	1135.69
479.22	1304.69
479.439	1463.69
479.658	1241.69
479.876	1141.69
480.095	1250.69
480.313	1233.69
480.532	1145.69
480.751	1100.69
480.969	1112.69
481.188	1279.69
481.406	1301.69
481.624	1217.69
481.843	1172.69
482.061	1097.69
482.28	1257.69
482.498	1503.69
482.717	1421.69
482.935	1231.69
483.153	1161.69
483.372	1053.69
483.59	1069.69
483.808	1051.69
484.027	1053.69
484.245	995.69
484.463	1007.69
484.681	1040.69
484.9	1126.69
485.118	1214.69
485.336	1109.69
485.554	1045.69
485.772	1122.69
485.99	1205.69
486.209	1263.69
486.427	1263.69
486.645	1201.69
486.863	1298.69
487.081	1249.69
487.299	1384.69
487.517	1364.69
487.735	1203.69
487.953	1272.69
488.171	1303.69
488.389	1219.69
488.607	1134.69
488.825	1173.69
489.043	1266.69
489.261	1533.69
489.479	1617.69
489.696	1343.69
489.914	1197.69
490.132	1098.69
490.35	1114.69
490.568	1131.69
490.786	1132.69
491.003	1140.69
491.221	1162.69
491.439	1158.69
491.657	1146.69
491.874	1246.69
492.092	1501.69
492.31	1839.69
492.527	1812.69
492.745	1561.69
492.963	1351.69
493.18	1345.69
493.398	1329.69
493.615	1309.69
493.833	1287.69
