Data from NickelSpatula.Lamp.E5.5.P2_HRD10591_11-53-09-550.txt Node
Date: Tue Jul 23 11:53:09 EDT 2019
User: cochatt
Spectrometer: HR+D1059
Trigger mode: 1
Integration Time (sec): 1.000000E-1
Scans to average: 1
Electric dark correction enabled: true
Nonlinearity correction enabled: false
Boxcar width: 0
XAxis mode: Wavelengths
Number of Pixels in Spectrum: 2048
>>>>>Begin Spectral Data<<<<<
223.165	-17.31
223.4	-17.31
223.635	-17.31
223.869	-14.31
224.104	-13.31
224.338	-10.31
224.573	-6.31
224.808	-13.31
225.042	-3.31
225.277	-3.31
225.511	-0.31
225.746	8.69
225.98	7.69
226.215	-1.31
226.449	4.69
226.683	13.69
226.918	28.69
227.152	19.69
227.387	38.69
227.621	37.69
227.856	37.69
228.09	40.69
228.324	27.69
228.559	47.69
228.793	45.69
229.027	81.69
229.262	69.69
229.496	87.69
229.73	87.69
229.964	94.69
230.199	111.69
230.433	74.69
230.667	92.69
230.901	78.69
231.136	85.69
231.37	100.69
231.604	110.69
231.838	98.69
232.072	103.69
232.306	96.69
232.541	90.69
232.775	104.69
233.009	111.69
233.243	114.69
233.477	126.69
233.711	127.69
233.945	110.69
234.179	114.69
234.413	109.69
234.647	118.69
234.881	141.69
235.115	141.69
235.349	124.69
235.583	128.69
235.817	103.69
236.051	142.69
236.285	124.69
236.519	137.69
236.753	124.69
236.987	129.69
237.221	136.69
237.455	134.69
237.689	143.69
237.922	124.69
238.156	141.69
238.39	144.69
238.624	178.69
238.858	165.69
239.091	152.69
239.325	152.69
239.559	140.69
239.793	161.69
240.027	166.69
240.26	153.69
240.494	162.69
240.728	154.69
240.961	177.69
241.195	178.69
241.429	151.69
241.662	174.69
241.896	134.69
242.13	142.69
242.363	140.69
242.597	138.69
242.83	149.69
243.064	139.69
243.298	168.69
243.531	147.69
243.765	192.69
243.998	162.69
244.232	170.69
244.465	158.69
244.699	176.69
244.932	179.69
245.166	169.69
245.399	162.69
245.633	142.69
245.866	163.69
246.099	170.69
246.333	191.69
246.566	209.69
246.8	181.69
247.033	187.69
247.266	154.69
247.5	174.69
247.733	183.69
247.966	151.69
248.2	161.69
248.433	180.69
248.666	202.69
248.899	201.69
249.133	189.69
249.366	218.69
249.599	252.69
249.832	220.69
250.066	204.69
250.299	207.69
250.532	195.69
250.765	194.69
250.998	171.69
251.231	186.69
251.465	180.69
251.698	211.69
251.931	197.69
252.164	209.69
252.397	215.69
252.63	229.69
252.863	261.69
253.096	248.69
253.329	246.69
253.562	229.69
253.795	274.69
254.028	289.69
254.261	312.69
254.494	268.69
254.727	274.69
254.96	260.69
255.193	256.69
255.426	253.69
255.659	198.69
255.892	186.69
256.124	204.69
256.357	247.69
256.59	269.69
256.823	268.69
257.056	235.69
257.289	222.69
257.521	229.69
257.754	260.69
257.987	300.69
258.22	268.69
258.452	251.69
258.685	252.69
258.918	276.69
259.151	284.69
259.383	276.69
259.616	320.69
259.849	332.69
260.081	359.69
260.314	399.69
260.547	322.69
260.779	345.69
261.012	380.69
261.244	352.69
261.477	358.69
261.71	318.69
261.942	284.69
262.175	277.69
262.407	285.69
262.64	272.69
262.872	318.69
263.105	355.69
263.337	372.69
263.57	338.69
263.802	254.69
264.035	223.69
264.267	210.69
264.499	182.69
264.732	188.69
264.964	179.69
265.197	187.69
265.429	191.69
265.661	196.69
265.894	224.69
266.126	234.69
266.358	255.69
266.591	306.69
266.823	336.69
267.055	325.69
267.287	292.69
267.52	282.69
267.752	282.69
267.984	330.69
268.216	312.69
268.448	259.69
268.681	256.69
268.913	281.69
269.145	282.69
269.377	290.69
269.609	293.69
269.841	263.69
270.073	299.69
270.306	305.69
270.538	320.69
270.77	328.69
271.002	309.69
271.234	333.69
271.466	320.69
271.698	310.69
271.93	286.69
272.162	302.69
272.394	302.69
272.626	286.69
272.858	312.69
273.09	311.69
273.322	276.69
273.553	254.69
273.785	284.69
274.017	406.69
274.249	466.69
274.481	472.69
274.713	519.69
274.945	623.69
275.176	613.69
275.408	556.69
275.64	511.69
275.872	501.69
276.104	445.69
276.335	412.69
276.567	392.69
276.799	409.69
277.031	424.69
277.262	331.69
277.494	270.69
277.726	260.69
277.957	286.69
278.189	328.69
278.421	332.69
278.652	293.69
278.884	276.69
279.115	280.69
279.347	280.69
279.579	254.69
279.81	270.69
280.042	276.69
280.273	306.69
280.505	288.69
280.736	231.69
280.968	241.69
281.199	268.69
281.431	278.69
281.662	263.69
281.894	276.69
282.125	284.69
282.356	297.69
282.588	299.69
282.819	288.69
283.051	290.69
283.282	351.69
283.513	390.69
283.745	454.69
283.976	434.69
284.207	404.69
284.439	422.69
284.67	407.69
284.901	364.69
285.132	385.69
285.364	399.69
285.595	392.69
285.826	406.69
286.057	387.69
286.288	401.69
286.52	398.69
286.751	428.69
286.982	434.69
287.213	386.69
287.444	359.69
287.675	396.69
287.906	394.69
288.138	327.69
288.369	311.69
288.6	301.69
288.831	318.69
289.062	339.69
289.293	378.69
289.524	358.69
289.755	348.69
289.986	346.69
290.217	320.69
290.448	274.69
290.679	218.69
290.91	217.69
291.141	213.69
291.371	232.69
291.602	234.69
291.833	233.69
292.064	239.69
292.295	272.69
292.526	311.69
292.757	318.69
292.987	346.69
293.218	336.69
293.449	336.69
293.68	396.69
293.91	354.69
294.141	356.69
294.372	349.69
294.603	310.69
294.833	335.69
295.064	416.69
295.295	397.69
295.525	287.69
295.756	259.69
295.987	246.69
296.217	251.69
296.448	258.69
296.679	241.69
296.909	259.69
297.14	286.69
297.37	304.69
297.601	302.69
297.831	271.69
298.062	278.69
298.292	313.69
298.523	342.69
298.753	380.69
298.984	343.69
299.214	302.69
299.445	237.69
299.675	228.69
299.905	249.69
300.136	240.69
300.366	258.69
300.597	256.69
300.827	256.69
301.057	220.69
301.288	229.69
301.518	262.69
301.748	287.69
301.979	291.69
302.209	333.69
302.439	319.69
302.669	264.69
302.9	289.69
303.13	275.69
303.36	272.69
303.59	258.69
303.82	261.69
304.051	282.69
304.281	296.69
304.511	298.69
304.741	270.69
304.971	276.69
305.201	298.69
305.431	280.69
305.661	250.69
305.891	262.69
306.121	258.69
306.352	220.69
306.582	208.69
306.812	182.69
307.042	191.69
307.272	200.69
307.502	206.69
307.731	208.69
307.961	215.69
308.191	216.69
308.421	191.69
308.651	200.69
308.881	187.69
309.111	203.69
309.341	193.69
309.571	224.69
309.8	205.69
310.03	221.69
310.26	219.69
310.49	240.69
310.72	206.69
310.949	206.69
311.179	213.69
311.409	223.69
311.639	238.69
311.868	298.69
312.098	348.69
312.328	399.69
312.557	380.69
312.787	393.69
313.017	327.69
313.246	362.69
313.476	426.69
313.706	347.69
313.935	290.69
314.165	247.69
314.394	223.69
314.624	224.69
314.853	245.69
315.083	250.69
315.312	227.69
315.542	234.69
315.771	206.69
316.001	214.69
316.23	191.69
316.46	200.69
316.689	210.69
316.919	224.69
317.148	209.69
317.377	186.69
317.607	192.69
317.836	210.69
318.065	239.69
318.295	280.69
318.524	265.69
318.753	222.69
318.983	218.69
319.212	224.69
319.441	208.69
319.67	235.69
319.9	266.69
320.129	260.69
320.358	233.69
320.587	200.69
320.816	222.69
321.046	250.69
321.275	270.69
321.504	277.69
321.733	254.69
321.962	285.69
322.191	246.69
322.42	243.69
322.649	243.69
322.878	248.69
323.108	253.69
323.337	240.69
323.566	232.69
323.795	241.69
324.024	234.69
324.253	222.69
324.482	230.69
324.71	249.69
324.939	263.69
325.168	252.69
325.397	227.69
325.626	215.69
325.855	211.69
326.084	214.69
326.313	216.69
326.542	205.69
326.77	213.69
326.999	216.69
327.228	224.69
327.457	225.69
327.686	223.69
327.914	197.69
328.143	183.69
328.372	190.69
328.6	210.69
328.829	186.69
329.058	215.69
329.287	224.69
329.515	206.69
329.744	222.69
329.972	199.69
330.201	189.69
330.43	206.69
330.658	223.69
330.887	244.69
331.115	228.69
331.344	230.69
331.572	236.69
331.801	209.69
332.03	203.69
332.258	202.69
332.486	226.69
332.715	235.69
332.943	222.69
333.172	204.69
333.4	219.69
333.629	237.69
333.857	256.69
334.085	266.69
334.314	252.69
334.542	256.69
334.771	239.69
334.999	224.69
335.227	210.69
335.455	248.69
335.684	240.69
335.912	251.69
336.14	281.69
336.369	264.69
336.597	286.69
336.825	301.69
337.053	347.69
337.281	266.69
337.51	221.69
337.738	225.69
337.966	252.69
338.194	265.69
338.422	239.69
338.65	204.69
338.878	210.69
339.106	215.69
339.334	222.69
339.562	236.69
339.79	223.69
340.018	218.69
340.246	238.69
340.474	253.69
340.702	274.69
340.93	271.69
341.158	282.69
341.386	248.69
341.614	255.69
341.842	247.69
342.07	243.69
342.298	292.69
342.526	285.69
342.754	242.69
342.981	250.69
343.209	227.69
343.437	263.69
343.665	279.69
343.893	270.69
344.12	308.69
344.348	348.69
344.576	304.69
344.804	272.69
345.031	237.69
345.259	238.69
345.487	225.69
345.714	236.69
345.942	258.69
346.17	268.69
346.397	271.69
346.625	218.69
346.853	220.69
347.08	220.69
347.308	213.69
347.535	264.69
347.763	268.69
347.99	244.69
348.218	231.69
348.445	236.69
348.673	240.69
348.9	231.69
349.128	240.69
349.355	242.69
349.583	243.69
349.81	234.69
350.037	223.69
350.265	200.69
350.492	195.69
350.72	204.69
350.947	199.69
351.174	190.69
351.402	215.69
351.629	224.69
351.856	221.69
352.083	198.69
352.311	221.69
352.538	227.69
352.765	250.69
352.992	254.69
353.22	230.69
353.447	231.69
353.674	229.69
353.901	217.69
354.128	217.69
354.355	221.69
354.583	221.69
354.81	226.69
355.037	256.69
355.264	243.69
355.491	241.69
355.718	247.69
355.945	247.69
356.172	248.69
356.399	236.69
356.626	275.69
356.853	322.69
357.08	366.69
357.307	376.69
357.534	275.69
357.761	308.69
357.988	384.69
358.215	419.69
358.441	389.69
358.668	351.69
358.895	322.69
359.122	282.69
359.349	271.69
359.576	326.69
359.802	264.69
360.029	226.69
360.256	249.69
360.483	288.69
360.709	354.69
360.936	351.69
361.163	319.69
361.39	261.69
361.616	224.69
361.843	270.69
362.07	323.69
362.296	306.69
362.523	237.69
362.749	225.69
362.976	236.69
363.203	246.69
363.429	275.69
363.656	232.69
363.882	240.69
364.109	240.69
364.335	228.69
364.562	220.69
364.788	251.69
365.015	268.69
365.241	274.69
365.468	217.69
365.694	194.69
365.92	210.69
366.147	202.69
366.373	181.69
366.599	191.69
366.826	195.69
367.052	172.69
367.278	194.69
367.505	178.69
367.731	199.69
367.957	231.69
368.184	250.69
368.41	218.69
368.636	232.69
368.862	235.69
369.089	224.69
369.315	195.69
369.541	206.69
369.767	203.69
369.993	207.69
370.219	201.69
370.445	227.69
370.672	220.69
370.898	259.69
371.124	260.69
371.35	235.69
371.576	206.69
371.802	218.69
372.028	266.69
372.254	306.69
372.48	271.69
372.706	233.69
372.932	265.69
373.158	268.69
373.384	291.69
373.61	358.69
373.835	378.69
374.061	316.69
374.287	268.69
374.513	311.69
374.739	352.69
374.965	377.69
375.191	372.69
375.416	272.69
375.642	229.69
375.868	268.69
376.094	312.69
376.319	272.69
376.545	272.69
376.771	300.69
376.997	269.69
377.222	213.69
377.448	181.69
377.674	196.69
377.899	183.69
378.125	180.69
378.35	178.69
378.576	194.69
378.802	206.69
379.027	212.69
379.253	213.69
379.478	222.69
379.704	246.69
379.929	231.69
380.155	252.69
380.38	213.69
380.606	215.69
380.831	241.69
381.057	238.69
381.282	224.69
381.507	257.69
381.733	292.69
381.958	316.69
382.184	359.69
382.409	350.69
382.634	366.69
382.86	370.69
383.085	301.69
383.31	263.69
383.535	292.69
383.761	289.69
383.986	256.69
384.211	319.69
384.436	311.69
384.662	241.69
384.887	250.69
385.112	255.69
385.337	262.69
385.562	243.69
385.787	276.69
386.013	287.69
386.238	282.69
386.463	234.69
386.688	256.69
386.913	237.69
387.138	223.69
387.363	224.69
387.588	229.69
387.813	227.69
388.038	267.69
388.263	234.69
388.488	227.69
388.713	256.69
388.938	275.69
389.163	231.69
389.387	214.69
389.612	219.69
389.837	234.69
390.062	224.69
390.287	240.69
390.512	214.69
390.736	217.69
390.961	228.69
391.186	222.69
391.411	210.69
391.636	203.69
391.86	224.69
392.085	264.69
392.31	282.69
392.534	247.69
392.759	229.69
392.984	267.69
393.208	222.69
393.433	192.69
393.658	225.69
393.882	197.69
394.107	203.69
394.331	204.69
394.556	204.69
394.78	199.69
395.005	201.69
395.229	215.69
395.454	223.69
395.678	209.69
395.903	227.69
396.127	222.69
396.352	207.69
396.576	210.69
396.801	228.69
397.025	262.69
397.249	280.69
397.474	209.69
397.698	240.69
397.922	250.69
398.147	222.69
398.371	232.69
398.595	232.69
398.82	222.69
399.044	220.69
399.268	252.69
399.492	269.69
399.717	301.69
399.941	300.69
400.165	260.69
400.389	258.69
400.613	254.69
400.837	247.69
401.062	223.69
401.286	220.69
401.51	225.69
401.734	226.69
401.958	223.69
402.182	228.69
402.406	235.69
402.63	245.69
402.854	253.69
403.078	287.69
403.302	374.69
403.526	398.69
403.75	345.69
403.974	298.69
404.198	284.69
404.422	307.69
404.645	328.69
404.869	349.69
405.093	279.69
405.317	254.69
405.541	262.69
405.765	259.69
405.988	253.69
406.212	265.69
406.436	287.69
406.66	325.69
406.883	289.69
407.107	278.69
407.331	302.69
407.555	319.69
407.778	270.69
408.002	270.69
408.226	262.69
408.449	253.69
408.673	239.69
408.896	226.69
409.12	229.69
409.344	219.69
409.567	221.69
409.791	229.69
410.014	243.69
410.238	234.69
410.461	240.69
410.685	240.69
410.908	226.69
411.132	228.69
411.355	234.69
411.578	230.69
411.802	220.69
412.025	253.69
412.249	232.69
412.472	237.69
412.695	234.69
412.919	251.69
413.142	224.69
413.365	243.69
413.589	248.69
413.812	243.69
414.035	239.69
414.258	235.69
414.482	242.69
414.705	262.69
414.928	226.69
415.151	215.69
415.374	226.69
415.597	226.69
415.821	229.69
416.044	225.69
416.267	214.69
416.49	221.69
416.713	216.69
416.936	218.69
417.159	218.69
417.382	222.69
417.605	219.69
417.828	227.69
418.051	230.69
418.274	246.69
418.497	221.69
418.72	224.69
418.943	234.69
419.166	258.69
419.389	252.69
419.611	230.69
419.834	249.69
420.057	265.69
420.28	251.69
420.503	240.69
420.726	222.69
420.948	221.69
421.171	231.69
421.394	239.69
421.617	219.69
421.839	224.69
422.062	243.69
422.285	232.69
422.507	231.69
422.73	230.69
422.953	248.69
423.175	237.69
423.398	241.69
423.621	271.69
423.843	264.69
424.066	238.69
424.288	242.69
424.511	231.69
424.733	216.69
424.956	234.69
425.178	261.69
425.401	300.69
425.623	340.69
425.846	287.69
426.068	264.69
426.291	268.69
426.513	255.69
426.735	241.69
426.958	238.69
427.18	256.69
427.402	363.69
427.625	359.69
427.847	298.69
428.069	251.69
428.292	242.69
428.514	222.69
428.736	234.69
428.958	257.69
429.181	298.69
429.403	269.69
429.625	235.69
429.847	202.69
430.069	221.69
430.292	231.69
430.514	229.69
430.736	227.69
430.958	259.69
431.18	266.69
431.402	220.69
431.624	205.69
431.846	199.69
432.068	206.69
432.29	206.69
432.512	237.69
432.734	299.69
432.956	270.69
433.178	227.69
433.4	212.69
433.622	220.69
433.844	227.69
434.066	243.69
434.287	252.69
434.509	247.69
434.731	250.69
434.953	225.69
435.175	235.69
435.397	266.69
435.618	224.69
435.84	213.69
436.062	205.69
436.284	222.69
436.505	203.69
436.727	194.69
436.949	198.69
437.17	197.69
437.392	198.69
437.614	225.69
437.835	226.69
438.057	202.69
438.278	236.69
438.5	326.69
438.721	322.69
438.943	222.69
439.165	210.69
439.386	196.69
439.608	208.69
439.829	197.69
440.05	204.69
440.272	209.69
440.493	244.69
440.715	282.69
440.936	248.69
441.158	210.69
441.379	220.69
441.6	249.69
441.822	262.69
442.043	224.69
442.264	246.69
442.486	225.69
442.707	225.69
442.928	233.69
443.149	225.69
443.371	229.69
443.592	251.69
443.813	239.69
444.034	232.69
444.255	236.69
444.476	258.69
444.698	268.69
444.919	271.69
445.14	357.69
445.361	303.69
445.582	252.69
445.803	227.69
446.024	254.69
446.245	252.69
446.466	222.69
446.687	237.69
446.908	215.69
447.129	221.69
447.35	205.69
447.571	203.69
447.792	209.69
448.013	213.69
448.234	196.69
448.455	201.69
448.675	198.69
448.896	208.69
449.117	208.69
449.338	204.69
449.559	214.69
449.779	232.69
450	215.69
450.221	213.69
450.442	217.69
450.662	199.69
450.883	216.69
451.104	204.69
451.324	223.69
451.545	200.69
451.766	219.69
451.986	215.69
452.207	185.69
452.428	208.69
452.648	206.69
452.869	206.69
453.089	227.69
453.31	215.69
453.53	204.69
453.751	206.69
453.971	215.69
454.192	204.69
454.412	206.69
454.633	195.69
454.853	199.69
455.073	190.69
455.294	184.69
455.514	218.69
455.734	196.69
455.955	204.69
456.175	226.69
456.395	198.69
456.616	186.69
456.836	198.69
457.056	179.69
457.276	175.69
457.497	181.69
457.717	180.69
457.937	192.69
458.157	190.69
458.377	184.69
458.598	199.69
458.818	219.69
459.038	217.69
459.258	208.69
459.478	232.69
459.698	227.69
459.918	234.69
460.138	228.69
460.358	235.69
460.578	215.69
460.798	256.69
461.018	237.69
461.238	229.69
461.458	239.69
461.678	237.69
461.898	255.69
462.118	254.69
462.338	252.69
462.558	245.69
462.777	246.69
462.997	272.69
463.217	284.69
463.437	277.69
463.657	276.69
463.876	256.69
464.096	256.69
464.316	266.69
464.536	252.69
464.755	256.69
464.975	259.69
465.195	251.69
465.414	270.69
465.634	250.69
465.854	250.69
466.073	223.69
466.293	212.69
466.512	231.69
466.732	250.69
466.951	252.69
467.171	225.69
467.391	214.69
467.61	215.69
467.829	242.69
468.049	222.69
468.268	230.69
468.488	224.69
468.707	212.69
468.927	263.69
469.146	278.69
469.365	263.69
469.585	231.69
469.804	241.69
470.023	260.69
470.243	228.69
470.462	237.69
470.681	234.69
470.901	205.69
471.12	248.69
471.339	217.69
471.558	240.69
471.777	234.69
471.997	232.69
472.216	262.69
472.435	263.69
472.654	252.69
472.873	210.69
473.092	254.69
473.311	245.69
473.53	223.69
473.749	236.69
473.968	254.69
474.187	242.69
474.406	234.69
474.625	225.69
474.844	245.69
475.063	235.69
475.282	251.69
475.501	268.69
475.72	284.69
475.939	260.69
476.158	252.69
476.377	299.69
476.596	354.69
476.814	344.69
477.033	296.69
477.252	240.69
477.471	232.69
477.69	226.69
477.908	256.69
478.127	274.69
478.346	269.69
478.564	278.69
478.783	257.69
479.002	261.69
479.22	302.69
479.439	326.69
479.658	302.69
479.876	270.69
480.095	302.69
480.313	295.69
480.532	294.69
480.751	260.69
480.969	271.69
481.188	279.69
481.406	293.69
481.624	283.69
481.843	244.69
482.061	241.69
482.28	282.69
482.498	341.69
482.717	339.69
482.935	270.69
483.153	276.69
483.372	259.69
483.59	251.69
483.808	252.69
484.027	251.69
484.245	227.69
484.463	246.69
484.681	261.69
484.9	255.69
485.118	281.69
485.336	266.69
485.554	244.69
485.772	250.69
485.99	278.69
486.209	272.69
486.427	300.69
486.645	275.69
486.863	285.69
487.081	293.69
487.299	308.69
487.517	308.69
487.735	286.69
487.953	293.69
488.171	279.69
488.389	275.69
488.607	260.69
488.825	270.69
489.043	298.69
489.261	313.69
489.479	347.69
489.696	296.69
489.914	275.69
490.132	255.69
490.35	263.69
490.568	264.69
490.786	269.69
491.003	282.69
491.221	271.69
491.439	255.69
491.657	234.69
491.874	279.69
492.092	320.69
492.31	390.69
492.527	351.69
492.745	323.69
492.963	284.69
493.18	288.69
493.398	281.69
493.615	270.69
493.833	278.69
494.05	292.69
494.268	289.69
494.485	279.69
494.703	275.69
494.92	276.69
495.138	272.69
495.355	290.69
495.573	274.69
495.79	301.69
496.008	362.69
496.225	328.69
496.442	286.69
496.66	292.69
496.877	328.69
497.094	306.69
497.312	272.69
497.529	288.69
497.746	297.69
497.963	306.69
498.181	320.69
498.398	338.69
498.615	353.69
498.832	354.69
499.049	372.69
499.267	370.69
499.484	352.69
499.701	398.69
499.918	438.69
500.135	486.69
500.352	503.69
500.569	532.69
500.786	514.69
501.003	519.69
501.22	478.69
501.437	435.69
501.654	396.69
501.871	367.69
502.088	361.69
502.305	336.69
502.522	342.69
