Data from NickelSpatula.Lamp.E5.5.P2_HRD10591_11-51-23-561.txt Node
Date: Tue Jul 23 11:51:23 EDT 2019
User: cochatt
Spectrometer: HR+D1059
Trigger mode: 1
Integration Time (sec): 1.000000E-1
Scans to average: 1
Electric dark correction enabled: true
Nonlinearity correction enabled: false
Boxcar width: 0
XAxis mode: Wavelengths
Number of Pixels in Spectrum: 2048
>>>>>Begin Spectral Data<<<<<
223.165	-17.25
223.4	-17.25
223.635	-17.25
223.869	-21.25
224.104	-12.25
224.338	-18.25
224.573	-23.25
224.808	-27.25
225.042	-9.25
225.277	2.75
225.511	-0.25
225.746	5.75
225.98	7.75
226.215	9.75
226.449	12.75
226.683	31.75
226.918	30.75
227.152	27.75
227.387	42.75
227.621	45.75
227.856	49.75
228.09	47.75
228.324	58.75
228.559	56.75
228.793	50.75
229.027	70.75
229.262	70.75
229.496	89.75
229.73	87.75
229.964	88.75
230.199	85.75
230.433	104.75
230.667	102.75
230.901	103.75
231.136	111.75
231.37	96.75
231.604	106.75
231.838	108.75
232.072	107.75
232.306	124.75
232.541	103.75
232.775	105.75
233.009	113.75
233.243	116.75
233.477	115.75
233.711	121.75
233.945	129.75
234.179	126.75
234.413	134.75
234.647	129.75
234.881	143.75
235.115	126.75
235.349	134.75
235.583	123.75
235.817	115.75
236.051	129.75
236.285	126.75
236.519	148.75
236.753	130.75
236.987	140.75
237.221	137.75
237.455	123.75
237.689	124.75
237.922	132.75
238.156	152.75
238.39	148.75
238.624	183.75
238.858	148.75
239.091	132.75
239.325	137.75
239.559	148.75
239.793	155.75
240.027	160.75
240.26	150.75
240.494	154.75
240.728	163.75
240.961	185.75
241.195	166.75
241.429	164.75
241.662	149.75
241.896	151.75
242.13	136.75
242.363	130.75
242.597	134.75
242.83	143.75
243.064	149.75
243.298	178.75
243.531	172.75
243.765	177.75
243.998	172.75
244.232	165.75
244.465	169.75
244.699	156.75
244.932	167.75
245.166	161.75
245.399	162.75
245.633	152.75
245.866	182.75
246.099	160.75
246.333	183.75
246.566	185.75
246.8	189.75
247.033	158.75
247.266	173.75
247.5	172.75
247.733	174.75
247.966	158.75
248.2	180.75
248.433	196.75
248.666	189.75
248.899	187.75
249.133	169.75
249.366	226.75
249.599	233.75
249.832	212.75
250.066	198.75
250.299	196.75
250.532	171.75
250.765	181.75
250.998	178.75
251.231	166.75
251.465	176.75
251.698	202.75
251.931	182.75
252.164	223.75
252.397	214.75
252.63	248.75
252.863	228.75
253.096	234.75
253.329	244.75
253.562	246.75
253.795	256.75
254.028	278.75
254.261	291.75
254.494	284.75
254.727	237.75
254.96	231.75
255.193	260.75
255.426	259.75
255.659	206.75
255.892	195.75
256.124	228.75
256.357	218.75
256.59	256.75
256.823	255.75
257.056	208.75
257.289	208.75
257.521	211.75
257.754	260.75
257.987	286.75
258.22	250.75
258.452	236.75
258.685	265.75
258.918	279.75
259.151	275.75
259.383	287.75
259.616	318.75
259.849	355.75
260.081	340.75
260.314	380.75
260.547	310.75
260.779	339.75
261.012	368.75
261.244	353.75
261.477	341.75
261.71	322.75
261.942	285.75
262.175	296.75
262.407	255.75
262.64	277.75
262.872	308.75
263.105	340.75
263.337	331.75
263.57	326.75
263.802	248.75
264.035	218.75
264.267	212.75
264.499	184.75
264.732	180.75
264.964	178.75
265.197	178.75
265.429	182.75
265.661	197.75
265.894	204.75
266.126	225.75
266.358	232.75
266.591	262.75
266.823	326.75
267.055	302.75
267.287	290.75
267.52	285.75
267.752	287.75
267.984	303.75
268.216	312.75
268.448	270.75
268.681	246.75
268.913	276.75
269.145	277.75
269.377	286.75
269.609	298.75
269.841	261.75
270.073	291.75
270.306	305.75
270.538	311.75
270.77	299.75
271.002	300.75
271.234	332.75
271.466	308.75
271.698	318.75
271.93	294.75
272.162	288.75
272.394	293.75
272.626	284.75
272.858	300.75
273.09	304.75
273.322	269.75
273.553	257.75
273.785	291.75
274.017	362.75
274.249	440.75
274.481	446.75
274.713	508.75
274.945	564.75
275.176	620.75
275.408	554.75
275.64	494.75
275.872	506.75
276.104	438.75
276.335	385.75
276.567	390.75
276.799	397.75
277.031	404.75
277.262	330.75
277.494	254.75
277.726	258.75
277.957	273.75
278.189	309.75
278.421	302.75
278.652	310.75
278.884	294.75
279.115	283.75
279.347	261.75
279.579	277.75
279.81	265.75
280.042	264.75
280.273	282.75
280.505	260.75
280.736	244.75
280.968	225.75
281.199	258.75
281.431	265.75
281.662	278.75
281.894	273.75
282.125	285.75
282.356	273.75
282.588	312.75
282.819	268.75
283.051	278.75
283.282	325.75
283.513	388.75
283.745	452.75
283.976	423.75
284.207	398.75
284.439	436.75
284.67	415.75
284.901	352.75
285.132	399.75
285.364	406.75
285.595	375.75
285.826	401.75
286.057	408.75
286.288	390.75
286.52	404.75
286.751	422.75
286.982	412.75
287.213	371.75
287.444	350.75
287.675	368.75
287.906	380.75
288.138	332.75
288.369	299.75
288.6	291.75
288.831	276.75
289.062	342.75
289.293	350.75
289.524	352.75
289.755	325.75
289.986	331.75
290.217	313.75
290.448	246.75
290.679	218.75
290.91	229.75
291.141	211.75
291.371	229.75
291.602	219.75
291.833	236.75
292.064	232.75
292.295	277.75
292.526	298.75
292.757	306.75
292.987	337.75
293.218	340.75
293.449	338.75
293.68	374.75
293.91	340.75
294.141	339.75
294.372	340.75
294.603	317.75
294.833	323.75
295.064	379.75
295.295	379.75
295.525	296.75
295.756	267.75
295.987	235.75
296.217	232.75
296.448	238.75
296.679	245.75
296.909	268.75
297.14	285.75
297.37	306.75
297.601	301.75
297.831	278.75
298.062	284.75
298.292	312.75
298.523	325.75
298.753	354.75
298.984	349.75
299.214	277.75
299.445	245.75
299.675	243.75
299.905	246.75
300.136	246.75
300.366	241.75
300.597	239.75
300.827	228.75
301.057	233.75
301.288	244.75
301.518	250.75
301.748	265.75
301.979	289.75
302.209	303.75
302.439	291.75
302.669	274.75
302.9	288.75
303.13	255.75
303.36	262.75
303.59	261.75
303.82	245.75
304.051	276.75
304.281	290.75
304.511	311.75
304.741	280.75
304.971	255.75
305.201	272.75
305.431	283.75
305.661	258.75
305.891	231.75
306.121	250.75
306.352	222.75
306.582	202.75
306.812	215.75
307.042	219.75
307.272	219.75
307.502	211.75
307.731	203.75
307.961	227.75
308.191	204.75
308.421	204.75
308.651	211.75
308.881	178.75
309.111	204.75
309.341	181.75
309.571	201.75
309.8	226.75
310.03	232.75
310.26	220.75
310.49	233.75
310.72	214.75
310.949	219.75
311.179	221.75
311.409	241.75
311.639	232.75
311.868	298.75
312.098	365.75
312.328	376.75
312.557	351.75
312.787	374.75
313.017	329.75
313.246	356.75
313.476	388.75
313.706	344.75
313.935	274.75
314.165	237.75
314.394	216.75
314.624	235.75
314.853	226.75
315.083	248.75
315.312	229.75
315.542	240.75
315.771	222.75
316.001	211.75
316.23	208.75
316.46	209.75
316.689	197.75
316.919	191.75
317.148	232.75
317.377	219.75
317.607	212.75
317.836	209.75
318.065	233.75
318.295	270.75
318.524	251.75
318.753	218.75
318.983	218.75
319.212	217.75
319.441	217.75
319.67	246.75
319.9	270.75
320.129	241.75
320.358	226.75
320.587	219.75
320.816	228.75
321.046	256.75
321.275	270.75
321.504	273.75
321.733	249.75
321.962	253.75
322.191	232.75
322.42	235.75
322.649	244.75
322.878	258.75
323.108	262.75
323.337	260.75
323.566	233.75
323.795	242.75
324.024	231.75
324.253	218.75
324.482	233.75
324.71	233.75
324.939	265.75
325.168	241.75
325.397	218.75
325.626	224.75
325.855	224.75
326.084	216.75
326.313	214.75
326.542	216.75
326.77	197.75
326.999	221.75
327.228	212.75
327.457	229.75
327.686	245.75
327.914	225.75
328.143	205.75
328.372	205.75
328.6	198.75
328.829	214.75
329.058	206.75
329.287	198.75
329.515	218.75
329.744	218.75
329.972	189.75
330.201	203.75
330.43	201.75
330.658	232.75
330.887	237.75
331.115	233.75
331.344	242.75
331.572	233.75
331.801	213.75
332.03	211.75
332.258	218.75
332.486	206.75
332.715	245.75
332.943	198.75
333.172	232.75
333.4	246.75
333.629	237.75
333.857	266.75
334.085	266.75
334.314	258.75
334.542	255.75
334.771	226.75
334.999	241.75
335.227	224.75
335.455	218.75
335.684	245.75
335.912	292.75
336.14	288.75
336.369	275.75
336.597	265.75
336.825	295.75
337.053	321.75
337.281	279.75
337.51	228.75
337.738	221.75
337.966	237.75
338.194	251.75
338.422	254.75
338.65	223.75
338.878	212.75
339.106	194.75
339.334	240.75
339.562	238.75
339.79	229.75
340.018	230.75
340.246	221.75
340.474	252.75
340.702	270.75
340.93	271.75
341.158	287.75
341.386	273.75
341.614	243.75
341.842	243.75
342.07	257.75
342.298	259.75
342.526	281.75
342.754	258.75
342.981	248.75
343.209	247.75
343.437	260.75
343.665	278.75
343.893	269.75
344.12	332.75
344.348	344.75
344.576	315.75
344.804	266.75
345.031	233.75
345.259	228.75
345.487	245.75
345.714	242.75
345.942	245.75
346.17	272.75
346.397	249.75
346.625	224.75
346.853	215.75
347.08	233.75
347.308	235.75
347.535	280.75
347.763	246.75
347.99	245.75
348.218	225.75
348.445	214.75
348.673	229.75
348.9	238.75
349.128	239.75
349.355	257.75
349.583	234.75
349.81	237.75
350.037	226.75
350.265	228.75
350.492	210.75
350.72	202.75
350.947	204.75
351.174	201.75
351.402	218.75
351.629	235.75
351.856	217.75
352.083	209.75
352.311	208.75
352.538	227.75
352.765	253.75
352.992	236.75
353.22	241.75
353.447	245.75
353.674	219.75
353.901	231.75
354.128	241.75
354.355	207.75
354.583	236.75
354.81	204.75
355.037	258.75
355.264	228.75
355.491	239.75
355.718	258.75
355.945	233.75
356.172	244.75
356.399	244.75
356.626	271.75
356.853	326.75
357.08	349.75
357.307	345.75
357.534	299.75
357.761	297.75
357.988	349.75
358.215	416.75
358.441	372.75
358.668	344.75
358.895	325.75
359.122	265.75
359.349	270.75
359.576	308.75
359.802	261.75
360.029	246.75
360.256	235.75
360.483	274.75
360.709	319.75
360.936	352.75
361.163	300.75
361.39	255.75
361.616	242.75
361.843	256.75
362.07	284.75
362.296	281.75
362.523	234.75
362.749	230.75
362.976	227.75
363.203	265.75
363.429	285.75
363.656	233.75
363.882	234.75
364.109	244.75
364.335	242.75
364.562	221.75
364.788	239.75
365.015	291.75
365.241	253.75
365.468	236.75
365.694	210.75
365.92	192.75
366.147	207.75
366.373	197.75
366.599	189.75
366.826	186.75
367.052	202.75
367.278	200.75
367.505	206.75
367.731	216.75
367.957	220.75
368.184	240.75
368.41	219.75
368.636	228.75
368.862	224.75
369.089	227.75
369.315	218.75
369.541	208.75
369.767	221.75
369.993	193.75
370.219	207.75
370.445	209.75
370.672	240.75
370.898	236.75
371.124	258.75
371.35	245.75
371.576	216.75
371.802	229.75
372.028	261.75
372.254	286.75
372.48	271.75
372.706	232.75
372.932	246.75
373.158	262.75
373.384	293.75
373.61	365.75
373.835	361.75
374.061	297.75
374.287	264.75
374.513	284.75
374.739	333.75
374.965	336.75
375.191	355.75
375.416	275.75
375.642	243.75
375.868	286.75
376.094	294.75
376.319	233.75
376.545	276.75
376.771	288.75
376.997	267.75
377.222	200.75
377.448	205.75
377.674	203.75
377.899	208.75
378.125	191.75
378.35	191.75
378.576	196.75
378.802	199.75
379.027	212.75
379.253	228.75
379.478	219.75
379.704	230.75
379.929	259.75
380.155	252.75
380.38	245.75
380.606	238.75
380.831	259.75
381.057	258.75
381.282	229.75
381.507	256.75
381.733	300.75
381.958	327.75
382.184	339.75
382.409	337.75
382.634	337.75
382.86	360.75
383.085	319.75
383.31	272.75
383.535	280.75
383.761	309.75
383.986	276.75
384.211	288.75
384.436	290.75
384.662	248.75
384.887	259.75
385.112	260.75
385.337	264.75
385.562	237.75
385.787	264.75
386.013	292.75
386.238	296.75
386.463	249.75
386.688	250.75
386.913	247.75
387.138	230.75
387.363	243.75
387.588	255.75
387.813	256.75
388.038	273.75
388.263	248.75
388.488	229.75
388.713	270.75
388.938	267.75
389.163	228.75
389.387	241.75
389.612	246.75
389.837	224.75
390.062	205.75
390.287	249.75
390.512	226.75
390.736	236.75
390.961	233.75
391.186	222.75
391.411	217.75
391.636	234.75
391.86	249.75
392.085	253.75
392.31	266.75
392.534	240.75
392.759	229.75
392.984	251.75
393.208	242.75
393.433	228.75
393.658	206.75
393.882	200.75
394.107	207.75
394.331	211.75
394.556	212.75
394.78	202.75
395.005	230.75
395.229	213.75
395.454	228.75
395.678	235.75
395.903	234.75
396.127	238.75
396.352	215.75
396.576	233.75
396.801	255.75
397.025	240.75
397.249	265.75
397.474	259.75
397.698	250.75
397.922	264.75
398.147	226.75
398.371	246.75
398.595	255.75
398.82	240.75
399.044	244.75
399.268	270.75
399.492	292.75
399.717	332.75
399.941	300.75
400.165	279.75
400.389	262.75
400.613	272.75
400.837	260.75
401.062	247.75
401.286	228.75
401.51	238.75
401.734	241.75
401.958	233.75
402.182	248.75
402.406	234.75
402.63	242.75
402.854	245.75
403.078	297.75
403.302	382.75
403.526	388.75
403.75	351.75
403.974	294.75
404.198	272.75
404.422	298.75
404.645	322.75
404.869	360.75
405.093	305.75
405.317	284.75
405.541	263.75
405.765	290.75
405.988	263.75
406.212	280.75
406.436	304.75
406.66	317.75
406.883	271.75
407.107	286.75
407.331	312.75
407.555	322.75
407.778	291.75
408.002	290.75
408.226	294.75
408.449	290.75
408.673	264.75
408.896	258.75
409.12	245.75
409.344	257.75
409.567	252.75
409.791	252.75
410.014	260.75
410.238	246.75
410.461	259.75
410.685	236.75
410.908	251.75
411.132	248.75
411.355	233.75
411.578	256.75
411.802	228.75
412.025	241.75
412.249	253.75
412.472	267.75
412.695	249.75
412.919	248.75
413.142	247.75
413.365	249.75
413.589	264.75
413.812	249.75
414.035	235.75
414.258	230.75
414.482	267.75
414.705	259.75
414.928	229.75
415.151	262.75
415.374	229.75
415.597	242.75
415.821	241.75
416.044	221.75
416.267	234.75
416.49	221.75
416.713	238.75
416.936	244.75
417.159	237.75
417.382	233.75
417.605	234.75
417.828	252.75
418.051	260.75
418.274	242.75
418.497	245.75
418.72	233.75
418.943	266.75
419.166	251.75
419.389	281.75
419.611	256.75
419.834	257.75
420.057	271.75
420.28	276.75
420.503	261.75
420.726	230.75
420.948	245.75
421.171	230.75
421.394	241.75
421.617	242.75
421.839	233.75
422.062	257.75
422.285	261.75
422.507	245.75
422.73	248.75
422.953	259.75
423.175	240.75
423.398	261.75
423.621	283.75
423.843	266.75
424.066	262.75
424.288	249.75
424.511	242.75
424.733	245.75
424.956	263.75
425.178	291.75
425.401	317.75
425.623	352.75
425.846	309.75
426.068	284.75
426.291	270.75
426.513	242.75
426.735	248.75
426.958	244.75
427.18	280.75
427.402	339.75
427.625	382.75
427.847	318.75
428.069	242.75
428.292	229.75
428.514	229.75
428.736	222.75
428.958	262.75
429.181	315.75
429.403	274.75
429.625	233.75
429.847	229.75
430.069	235.75
430.292	234.75
430.514	219.75
430.736	219.75
430.958	280.75
431.18	254.75
431.402	222.75
431.624	224.75
431.846	227.75
432.068	210.75
432.29	231.75
432.512	249.75
432.734	293.75
432.956	278.75
433.178	225.75
433.4	221.75
433.622	219.75
433.844	249.75
434.066	242.75
434.287	269.75
434.509	246.75
434.731	260.75
434.953	264.75
435.175	247.75
435.397	294.75
435.618	250.75
435.84	238.75
436.062	212.75
436.284	225.75
436.505	236.75
436.727	225.75
436.949	211.75
437.17	230.75
437.392	232.75
437.614	225.75
437.835	220.75
438.057	233.75
438.278	259.75
438.5	327.75
438.721	317.75
438.943	257.75
439.165	228.75
439.386	231.75
439.608	221.75
439.829	214.75
440.05	223.75
440.272	234.75
440.493	235.75
440.715	286.75
440.936	246.75
441.158	235.75
441.379	232.75
441.6	254.75
441.822	275.75
442.043	233.75
442.264	239.75
442.486	243.75
442.707	226.75
442.928	254.75
443.149	247.75
443.371	244.75
443.592	250.75
443.813	231.75
444.034	252.75
444.255	249.75
444.476	249.75
444.698	270.75
444.919	276.75
445.14	347.75
445.361	300.75
445.582	261.75
445.803	241.75
446.024	247.75
446.245	246.75
446.466	239.75
446.687	231.75
446.908	246.75
447.129	231.75
447.35	211.75
447.571	223.75
447.792	219.75
448.013	211.75
448.234	204.75
448.455	234.75
448.675	206.75
448.896	228.75
449.117	219.75
449.338	222.75
449.559	215.75
449.779	198.75
450	243.75
450.221	232.75
450.442	226.75
450.662	220.75
450.883	215.75
451.104	228.75
451.324	224.75
451.545	217.75
451.766	214.75
451.986	218.75
452.207	214.75
452.428	209.75
452.648	235.75
452.869	226.75
453.089	220.75
453.31	235.75
453.53	220.75
453.751	201.75
453.971	209.75
454.192	223.75
454.412	219.75
454.633	207.75
454.853	212.75
455.073	203.75
455.294	208.75
455.514	201.75
455.734	205.75
455.955	204.75
456.175	190.75
456.395	211.75
456.616	185.75
456.836	207.75
457.056	208.75
457.276	210.75
457.497	186.75
457.717	206.75
457.937	195.75
458.157	195.75
458.377	206.75
458.598	215.75
458.818	208.75
459.038	229.75
459.258	223.75
459.478	234.75
459.698	232.75
459.918	252.75
460.138	257.75
460.358	252.75
460.578	250.75
460.798	272.75
461.018	248.75
461.238	249.75
461.458	242.75
461.678	247.75
461.898	272.75
462.118	249.75
462.338	253.75
462.558	270.75
462.777	271.75
462.997	292.75
463.217	323.75
463.437	298.75
463.657	289.75
463.876	288.75
464.096	284.75
464.316	283.75
464.536	275.75
464.755	289.75
464.975	280.75
465.195	269.75
465.414	268.75
465.634	248.75
465.854	240.75
466.073	254.75
466.293	220.75
466.512	230.75
466.732	272.75
466.951	243.75
467.171	241.75
467.391	232.75
467.61	229.75
467.829	242.75
468.049	244.75
468.268	221.75
468.488	217.75
468.707	235.75
468.927	272.75
469.146	276.75
469.365	249.75
469.585	229.75
469.804	254.75
470.023	284.75
470.243	249.75
470.462	229.75
470.681	227.75
470.901	245.75
471.12	245.75
471.339	254.75
471.558	243.75
471.777	236.75
471.997	227.75
472.216	265.75
472.435	254.75
472.654	242.75
472.873	243.75
473.092	258.75
473.311	252.75
473.53	238.75
473.749	234.75
473.968	251.75
474.187	249.75
474.406	216.75
474.625	245.75
474.844	251.75
475.063	258.75
475.282	248.75
475.501	230.75
475.72	283.75
475.939	275.75
476.158	263.75
476.377	296.75
476.596	341.75
476.814	353.75
477.033	304.75
477.252	258.75
477.471	259.75
477.69	248.75
477.908	272.75
478.127	287.75
478.346	255.75
478.564	282.75
478.783	264.75
479.002	290.75
479.22	293.75
479.439	322.75
479.658	313.75
479.876	275.75
480.095	293.75
480.313	299.75
480.532	281.75
480.751	281.75
480.969	278.75
481.188	297.75
481.406	320.75
481.624	294.75
481.843	274.75
482.061	264.75
482.28	305.75
482.498	348.75
482.717	336.75
482.935	302.75
483.153	279.75
483.372	270.75
483.59	244.75
483.808	270.75
484.027	275.75
484.245	248.75
484.463	233.75
484.681	269.75
484.9	269.75
485.118	312.75
485.336	264.75
485.554	262.75
485.772	274.75
485.99	286.75
486.209	301.75
486.427	298.75
486.645	287.75
486.863	293.75
487.081	295.75
487.299	314.75
487.517	310.75
487.735	272.75
487.953	296.75
488.171	288.75
488.389	278.75
488.607	280.75
488.825	294.75
489.043	305.75
489.261	309.75
489.479	340.75
489.696	292.75
489.914	288.75
490.132	281.75
490.35	272.75
490.568	272.75
490.786	258.75
491.003	278.75
491.221	276.75
491.439	267.75
491.657	284.75
491.874	282.75
492.092	324.75
492.31	368.75
492.527	368.75
492.745	347.75
492.963	305.75
493.18	312.75
493.398	303.75
493.615	283.75
493.833	289.75
494.05	280.75
494.268	296.75
494.485	293.75
494.703	293.75
494.92	295.75
495.138	253.75
495.355	290.75
495.573	292.75
495.79	327.75
496.008	362.75
496.225	332.75
496.442	313.75
496.66	311.75
496.877	322.75
497.094	329.75
497.312	315.75
497.529	314.75
497.746	305.75
497.963	317.75
498.181	345.75
498.398	341.75
498.615	380.75
498.832	382.75
499.049	420.75
499.267	402.75
499.484	407.75
499.701	405.75
499.918	472.75
500.135	540.75
500.352	568.75
500.569	580.75
500.786	586.75
501.003	564.75
501.22	521.75
501.437	466.75
501.654	405.75
501.871	371.75
502.088	376.75
502.305	364.75
502.522	355.75
