Data from NickelSpatula.Lamp.E10.P2_HRD10591_11-59-57-524.txt Node
Date: Tue Jul 23 11:59:57 EDT 2019
User: cochatt
Spectrometer: HR+D1059
Trigger mode: 1
Integration Time (sec): 1.000000E-1
Scans to average: 1
Electric dark correction enabled: true
Nonlinearity correction enabled: false
Boxcar width: 0
XAxis mode: Wavelengths
Number of Pixels in Spectrum: 2048
>>>>>Begin Spectral Data<<<<<
223.165	-31.5
223.4	-31.5
223.635	-31.5
223.869	-20.5
224.104	-6.5
224.338	-29.5
224.573	-16.5
224.808	-1.5
225.042	2.5
225.277	10.5
225.511	-6.5
225.746	-2.5
225.98	17.5
226.215	16.5
226.449	6.5
226.683	-3.5
226.918	25.5
227.152	39.5
227.387	26.5
227.621	26.5
227.856	38.5
228.09	56.5
228.324	42.5
228.559	65.5
228.793	88.5
229.027	140.5
229.262	143.5
229.496	153.5
229.73	165.5
229.964	186.5
230.199	241.5
230.433	228.5
230.667	213.5
230.901	197.5
231.136	196.5
231.37	212.5
231.604	217.5
231.838	254.5
232.072	255.5
232.306	255.5
232.541	227.5
232.775	257.5
233.009	283.5
233.243	312.5
233.477	319.5
233.711	350.5
233.945	340.5
234.179	329.5
234.413	379.5
234.647	400.5
234.881	469.5
235.115	436.5
235.349	418.5
235.583	369.5
235.817	370.5
236.051	391.5
236.285	431.5
236.519	465.5
236.753	451.5
236.987	448.5
237.221	414.5
237.455	440.5
237.689	475.5
237.922	472.5
238.156	488.5
238.39	585.5
238.624	667.5
238.858	614.5
239.091	522.5
239.325	513.5
239.559	505.5
239.793	560.5
240.027	693.5
240.26	620.5
240.494	595.5
240.728	594.5
240.961	706.5
241.195	673.5
241.429	661.5
241.662	621.5
241.896	549.5
242.13	501.5
242.363	468.5
242.597	472.5
242.83	551.5
243.064	546.5
243.298	599.5
243.531	641.5
243.765	653.5
243.998	639.5
244.232	627.5
244.465	600.5
244.699	600.5
244.932	677.5
245.166	641.5
245.399	563.5
245.633	558.5
245.866	587.5
246.099	634.5
246.333	738.5
246.566	773.5
246.8	778.5
247.033	783.5
247.266	705.5
247.5	704.5
247.733	707.5
247.966	673.5
248.2	708.5
248.433	796.5
248.666	896.5
248.899	883.5
249.133	891.5
249.366	1067.5
249.599	1102.5
249.832	971.5
250.066	862.5
250.299	871.5
250.532	858.5
250.765	837.5
250.998	768.5
251.231	742.5
251.465	805.5
251.698	874.5
251.931	839.5
252.164	886.5
252.397	972.5
252.63	1101.5
252.863	1225.5
253.096	1220.5
253.329	1182.5
253.562	1137.5
253.795	1288.5
254.028	1434.5
254.261	1448.5
254.494	1318.5
254.727	1186.5
254.96	1198.5
255.193	1217.5
255.426	1144.5
255.659	903.5
255.892	809.5
256.124	911.5
256.357	1065.5
256.59	1242.5
256.823	1212.5
257.056	1016.5
257.289	943.5
257.521	998.5
257.754	1195.5
257.987	1329.5
258.22	1157.5
258.452	1048.5
258.685	1181.5
258.918	1352.5
259.151	1287.5
259.383	1330.5
259.616	1507.5
259.849	1611.5
260.081	1776.5
260.314	1981.5
260.547	1515.5
260.779	1529.5
261.012	1772.5
261.244	1659.5
261.477	1680.5
261.71	1553.5
261.942	1327.5
262.175	1306.5
262.407	1259.5
262.64	1312.5
262.872	1557.5
263.105	1723.5
263.337	1791.5
263.57	1583.5
263.802	1072.5
264.035	924.5
264.267	899.5
264.499	765.5
264.732	727.5
264.964	703.5
265.197	707.5
265.429	821.5
265.661	827.5
265.894	893.5
266.126	950.5
266.358	1045.5
266.591	1253.5
266.823	1532.5
267.055	1448.5
267.287	1265.5
267.52	1254.5
267.752	1325.5
267.984	1465.5
268.216	1433.5
268.448	1127.5
268.681	1153.5
268.913	1205.5
269.145	1317.5
269.377	1340.5
269.609	1325.5
269.841	1237.5
270.073	1337.5
270.306	1402.5
270.538	1403.5
270.77	1439.5
271.002	1499.5
271.234	1524.5
271.466	1550.5
271.698	1509.5
271.93	1490.5
272.162	1473.5
272.394	1492.5
272.626	1468.5
272.858	1519.5
273.09	1576.5
273.322	1353.5
273.553	1319.5
273.785	1577.5
274.017	2056.5
274.249	2513.5
274.481	2637.5
274.713	2911.5
274.945	3309.5
275.176	3432.5
275.408	3023.5
275.64	2696.5
275.872	2761.5
276.104	2288.5
276.335	1991.5
276.567	1971.5
276.799	2069.5
277.031	2155.5
277.262	1675.5
277.494	1243.5
277.726	1220.5
277.957	1342.5
278.189	1541.5
278.421	1486.5
278.652	1487.5
278.884	1386.5
279.115	1290.5
279.347	1192.5
279.579	1223.5
279.81	1211.5
280.042	1230.5
280.273	1276.5
280.505	1190.5
280.736	1023.5
280.968	1042.5
281.199	1102.5
281.431	1252.5
281.662	1258.5
281.894	1207.5
282.125	1281.5
282.356	1407.5
282.588	1405.5
282.819	1301.5
283.051	1423.5
283.282	1719.5
283.513	2046.5
283.745	2309.5
283.976	2224.5
284.207	2105.5
284.439	2197.5
284.67	2109.5
284.901	1872.5
285.132	2015.5
285.364	2098.5
285.595	1952.5
285.826	2043.5
286.057	2083.5
286.288	2062.5
286.52	2068.5
286.751	2184.5
286.982	2200.5
287.213	1877.5
287.444	1830.5
287.675	1927.5
287.906	1899.5
288.138	1564.5
288.369	1411.5
288.6	1305.5
288.831	1378.5
289.062	1606.5
289.293	1773.5
289.524	1656.5
289.755	1663.5
289.986	1673.5
290.217	1460.5
290.448	1133.5
290.679	991.5
290.91	951.5
291.141	961.5
291.371	1005.5
291.602	992.5
291.833	1012.5
292.064	1092.5
292.295	1247.5
292.526	1440.5
292.757	1496.5
292.987	1617.5
293.218	1618.5
293.449	1626.5
293.68	1727.5
293.91	1647.5
294.141	1683.5
294.372	1546.5
294.603	1430.5
294.833	1608.5
295.064	1904.5
295.295	1756.5
295.525	1356.5
295.756	1173.5
295.987	1045.5
296.217	1032.5
296.448	1057.5
296.679	1099.5
296.909	1250.5
297.14	1354.5
297.37	1480.5
297.601	1418.5
297.831	1173.5
298.062	1320.5
298.292	1473.5
298.523	1614.5
298.753	1843.5
298.984	1652.5
299.214	1296.5
299.445	1108.5
299.675	1097.5
299.905	1085.5
300.136	1124.5
300.366	1230.5
300.597	1193.5
300.827	1056.5
301.057	1010.5
301.288	1055.5
301.518	1143.5
301.748	1281.5
301.979	1403.5
302.209	1533.5
302.439	1535.5
302.669	1300.5
302.9	1273.5
303.13	1183.5
303.36	1167.5
303.59	1091.5
303.82	1116.5
304.051	1282.5
304.281	1385.5
304.511	1318.5
304.741	1183.5
304.971	1238.5
305.201	1319.5
305.431	1251.5
305.661	1109.5
305.891	1111.5
306.121	1093.5
306.352	968.5
306.582	896.5
306.812	881.5
307.042	896.5
307.272	840.5
307.502	841.5
307.731	942.5
307.961	966.5
308.191	876.5
308.421	833.5
308.651	826.5
308.881	781.5
309.111	805.5
309.341	867.5
309.571	916.5
309.8	955.5
310.03	946.5
310.26	1030.5
310.49	974.5
310.72	904.5
310.949	876.5
311.179	904.5
311.409	964.5
311.639	1125.5
311.868	1427.5
312.098	1853.5
312.328	1989.5
312.557	1869.5
312.787	1924.5
313.017	1704.5
313.246	1851.5
313.476	2011.5
313.706	1629.5
313.935	1319.5
314.165	1060.5
314.394	973.5
314.624	967.5
314.853	1055.5
315.083	1067.5
315.312	1029.5
315.542	1072.5
315.771	987.5
316.001	911.5
316.23	841.5
316.46	848.5
316.689	875.5
316.919	872.5
317.148	906.5
317.377	889.5
317.607	889.5
317.836	987.5
318.065	1149.5
318.295	1270.5
318.524	1188.5
318.753	1003.5
318.983	960.5
319.212	944.5
319.441	1046.5
319.67	1175.5
319.9	1244.5
320.129	1174.5
320.358	1012.5
320.587	982.5
320.816	1035.5
321.046	1191.5
321.275	1377.5
321.504	1385.5
321.733	1358.5
321.962	1286.5
322.191	1207.5
322.42	1147.5
322.649	1197.5
322.878	1280.5
323.108	1278.5
323.337	1131.5
323.566	1127.5
323.795	1089.5
324.024	1048.5
324.253	1009.5
324.482	996.5
324.71	1101.5
324.939	1249.5
325.168	1162.5
325.397	955.5
325.626	927.5
325.855	926.5
326.084	973.5
326.313	907.5
326.542	856.5
326.77	917.5
326.999	961.5
327.228	1015.5
327.457	1048.5
327.686	1035.5
327.914	891.5
328.143	885.5
328.372	854.5
328.6	843.5
328.829	897.5
329.058	910.5
329.287	931.5
329.515	913.5
329.744	919.5
329.972	860.5
330.201	805.5
330.43	883.5
330.658	992.5
330.887	1115.5
331.115	1057.5
331.344	1034.5
331.572	982.5
331.801	915.5
332.03	897.5
332.258	889.5
332.486	972.5
332.715	1003.5
332.943	927.5
333.172	895.5
333.4	932.5
333.629	1053.5
333.857	1159.5
334.085	1129.5
334.314	1090.5
334.542	1069.5
334.771	972.5
334.999	958.5
335.227	942.5
335.455	955.5
335.684	1049.5
335.912	1225.5
336.14	1341.5
336.369	1264.5
336.597	1239.5
336.825	1394.5
337.053	1613.5
337.281	1277.5
337.51	995.5
337.738	1008.5
337.966	1086.5
338.194	1191.5
338.422	1155.5
338.65	1017.5
338.878	911.5
339.106	914.5
339.334	1060.5
339.562	1120.5
339.79	1051.5
340.018	963.5
340.246	1068.5
340.474	1246.5
340.702	1339.5
340.93	1390.5
341.158	1371.5
341.386	1151.5
341.614	1148.5
341.842	1144.5
342.07	1220.5
342.298	1377.5
342.526	1476.5
342.754	1271.5
342.981	1139.5
343.209	1114.5
343.437	1191.5
343.665	1229.5
343.893	1233.5
344.12	1428.5
344.348	1679.5
344.576	1491.5
344.804	1243.5
345.031	1067.5
345.259	1025.5
345.487	1023.5
345.714	1065.5
345.942	1165.5
346.17	1242.5
346.397	1179.5
346.625	1034.5
346.853	1000.5
347.08	962.5
347.308	1024.5
347.535	1149.5
347.763	1172.5
347.99	1042.5
348.218	943.5
348.445	1005.5
348.673	985.5
348.9	1012.5
349.128	1065.5
349.355	1139.5
349.583	1117.5
349.81	1036.5
350.037	986.5
350.265	877.5
350.492	801.5
350.72	809.5
350.947	846.5
351.174	920.5
351.402	995.5
351.629	984.5
351.856	937.5
352.083	917.5
352.311	1019.5
352.538	1140.5
352.765	1193.5
352.992	1087.5
353.22	1040.5
353.447	1036.5
353.674	993.5
353.901	1007.5
354.128	1004.5
354.355	1061.5
354.583	1046.5
354.81	1025.5
355.037	1063.5
355.264	1059.5
355.491	1139.5
355.718	1240.5
355.945	1183.5
356.172	1149.5
356.399	1154.5
356.626	1377.5
356.853	1708.5
357.08	1805.5
357.307	1846.5
357.534	1419.5
357.761	1465.5
357.988	1858.5
358.215	2159.5
358.441	2059.5
358.668	1724.5
358.895	1604.5
359.122	1274.5
359.349	1247.5
359.576	1411.5
359.802	1164.5
360.029	1005.5
360.256	1055.5
360.483	1333.5
360.709	1745.5
360.936	1780.5
361.163	1517.5
361.39	1205.5
361.616	1119.5
361.843	1320.5
362.07	1591.5
362.296	1444.5
362.523	1118.5
362.749	961.5
362.976	1016.5
363.203	1254.5
363.429	1421.5
363.656	1112.5
363.882	1050.5
364.109	1048.5
364.335	1035.5
364.562	1020.5
364.788	1179.5
365.015	1362.5
365.241	1244.5
365.468	983.5
365.694	865.5
365.92	833.5
366.147	792.5
366.373	821.5
366.599	801.5
366.826	833.5
367.052	845.5
367.278	860.5
367.505	854.5
367.731	929.5
367.957	1061.5
368.184	1033.5
368.41	1043.5
368.636	1057.5
368.862	1123.5
369.089	1047.5
369.315	943.5
369.541	935.5
369.767	940.5
369.993	852.5
370.219	865.5
370.445	957.5
370.672	1045.5
370.898	1137.5
371.124	1115.5
371.35	987.5
371.576	952.5
371.802	1025.5
372.028	1199.5
372.254	1382.5
372.48	1207.5
372.706	1057.5
372.932	1136.5
373.158	1203.5
373.384	1423.5
373.61	1936.5
373.835	1976.5
374.061	1427.5
374.287	1219.5
374.513	1437.5
374.739	1750.5
374.965	1778.5
375.191	1744.5
375.416	1211.5
375.642	1075.5
375.868	1229.5
376.094	1433.5
376.319	1211.5
376.545	1331.5
376.771	1435.5
376.997	1195.5
377.222	885.5
377.448	786.5
377.674	768.5
377.899	778.5
378.125	767.5
378.35	795.5
378.576	840.5
378.802	891.5
379.027	939.5
379.253	925.5
379.478	927.5
379.704	1081.5
379.929	1147.5
380.155	1137.5
380.38	984.5
380.606	1036.5
380.831	1137.5
381.057	1030.5
381.282	995.5
381.507	1207.5
381.733	1535.5
381.958	1636.5
382.184	1726.5
382.409	1780.5
382.634	1773.5
382.86	1864.5
383.085	1472.5
383.31	1171.5
383.535	1272.5
383.761	1268.5
383.986	1222.5
384.211	1483.5
384.436	1466.5
384.662	1087.5
384.887	1031.5
385.112	1073.5
385.337	1119.5
385.562	1017.5
385.787	1138.5
386.013	1277.5
386.238	1303.5
386.463	1055.5
386.688	997.5
386.913	971.5
387.138	931.5
387.363	991.5
387.588	1046.5
387.813	987.5
388.038	1148.5
388.263	1007.5
388.488	1009.5
388.713	1158.5
388.938	1293.5
389.163	1079.5
389.387	936.5
389.612	944.5
389.837	976.5
390.062	1000.5
390.287	1026.5
390.512	1018.5
390.736	949.5
390.961	906.5
391.186	851.5
391.411	853.5
391.636	873.5
391.86	953.5
392.085	1038.5
392.31	1032.5
392.534	1005.5
392.759	973.5
392.984	1042.5
393.208	1004.5
393.433	881.5
393.658	830.5
393.882	822.5
394.107	798.5
394.331	823.5
394.556	819.5
394.78	848.5
395.005	870.5
395.229	887.5
395.454	899.5
395.678	914.5
395.903	958.5
396.127	896.5
396.352	940.5
396.576	993.5
396.801	1015.5
397.025	1118.5
397.249	1185.5
397.474	971.5
397.698	967.5
397.922	1002.5
398.147	930.5
398.371	941.5
398.595	994.5
398.82	938.5
399.044	963.5
399.268	1016.5
399.492	1057.5
399.717	1083.5
399.941	1109.5
400.165	1077.5
400.389	1033.5
400.613	1083.5
400.837	1056.5
401.062	936.5
401.286	898.5
401.51	933.5
401.734	944.5
401.958	953.5
402.182	931.5
402.406	949.5
402.63	911.5
402.854	995.5
403.078	1083.5
403.302	1352.5
403.526	1373.5
403.75	1250.5
403.974	1086.5
404.198	1109.5
404.422	1257.5
404.645	1471.5
404.869	1695.5
405.093	1201.5
405.317	999.5
405.541	995.5
405.765	1030.5
405.988	1055.5
406.212	1141.5
406.436	1365.5
406.66	1457.5
406.883	1145.5
407.107	1222.5
407.331	1392.5
407.555	1347.5
407.778	1093.5
408.002	1072.5
408.226	1054.5
408.449	1077.5
408.673	1051.5
408.896	954.5
409.12	923.5
409.344	945.5
409.567	908.5
409.791	891.5
410.014	927.5
410.238	906.5
410.461	909.5
410.685	901.5
410.908	929.5
411.132	922.5
411.355	947.5
411.578	974.5
411.802	956.5
412.025	1028.5
412.249	1009.5
412.472	979.5
412.695	951.5
412.919	958.5
413.142	995.5
413.365	1093.5
413.589	1095.5
413.812	968.5
414.035	931.5
414.258	953.5
414.482	1069.5
414.705	1121.5
414.928	949.5
415.151	870.5
415.374	901.5
415.597	943.5
415.821	952.5
416.044	890.5
416.267	853.5
416.49	855.5
416.713	871.5
416.936	841.5
417.159	902.5
417.382	903.5
417.605	944.5
417.828	914.5
418.051	919.5
418.274	947.5
418.497	973.5
418.72	944.5
418.943	1003.5
419.166	1006.5
419.389	1072.5
419.611	1029.5
419.834	1068.5
420.057	1181.5
420.28	1155.5
420.503	1059.5
420.726	932.5
420.948	886.5
421.171	911.5
421.394	879.5
421.617	880.5
421.839	919.5
422.062	975.5
422.285	945.5
422.507	954.5
422.73	963.5
422.953	995.5
423.175	943.5
423.398	968.5
423.621	1035.5
423.843	1093.5
424.066	1023.5
424.288	987.5
424.511	910.5
424.733	943.5
424.956	976.5
425.178	1114.5
425.401	1302.5
425.623	1440.5
425.846	1188.5
426.068	1031.5
426.291	1167.5
426.513	1059.5
426.735	990.5
426.958	1021.5
427.18	1211.5
427.402	1576.5
427.625	1565.5
427.847	1220.5
428.069	911.5
428.292	907.5
428.514	898.5
428.736	891.5
428.958	1007.5
429.181	1170.5
429.403	1000.5
429.625	927.5
429.847	910.5
430.069	906.5
430.292	960.5
430.514	880.5
430.736	982.5
430.958	1240.5
431.18	1109.5
431.402	872.5
431.624	829.5
431.846	864.5
432.068	804.5
432.29	835.5
432.512	964.5
432.734	1279.5
432.956	1191.5
433.178	887.5
433.4	867.5
433.622	836.5
433.844	904.5
434.066	959.5
434.287	944.5
434.509	926.5
434.731	977.5
434.953	883.5
435.175	959.5
435.397	1083.5
435.618	923.5
435.84	832.5
436.062	855.5
436.284	868.5
436.505	795.5
436.727	813.5
436.949	797.5
437.17	853.5
437.392	885.5
437.614	875.5
437.835	847.5
438.057	861.5
438.278	992.5
438.5	1474.5
438.721	1419.5
438.943	987.5
439.165	836.5
439.386	776.5
439.608	811.5
439.829	811.5
440.05	812.5
440.272	869.5
440.493	1034.5
440.715	1275.5
440.936	996.5
441.158	869.5
441.379	884.5
441.6	1026.5
441.822	1056.5
442.043	891.5
442.264	882.5
442.486	919.5
442.707	879.5
442.928	895.5
443.149	906.5
443.371	919.5
443.592	966.5
443.813	919.5
444.034	906.5
444.255	923.5
444.476	976.5
444.698	977.5
444.919	974.5
445.14	1036.5
445.361	1045.5
445.582	993.5
445.803	937.5
446.024	963.5
446.245	957.5
446.466	915.5
446.687	895.5
446.908	888.5
447.129	853.5
447.35	823.5
447.571	817.5
447.792	801.5
448.013	819.5
448.234	815.5
448.455	800.5
448.675	803.5
448.896	812.5
449.117	811.5
449.338	790.5
449.559	833.5
449.779	889.5
450	893.5
450.221	844.5
450.442	813.5
450.662	839.5
450.883	817.5
451.104	830.5
451.324	808.5
451.545	831.5
451.766	814.5
451.986	774.5
452.207	749.5
452.428	779.5
452.648	791.5
452.869	813.5
453.089	843.5
453.31	848.5
453.53	776.5
453.751	773.5
453.971	744.5
454.192	790.5
454.412	792.5
454.633	777.5
454.853	783.5
455.073	727.5
455.294	721.5
455.514	752.5
455.734	779.5
455.955	835.5
456.175	864.5
456.395	769.5
456.616	702.5
456.836	721.5
457.056	710.5
457.276	710.5
457.497	738.5
457.717	749.5
457.937	728.5
458.157	718.5
458.377	732.5
458.598	755.5
458.818	784.5
459.038	829.5
459.258	848.5
459.478	881.5
459.698	930.5
459.918	918.5
460.138	865.5
460.358	903.5
460.578	887.5
460.798	889.5
461.018	914.5
461.238	880.5
461.458	865.5
461.678	892.5
461.898	939.5
462.118	902.5
462.338	939.5
462.558	1003.5
462.777	1007.5
462.997	1026.5
463.217	1023.5
463.437	1057.5
463.657	1007.5
463.876	980.5
464.096	968.5
464.316	999.5
464.536	969.5
464.755	1032.5
464.975	1063.5
465.195	987.5
465.414	1031.5
465.634	976.5
465.854	949.5
466.073	880.5
466.293	872.5
466.512	929.5
466.732	1025.5
466.951	1058.5
467.171	965.5
467.391	901.5
467.61	897.5
467.829	941.5
468.049	962.5
468.268	893.5
468.488	884.5
468.707	943.5
468.927	1070.5
469.146	1160.5
469.365	1056.5
469.585	956.5
469.804	1072.5
470.023	1145.5
470.243	989.5
470.462	922.5
470.681	923.5
470.901	950.5
471.12	1004.5
471.339	982.5
471.558	919.5
471.777	948.5
471.997	1045.5
472.216	1150.5
472.435	1110.5
472.654	1009.5
472.873	973.5
473.092	1054.5
473.311	1055.5
473.53	962.5
473.749	967.5
473.968	996.5
474.187	1025.5
474.406	962.5
474.625	960.5
474.844	991.5
475.063	1070.5
475.282	1073.5
475.501	1075.5
475.72	1159.5
475.939	1092.5
476.158	1122.5
476.377	1292.5
476.596	1456.5
476.814	1554.5
477.033	1274.5
477.252	1092.5
477.471	1030.5
477.69	1054.5
477.908	1104.5
478.127	1160.5
478.346	1073.5
478.564	1187.5
478.783	1105.5
479.002	1139.5
479.22	1313.5
479.439	1430.5
479.658	1246.5
479.876	1148.5
480.095	1222.5
480.313	1253.5
480.532	1140.5
480.751	1124.5
480.969	1165.5
481.188	1324.5
481.406	1358.5
481.624	1277.5
481.843	1115.5
482.061	1116.5
482.28	1208.5
482.498	1502.5
482.717	1425.5
482.935	1235.5
483.153	1163.5
483.372	1084.5
483.59	1071.5
483.808	1075.5
484.027	1050.5
484.245	1040.5
484.463	1013.5
484.681	1047.5
484.9	1129.5
485.118	1267.5
485.336	1121.5
485.554	1055.5
485.772	1123.5
485.99	1176.5
486.209	1282.5
486.427	1275.5
486.645	1218.5
486.863	1293.5
487.081	1281.5
487.299	1396.5
487.517	1343.5
487.735	1249.5
487.953	1264.5
488.171	1299.5
488.389	1205.5
488.607	1131.5
488.825	1226.5
489.043	1344.5
489.261	1516.5
489.479	1614.5
489.696	1327.5
489.914	1229.5
490.132	1135.5
490.35	1165.5
490.568	1165.5
490.786	1149.5
491.003	1169.5
491.221	1178.5
491.439	1147.5
491.657	1163.5
491.874	1271.5
492.092	1527.5
492.31	1923.5
492.527	1804.5
492.745	1599.5
492.963	1340.5
493.18	1315.5
493.398	1361.5
493.615	1304.5
493.833	1273.5
494.05	1251.5
494.268	1307.5
494.485	1265.5
494.703	1245.5
494.92	1251.5
495.138	1228.5
495.355	1249.5
495.573	1260.5
495.79	1459.5
496.008	1933.5
496.225	1630.5
496.442	1417.5
496.66	1382.5
496.877	1478.5
497.094	1433.5
497.312	1339.5
497.529	1374.5
497.746	1370.5
497.963	1418.5
498.181	1498.5
498.398	1613.5
498.615	1720.5
498.832	1755.5
499.049	1741.5
499.267	1563.5
499.484	1575.5
499.701	1625.5
499.918	1766.5
500.135	1877.5
500.352	1929.5
500.569	2014.5
500.786	2090.5
501.003	2094.5
501.22	1867.5
501.437	1771.5
501.654	1699.5
501.871	1644.5
502.088	1672.5
502.305	1502.5
502.522	1538.5
502.739	1560.5
502.956	1400.5
503.172	1365.5
503.389	1343.5
503.606	1317.5
503.823	1280.5
504.04	1340.5
504.256	1365.5
504.473	1371.5
504.69	1379.5
504.907	1447.5
505.123	1415.5
505.34	1516.5
505.557	1475.5
505.773	1381.5
505.99	1352.5
506.207	1396.5
506.423	1294.5
506.64	1196.5
506.856	1267.5
507.073	1423.5
507.289	1390.5
507.506	1379.5
507.722	1461.5
507.939	1479.5
508.155	1474.5
508.372	1343.5
508.588	1293.5
508.805	1289.5
509.021	1251.5
509.238	1221.5
509.454	1232.5
509.67	1192.5
