Data from NickelSpatula.Lamp.E10.P2_HRD10591_11-57-22-565.txt Node
Date: Tue Jul 23 11:57:22 EDT 2019
User: cochatt
Spectrometer: HR+D1059
Trigger mode: 1
Integration Time (sec): 1.000000E-1
Scans to average: 1
Electric dark correction enabled: true
Nonlinearity correction enabled: false
Boxcar width: 0
XAxis mode: Wavelengths
Number of Pixels in Spectrum: 2048
>>>>>Begin Spectral Data<<<<<
223.165	-14.38
223.4	-14.38
223.635	-14.38
223.869	-9.38
224.104	-8.38
224.338	-25.38
224.573	-18.38
224.808	-12.38
225.042	-9.38
225.277	-1.38
225.511	-16.38
225.746	-7.38
225.98	6.62
226.215	19.62
226.449	17.62
226.683	27.62
226.918	17.62
227.152	33.62
227.387	22.62
227.621	32.62
227.856	39.62
228.09	34.62
228.324	40.62
228.559	58.62
228.793	91.62
229.027	136.62
229.262	150.62
229.496	153.62
229.73	168.62
229.964	191.62
230.199	223.62
230.433	220.62
230.667	200.62
230.901	198.62
231.136	179.62
231.37	211.62
231.604	216.62
231.838	238.62
232.072	223.62
232.306	251.62
232.541	251.62
232.775	260.62
233.009	264.62
233.243	289.62
233.477	316.62
233.711	348.62
233.945	329.62
234.179	314.62
234.413	328.62
234.647	396.62
234.881	455.62
235.115	422.62
235.349	382.62
235.583	348.62
235.817	340.62
236.051	353.62
236.285	395.62
236.519	435.62
236.753	426.62
236.987	412.62
237.221	387.62
237.455	405.62
237.689	405.62
237.922	463.62
238.156	463.62
238.39	549.62
238.624	643.62
238.858	559.62
239.091	486.62
239.325	490.62
239.559	457.62
239.793	534.62
240.027	644.62
240.26	595.62
240.494	561.62
240.728	576.62
240.961	654.62
241.195	620.62
241.429	625.62
241.662	609.62
241.896	512.62
242.13	458.62
242.363	421.62
242.597	453.62
242.83	517.62
243.064	544.62
243.298	576.62
243.531	605.62
243.765	606.62
243.998	610.62
244.232	576.62
244.465	586.62
244.699	566.62
244.932	639.62
245.166	602.62
245.399	533.62
245.633	530.62
245.866	566.62
246.099	593.62
246.333	686.62
246.566	736.62
246.8	739.62
247.033	732.62
247.266	667.62
247.5	673.62
247.733	650.62
247.966	649.62
248.2	674.62
248.433	759.62
248.666	811.62
248.899	795.62
249.133	836.62
249.366	952.62
249.599	1013.62
249.832	909.62
250.066	796.62
250.299	819.62
250.532	801.62
250.765	774.62
250.998	712.62
251.231	695.62
251.465	760.62
251.698	833.62
251.931	772.62
252.164	796.62
252.397	916.62
252.63	1006.62
252.863	1106.62
253.096	1145.62
253.329	1128.62
253.562	1074.62
253.795	1179.62
254.028	1319.62
254.261	1334.62
254.494	1197.62
254.727	1094.62
254.96	1083.62
255.193	1119.62
255.426	1083.62
255.659	853.62
255.892	742.62
256.124	855.62
256.357	981.62
256.59	1164.62
256.823	1120.62
257.056	915.62
257.289	892.62
257.521	946.62
257.754	1110.62
257.987	1272.62
258.22	1080.62
258.452	956.62
258.685	1108.62
258.918	1255.62
259.151	1209.62
259.383	1233.62
259.616	1462.62
259.849	1512.62
260.081	1671.62
260.314	1809.62
260.547	1429.62
260.779	1429.62
261.012	1651.62
261.244	1565.62
261.477	1549.62
261.71	1484.62
261.942	1256.62
262.175	1271.62
262.407	1185.62
262.64	1240.62
262.872	1460.62
263.105	1592.62
263.337	1661.62
263.57	1509.62
263.802	1000.62
264.035	899.62
264.267	862.62
264.499	740.62
264.732	704.62
264.964	664.62
265.197	713.62
265.429	767.62
265.661	802.62
265.894	827.62
266.126	887.62
266.358	987.62
266.591	1216.62
266.823	1407.62
267.055	1361.62
267.287	1184.62
267.52	1236.62
267.752	1288.62
267.984	1388.62
268.216	1345.62
268.448	1072.62
268.681	1080.62
268.913	1156.62
269.145	1219.62
269.377	1280.62
269.609	1267.62
269.841	1187.62
270.073	1265.62
270.306	1315.62
270.538	1351.62
270.77	1382.62
271.002	1359.62
271.234	1452.62
271.466	1443.62
271.698	1366.62
271.93	1363.62
272.162	1382.62
272.394	1353.62
272.626	1351.62
272.858	1393.62
273.09	1431.62
273.322	1260.62
273.553	1213.62
273.785	1429.62
274.017	1911.62
274.249	2349.62
274.481	2434.62
274.713	2615.62
274.945	3017.62
275.176	3144.62
275.408	2753.62
275.64	2562.62
275.872	2499.62
276.104	2161.62
276.335	1839.62
276.567	1851.62
276.799	1896.62
277.031	1980.62
277.262	1597.62
277.494	1199.62
277.726	1144.62
277.957	1268.62
278.189	1439.62
278.421	1415.62
278.652	1390.62
278.884	1331.62
279.115	1225.62
279.347	1148.62
279.579	1173.62
279.81	1157.62
280.042	1171.62
280.273	1186.62
280.505	1111.62
280.736	974.62
280.968	973.62
281.199	1056.62
281.431	1227.62
281.662	1187.62
281.894	1146.62
282.125	1208.62
282.356	1305.62
282.588	1339.62
282.819	1247.62
283.051	1323.62
283.282	1624.62
283.513	1937.62
283.745	2147.62
283.976	2126.62
284.207	1913.62
284.439	2012.62
284.67	1941.62
284.901	1707.62
285.132	1902.62
285.364	1916.62
285.595	1797.62
285.826	1937.62
286.057	1965.62
286.288	1912.62
286.52	1910.62
286.751	2008.62
286.982	2023.62
287.213	1747.62
287.444	1689.62
287.675	1816.62
287.906	1745.62
288.138	1536.62
288.369	1323.62
288.6	1244.62
288.831	1325.62
289.062	1518.62
289.293	1657.62
289.524	1570.62
289.755	1573.62
289.986	1605.62
290.217	1369.62
290.448	1075.62
290.679	920.62
290.91	878.62
291.141	893.62
291.371	915.62
291.602	939.62
291.833	961.62
292.064	1021.62
292.295	1164.62
292.526	1373.62
292.757	1401.62
292.987	1508.62
293.218	1509.62
293.449	1568.62
293.68	1643.62
293.91	1547.62
294.141	1582.62
294.372	1464.62
294.603	1393.62
294.833	1512.62
295.064	1767.62
295.295	1654.62
295.525	1298.62
295.756	1099.62
295.987	973.62
296.217	977.62
296.448	1009.62
296.679	1072.62
296.909	1179.62
297.14	1235.62
297.37	1369.62
297.601	1243.62
297.831	1117.62
298.062	1231.62
298.292	1378.62
298.523	1491.62
298.753	1679.62
298.984	1510.62
299.214	1199.62
299.445	1023.62
299.675	991.62
299.905	964.62
300.136	1001.62
300.366	1153.62
300.597	1124.62
300.827	976.62
301.057	941.62
301.288	949.62
301.518	1028.62
301.748	1135.62
301.979	1271.62
302.209	1351.62
302.439	1393.62
302.669	1162.62
302.9	1171.62
303.13	1084.62
303.36	1041.62
303.59	1019.62
303.82	1103.62
304.051	1180.62
304.281	1285.62
304.511	1242.62
304.741	1089.62
304.971	1174.62
305.201	1245.62
305.431	1124.62
305.661	1040.62
305.891	1005.62
306.121	1038.62
306.352	902.62
306.582	876.62
306.812	833.62
307.042	806.62
307.272	788.62
307.502	804.62
307.731	847.62
307.961	844.62
308.191	837.62
308.421	772.62
308.651	771.62
308.881	741.62
309.111	761.62
309.341	790.62
309.571	841.62
309.8	872.62
310.03	899.62
310.26	932.62
310.49	901.62
310.72	844.62
310.949	841.62
311.179	849.62
311.409	885.62
311.639	1059.62
311.868	1316.62
312.098	1734.62
312.328	1886.62
312.557	1745.62
312.787	1813.62
313.017	1600.62
313.246	1750.62
313.476	1848.62
313.706	1558.62
313.935	1244.62
314.165	1016.62
314.394	928.62
314.624	921.62
314.853	996.62
315.083	1011.62
315.312	949.62
315.542	961.62
315.771	920.62
316.001	831.62
316.23	795.62
316.46	773.62
316.689	844.62
316.919	865.62
317.148	855.62
317.377	830.62
317.607	853.62
317.836	933.62
318.065	1067.62
318.295	1190.62
318.524	1113.62
318.753	937.62
318.983	904.62
319.212	881.62
319.441	958.62
319.67	1094.62
319.9	1155.62
320.129	1079.62
320.358	939.62
320.587	903.62
320.816	966.62
321.046	1102.62
321.275	1297.62
321.504	1261.62
321.733	1186.62
321.962	1101.62
322.191	1106.62
322.42	1029.62
322.649	1061.62
322.878	1128.62
323.108	1157.62
323.337	1035.62
323.566	1043.62
323.795	1002.62
324.024	992.62
324.253	928.62
324.482	922.62
324.71	996.62
324.939	1113.62
325.168	1064.62
325.397	889.62
325.626	864.62
325.855	882.62
326.084	895.62
326.313	836.62
326.542	824.62
326.77	853.62
326.999	831.62
327.228	947.62
327.457	957.62
327.686	965.62
327.914	848.62
328.143	798.62
328.372	798.62
328.6	815.62
328.829	855.62
329.058	833.62
329.287	848.62
329.515	866.62
329.744	848.62
329.972	809.62
330.201	805.62
330.43	814.62
330.658	938.62
330.887	1039.62
331.115	1022.62
331.344	981.62
331.572	921.62
331.801	865.62
332.03	783.62
332.258	856.62
332.486	909.62
332.715	963.62
332.943	879.62
333.172	853.62
333.4	895.62
333.629	989.62
333.857	1112.62
334.085	1054.62
334.314	1075.62
334.542	1003.62
334.771	929.62
334.999	900.62
335.227	892.62
335.455	914.62
335.684	1011.62
335.912	1165.62
336.14	1292.62
336.369	1234.62
336.597	1191.62
336.825	1304.62
337.053	1427.62
337.281	1159.62
337.51	971.62
337.738	913.62
337.966	998.62
338.194	1106.62
338.422	1058.62
338.65	914.62
338.878	852.62
339.106	870.62
339.334	979.62
339.562	1049.62
339.79	953.62
340.018	924.62
340.246	1013.62
340.474	1144.62
340.702	1234.62
340.93	1277.62
341.158	1233.62
341.386	1046.62
341.614	1064.62
341.842	1057.62
342.07	1121.62
342.298	1249.62
342.526	1316.62
342.754	1168.62
342.981	1060.62
343.209	971.62
343.437	1085.62
343.665	1116.62
343.893	1124.62
344.12	1272.62
344.348	1501.62
344.576	1351.62
344.804	1112.62
345.031	981.62
345.259	932.62
345.487	953.62
345.714	987.62
345.942	1051.62
346.17	1136.62
346.397	1055.62
346.625	949.62
346.853	904.62
347.08	887.62
347.308	938.62
347.535	1061.62
347.763	1071.62
347.99	949.62
348.218	899.62
348.445	943.62
348.673	960.62
348.9	925.62
349.128	999.62
349.355	1006.62
349.583	1009.62
349.81	968.62
350.037	902.62
350.265	794.62
350.492	795.62
350.72	772.62
350.947	781.62
351.174	857.62
351.402	891.62
351.629	923.62
351.856	884.62
352.083	860.62
352.311	905.62
352.538	989.62
352.765	1083.62
352.992	961.62
353.22	905.62
353.447	942.62
353.674	897.62
353.901	906.62
354.128	896.62
354.355	920.62
354.583	923.62
354.81	939.62
355.037	944.62
355.264	925.62
355.491	994.62
355.718	1088.62
355.945	1074.62
356.172	1054.62
356.399	1025.62
356.626	1278.62
356.853	1474.62
357.08	1552.62
357.307	1604.62
357.534	1239.62
357.761	1301.62
357.988	1631.62
358.215	1875.62
358.441	1777.62
358.668	1481.62
358.895	1345.62
359.122	1134.62
359.349	1104.62
359.576	1222.62
359.802	1031.62
360.029	894.62
360.256	958.62
360.483	1173.62
360.709	1476.62
360.936	1511.62
361.163	1332.62
361.39	1058.62
361.616	991.62
361.843	1161.62
362.07	1366.62
362.296	1249.62
362.523	997.62
362.749	888.62
362.976	944.62
363.203	1121.62
363.429	1264.62
363.656	1017.62
363.882	928.62
364.109	911.62
364.335	938.62
364.562	927.62
364.788	1026.62
365.015	1215.62
365.241	1069.62
365.468	918.62
365.694	828.62
365.92	781.62
366.147	777.62
366.373	772.62
366.599	743.62
366.826	778.62
367.052	755.62
367.278	791.62
367.505	769.62
367.731	839.62
367.957	930.62
368.184	985.62
368.41	966.62
368.636	957.62
368.862	981.62
369.089	961.62
369.315	877.62
369.541	857.62
369.767	855.62
369.993	783.62
370.219	812.62
370.445	833.62
370.672	929.62
370.898	994.62
371.124	1016.62
371.35	885.62
371.576	876.62
371.802	913.62
372.028	1075.62
372.254	1224.62
372.48	1050.62
372.706	969.62
372.932	1021.62
373.158	1003.62
373.384	1267.62
373.61	1614.62
373.835	1700.62
374.061	1267.62
374.287	1065.62
374.513	1260.62
374.739	1518.62
374.965	1542.62
375.191	1512.62
375.416	1059.62
375.642	933.62
375.868	1146.62
376.094	1253.62
376.319	1117.62
376.545	1191.62
376.771	1255.62
376.997	1067.62
377.222	819.62
377.448	743.62
377.674	703.62
377.899	699.62
378.125	733.62
378.35	738.62
378.576	749.62
378.802	808.62
379.027	859.62
379.253	833.62
379.478	878.62
379.704	977.62
379.929	997.62
380.155	993.62
380.38	876.62
380.606	954.62
380.831	1065.62
381.057	975.62
381.282	888.62
381.507	1067.62
381.733	1363.62
381.958	1403.62
382.184	1495.62
382.409	1565.62
382.634	1525.62
382.86	1600.62
383.085	1334.62
383.31	1062.62
383.535	1139.62
383.761	1098.62
383.986	1067.62
384.211	1304.62
384.436	1262.62
384.662	997.62
384.887	939.62
385.112	969.62
385.337	953.62
385.562	953.62
385.787	1049.62
386.013	1158.62
386.238	1157.62
386.463	984.62
386.688	927.62
386.913	925.62
387.138	846.62
387.363	916.62
387.588	945.62
387.813	947.62
388.038	986.62
388.263	930.62
388.488	906.62
388.713	1029.62
388.938	1109.62
389.163	986.62
389.387	883.62
389.612	837.62
389.837	868.62
390.062	917.62
390.287	935.62
390.512	951.62
390.736	886.62
390.961	838.62
391.186	854.62
391.411	795.62
391.636	815.62
391.86	859.62
392.085	977.62
392.31	963.62
392.534	902.62
392.759	876.62
392.984	959.62
393.208	942.62
393.433	830.62
393.658	775.62
393.882	767.62
394.107	767.62
394.331	758.62
394.556	795.62
394.78	782.62
395.005	823.62
395.229	829.62
395.454	830.62
395.678	863.62
395.903	887.62
396.127	841.62
396.352	860.62
396.576	919.62
396.801	926.62
397.025	1033.62
397.249	1058.62
397.474	893.62
397.698	882.62
397.922	935.62
398.147	869.62
398.371	893.62
398.595	955.62
398.82	939.62
399.044	926.62
399.268	1009.62
399.492	998.62
399.717	1022.62
399.941	1057.62
400.165	1056.62
400.389	1014.62
400.613	1013.62
400.837	1011.62
401.062	893.62
401.286	868.62
401.51	873.62
401.734	882.62
401.958	893.62
402.182	888.62
402.406	888.62
402.63	889.62
402.854	908.62
403.078	1021.62
403.302	1243.62
403.526	1268.62
403.75	1139.62
403.974	999.62
404.198	1055.62
404.422	1168.62
404.645	1373.62
404.869	1493.62
405.093	1119.62
405.317	957.62
405.541	960.62
405.765	976.62
405.988	1011.62
406.212	1069.62
406.436	1211.62
406.66	1345.62
406.883	1072.62
407.107	1111.62
407.331	1268.62
407.555	1237.62
407.778	1053.62
408.002	1015.62
408.226	988.62
408.449	994.62
408.673	973.62
408.896	933.62
409.12	913.62
409.344	905.62
409.567	879.62
409.791	870.62
410.014	868.62
410.238	870.62
410.461	887.62
410.685	871.62
410.908	891.62
411.132	910.62
411.355	910.62
411.578	944.62
411.802	928.62
412.025	958.62
412.249	947.62
412.472	897.62
412.695	927.62
412.919	910.62
413.142	929.62
413.365	1008.62
413.589	1031.62
413.812	910.62
414.035	914.62
414.258	903.62
414.482	959.62
414.705	995.62
414.928	871.62
415.151	829.62
415.374	882.62
415.597	880.62
415.821	888.62
416.044	868.62
416.267	856.62
416.49	844.62
416.713	857.62
416.936	813.62
417.159	833.62
417.382	830.62
417.605	871.62
417.828	869.62
418.051	899.62
418.274	906.62
418.497	897.62
418.72	891.62
418.943	911.62
419.166	951.62
419.389	999.62
419.611	957.62
419.834	954.62
420.057	1055.62
420.28	1053.62
420.503	980.62
420.726	913.62
420.948	867.62
421.171	879.62
421.394	838.62
421.617	855.62
421.839	860.62
422.062	897.62
422.285	901.62
422.507	907.62
422.73	905.62
422.953	910.62
423.175	904.62
423.398	924.62
423.621	962.62
423.843	1005.62
424.066	963.62
424.288	917.62
424.511	928.62
424.733	888.62
424.956	918.62
425.178	1008.62
425.401	1136.62
425.623	1287.62
425.846	1084.62
426.068	963.62
426.291	1047.62
426.513	1025.62
426.735	894.62
426.958	959.62
427.18	1107.62
427.402	1380.62
427.625	1332.62
427.847	1127.62
428.069	869.62
428.292	892.62
428.514	864.62
428.736	858.62
428.958	925.62
429.181	1053.62
429.403	950.62
429.625	869.62
429.847	822.62
430.069	869.62
430.292	888.62
430.514	833.62
430.736	903.62
430.958	1116.62
431.18	1023.62
431.402	819.62
431.624	802.62
431.846	782.62
432.068	802.62
432.29	797.62
432.512	895.62
432.734	1159.62
432.956	1109.62
433.178	840.62
433.4	851.62
433.622	833.62
433.844	858.62
434.066	888.62
434.287	867.62
434.509	887.62
434.731	919.62
434.953	861.62
435.175	877.62
435.397	989.62
435.618	862.62
435.84	803.62
436.062	819.62
436.284	824.62
436.505	768.62
436.727	757.62
436.949	772.62
437.17	812.62
437.392	855.62
437.614	820.62
437.835	823.62
438.057	802.62
438.278	943.62
438.5	1299.62
438.721	1274.62
438.943	891.62
439.165	799.62
439.386	755.62
439.608	761.62
439.829	792.62
440.05	782.62
440.272	830.62
440.493	967.62
440.715	1141.62
440.936	917.62
441.158	828.62
441.379	847.62
441.6	935.62
441.822	996.62
442.043	879.62
442.264	843.62
442.486	835.62
442.707	835.62
442.928	879.62
443.149	861.62
443.371	854.62
443.592	907.62
443.813	907.62
444.034	880.62
444.255	883.62
444.476	936.62
444.698	939.62
444.919	943.62
445.14	991.62
445.361	957.62
445.582	919.62
445.803	909.62
446.024	923.62
446.245	923.62
446.466	870.62
446.687	835.62
446.908	858.62
447.129	827.62
447.35	809.62
447.571	781.62
447.792	774.62
448.013	789.62
448.234	769.62
448.455	726.62
448.675	761.62
448.896	798.62
449.117	778.62
449.338	787.62
449.559	802.62
449.779	840.62
450	824.62
450.221	803.62
450.442	799.62
450.662	765.62
450.883	763.62
451.104	789.62
451.324	788.62
451.545	812.62
451.766	813.62
451.986	764.62
452.207	759.62
452.428	738.62
452.648	741.62
452.869	757.62
453.089	827.62
453.31	788.62
453.53	736.62
453.751	732.62
453.971	704.62
454.192	736.62
454.412	791.62
454.633	741.62
454.853	733.62
455.073	715.62
455.294	712.62
455.514	740.62
455.734	774.62
455.955	782.62
456.175	800.62
456.395	742.62
456.616	693.62
456.836	700.62
457.056	671.62
457.276	680.62
457.497	720.62
457.717	713.62
457.937	716.62
458.157	673.62
458.377	721.62
458.598	749.62
458.818	767.62
459.038	788.62
459.258	790.62
459.478	823.62
459.698	882.62
459.918	886.62
460.138	848.62
460.358	881.62
460.578	821.62
460.798	853.62
461.018	879.62
461.238	833.62
461.458	837.62
461.678	860.62
461.898	922.62
462.118	862.62
462.338	914.62
462.558	929.62
462.777	963.62
462.997	983.62
463.217	999.62
463.437	1016.62
463.657	1004.62
463.876	951.62
464.096	948.62
464.316	962.62
464.536	964.62
464.755	998.62
464.975	977.62
465.195	952.62
465.414	931.62
465.634	942.62
465.854	910.62
466.073	863.62
466.293	843.62
466.512	915.62
466.732	984.62
466.951	1019.62
467.171	901.62
467.391	859.62
467.61	855.62
467.829	930.62
468.049	919.62
468.268	847.62
468.488	882.62
468.707	913.62
468.927	1042.62
469.146	1132.62
469.365	1007.62
469.585	931.62
469.804	980.62
470.023	1079.62
470.243	939.62
470.462	902.62
470.681	905.62
470.901	913.62
471.12	932.62
471.339	957.62
471.558	904.62
471.777	943.62
471.997	986.62
472.216	1067.62
472.435	1051.62
472.654	953.62
472.873	941.62
473.092	971.62
473.311	1005.62
473.53	919.62
473.749	889.62
473.968	954.62
474.187	943.62
474.406	911.62
474.625	876.62
474.844	939.62
475.063	1004.62
475.282	1000.62
475.501	1053.62
475.72	1080.62
475.939	1048.62
476.158	1077.62
476.377	1222.62
476.596	1367.62
476.814	1465.62
477.033	1197.62
477.252	1037.62
477.471	981.62
477.69	1005.62
477.908	1085.62
478.127	1136.62
478.346	1023.62
478.564	1112.62
478.783	1060.62
479.002	1095.62
479.22	1265.62
479.439	1371.62
479.658	1207.62
479.876	1106.62
480.095	1204.62
480.313	1189.62
480.532	1128.62
480.751	1072.62
480.969	1119.62
481.188	1244.62
481.406	1259.62
481.624	1233.62
481.843	1095.62
482.061	1007.62
482.28	1140.62
482.498	1425.62
482.717	1318.62
482.935	1169.62
483.153	1093.62
483.372	1028.62
483.59	1052.62
483.808	1039.62
484.027	1008.62
484.245	983.62
484.463	957.62
484.681	1028.62
484.9	1091.62
485.118	1173.62
485.336	1064.62
485.554	1017.62
485.772	1057.62
485.99	1166.62
486.209	1217.62
486.427	1185.62
486.645	1147.62
486.863	1207.62
487.081	1211.62
487.299	1336.62
487.517	1257.62
487.735	1155.62
487.953	1222.62
488.171	1239.62
488.389	1142.62
488.607	1104.62
488.825	1123.62
489.043	1207.62
489.261	1370.62
489.479	1414.62
489.696	1234.62
489.914	1123.62
490.132	1109.62
490.35	1116.62
490.568	1110.62
490.786	1100.62
491.003	1132.62
491.221	1145.62
491.439	1124.62
491.657	1101.62
491.874	1189.62
492.092	1396.62
492.31	1658.62
492.527	1702.62
492.745	1476.62
492.963	1308.62
493.18	1261.62
493.398	1252.62
493.615	1279.62
493.833	1231.62
494.05	1150.62
494.268	1228.62
494.485	1173.62
494.703	1167.62
494.92	1184.62
495.138	1155.62
495.355	1180.62
