Data from NickelSpatula.Lamp.E10.P2_HRD10591_11-56-57-567.txt Node
Date: Tue Jul 23 11:56:57 EDT 2019
User: cochatt
Spectrometer: HR+D1059
Trigger mode: 1
Integration Time (sec): 1.000000E-1
Scans to average: 1
Electric dark correction enabled: true
Nonlinearity correction enabled: false
Boxcar width: 0
XAxis mode: Wavelengths
Number of Pixels in Spectrum: 2048
>>>>>Begin Spectral Data<<<<<
223.165	-18.88
223.4	-18.88
223.635	-18.88
223.869	-19.88
224.104	-23.88
224.338	-10.88
224.573	-3.88
224.808	-8.88
225.042	0.12
225.277	-14.88
225.511	-5.88
225.746	4.12
225.98	-3.88
226.215	10.12
226.449	18.12
226.683	21.12
226.918	22.12
227.152	35.12
227.387	29.12
227.621	59.12
227.856	42.12
228.09	52.12
228.324	51.12
228.559	60.12
228.793	80.12
229.027	141.12
229.262	152.12
229.496	177.12
229.73	165.12
229.964	188.12
230.199	187.12
230.433	200.12
230.667	189.12
230.901	200.12
231.136	192.12
231.37	201.12
231.604	213.12
231.838	233.12
232.072	228.12
232.306	250.12
232.541	231.12
232.775	224.12
233.009	259.12
233.243	282.12
233.477	312.12
233.711	329.12
233.945	287.12
234.179	309.12
234.413	330.12
234.647	357.12
234.881	413.12
235.115	395.12
235.349	392.12
235.583	326.12
235.817	328.12
236.051	360.12
236.285	388.12
236.519	445.12
236.753	399.12
236.987	396.12
237.221	369.12
237.455	398.12
237.689	380.12
237.922	457.12
238.156	450.12
238.39	509.12
238.624	593.12
238.858	523.12
239.091	446.12
239.325	492.12
239.559	445.12
239.793	521.12
240.027	607.12
240.26	572.12
240.494	530.12
240.728	556.12
240.961	646.12
241.195	611.12
241.429	584.12
241.662	557.12
241.896	480.12
242.13	452.12
242.363	422.12
242.597	448.12
242.83	502.12
243.064	499.12
243.298	576.12
243.531	613.12
243.765	595.12
243.998	576.12
244.232	564.12
244.465	558.12
244.699	537.12
244.932	593.12
245.166	577.12
245.399	518.12
245.633	525.12
245.866	549.12
246.099	590.12
246.333	663.12
246.566	716.12
246.8	701.12
247.033	690.12
247.266	641.12
247.5	619.12
247.733	623.12
247.966	634.12
248.2	647.12
248.433	718.12
248.666	765.12
248.899	768.12
249.133	791.12
249.366	914.12
249.599	935.12
249.832	856.12
250.066	721.12
250.299	757.12
250.532	782.12
250.765	752.12
250.998	692.12
251.231	670.12
251.465	743.12
251.698	798.12
251.931	762.12
252.164	762.12
252.397	881.12
252.63	977.12
252.863	1038.12
253.096	1100.12
253.329	1053.12
253.562	1010.12
253.795	1144.12
254.028	1236.12
254.261	1280.12
254.494	1124.12
254.727	1074.12
254.96	1016.12
255.193	1079.12
255.426	1040.12
255.659	810.12
255.892	758.12
256.124	822.12
256.357	953.12
256.59	1107.12
256.823	1069.12
257.056	895.12
257.289	842.12
257.521	921.12
257.754	1092.12
257.987	1222.12
258.22	1076.12
258.452	940.12
258.685	1032.12
258.918	1190.12
259.151	1164.12
259.383	1268.12
259.616	1422.12
259.849	1447.12
260.081	1591.12
260.314	1789.12
260.547	1384.12
260.779	1432.12
261.012	1610.12
261.244	1543.12
261.477	1489.12
261.71	1430.12
261.942	1176.12
262.175	1188.12
262.407	1163.12
262.64	1172.12
262.872	1391.12
263.105	1485.12
263.337	1579.12
263.57	1397.12
263.802	994.12
264.035	851.12
264.267	824.12
264.499	740.12
264.732	668.12
264.964	665.12
265.197	683.12
265.429	740.12
265.661	782.12
265.894	813.12
266.126	864.12
266.358	977.12
266.591	1158.12
266.823	1384.12
267.055	1336.12
267.287	1178.12
267.52	1208.12
267.752	1287.12
267.984	1376.12
268.216	1301.12
268.448	1075.12
268.681	1062.12
268.913	1123.12
269.145	1207.12
269.377	1228.12
269.609	1264.12
269.841	1162.12
270.073	1229.12
270.306	1308.12
270.538	1314.12
270.77	1362.12
271.002	1357.12
271.234	1417.12
271.466	1412.12
271.698	1333.12
271.93	1296.12
272.162	1312.12
272.394	1273.12
272.626	1283.12
272.858	1350.12
273.09	1362.12
273.322	1202.12
273.553	1171.12
273.785	1312.12
274.017	1752.12
274.249	2167.12
274.481	2297.12
274.713	2466.12
274.945	2800.12
275.176	2976.12
275.408	2600.12
275.64	2371.12
275.872	2380.12
276.104	2034.12
276.335	1778.12
276.567	1757.12
276.799	1862.12
277.031	1930.12
277.262	1466.12
277.494	1180.12
277.726	1140.12
277.957	1262.12
278.189	1377.12
278.421	1387.12
278.652	1335.12
278.884	1277.12
279.115	1158.12
279.347	1138.12
279.579	1126.12
279.81	1122.12
280.042	1150.12
280.273	1176.12
280.505	1101.12
280.736	961.12
280.968	974.12
281.199	1058.12
281.431	1187.12
281.662	1170.12
281.894	1114.12
282.125	1179.12
282.356	1282.12
282.588	1326.12
282.819	1164.12
283.051	1288.12
283.282	1636.12
283.513	1845.12
283.745	2018.12
283.976	2050.12
284.207	1876.12
284.439	1946.12
284.67	1876.12
284.901	1645.12
285.132	1788.12
285.364	1864.12
285.595	1740.12
285.826	1824.12
286.057	1908.12
286.288	1849.12
286.52	1863.12
286.751	1961.12
286.982	1930.12
287.213	1725.12
287.444	1665.12
287.675	1715.12
287.906	1720.12
288.138	1456.12
288.369	1317.12
288.6	1234.12
288.831	1300.12
289.062	1511.12
289.293	1672.12
289.524	1543.12
289.755	1522.12
289.986	1557.12
290.217	1368.12
290.448	1050.12
290.679	916.12
290.91	876.12
291.141	888.12
291.371	914.12
291.602	905.12
291.833	952.12
292.064	982.12
292.295	1142.12
292.526	1312.12
292.757	1346.12
292.987	1462.12
293.218	1466.12
293.449	1526.12
293.68	1603.12
293.91	1517.12
294.141	1595.12
294.372	1452.12
294.603	1372.12
294.833	1464.12
295.064	1718.12
295.295	1677.12
295.525	1253.12
295.756	1128.12
295.987	928.12
296.217	917.12
296.448	953.12
296.679	994.12
296.909	1092.12
297.14	1161.12
297.37	1292.12
297.601	1235.12
297.831	1070.12
298.062	1130.12
298.292	1316.12
298.523	1387.12
298.753	1557.12
298.984	1406.12
299.214	1139.12
299.445	979.12
299.675	918.12
299.905	919.12
300.136	944.12
300.366	1001.12
300.597	1024.12
300.827	902.12
301.057	875.12
301.288	895.12
301.518	928.12
301.748	1066.12
301.979	1151.12
302.209	1187.12
302.439	1223.12
302.669	1079.12
302.9	1100.12
303.13	1052.12
303.36	1015.12
303.59	968.12
303.82	1013.12
304.051	1108.12
304.281	1230.12
304.511	1168.12
304.741	1045.12
304.971	1092.12
305.201	1195.12
305.431	1129.12
305.661	946.12
305.891	937.12
306.121	988.12
306.352	872.12
306.582	800.12
306.812	797.12
307.042	793.12
307.272	737.12
307.502	722.12
307.731	775.12
307.961	851.12
308.191	801.12
308.421	726.12
308.651	749.12
308.881	710.12
309.111	743.12
309.341	756.12
309.571	831.12
309.8	856.12
310.03	840.12
310.26	848.12
310.49	851.12
310.72	810.12
310.949	808.12
311.179	824.12
311.409	869.12
311.639	1010.12
311.868	1266.12
312.098	1621.12
312.328	1798.12
312.557	1698.12
312.787	1714.12
313.017	1556.12
313.246	1702.12
313.476	1802.12
313.706	1506.12
313.935	1196.12
314.165	988.12
314.394	907.12
314.624	883.12
314.853	946.12
315.083	955.12
315.312	922.12
315.542	939.12
315.771	873.12
316.001	808.12
316.23	790.12
316.46	771.12
316.689	786.12
316.919	840.12
317.148	846.12
317.377	825.12
317.607	832.12
317.836	901.12
318.065	990.12
318.295	1119.12
318.524	1044.12
318.753	888.12
318.983	880.12
319.212	845.12
319.441	882.12
319.67	996.12
319.9	1047.12
320.129	1011.12
320.358	900.12
320.587	864.12
320.816	921.12
321.046	1030.12
321.275	1128.12
321.504	1143.12
321.733	1074.12
321.962	1042.12
322.191	1010.12
322.42	954.12
322.649	941.12
322.878	1062.12
323.108	1013.12
323.337	1002.12
323.566	963.12
323.795	975.12
324.024	918.12
324.253	878.12
324.482	877.12
324.71	941.12
324.939	1045.12
325.168	969.12
325.397	829.12
325.626	820.12
325.855	812.12
326.084	843.12
326.313	824.12
326.542	763.12
326.77	822.12
326.999	816.12
327.228	867.12
327.457	916.12
327.686	885.12
327.914	794.12
328.143	772.12
328.372	775.12
328.6	766.12
328.829	810.12
329.058	826.12
329.287	830.12
329.515	845.12
329.744	821.12
329.972	781.12
330.201	746.12
330.43	758.12
330.658	885.12
330.887	954.12
331.115	944.12
331.344	945.12
331.572	925.12
331.801	832.12
332.03	834.12
332.258	840.12
332.486	888.12
332.715	892.12
332.943	844.12
333.172	864.12
333.4	882.12
333.629	977.12
333.857	1051.12
334.085	1026.12
334.314	1047.12
334.542	1003.12
334.771	925.12
334.999	899.12
335.227	878.12
335.455	868.12
335.684	965.12
335.912	1110.12
336.14	1197.12
336.369	1172.12
336.597	1116.12
336.825	1259.12
337.053	1395.12
337.281	1119.12
337.51	941.12
337.738	933.12
337.966	951.12
338.194	1050.12
338.422	996.12
338.65	894.12
338.878	823.12
339.106	874.12
339.334	924.12
339.562	960.12
339.79	945.12
340.018	896.12
340.246	932.12
340.474	1104.12
340.702	1111.12
340.93	1169.12
341.158	1119.12
341.386	981.12
341.614	956.12
341.842	972.12
342.07	1021.12
342.298	1163.12
342.526	1238.12
342.754	1054.12
342.981	969.12
343.209	954.12
343.437	980.12
343.665	1064.12
343.893	1042.12
344.12	1189.12
344.348	1400.12
344.576	1236.12
344.804	1032.12
345.031	953.12
345.259	884.12
345.487	893.12
345.714	917.12
345.942	963.12
346.17	1064.12
346.397	1020.12
346.625	906.12
346.853	888.12
347.08	849.12
347.308	868.12
347.535	998.12
347.763	1000.12
347.99	874.12
348.218	849.12
348.445	890.12
348.673	890.12
348.9	893.12
349.128	954.12
349.355	918.12
349.583	946.12
349.81	908.12
350.037	851.12
350.265	750.12
350.492	738.12
350.72	745.12
350.947	760.12
351.174	796.12
351.402	855.12
351.629	854.12
351.856	797.12
352.083	785.12
352.311	843.12
352.538	921.12
352.765	961.12
352.992	883.12
353.22	841.12
353.447	869.12
353.674	823.12
353.901	850.12
354.128	848.12
354.355	850.12
354.583	841.12
354.81	902.12
355.037	917.12
355.264	887.12
355.491	890.12
355.718	964.12
355.945	942.12
356.172	941.12
356.399	929.12
356.626	1106.12
356.853	1283.12
357.08	1344.12
357.307	1403.12
357.534	1114.12
357.761	1145.12
357.988	1430.12
358.215	1603.12
358.441	1496.12
358.668	1304.12
358.895	1211.12
359.122	999.12
359.349	988.12
359.576	1101.12
359.802	925.12
360.029	830.12
360.256	881.12
360.483	1061.12
360.709	1280.12
360.936	1293.12
361.163	1161.12
361.39	942.12
361.616	896.12
361.843	1021.12
362.07	1208.12
362.296	1134.12
362.523	921.12
362.749	829.12
362.976	842.12
363.203	1008.12
363.429	1114.12
363.656	917.12
363.882	846.12
364.109	870.12
364.335	852.12
364.562	844.12
364.788	948.12
365.015	1088.12
365.241	953.12
365.468	845.12
365.694	746.12
365.92	747.12
366.147	736.12
366.373	714.12
366.599	761.12
366.826	743.12
367.052	738.12
367.278	748.12
367.505	766.12
367.731	816.12
367.957	867.12
368.184	893.12
368.41	867.12
368.636	885.12
368.862	934.12
369.089	860.12
369.315	785.12
369.541	798.12
369.767	801.12
369.993	776.12
370.219	770.12
370.445	810.12
370.672	893.12
370.898	917.12
371.124	909.12
371.35	832.12
371.576	812.12
371.802	864.12
372.028	962.12
372.254	1092.12
372.48	939.12
372.706	891.12
372.932	932.12
373.158	975.12
373.384	1106.12
373.61	1402.12
373.835	1439.12
374.061	1114.12
374.287	1007.12
374.513	1093.12
374.739	1302.12
374.965	1339.12
375.191	1295.12
375.416	983.12
375.642	892.12
375.868	1042.12
376.094	1092.12
376.319	997.12
376.545	1065.12
376.771	1063.12
376.997	963.12
377.222	766.12
377.448	712.12
377.674	707.12
377.899	714.12
378.125	694.12
378.35	700.12
378.576	741.12
378.802	766.12
379.027	824.12
379.253	779.12
379.478	804.12
379.704	888.12
379.929	903.12
380.155	932.12
380.38	813.12
380.606	859.12
380.831	936.12
381.057	887.12
381.282	861.12
381.507	985.12
381.733	1178.12
381.958	1188.12
382.184	1266.12
382.409	1350.12
382.634	1292.12
382.86	1369.12
383.085	1162.12
383.31	982.12
383.535	1028.12
383.761	1062.12
383.986	977.12
384.211	1143.12
384.436	1123.12
384.662	897.12
384.887	872.12
385.112	890.12
385.337	904.12
385.562	891.12
385.787	960.12
386.013	1042.12
386.238	1031.12
386.463	909.12
386.688	881.12
386.913	828.12
387.138	827.12
387.363	851.12
387.588	862.12
387.813	880.12
388.038	952.12
388.263	880.12
388.488	862.12
388.713	944.12
388.938	1030.12
389.163	884.12
389.387	808.12
389.612	843.12
389.837	844.12
390.062	837.12
390.287	882.12
390.512	892.12
390.736	850.12
390.961	840.12
391.186	801.12
391.411	789.12
391.636	816.12
391.86	854.12
392.085	908.12
392.31	905.12
392.534	860.12
392.759	820.12
392.984	896.12
393.208	893.12
393.433	819.12
393.658	756.12
393.882	754.12
394.107	764.12
394.331	781.12
394.556	759.12
394.78	764.12
395.005	790.12
395.229	820.12
395.454	830.12
395.678	817.12
395.903	854.12
396.127	841.12
396.352	828.12
396.576	888.12
396.801	862.12
397.025	966.12
397.249	981.12
397.474	861.12
397.698	857.12
397.922	918.12
398.147	842.12
398.371	854.12
398.595	882.12
398.82	912.12
399.044	919.12
399.268	966.12
399.492	1013.12
399.717	999.12
399.941	1054.12
400.165	1039.12
400.389	970.12
400.613	971.12
400.837	953.12
401.062	869.12
401.286	857.12
401.51	862.12
401.734	897.12
401.958	869.12
402.182	873.12
402.406	877.12
402.63	850.12
402.854	898.12
403.078	993.12
403.302	1184.12
403.526	1234.12
403.75	1134.12
403.974	1023.12
404.198	1009.12
404.422	1122.12
404.645	1215.12
404.869	1323.12
405.093	1060.12
405.317	944.12
405.541	953.12
405.765	947.12
405.988	989.12
406.212	997.12
406.436	1137.12
406.66	1229.12
406.883	1031.12
407.107	1072.12
407.331	1189.12
407.555	1172.12
407.778	1049.12
408.002	1028.12
408.226	1007.12
408.449	992.12
408.673	977.12
408.896	903.12
409.12	884.12
409.344	873.12
409.567	881.12
409.791	888.12
410.014	878.12
410.238	868.12
410.461	868.12
410.685	857.12
410.908	880.12
411.132	894.12
411.355	893.12
411.578	901.12
411.802	898.12
412.025	911.12
412.249	929.12
412.472	939.12
412.695	910.12
412.919	925.12
413.142	908.12
413.365	954.12
413.589	975.12
413.812	935.12
414.035	880.12
414.258	905.12
414.482	939.12
414.705	976.12
414.928	864.12
415.151	837.12
415.374	848.12
415.597	882.12
415.821	881.12
416.044	853.12
416.267	857.12
416.49	845.12
416.713	854.12
416.936	837.12
417.159	840.12
417.382	853.12
417.605	847.12
417.828	866.12
418.051	875.12
418.274	880.12
418.497	857.12
418.72	878.12
418.943	874.12
419.166	938.12
419.389	964.12
419.611	954.12
419.834	980.12
420.057	992.12
420.28	972.12
420.503	907.12
420.726	883.12
420.948	842.12
421.171	864.12
421.394	844.12
421.617	812.12
421.839	851.12
422.062	889.12
422.285	906.12
422.507	880.12
422.73	917.12
422.953	916.12
423.175	925.12
423.398	900.12
423.621	931.12
423.843	996.12
424.066	880.12
424.288	857.12
424.511	862.12
424.733	885.12
424.956	912.12
425.178	957.12
425.401	1065.12
425.623	1202.12
425.846	1019.12
426.068	922.12
426.291	1002.12
426.513	937.12
426.735	892.12
426.958	916.12
427.18	1029.12
427.402	1261.12
427.625	1248.12
427.847	1053.12
428.069	867.12
428.292	876.12
428.514	843.12
428.736	819.12
428.958	896.12
429.181	980.12
429.403	877.12
429.625	845.12
429.847	811.12
430.069	833.12
430.292	862.12
430.514	842.12
430.736	886.12
430.958	1024.12
431.18	941.12
431.402	818.12
431.624	766.12
431.846	801.12
432.068	766.12
432.29	779.12
432.512	859.12
432.734	1037.12
432.956	974.12
433.178	851.12
433.4	828.12
433.622	826.12
433.844	836.12
434.066	859.12
434.287	876.12
434.509	876.12
434.731	883.12
434.953	831.12
435.175	903.12
435.397	969.12
435.618	853.12
435.84	798.12
436.062	790.12
436.284	788.12
436.505	763.12
436.727	785.12
436.949	779.12
437.17	818.12
437.392	800.12
437.614	802.12
437.835	779.12
438.057	816.12
438.278	859.12
438.5	1156.12
438.721	1151.12
438.943	856.12
439.165	781.12
439.386	777.12
439.608	773.12
439.829	743.12
440.05	771.12
440.272	820.12
440.493	908.12
440.715	1082.12
440.936	904.12
441.158	840.12
441.379	849.12
441.6	919.12
441.822	964.12
442.043	853.12
442.264	857.12
442.486	857.12
442.707	854.12
442.928	866.12
443.149	858.12
443.371	885.12
443.592	896.12
443.813	908.12
444.034	858.12
444.255	880.12
444.476	900.12
444.698	934.12
444.919	944.12
445.14	1050.12
445.361	1001.12
445.582	943.12
445.803	903.12
446.024	882.12
446.245	905.12
446.466	888.12
446.687	842.12
446.908	841.12
447.129	842.12
447.35	804.12
447.571	773.12
447.792	773.12
448.013	786.12
448.234	736.12
448.455	733.12
448.675	750.12
448.896	792.12
449.117	782.12
449.338	806.12
449.559	796.12
449.779	840.12
450	852.12
450.221	808.12
450.442	774.12
450.662	776.12
450.883	792.12
451.104	800.12
451.324	791.12
451.545	778.12
451.766	778.12
451.986	753.12
452.207	755.12
452.428	754.12
452.648	748.12
452.869	728.12
453.089	814.12
453.31	782.12
453.53	718.12
453.751	711.12
453.971	703.12
454.192	713.12
454.412	729.12
454.633	718.12
454.853	736.12
455.073	709.12
455.294	733.12
455.514	723.12
455.734	744.12
455.955	781.12
456.175	794.12
456.395	724.12
456.616	686.12
456.836	674.12
457.056	686.12
457.276	684.12
457.497	692.12
457.717	689.12
457.937	725.12
458.157	723.12
458.377	717.12
458.598	752.12
458.818	729.12
459.038	786.12
459.258	780.12
459.478	817.12
459.698	860.12
459.918	889.12
460.138	842.12
460.358	884.12
460.578	826.12
460.798	851.12
461.018	882.12
461.238	853.12
461.458	848.12
461.678	870.12
461.898	918.12
462.118	899.12
462.338	917.12
462.558	931.12
462.777	957.12
462.997	985.12
463.217	988.12
463.437	1003.12
463.657	1005.12
463.876	967.12
464.096	912.12
464.316	937.12
464.536	937.12
464.755	954.12
464.975	950.12
465.195	946.12
465.414	993.12
465.634	912.12
465.854	891.12
466.073	851.12
466.293	830.12
466.512	876.12
466.732	953.12
466.951	972.12
467.171	898.12
467.391	850.12
467.61	861.12
467.829	897.12
468.049	871.12
468.268	855.12
468.488	858.12
468.707	884.12
468.927	1008.12
469.146	1056.12
469.365	969.12
469.585	900.12
469.804	976.12
470.023	1010.12
470.243	919.12
470.462	900.12
470.681	810.12
470.901	870.12
471.12	900.12
471.339	912.12
471.558	902.12
471.777	894.12
471.997	955.12
472.216	1068.12
472.435	1012.12
472.654	964.12
472.873	911.12
473.092	972.12
473.311	993.12
473.53	913.12
473.749	878.12
473.968	908.12
474.187	885.12
474.406	876.12
474.625	878.12
474.844	876.12
475.063	964.12
475.282	978.12
475.501	1017.12
475.72	1044.12
475.939	1036.12
476.158	1038.12
476.377	1158.12
476.596	1330.12
476.814	1392.12
477.033	1166.12
477.252	1034.12
477.471	945.12
477.69	978.12
477.908	1057.12
478.127	1116.12
478.346	1010.12
478.564	1084.12
478.783	1044.12
479.002	1056.12
479.22	1210.12
479.439	1337.12
479.658	1145.12
479.876	1070.12
480.095	1198.12
480.313	1170.12
480.532	1067.12
480.751	1041.12
480.969	1082.12
481.188	1197.12
481.406	1264.12
481.624	1152.12
481.843	1072.12
482.061	1040.12
482.28	1154.12
482.498	1368.12
482.717	1307.12
482.935	1133.12
483.153	1078.12
483.372	1003.12
483.59	1016.12
483.808	1012.12
484.027	988.12
484.245	958.12
484.463	956.12
484.681	981.12
484.9	1052.12
485.118	1120.12
485.336	1037.12
485.554	1043.12
485.772	1040.12
485.99	1111.12
486.209	1160.12
486.427	1138.12
486.645	1140.12
486.863	1178.12
487.081	1158.12
487.299	1242.12
487.517	1200.12
487.735	1128.12
487.953	1176.12
488.171	1181.12
488.389	1152.12
488.607	1050.12
488.825	1097.12
489.043	1137.12
489.261	1293.12
489.479	1363.12
489.696	1204.12
489.914	1115.12
490.132	1075.12
490.35	1066.12
490.568	1072.12
490.786	1074.12
491.003	1098.12
491.221	1133.12
491.439	1116.12
491.657	1115.12
491.874	1158.12
492.092	1341.12
492.31	1517.12
492.527	1526.12
492.745	1413.12
492.963	1241.12
493.18	1225.12
493.398	1227.12
493.615	1247.12
493.833	1172.12
494.05	1152.12
494.268	1183.12
494.485	1219.12
494.703	1166.12
494.92	1169.12
495.138	1144.12
495.355	1148.12
495.573	1163.12
495.79	1249.12
496.008	1471.12
496.225	1362.12
496.442	1275.12
