Data from NickelSpatula.Lamp.E5.5.P2_HRD10591_11-51-07-562.txt Node
Date: Tue Jul 23 11:51:07 EDT 2019
User: cochatt
Spectrometer: HR+D1059
Trigger mode: 1
Integration Time (sec): 1.000000E-1
Scans to average: 1
Electric dark correction enabled: true
Nonlinearity correction enabled: false
Boxcar width: 0
XAxis mode: Wavelengths
Number of Pixels in Spectrum: 2048
>>>>>Begin Spectral Data<<<<<
223.165	-13.44
223.4	-13.44
223.635	-13.44
223.869	-17.44
224.104	-13.44
224.338	-18.44
224.573	-5.44
224.808	-16.44
225.042	-10.44
225.277	2.56
225.511	3.56
225.746	0.56
225.98	13.56
226.215	9.56
226.449	6.56
226.683	2.56
226.918	29.56
227.152	26.56
227.387	35.56
227.621	45.56
227.856	51.56
228.09	40.56
228.324	57.56
228.559	56.56
228.793	50.56
229.027	81.56
229.262	74.56
229.496	79.56
229.73	79.56
229.964	88.56
230.199	89.56
230.433	89.56
230.667	75.56
230.901	95.56
231.136	104.56
231.37	96.56
231.604	91.56
231.838	109.56
232.072	96.56
232.306	103.56
232.541	99.56
232.775	104.56
233.009	95.56
233.243	118.56
233.477	115.56
233.711	118.56
233.945	105.56
234.179	114.56
234.413	117.56
234.647	103.56
234.881	126.56
235.115	123.56
235.349	116.56
235.583	121.56
235.817	105.56
236.051	123.56
236.285	133.56
236.519	131.56
236.753	137.56
236.987	115.56
237.221	128.56
237.455	117.56
237.689	124.56
237.922	114.56
238.156	128.56
238.39	133.56
238.624	144.56
238.858	157.56
239.091	127.56
239.325	138.56
239.559	125.56
239.793	124.56
240.027	156.56
240.26	152.56
240.494	131.56
240.728	133.56
240.961	148.56
241.195	149.56
241.429	145.56
241.662	140.56
241.896	137.56
242.13	113.56
242.363	121.56
242.597	124.56
242.83	154.56
243.064	118.56
243.298	150.56
243.531	133.56
243.765	143.56
243.998	149.56
244.232	155.56
244.465	128.56
244.699	131.56
244.932	139.56
245.166	154.56
245.399	152.56
245.633	146.56
245.866	153.56
246.099	154.56
246.333	167.56
246.566	160.56
246.8	162.56
247.033	156.56
247.266	177.56
247.5	157.56
247.733	166.56
247.966	161.56
248.2	149.56
248.433	170.56
248.666	170.56
248.899	169.56
249.133	162.56
249.366	189.56
249.599	194.56
249.832	194.56
250.066	181.56
250.299	183.56
250.532	166.56
250.765	170.56
250.998	165.56
251.231	175.56
251.465	183.56
251.698	181.56
251.931	175.56
252.164	173.56
252.397	191.56
252.63	200.56
252.863	217.56
253.096	229.56
253.329	226.56
253.562	209.56
253.795	223.56
254.028	248.56
254.261	251.56
254.494	234.56
254.727	224.56
254.96	205.56
255.193	210.56
255.426	206.56
255.659	179.56
255.892	189.56
256.124	197.56
256.357	211.56
256.59	230.56
256.823	230.56
257.056	201.56
257.289	188.56
257.521	185.56
257.754	217.56
257.987	236.56
258.22	222.56
258.452	206.56
258.685	230.56
258.918	224.56
259.151	253.56
259.383	242.56
259.616	282.56
259.849	276.56
260.081	291.56
260.314	305.56
260.547	262.56
260.779	277.56
261.012	305.56
261.244	287.56
261.477	277.56
261.71	257.56
261.942	231.56
262.175	226.56
262.407	220.56
262.64	247.56
262.872	287.56
263.105	275.56
263.337	283.56
263.57	273.56
263.802	206.56
264.035	203.56
264.267	193.56
264.499	191.56
264.732	163.56
264.964	152.56
265.197	168.56
265.429	161.56
265.661	180.56
265.894	201.56
266.126	196.56
266.358	206.56
266.591	229.56
266.823	269.56
267.055	276.56
267.287	222.56
267.52	241.56
267.752	270.56
267.984	278.56
268.216	280.56
268.448	245.56
268.681	234.56
268.913	245.56
269.145	252.56
269.377	259.56
269.609	244.56
269.841	262.56
270.073	247.56
270.306	255.56
270.538	266.56
270.77	255.56
271.002	261.56
271.234	277.56
271.466	294.56
271.698	251.56
271.93	243.56
272.162	251.56
272.394	255.56
272.626	273.56
272.858	258.56
273.09	257.56
273.322	234.56
273.553	223.56
273.785	253.56
274.017	309.56
274.249	385.56
274.481	365.56
274.713	409.56
274.945	462.56
275.176	489.56
275.408	425.56
275.64	410.56
275.872	409.56
276.104	347.56
276.335	325.56
276.567	303.56
276.799	346.56
277.031	361.56
277.262	295.56
277.494	242.56
277.726	227.56
277.957	257.56
278.189	273.56
278.421	269.56
278.652	265.56
278.884	253.56
279.115	253.56
279.347	234.56
279.579	255.56
279.81	253.56
280.042	247.56
280.273	242.56
280.505	225.56
280.736	225.56
280.968	198.56
281.199	229.56
281.431	239.56
281.662	247.56
281.894	240.56
282.125	259.56
282.356	269.56
282.588	284.56
282.819	240.56
283.051	251.56
283.282	297.56
283.513	343.56
283.745	375.56
283.976	360.56
284.207	334.56
284.439	347.56
284.67	351.56
284.901	315.56
285.132	336.56
285.364	347.56
285.595	340.56
285.826	341.56
286.057	354.56
286.288	326.56
286.52	332.56
286.751	368.56
286.982	375.56
287.213	324.56
287.444	309.56
287.675	338.56
287.906	344.56
288.138	290.56
288.369	272.56
288.6	258.56
288.831	276.56
289.062	309.56
289.293	305.56
289.524	316.56
289.755	304.56
289.986	322.56
290.217	282.56
290.448	230.56
290.679	211.56
290.91	215.56
291.141	213.56
291.371	231.56
291.602	214.56
291.833	223.56
292.064	219.56
292.295	242.56
292.526	264.56
292.757	282.56
292.987	289.56
293.218	294.56
293.449	301.56
293.68	338.56
293.91	311.56
294.141	310.56
294.372	304.56
294.603	280.56
294.833	322.56
295.064	321.56
295.295	345.56
295.525	259.56
295.756	243.56
295.987	222.56
296.217	228.56
296.448	210.56
296.679	228.56
296.909	220.56
297.14	251.56
297.37	281.56
297.601	245.56
297.831	249.56
298.062	243.56
298.292	263.56
298.523	290.56
298.753	307.56
298.984	293.56
299.214	253.56
299.445	225.56
299.675	213.56
299.905	220.56
300.136	215.56
300.366	230.56
300.597	228.56
300.827	213.56
301.057	202.56
301.288	226.56
301.518	239.56
301.748	246.56
301.979	266.56
302.209	275.56
302.439	269.56
302.669	258.56
302.9	263.56
303.13	232.56
303.36	241.56
303.59	234.56
303.82	230.56
304.051	250.56
304.281	269.56
304.511	253.56
304.741	252.56
304.971	229.56
305.201	249.56
305.431	237.56
305.661	220.56
305.891	228.56
306.121	226.56
306.352	193.56
306.582	179.56
306.812	195.56
307.042	203.56
307.272	203.56
307.502	169.56
307.731	193.56
307.961	199.56
308.191	198.56
308.421	196.56
308.651	202.56
308.881	184.56
309.111	192.56
309.341	197.56
309.571	191.56
309.8	210.56
310.03	204.56
310.26	220.56
310.49	216.56
310.72	190.56
310.949	187.56
311.179	215.56
311.409	230.56
311.639	217.56
311.868	271.56
312.098	319.56
312.328	350.56
312.557	318.56
312.787	321.56
313.017	299.56
313.246	309.56
313.476	368.56
313.706	309.56
313.935	266.56
314.165	214.56
314.394	210.56
314.624	208.56
314.853	205.56
315.083	214.56
315.312	213.56
315.542	222.56
315.771	202.56
316.001	221.56
316.23	192.56
316.46	188.56
316.689	191.56
316.919	196.56
317.148	206.56
317.377	191.56
317.607	186.56
317.836	202.56
318.065	218.56
318.295	237.56
318.524	212.56
318.753	208.56
318.983	217.56
319.212	190.56
319.441	197.56
319.67	222.56
319.9	237.56
320.129	227.56
320.358	207.56
320.587	196.56
320.816	217.56
321.046	213.56
321.275	240.56
321.504	239.56
321.733	224.56
321.962	236.56
322.191	232.56
322.42	226.56
322.649	220.56
322.878	229.56
323.108	233.56
323.337	224.56
323.566	230.56
323.795	224.56
324.024	218.56
324.253	222.56
324.482	187.56
324.71	202.56
324.939	231.56
325.168	216.56
325.397	217.56
325.626	211.56
325.855	219.56
326.084	200.56
326.313	221.56
326.542	189.56
326.77	189.56
326.999	199.56
327.228	208.56
327.457	195.56
327.686	228.56
327.914	208.56
328.143	199.56
328.372	193.56
328.6	205.56
328.829	190.56
329.058	202.56
329.287	192.56
329.515	201.56
329.744	201.56
329.972	182.56
330.201	193.56
330.43	197.56
330.658	215.56
330.887	215.56
331.115	226.56
331.344	218.56
331.572	216.56
331.801	213.56
332.03	198.56
332.258	207.56
332.486	217.56
332.715	210.56
332.943	202.56
333.172	235.56
333.4	212.56
333.629	226.56
333.857	241.56
334.085	238.56
334.314	226.56
334.542	231.56
334.771	226.56
334.999	213.56
335.227	225.56
335.455	238.56
335.684	235.56
335.912	242.56
336.14	266.56
336.369	273.56
336.597	242.56
336.825	269.56
337.053	275.56
337.281	266.56
337.51	222.56
337.738	201.56
337.966	237.56
338.194	257.56
338.422	217.56
338.65	212.56
338.878	203.56
339.106	209.56
339.334	216.56
339.562	230.56
339.79	198.56
340.018	211.56
340.246	218.56
340.474	225.56
340.702	239.56
340.93	227.56
341.158	262.56
341.386	236.56
341.614	224.56
341.842	217.56
342.07	225.56
342.298	253.56
342.526	255.56
342.754	245.56
342.981	229.56
343.209	219.56
343.437	232.56
343.665	258.56
343.893	243.56
344.12	281.56
344.348	310.56
344.576	289.56
344.804	230.56
345.031	217.56
345.259	200.56
345.487	211.56
345.714	217.56
345.942	219.56
346.17	244.56
346.397	221.56
346.625	213.56
346.853	219.56
347.08	207.56
347.308	211.56
347.535	235.56
347.763	227.56
347.99	222.56
348.218	198.56
348.445	206.56
348.673	219.56
348.9	230.56
349.128	245.56
349.355	241.56
349.583	225.56
349.81	214.56
350.037	211.56
350.265	185.56
350.492	193.56
350.72	183.56
350.947	184.56
351.174	221.56
351.402	219.56
351.629	211.56
351.856	193.56
352.083	196.56
352.311	194.56
352.538	233.56
352.765	229.56
352.992	217.56
353.22	212.56
353.447	227.56
353.674	232.56
353.901	218.56
354.128	214.56
354.355	213.56
354.583	198.56
354.81	219.56
355.037	215.56
355.264	216.56
355.491	212.56
355.718	232.56
355.945	239.56
356.172	209.56
356.399	237.56
356.626	251.56
356.853	294.56
357.08	312.56
357.307	322.56
357.534	270.56
357.761	282.56
357.988	344.56
358.215	357.56
358.441	330.56
358.668	300.56
358.895	290.56
359.122	247.56
359.349	244.56
359.576	266.56
359.802	246.56
360.029	226.56
360.256	244.56
360.483	238.56
360.709	295.56
360.936	314.56
361.163	276.56
361.39	241.56
361.616	222.56
361.843	245.56
362.07	280.56
362.296	248.56
362.523	215.56
362.749	213.56
362.976	213.56
363.203	239.56
363.429	245.56
363.656	211.56
363.882	223.56
364.109	203.56
364.335	222.56
364.562	225.56
364.788	230.56
365.015	254.56
365.241	229.56
365.468	201.56
365.694	192.56
365.92	196.56
366.147	182.56
366.373	192.56
366.599	173.56
366.826	187.56
367.052	175.56
367.278	195.56
367.505	210.56
367.731	207.56
367.957	211.56
368.184	213.56
368.41	205.56
368.636	216.56
368.862	225.56
369.089	215.56
369.315	190.56
369.541	211.56
369.767	200.56
369.993	185.56
370.219	201.56
370.445	193.56
370.672	225.56
370.898	229.56
371.124	230.56
371.35	220.56
371.576	198.56
371.802	207.56
372.028	227.56
372.254	270.56
372.48	228.56
372.706	219.56
372.932	241.56
373.158	242.56
373.384	265.56
373.61	305.56
373.835	336.56
374.061	279.56
374.287	248.56
374.513	279.56
374.739	308.56
374.965	326.56
375.191	313.56
375.416	233.56
375.642	222.56
375.868	254.56
376.094	257.56
376.319	242.56
376.545	254.56
376.771	252.56
376.997	237.56
377.222	219.56
377.448	195.56
377.674	198.56
377.899	185.56
378.125	195.56
378.35	185.56
378.576	177.56
378.802	206.56
379.027	206.56
379.253	214.56
379.478	206.56
379.704	217.56
379.929	224.56
380.155	237.56
380.38	209.56
380.606	229.56
380.831	234.56
381.057	243.56
381.282	217.56
381.507	243.56
381.733	283.56
381.958	280.56
382.184	296.56
382.409	305.56
382.634	311.56
382.86	309.56
383.085	259.56
383.31	247.56
383.535	278.56
383.761	261.56
383.986	243.56
384.211	285.56
384.436	266.56
384.662	255.56
384.887	231.56
385.112	238.56
385.337	244.56
385.562	240.56
385.787	254.56
386.013	274.56
386.238	266.56
386.463	232.56
386.688	234.56
386.913	214.56
387.138	212.56
387.363	224.56
387.588	213.56
387.813	225.56
388.038	238.56
388.263	228.56
388.488	219.56
388.713	246.56
388.938	251.56
389.163	213.56
389.387	226.56
389.612	214.56
389.837	216.56
390.062	216.56
390.287	236.56
390.512	229.56
390.736	225.56
390.961	220.56
391.186	219.56
391.411	202.56
391.636	222.56
391.86	203.56
392.085	245.56
392.31	253.56
392.534	254.56
392.759	224.56
392.984	227.56
393.208	225.56
393.433	220.56
393.658	207.56
393.882	197.56
394.107	215.56
394.331	220.56
394.556	198.56
394.78	209.56
395.005	193.56
395.229	215.56
395.454	205.56
395.678	215.56
395.903	214.56
396.127	200.56
396.352	217.56
396.576	229.56
396.801	205.56
397.025	213.56
397.249	243.56
397.474	232.56
397.698	211.56
397.922	239.56
398.147	221.56
398.371	222.56
398.595	234.56
398.82	227.56
399.044	232.56
399.268	267.56
399.492	263.56
399.717	274.56
399.941	287.56
400.165	251.56
400.389	247.56
400.613	231.56
400.837	256.56
401.062	231.56
401.286	232.56
401.51	230.56
401.734	213.56
401.958	244.56
402.182	234.56
402.406	220.56
402.63	231.56
402.854	254.56
403.078	281.56
403.302	343.56
403.526	381.56
403.75	339.56
403.974	281.56
404.198	293.56
404.422	289.56
404.645	302.56
404.869	328.56
405.093	279.56
405.317	253.56
405.541	246.56
405.765	257.56
405.988	263.56
406.212	257.56
406.436	289.56
406.66	282.56
406.883	267.56
407.107	268.56
407.331	313.56
407.555	303.56
407.778	282.56
408.002	268.56
408.226	278.56
408.449	238.56
408.673	241.56
408.896	242.56
409.12	235.56
409.344	238.56
409.567	234.56
409.791	261.56
410.014	247.56
410.238	244.56
410.461	237.56
410.685	241.56
410.908	241.56
411.132	220.56
411.355	227.56
411.578	235.56
411.802	263.56
412.025	232.56
412.249	238.56
412.472	237.56
412.695	225.56
412.919	224.56
413.142	233.56
413.365	264.56
413.589	230.56
413.812	246.56
414.035	244.56
414.258	229.56
414.482	249.56
414.705	245.56
414.928	254.56
415.151	236.56
415.374	225.56
415.597	232.56
415.821	237.56
416.044	215.56
416.267	208.56
416.49	216.56
416.713	218.56
416.936	210.56
417.159	217.56
417.382	233.56
417.605	217.56
417.828	242.56
418.051	242.56
418.274	238.56
418.497	238.56
418.72	243.56
418.943	221.56
419.166	258.56
419.389	254.56
419.611	256.56
419.834	242.56
420.057	271.56
420.28	250.56
420.503	260.56
420.726	217.56
420.948	217.56
421.171	250.56
421.394	224.56
421.617	214.56
421.839	233.56
422.062	253.56
422.285	232.56
422.507	249.56
422.73	229.56
422.953	234.56
423.175	238.56
423.398	237.56
423.621	242.56
423.843	246.56
424.066	255.56
424.288	252.56
424.511	252.56
424.733	245.56
424.956	269.56
425.178	263.56
425.401	289.56
425.623	354.56
425.846	282.56
426.068	256.56
426.291	253.56
426.513	242.56
426.735	226.56
426.958	231.56
427.18	271.56
427.402	313.56
427.625	349.56
427.847	296.56
428.069	217.56
428.292	233.56
428.514	209.56
428.736	235.56
428.958	245.56
429.181	304.56
429.403	256.56
429.625	229.56
429.847	222.56
430.069	212.56
430.292	228.56
430.514	204.56
430.736	211.56
430.958	238.56
431.18	240.56
431.402	219.56
431.624	223.56
431.846	231.56
432.068	223.56
432.29	207.56
432.512	223.56
432.734	266.56
432.956	265.56
433.178	231.56
433.4	216.56
433.622	217.56
433.844	226.56
434.066	253.56
434.287	242.56
434.509	232.56
434.731	253.56
434.953	230.56
435.175	253.56
435.397	269.56
435.618	226.56
435.84	231.56
436.062	205.56
436.284	223.56
436.505	211.56
436.727	218.56
436.949	223.56
437.17	218.56
437.392	214.56
437.614	209.56
437.835	199.56
438.057	225.56
438.278	232.56
438.5	288.56
438.721	301.56
438.943	227.56
439.165	217.56
439.386	195.56
439.608	195.56
439.829	206.56
440.05	221.56
440.272	209.56
440.493	245.56
440.715	254.56
440.936	235.56
441.158	227.56
441.379	237.56
441.6	246.56
441.822	242.56
442.043	242.56
442.264	226.56
442.486	230.56
442.707	231.56
442.928	210.56
443.149	223.56
443.371	247.56
443.592	229.56
443.813	252.56
444.034	249.56
444.255	243.56
444.476	255.56
444.698	226.56
444.919	249.56
445.14	382.56
445.361	327.56
445.582	255.56
445.803	234.56
446.024	244.56
446.245	230.56
446.466	240.56
446.687	218.56
446.908	217.56
447.129	198.56
447.35	218.56
447.571	222.56
447.792	224.56
448.013	211.56
448.234	193.56
448.455	201.56
448.675	204.56
448.896	205.56
449.117	208.56
449.338	202.56
449.559	213.56
449.779	233.56
450	213.56
450.221	214.56
450.442	206.56
450.662	206.56
450.883	226.56
451.104	210.56
451.324	209.56
451.545	217.56
451.766	227.56
451.986	217.56
452.207	192.56
452.428	184.56
452.648	209.56
452.869	208.56
453.089	233.56
453.31	213.56
453.53	211.56
453.751	198.56
453.971	201.56
454.192	200.56
454.412	201.56
454.633	214.56
454.853	222.56
455.073	183.56
455.294	192.56
455.514	193.56
455.734	201.56
455.955	193.56
456.175	206.56
456.395	187.56
456.616	183.56
456.836	187.56
457.056	193.56
457.276	200.56
457.497	209.56
457.717	199.56
457.937	178.56
458.157	194.56
458.377	199.56
458.598	193.56
458.818	201.56
459.038	214.56
459.258	223.56
459.478	218.56
459.698	228.56
459.918	233.56
460.138	242.56
460.358	234.56
460.578	232.56
460.798	233.56
461.018	258.56
461.238	235.56
461.458	225.56
461.678	230.56
461.898	248.56
462.118	254.56
462.338	266.56
462.558	254.56
462.777	273.56
462.997	278.56
463.217	302.56
463.437	281.56
463.657	269.56
463.876	290.56
464.096	274.56
464.316	250.56
464.536	249.56
464.755	276.56
464.975	287.56
465.195	271.56
465.414	255.56
465.634	253.56
465.854	233.56
466.073	221.56
466.293	224.56
466.512	226.56
466.732	237.56
466.951	243.56
467.171	214.56
467.391	240.56
467.61	224.56
467.829	227.56
468.049	225.56
468.268	226.56
468.488	215.56
468.707	232.56
468.927	234.56
469.146	248.56
469.365	239.56
469.585	213.56
469.804	225.56
470.023	266.56
470.243	242.56
470.462	232.56
470.681	243.56
470.901	232.56
471.12	229.56
471.339	231.56
471.558	224.56
471.777	209.56
471.997	249.56
472.216	245.56
472.435	247.56
472.654	232.56
472.873	228.56
473.092	224.56
473.311	238.56
473.53	230.56
473.749	210.56
473.968	228.56
474.187	220.56
474.406	234.56
474.625	201.56
474.844	244.56
475.063	229.56
475.282	227.56
475.501	242.56
475.72	285.56
475.939	259.56
476.158	257.56
476.377	293.56
476.596	304.56
476.814	314.56
477.033	275.56
477.252	254.56
477.471	230.56
477.69	237.56
477.908	247.56
478.127	271.56
478.346	267.56
478.564	290.56
478.783	265.56
479.002	262.56
479.22	303.56
479.439	289.56
479.658	287.56
479.876	266.56
480.095	273.56
480.313	261.56
480.532	261.56
480.751	279.56
480.969	274.56
481.188	263.56
481.406	281.56
481.624	255.56
481.843	266.56
482.061	257.56
482.28	270.56
482.498	320.56
482.717	313.56
482.935	274.56
483.153	259.56
483.372	241.56
483.59	258.56
483.808	250.56
484.027	252.56
484.245	242.56
484.463	255.56
484.681	241.56
484.9	261.56
485.118	269.56
485.336	266.56
485.554	247.56
485.772	262.56
485.99	253.56
486.209	268.56
486.427	264.56
486.645	280.56
486.863	283.56
487.081	287.56
487.299	288.56
487.517	279.56
487.735	271.56
487.953	274.56
488.171	267.56
488.389	257.56
488.607	267.56
488.825	249.56
489.043	277.56
489.261	293.56
489.479	297.56
489.696	282.56
489.914	251.56
490.132	238.56
490.35	241.56
490.568	263.56
490.786	261.56
491.003	244.56
491.221	246.56
491.439	240.56
491.657	267.56
491.874	277.56
492.092	290.56
492.31	335.56
492.527	330.56
492.745	313.56
492.963	282.56
493.18	300.56
493.398	278.56
493.615	297.56
493.833	257.56
494.05	287.56
494.268	277.56
494.485	287.56
494.703	267.56
494.92	270.56
495.138	267.56
495.355	267.56
495.573	285.56
495.79	303.56
496.008	339.56
496.225	306.56
496.442	294.56
496.66	287.56
496.877	284.56
497.094	286.56
497.312	292.56
497.529	278.56
497.746	291.56
497.963	289.56
498.181	305.56
498.398	325.56
498.615	346.56
498.832	345.56
499.049	355.56
499.267	367.56
499.484	375.56
499.701	401.56
499.918	432.56
500.135	488.56
500.352	532.56
500.569	565.56
500.786	553.56
501.003	527.56
501.22	473.56
501.437	424.56
501.654	377.56
501.871	369.56
502.088	341.56
502.305	354.56
502.522	334.56
