Data from NickelSpatula.Lamp.E10.P2_HRD10591_11-57-13-533.txt Node
Date: Tue Jul 23 11:57:13 EDT 2019
User: cochatt
Spectrometer: HR+D1059
Trigger mode: 1
Integration Time (sec): 1.000000E-1
Scans to average: 1
Electric dark correction enabled: true
Nonlinearity correction enabled: false
Boxcar width: 0
XAxis mode: Wavelengths
Number of Pixels in Spectrum: 2048
>>>>>Begin Spectral Data<<<<<
223.165	-12.88
223.4	-12.88
223.635	-12.88
223.869	-12.88
224.104	-11.88
224.338	-22.88
224.573	-24.88
224.808	-11.88
225.042	-12.88
225.277	-4.88
225.511	1.12
225.746	5.12
225.98	12.12
226.215	4.12
226.449	6.12
226.683	32.12
226.918	19.12
227.152	35.12
227.387	39.12
227.621	51.12
227.856	37.12
228.09	54.12
228.324	51.12
228.559	54.12
228.793	86.12
229.027	131.12
229.262	160.12
229.496	157.12
229.73	165.12
229.964	188.12
230.199	225.12
230.433	203.12
230.667	207.12
230.901	204.12
231.136	203.12
231.37	218.12
231.604	211.12
231.838	242.12
232.072	230.12
232.306	253.12
232.541	244.12
232.775	248.12
233.009	263.12
233.243	300.12
233.477	310.12
233.711	346.12
233.945	348.12
234.179	326.12
234.413	360.12
234.647	419.12
234.881	467.12
235.115	434.12
235.349	399.12
235.583	377.12
235.817	365.12
236.051	371.12
236.285	423.12
236.519	457.12
236.753	450.12
236.987	455.12
237.221	423.12
237.455	422.12
237.689	426.12
237.922	476.12
238.156	463.12
238.39	544.12
238.624	642.12
238.858	589.12
239.091	505.12
239.325	490.12
239.559	473.12
239.793	553.12
240.027	656.12
240.26	600.12
240.494	587.12
240.728	595.12
240.961	678.12
241.195	625.12
241.429	629.12
241.662	628.12
241.896	523.12
242.13	469.12
242.363	444.12
242.597	463.12
242.83	530.12
243.064	551.12
243.298	573.12
243.531	619.12
243.765	632.12
243.998	600.12
244.232	612.12
244.465	580.12
244.699	584.12
244.932	650.12
245.166	631.12
245.399	545.12
245.633	538.12
245.866	577.12
246.099	612.12
246.333	723.12
246.566	762.12
246.8	732.12
247.033	727.12
247.266	708.12
247.5	680.12
247.733	676.12
247.966	655.12
248.2	691.12
248.433	801.12
248.666	857.12
248.899	856.12
249.133	838.12
249.366	951.12
249.599	1043.12
249.832	940.12
250.066	821.12
250.299	840.12
250.532	815.12
250.765	787.12
250.998	719.12
251.231	712.12
251.465	769.12
251.698	864.12
251.931	786.12
252.164	830.12
252.397	939.12
252.63	1044.12
252.863	1147.12
253.096	1180.12
253.329	1135.12
253.562	1084.12
253.795	1223.12
254.028	1381.12
254.261	1393.12
254.494	1247.12
254.727	1114.12
254.96	1103.12
255.193	1176.12
255.426	1111.12
255.659	864.12
255.892	812.12
256.124	879.12
256.357	1009.12
256.59	1219.12
256.823	1132.12
257.056	968.12
257.289	919.12
257.521	971.12
257.754	1158.12
257.987	1270.12
258.22	1119.12
258.452	982.12
258.685	1171.12
258.918	1275.12
259.151	1249.12
259.383	1315.12
259.616	1493.12
259.849	1564.12
260.081	1711.12
260.314	1921.12
260.547	1448.12
260.779	1479.12
261.012	1744.12
261.244	1618.12
261.477	1675.12
261.71	1517.12
261.942	1293.12
262.175	1297.12
262.407	1224.12
262.64	1256.12
262.872	1476.12
263.105	1638.12
263.337	1713.12
263.57	1512.12
263.802	1003.12
264.035	916.12
264.267	860.12
264.499	786.12
264.732	695.12
264.964	702.12
265.197	706.12
265.429	799.12
265.661	811.12
265.894	839.12
266.126	926.12
266.358	1043.12
266.591	1233.12
266.823	1471.12
267.055	1411.12
267.287	1256.12
267.52	1245.12
267.752	1301.12
267.984	1434.12
268.216	1363.12
268.448	1121.12
268.681	1119.12
268.913	1201.12
269.145	1265.12
269.377	1289.12
269.609	1312.12
269.841	1204.12
270.073	1278.12
270.306	1347.12
270.538	1338.12
270.77	1395.12
271.002	1433.12
271.234	1452.12
271.466	1525.12
271.698	1453.12
271.93	1442.12
272.162	1419.12
272.394	1448.12
272.626	1382.12
272.858	1452.12
273.09	1457.12
273.322	1273.12
273.553	1279.12
273.785	1482.12
274.017	1937.12
274.249	2421.12
274.481	2476.12
274.713	2712.12
274.945	3146.12
275.176	3273.12
275.408	2803.12
275.64	2589.12
275.872	2608.12
276.104	2223.12
276.335	1907.12
276.567	1883.12
276.799	1959.12
277.031	2060.12
277.262	1601.12
277.494	1223.12
277.726	1187.12
277.957	1303.12
278.189	1473.12
278.421	1432.12
278.652	1443.12
278.884	1353.12
279.115	1263.12
279.347	1187.12
279.579	1179.12
279.81	1190.12
280.042	1202.12
280.273	1253.12
280.505	1147.12
280.736	996.12
280.968	1019.12
281.199	1087.12
281.431	1243.12
281.662	1231.12
281.894	1163.12
282.125	1251.12
282.356	1357.12
282.588	1395.12
282.819	1234.12
283.051	1358.12
283.282	1663.12
283.513	1921.12
283.745	2155.12
283.976	2119.12
284.207	1994.12
284.439	2033.12
284.67	1953.12
284.901	1768.12
285.132	1935.12
285.364	1978.12
285.595	1852.12
285.826	1927.12
286.057	2018.12
286.288	1931.12
286.52	1976.12
286.751	2068.12
286.982	2101.12
287.213	1775.12
287.444	1765.12
287.675	1843.12
287.906	1822.12
288.138	1570.12
288.369	1324.12
288.6	1305.12
288.831	1338.12
289.062	1551.12
289.293	1677.12
289.524	1586.12
289.755	1598.12
289.986	1600.12
290.217	1438.12
290.448	1129.12
290.679	965.12
290.91	891.12
291.141	905.12
291.371	962.12
291.602	981.12
291.833	970.12
292.064	1048.12
292.295	1184.12
292.526	1377.12
292.757	1423.12
292.987	1553.12
293.218	1570.12
293.449	1554.12
293.68	1699.12
293.91	1595.12
294.141	1619.12
294.372	1509.12
294.603	1401.12
294.833	1569.12
295.064	1797.12
295.295	1707.12
295.525	1313.12
295.756	1139.12
295.987	1017.12
296.217	996.12
296.448	1016.12
296.679	1075.12
296.909	1209.12
297.14	1294.12
297.37	1398.12
297.601	1347.12
297.831	1171.12
298.062	1231.12
298.292	1376.12
298.523	1542.12
298.753	1736.12
298.984	1536.12
299.214	1261.12
299.445	1061.12
299.675	1009.12
299.905	997.12
300.136	1049.12
300.366	1162.12
300.597	1110.12
300.827	1001.12
301.057	972.12
301.288	1011.12
301.518	1057.12
301.748	1197.12
301.979	1279.12
302.209	1397.12
302.439	1386.12
302.669	1164.12
302.9	1238.12
303.13	1157.12
303.36	1095.12
303.59	1048.12
303.82	1092.12
304.051	1242.12
304.281	1312.12
304.511	1279.12
304.741	1141.12
304.971	1200.12
305.201	1277.12
305.431	1174.12
305.661	1057.12
305.891	1059.12
306.121	1044.12
306.352	917.12
306.582	865.12
306.812	855.12
307.042	857.12
307.272	796.12
307.502	796.12
307.731	874.12
307.961	907.12
308.191	853.12
308.421	789.12
308.651	797.12
308.881	761.12
309.111	767.12
309.341	805.12
309.571	862.12
309.8	917.12
310.03	930.12
310.26	975.12
310.49	940.12
310.72	871.12
310.949	834.12
311.179	882.12
311.409	918.12
311.639	1098.12
311.868	1393.12
312.098	1735.12
312.328	1938.12
312.557	1859.12
312.787	1835.12
313.017	1643.12
313.246	1805.12
313.476	1933.12
313.706	1611.12
313.935	1265.12
314.165	1044.12
314.394	981.12
314.624	958.12
314.853	994.12
315.083	1024.12
315.312	988.12
315.542	977.12
315.771	931.12
316.001	845.12
316.23	809.12
316.46	838.12
316.689	847.12
316.919	888.12
317.148	891.12
317.377	847.12
317.607	867.12
317.836	944.12
318.065	1081.12
318.295	1217.12
318.524	1145.12
318.753	987.12
318.983	923.12
319.212	908.12
319.441	984.12
319.67	1124.12
319.9	1151.12
320.129	1109.12
320.358	954.12
320.587	922.12
320.816	980.12
321.046	1153.12
321.275	1281.12
321.504	1264.12
321.733	1241.12
321.962	1196.12
322.191	1136.12
322.42	1060.12
322.649	1091.12
322.878	1158.12
323.108	1179.12
323.337	1098.12
323.566	1059.12
323.795	1038.12
324.024	992.12
324.253	966.12
324.482	954.12
324.71	1055.12
324.939	1213.12
325.168	1120.12
325.397	912.12
325.626	853.12
325.855	899.12
326.084	923.12
326.313	879.12
326.542	808.12
326.77	864.12
326.999	884.12
327.228	953.12
327.457	972.12
327.686	998.12
327.914	876.12
328.143	827.12
328.372	821.12
328.6	831.12
328.829	875.12
329.058	884.12
329.287	861.12
329.515	917.12
329.744	865.12
329.972	843.12
330.201	810.12
330.43	849.12
330.658	927.12
330.887	1051.12
331.115	1031.12
331.344	978.12
331.572	953.12
331.801	876.12
332.03	837.12
332.258	851.12
332.486	947.12
332.715	972.12
332.943	908.12
333.172	936.12
333.4	934.12
333.629	1040.12
333.857	1093.12
334.085	1106.12
334.314	1121.12
334.542	1027.12
334.771	955.12
334.999	961.12
335.227	893.12
335.455	931.12
335.684	1014.12
335.912	1180.12
336.14	1304.12
336.369	1247.12
336.597	1210.12
336.825	1354.12
337.053	1506.12
337.281	1193.12
337.51	983.12
337.738	974.12
337.966	1062.12
338.194	1140.12
338.422	1094.12
338.65	953.12
338.878	857.12
339.106	912.12
339.334	1006.12
339.562	1077.12
339.79	986.12
340.018	946.12
340.246	1020.12
340.474	1186.12
340.702	1243.12
340.93	1284.12
341.158	1311.12
341.386	1105.12
341.614	1069.12
341.842	1089.12
342.07	1124.12
342.298	1312.12
342.526	1393.12
342.754	1162.12
342.981	1090.12
343.209	1039.12
343.437	1108.12
343.665	1151.12
343.893	1151.12
344.12	1396.12
344.348	1548.12
344.576	1445.12
344.804	1156.12
345.031	1050.12
345.259	939.12
345.487	989.12
345.714	1010.12
345.942	1096.12
346.17	1166.12
346.397	1101.12
346.625	969.12
346.853	951.12
347.08	893.12
347.308	981.12
347.535	1090.12
347.763	1131.12
347.99	979.12
348.218	935.12
348.445	936.12
348.673	979.12
348.9	939.12
349.128	1020.12
349.355	1064.12
349.583	1023.12
349.81	978.12
350.037	928.12
350.265	852.12
350.492	833.12
350.72	792.12
350.947	807.12
351.174	903.12
351.402	944.12
351.629	952.12
351.856	899.12
352.083	873.12
352.311	965.12
352.538	1049.12
352.765	1107.12
352.992	988.12
353.22	970.12
353.447	956.12
353.674	929.12
353.901	929.12
354.128	946.12
354.355	955.12
354.583	938.12
354.81	964.12
355.037	981.12
355.264	958.12
355.491	1040.12
355.718	1126.12
355.945	1068.12
356.172	1050.12
356.399	1087.12
356.626	1282.12
356.853	1536.12
357.08	1652.12
357.307	1651.12
357.534	1319.12
357.761	1341.12
357.988	1676.12
358.215	1961.12
358.441	1827.12
358.668	1528.12
358.895	1397.12
359.122	1157.12
359.349	1165.12
359.576	1256.12
359.802	1055.12
360.029	910.12
360.256	999.12
360.483	1197.12
360.709	1537.12
360.936	1573.12
361.163	1381.12
361.39	1095.12
361.616	1059.12
361.843	1167.12
362.07	1415.12
362.296	1328.12
362.523	1058.12
362.749	947.12
362.976	951.12
363.203	1166.12
363.429	1338.12
363.656	1045.12
363.882	947.12
364.109	964.12
364.335	963.12
364.562	953.12
364.788	1079.12
365.015	1240.12
365.241	1114.12
365.468	937.12
365.694	865.12
365.92	821.12
366.147	778.12
366.373	760.12
366.599	804.12
366.826	794.12
367.052	816.12
367.278	825.12
367.505	820.12
367.731	892.12
367.957	1001.12
368.184	1029.12
368.41	998.12
368.636	985.12
368.862	1011.12
369.089	987.12
369.315	875.12
369.541	865.12
369.767	857.12
369.993	836.12
370.219	840.12
370.445	901.12
370.672	966.12
370.898	1049.12
371.124	1047.12
371.35	929.12
371.576	886.12
371.802	965.12
372.028	1102.12
372.254	1283.12
372.48	1094.12
372.706	997.12
372.932	1043.12
373.158	1094.12
373.384	1299.12
373.61	1729.12
373.835	1761.12
374.061	1300.12
374.287	1114.12
374.513	1316.12
374.739	1550.12
374.965	1641.12
375.191	1597.12
375.416	1106.12
375.642	1004.12
375.868	1162.12
376.094	1294.12
376.319	1145.12
376.545	1219.12
376.771	1291.12
376.997	1143.12
377.222	864.12
377.448	751.12
377.674	741.12
377.899	736.12
378.125	724.12
378.35	728.12
378.576	758.12
378.802	852.12
379.027	900.12
379.253	883.12
379.478	908.12
379.704	996.12
379.929	1054.12
380.155	1047.12
380.38	927.12
380.606	990.12
380.831	1098.12
381.057	990.12
381.282	971.12
381.507	1139.12
381.733	1412.12
381.958	1479.12
382.184	1568.12
382.409	1608.12
382.634	1579.12
382.86	1670.12
383.085	1372.12
383.31	1105.12
383.535	1165.12
383.761	1167.12
383.986	1123.12
384.211	1363.12
384.436	1303.12
384.662	1043.12
384.887	970.12
385.112	1009.12
385.337	1019.12
385.562	976.12
385.787	1085.12
386.013	1189.12
386.238	1187.12
386.463	992.12
386.688	951.12
386.913	932.12
387.138	888.12
387.363	925.12
387.588	961.12
387.813	965.12
388.038	1037.12
388.263	968.12
388.488	949.12
388.713	1079.12
388.938	1161.12
389.163	968.12
389.387	899.12
389.612	896.12
389.837	912.12
390.062	932.12
390.287	972.12
390.512	981.12
390.736	896.12
390.961	896.12
391.186	824.12
391.411	832.12
391.636	871.12
391.86	933.12
392.085	957.12
392.31	1007.12
392.534	949.12
392.759	924.12
392.984	982.12
393.208	944.12
393.433	847.12
393.658	819.12
393.882	789.12
394.107	767.12
394.331	790.12
394.556	838.12
394.78	829.12
395.005	841.12
395.229	857.12
395.454	876.12
395.678	860.12
395.903	922.12
396.127	859.12
396.352	878.12
396.576	959.12
396.801	974.12
397.025	1077.12
397.249	1113.12
397.474	940.12
397.698	903.12
397.922	953.12
398.147	897.12
398.371	924.12
398.595	985.12
398.82	921.12
399.044	962.12
399.268	1022.12
399.492	1043.12
399.717	1059.12
399.941	1111.12
400.165	1040.12
400.389	1035.12
400.613	1060.12
400.837	1025.12
401.062	933.12
401.286	912.12
401.51	884.12
401.734	894.12
401.958	916.12
402.182	919.12
402.406	874.12
402.63	915.12
402.854	950.12
403.078	1033.12
403.302	1281.12
403.526	1321.12
403.75	1196.12
403.974	1052.12
404.198	1093.12
404.422	1220.12
404.645	1409.12
404.869	1515.12
405.093	1163.12
405.317	983.12
405.541	960.12
405.765	1011.12
405.988	1018.12
406.212	1083.12
406.436	1287.12
406.66	1395.12
406.883	1110.12
407.107	1142.12
407.331	1332.12
407.555	1279.12
407.778	1093.12
408.002	1049.12
408.226	1042.12
408.449	1037.12
408.673	1028.12
408.896	962.12
409.12	906.12
409.344	932.12
409.567	921.12
409.791	891.12
410.014	894.12
410.238	948.12
410.461	904.12
410.685	882.12
410.908	905.12
411.132	919.12
411.355	945.12
411.578	945.12
411.802	952.12
412.025	981.12
412.249	987.12
412.472	956.12
412.695	960.12
412.919	981.12
413.142	973.12
413.365	1043.12
413.589	1051.12
413.812	946.12
414.035	905.12
414.258	936.12
414.482	1003.12
414.705	1030.12
414.928	902.12
415.151	874.12
415.374	887.12
415.597	935.12
415.821	902.12
416.044	883.12
416.267	875.12
416.49	878.12
416.713	875.12
416.936	881.12
417.159	904.12
417.382	868.12
417.605	911.12
417.828	921.12
418.051	917.12
418.274	966.12
418.497	947.12
418.72	943.12
418.943	936.12
419.166	979.12
419.389	1050.12
419.611	1043.12
419.834	1035.12
420.057	1080.12
420.28	1099.12
420.503	1016.12
420.726	927.12
420.948	889.12
421.171	872.12
421.394	863.12
421.617	862.12
421.839	872.12
422.062	969.12
422.285	941.12
422.507	948.12
422.73	943.12
422.953	945.12
423.175	951.12
423.398	919.12
423.621	977.12
423.843	1043.12
424.066	991.12
424.288	935.12
424.511	919.12
424.733	914.12
424.956	949.12
425.178	1064.12
425.401	1203.12
425.623	1351.12
425.846	1101.12
426.068	976.12
426.291	1129.12
426.513	1040.12
426.735	964.12
426.958	1001.12
427.18	1148.12
427.402	1435.12
427.625	1419.12
427.847	1143.12
428.069	923.12
428.292	891.12
428.514	904.12
428.736	874.12
428.958	967.12
429.181	1119.12
429.403	957.12
429.625	883.12
429.847	877.12
430.069	915.12
430.292	923.12
430.514	879.12
430.736	966.12
430.958	1201.12
431.18	1050.12
431.402	860.12
431.624	829.12
431.846	809.12
432.068	804.12
432.29	819.12
432.512	909.12
432.734	1194.12
432.956	1130.12
433.178	892.12
433.4	848.12
433.622	863.12
433.844	867.12
434.066	925.12
434.287	912.12
434.509	862.12
434.731	930.12
434.953	872.12
435.175	928.12
435.397	1014.12
435.618	899.12
435.84	847.12
436.062	844.12
436.284	826.12
436.505	775.12
436.727	777.12
436.949	816.12
437.17	841.12
437.392	863.12
437.614	851.12
437.835	848.12
438.057	835.12
438.278	959.12
438.5	1362.12
438.721	1362.12
438.943	917.12
439.165	835.12
439.386	785.12
439.608	795.12
439.829	776.12
440.05	785.12
440.272	863.12
440.493	985.12
440.715	1183.12
440.936	986.12
441.158	873.12
441.379	869.12
441.6	975.12
441.822	1001.12
442.043	898.12
442.264	882.12
442.486	882.12
442.707	875.12
442.928	877.12
443.149	902.12
443.371	874.12
443.592	967.12
443.813	913.12
444.034	916.12
444.255	900.12
444.476	952.12
444.698	941.12
444.919	962.12
445.14	1059.12
445.361	1023.12
445.582	965.12
445.803	927.12
446.024	954.12
446.245	949.12
446.466	903.12
446.687	865.12
446.908	884.12
447.129	847.12
447.35	814.12
447.571	797.12
447.792	795.12
448.013	787.12
448.234	793.12
448.455	774.12
448.675	809.12
448.896	796.12
449.117	816.12
449.338	803.12
449.559	823.12
449.779	860.12
450	888.12
450.221	831.12
450.442	807.12
450.662	793.12
450.883	773.12
451.104	823.12
451.324	828.12
451.545	817.12
451.766	793.12
451.986	773.12
452.207	779.12
452.428	759.12
452.648	790.12
452.869	805.12
453.089	809.12
453.31	834.12
453.53	743.12
453.751	757.12
453.971	741.12
454.192	761.12
454.412	765.12
454.633	768.12
454.853	749.12
455.073	717.12
455.294	743.12
455.514	759.12
455.734	792.12
455.955	803.12
456.175	821.12
456.395	748.12
456.616	697.12
456.836	679.12
457.056	703.12
457.276	717.12
457.497	717.12
457.717	736.12
457.937	731.12
458.157	697.12
458.377	736.12
458.598	727.12
458.818	793.12
459.038	829.12
459.258	849.12
459.478	858.12
459.698	907.12
459.918	888.12
460.138	876.12
460.358	913.12
460.578	881.12
460.798	890.12
461.018	867.12
461.238	860.12
461.458	861.12
461.678	865.12
461.898	933.12
462.118	939.12
462.338	937.12
462.558	947.12
462.777	1017.12
462.997	999.12
463.217	1017.12
463.437	1049.12
463.657	1018.12
463.876	975.12
464.096	977.12
464.316	1002.12
464.536	980.12
464.755	1050.12
464.975	1023.12
465.195	947.12
465.414	1019.12
465.634	986.12
465.854	917.12
466.073	888.12
466.293	873.12
466.512	928.12
466.732	1023.12
466.951	1053.12
467.171	959.12
467.391	903.12
467.61	898.12
467.829	938.12
468.049	936.12
468.268	882.12
468.488	869.12
468.707	919.12
468.927	1036.12
469.146	1163.12
469.365	1034.12
469.585	975.12
469.804	1019.12
470.023	1087.12
470.243	986.12
470.462	923.12
470.681	901.12
470.901	940.12
471.12	959.12
471.339	967.12
471.558	922.12
471.777	973.12
471.997	1013.12
472.216	1098.12
472.435	1080.12
472.654	991.12
472.873	943.12
473.092	1035.12
473.311	1052.12
473.53	957.12
473.749	925.12
473.968	979.12
474.187	966.12
474.406	951.12
474.625	904.12
474.844	965.12
475.063	1033.12
475.282	1036.12
475.501	1090.12
475.72	1109.12
475.939	1107.12
476.158	1093.12
476.377	1274.12
476.596	1436.12
476.814	1467.12
477.033	1257.12
477.252	1049.12
477.471	1008.12
477.69	1024.12
477.908	1124.12
478.127	1173.12
478.346	1068.12
478.564	1137.12
478.783	1086.12
479.002	1121.12
479.22	1272.12
479.439	1442.12
479.658	1215.12
479.876	1124.12
480.095	1224.12
480.313	1207.12
480.532	1139.12
480.751	1095.12
480.969	1120.12
481.188	1267.12
481.406	1323.12
481.624	1229.12
481.843	1146.12
482.061	1075.12
482.28	1204.12
482.498	1435.12
482.717	1361.12
482.935	1210.12
483.153	1144.12
483.372	1076.12
483.59	1059.12
483.808	1056.12
484.027	1016.12
484.245	1003.12
484.463	984.12
484.681	1032.12
484.9	1086.12
485.118	1177.12
485.336	1102.12
485.554	1073.12
485.772	1099.12
485.99	1169.12
486.209	1212.12
486.427	1219.12
486.645	1188.12
486.863	1271.12
487.081	1259.12
487.299	1348.12
487.517	1313.12
487.735	1235.12
487.953	1233.12
488.171	1283.12
488.389	1196.12
488.607	1094.12
488.825	1175.12
489.043	1267.12
489.261	1409.12
489.479	1493.12
489.696	1297.12
489.914	1188.12
490.132	1117.12
490.35	1120.12
490.568	1155.12
490.786	1125.12
491.003	1131.12
491.221	1186.12
491.439	1122.12
491.657	1141.12
491.874	1227.12
492.092	1441.12
492.31	1727.12
492.527	1695.12
492.745	1505.12
492.963	1327.12
493.18	1310.12
493.398	1301.12
493.615	1272.12
493.833	1265.12
494.05	1256.12
494.268	1284.12
494.485	1251.12
494.703	1176.12
