Data from NickelSpatula.Lamp.E10.P2_HRD10591_11-59-23-525.txt Node
Date: Tue Jul 23 11:59:23 EDT 2019
User: cochatt
Spectrometer: HR+D1059
Trigger mode: 1
Integration Time (sec): 1.000000E-1
Scans to average: 1
Electric dark correction enabled: true
Nonlinearity correction enabled: false
Boxcar width: 0
XAxis mode: Wavelengths
Number of Pixels in Spectrum: 2048
>>>>>Begin Spectral Data<<<<<
223.165	-12.12
223.4	-12.12
223.635	-12.12
223.869	-12.12
224.104	-19.12
224.338	-8.12
224.573	-8.12
224.808	-3.12
225.042	-9.12
225.277	-3.12
225.511	-10.12
225.746	-9.12
225.98	16.88
226.215	3.88
226.449	7.88
226.683	20.88
226.918	23.88
227.152	20.88
227.387	30.88
227.621	44.88
227.856	43.88
228.09	51.88
228.324	45.88
228.559	56.88
228.793	85.88
229.027	137.88
229.262	150.88
229.496	163.88
229.73	164.88
229.964	194.88
230.199	219.88
230.433	222.88
230.667	217.88
230.901	211.88
231.136	205.88
231.37	217.88
231.604	224.88
231.838	252.88
232.072	245.88
232.306	240.88
232.541	263.88
232.775	253.88
233.009	266.88
233.243	311.88
233.477	321.88
233.711	349.88
233.945	345.88
234.179	324.88
234.413	339.88
234.647	389.88
234.881	455.88
235.115	432.88
235.349	420.88
235.583	359.88
235.817	370.88
236.051	384.88
236.285	407.88
236.519	492.88
236.753	451.88
236.987	451.88
237.221	420.88
237.455	418.88
237.689	444.88
237.922	469.88
238.156	481.88
238.39	550.88
238.624	677.88
238.858	599.88
239.091	508.88
239.325	519.88
239.559	488.88
239.793	547.88
240.027	648.88
240.26	612.88
240.494	581.88
240.728	588.88
240.961	691.88
241.195	657.88
241.429	642.88
241.662	635.88
241.896	551.88
242.13	487.88
242.363	460.88
242.597	461.88
242.83	544.88
243.064	515.88
243.298	620.88
243.531	656.88
243.765	654.88
243.998	633.88
244.232	600.88
244.465	605.88
244.699	593.88
244.932	681.88
245.166	636.88
245.399	583.88
245.633	526.88
245.866	593.88
246.099	618.88
246.333	726.88
246.566	776.88
246.8	821.88
247.033	754.88
247.266	683.88
247.5	715.88
247.733	671.88
247.966	703.88
248.2	717.88
248.433	775.88
248.666	860.88
248.899	864.88
249.133	858.88
249.366	1013.88
249.599	1100.88
249.832	967.88
250.066	808.88
250.299	868.88
250.532	819.88
250.765	806.88
250.998	766.88
251.231	726.88
251.465	790.88
251.698	831.88
251.931	828.88
252.164	859.88
252.397	934.88
252.63	1092.88
252.863	1186.88
253.096	1243.88
253.329	1155.88
253.562	1119.88
253.795	1249.88
254.028	1425.88
254.261	1418.88
254.494	1261.88
254.727	1163.88
254.96	1131.88
255.193	1200.88
255.426	1145.88
255.659	873.88
255.892	828.88
256.124	877.88
256.357	1019.88
256.59	1244.88
256.823	1166.88
257.056	953.88
257.289	927.88
257.521	1003.88
257.754	1127.88
257.987	1302.88
258.22	1111.88
258.452	1025.88
258.685	1169.88
258.918	1270.88
259.151	1274.88
259.383	1304.88
259.616	1492.88
259.849	1585.88
260.081	1719.88
260.314	1941.88
260.547	1474.88
260.779	1487.88
261.012	1734.88
261.244	1644.88
261.477	1611.88
261.71	1551.88
261.942	1329.88
262.175	1297.88
262.407	1270.88
262.64	1292.88
262.872	1549.88
263.105	1659.88
263.337	1792.88
263.57	1572.88
263.802	1041.88
264.035	908.88
264.267	871.88
264.499	767.88
264.732	711.88
264.964	693.88
265.197	721.88
265.429	783.88
265.661	817.88
265.894	863.88
266.126	918.88
266.358	1042.88
266.591	1240.88
266.823	1504.88
267.055	1384.88
267.287	1263.88
267.52	1247.88
267.752	1308.88
267.984	1454.88
268.216	1379.88
268.448	1119.88
268.681	1111.88
268.913	1197.88
269.145	1294.88
269.377	1288.88
269.609	1308.88
269.841	1245.88
270.073	1279.88
270.306	1319.88
270.538	1380.88
270.77	1425.88
271.002	1407.88
271.234	1449.88
271.466	1497.88
271.698	1447.88
271.93	1436.88
272.162	1459.88
272.394	1415.88
272.626	1457.88
272.858	1497.88
273.09	1514.88
273.322	1361.88
273.553	1273.88
273.785	1536.88
274.017	2016.88
274.249	2526.88
274.481	2566.88
274.713	2766.88
274.945	3202.88
275.176	3343.88
275.408	2906.88
275.64	2687.88
275.872	2624.88
276.104	2217.88
276.335	1924.88
276.567	1918.88
276.799	2019.88
277.031	2061.88
277.262	1639.88
277.494	1275.88
277.726	1211.88
277.957	1329.88
278.189	1493.88
278.421	1488.88
278.652	1438.88
278.884	1419.88
279.115	1279.88
279.347	1225.88
279.579	1207.88
279.81	1231.88
280.042	1213.88
280.273	1279.88
280.505	1170.88
280.736	998.88
280.968	1009.88
281.199	1104.88
281.431	1245.88
281.662	1224.88
281.894	1183.88
282.125	1249.88
282.356	1363.88
282.588	1380.88
282.819	1243.88
283.051	1375.88
283.282	1691.88
283.513	1922.88
283.745	2192.88
283.976	2187.88
284.207	1987.88
284.439	2127.88
284.67	1987.88
284.901	1807.88
285.132	1947.88
285.364	2012.88
285.595	1849.88
285.826	1958.88
286.057	2086.88
286.288	1941.88
286.52	2033.88
286.751	2142.88
286.982	2145.88
287.213	1838.88
287.444	1757.88
287.675	1871.88
287.906	1836.88
288.138	1560.88
288.369	1376.88
288.6	1293.88
288.831	1341.88
289.062	1580.88
289.293	1722.88
289.524	1605.88
289.755	1616.88
289.986	1652.88
290.217	1432.88
290.448	1102.88
290.679	966.88
290.91	934.88
291.141	951.88
291.371	995.88
291.602	969.88
291.833	987.88
292.064	1049.88
292.295	1244.88
292.526	1399.88
292.757	1459.88
292.987	1596.88
293.218	1581.88
293.449	1586.88
293.68	1676.88
293.91	1557.88
294.141	1616.88
294.372	1511.88
294.603	1419.88
294.833	1575.88
295.064	1853.88
295.295	1732.88
295.525	1342.88
295.756	1174.88
295.987	1021.88
296.217	1023.88
296.448	1083.88
296.679	1141.88
296.909	1269.88
297.14	1341.88
297.37	1456.88
297.601	1421.88
297.831	1174.88
298.062	1243.88
298.292	1443.88
298.523	1594.88
298.753	1826.88
298.984	1607.88
299.214	1309.88
299.445	1077.88
299.675	1044.88
299.905	1061.88
300.136	1070.88
300.366	1202.88
300.597	1178.88
300.827	1041.88
301.057	1035.88
301.288	1035.88
301.518	1094.88
301.748	1240.88
301.979	1379.88
302.209	1522.88
302.439	1485.88
302.669	1294.88
302.9	1284.88
303.13	1165.88
303.36	1080.88
303.59	1057.88
303.82	1143.88
304.051	1240.88
304.281	1329.88
304.511	1292.88
304.741	1154.88
304.971	1232.88
305.201	1303.88
305.431	1214.88
305.661	1063.88
305.891	1075.88
306.121	1115.88
306.352	980.88
306.582	903.88
306.812	881.88
307.042	884.88
307.272	835.88
307.502	824.88
307.731	919.88
307.961	927.88
308.191	855.88
308.421	817.88
308.651	801.88
308.881	769.88
309.111	779.88
309.341	848.88
309.571	908.88
309.8	897.88
310.03	993.88
310.26	1052.88
310.49	997.88
310.72	887.88
310.949	857.88
311.179	859.88
311.409	931.88
311.639	1094.88
311.868	1403.88
312.098	1793.88
312.328	1937.88
312.557	1849.88
312.787	1915.88
313.017	1705.88
313.246	1781.88
313.476	1990.88
313.706	1650.88
313.935	1298.88
314.165	1075.88
314.394	953.88
314.624	972.88
314.853	1028.88
315.083	1043.88
315.312	1047.88
315.542	1024.88
315.771	960.88
316.001	869.88
316.23	867.88
316.46	825.88
316.689	861.88
316.919	897.88
317.148	899.88
317.377	867.88
317.607	911.88
317.836	961.88
318.065	1126.88
318.295	1257.88
318.524	1163.88
318.753	989.88
318.983	944.88
319.212	922.88
319.441	1003.88
319.67	1161.88
319.9	1243.88
320.129	1143.88
320.358	1007.88
320.587	938.88
320.816	1044.88
321.046	1203.88
321.275	1329.88
321.504	1363.88
321.733	1293.88
321.962	1265.88
322.191	1200.88
322.42	1141.88
322.649	1171.88
322.878	1277.88
323.108	1250.88
323.337	1133.88
323.566	1133.88
323.795	1073.88
324.024	1042.88
324.253	991.88
324.482	1000.88
324.71	1115.88
324.939	1256.88
325.168	1124.88
325.397	935.88
325.626	908.88
325.855	960.88
326.084	952.88
326.313	900.88
326.542	851.88
326.77	859.88
326.999	919.88
327.228	993.88
327.457	1027.88
327.686	1009.88
327.914	895.88
328.143	831.88
328.372	828.88
328.6	846.88
328.829	899.88
329.058	905.88
329.287	928.88
329.515	906.88
329.744	885.88
329.972	836.88
330.201	800.88
330.43	832.88
330.658	948.88
330.887	1096.88
331.115	1049.88
331.344	1006.88
331.572	963.88
331.801	901.88
332.03	868.88
332.258	883.88
332.486	968.88
332.715	990.88
332.943	931.88
333.172	904.88
333.4	926.88
333.629	1015.88
333.857	1122.88
334.085	1110.88
334.314	1122.88
334.542	1063.88
334.771	995.88
334.999	953.88
335.227	933.88
335.455	936.88
335.684	1022.88
335.912	1206.88
336.14	1315.88
336.369	1244.88
336.597	1227.88
336.825	1376.88
337.053	1520.88
337.281	1277.88
337.51	1019.88
337.738	1003.88
337.966	1060.88
338.194	1220.88
338.422	1132.88
338.65	943.88
338.878	888.88
339.106	919.88
339.334	1022.88
339.562	1097.88
339.79	981.88
340.018	1000.88
340.246	1060.88
340.474	1228.88
340.702	1312.88
340.93	1355.88
341.158	1343.88
341.386	1120.88
341.614	1127.88
341.842	1130.88
342.07	1143.88
342.298	1357.88
342.526	1395.88
342.754	1184.88
342.981	1131.88
343.209	1077.88
343.437	1153.88
343.665	1192.88
343.893	1194.88
344.12	1411.88
344.348	1686.88
344.576	1488.88
344.804	1236.88
345.031	1085.88
345.259	980.88
345.487	1030.88
345.714	1018.88
345.942	1138.88
346.17	1184.88
346.397	1160.88
346.625	1000.88
346.853	990.88
347.08	976.88
347.308	1043.88
347.535	1142.88
347.763	1147.88
347.99	1031.88
348.218	925.88
348.445	965.88
348.673	970.88
348.9	993.88
349.128	1077.88
349.355	1109.88
349.583	1108.88
349.81	1014.88
350.037	951.88
350.265	839.88
350.492	816.88
350.72	816.88
350.947	865.88
351.174	899.88
351.402	973.88
351.629	995.88
351.856	995.88
352.083	890.88
352.311	976.88
352.538	1125.88
352.765	1184.88
352.992	1081.88
353.22	1005.88
353.447	1047.88
353.674	983.88
353.901	1001.88
354.128	1029.88
354.355	1037.88
354.583	995.88
354.81	1015.88
355.037	1037.88
355.264	1050.88
355.491	1124.88
355.718	1240.88
355.945	1179.88
356.172	1149.88
356.399	1152.88
356.626	1353.88
356.853	1709.88
357.08	1799.88
357.307	1816.88
357.534	1422.88
357.761	1439.88
357.988	1797.88
358.215	2148.88
358.441	1987.88
358.668	1679.88
358.895	1547.88
359.122	1265.88
359.349	1241.88
359.576	1379.88
359.802	1115.88
360.029	992.88
360.256	1069.88
360.483	1315.88
360.709	1648.88
360.936	1702.88
361.163	1497.88
361.39	1125.88
361.616	1064.88
361.843	1277.88
362.07	1569.88
362.296	1418.88
362.523	1087.88
362.749	975.88
362.976	1011.88
363.203	1240.88
363.429	1423.88
363.656	1103.88
363.882	1040.88
364.109	1024.88
364.335	1017.88
364.562	1020.88
364.788	1166.88
365.015	1349.88
365.241	1245.88
365.468	987.88
365.694	852.88
365.92	827.88
366.147	771.88
366.373	817.88
366.599	784.88
366.826	827.88
367.052	845.88
367.278	844.88
367.505	851.88
367.731	906.88
367.957	1032.88
368.184	1092.88
368.41	1040.88
368.636	1067.88
368.862	1079.88
369.089	1033.88
369.315	958.88
369.541	930.88
369.767	882.88
369.993	875.88
370.219	862.88
370.445	966.88
370.672	1063.88
370.898	1147.88
371.124	1118.88
371.35	1008.88
371.576	905.88
371.802	1009.88
372.028	1181.88
372.254	1356.88
372.48	1166.88
372.706	1053.88
372.932	1135.88
373.158	1119.88
373.384	1403.88
373.61	1879.88
373.835	1947.88
374.061	1429.88
374.287	1235.88
374.513	1451.88
374.739	1717.88
374.965	1767.88
375.191	1703.88
375.416	1219.88
375.642	1056.88
375.868	1243.88
376.094	1397.88
376.319	1180.88
376.545	1360.88
376.771	1407.88
376.997	1228.88
377.222	883.88
377.448	773.88
377.674	771.88
377.899	765.88
378.125	789.88
378.35	769.88
378.576	782.88
378.802	882.88
379.027	945.88
379.253	898.88
379.478	939.88
379.704	1105.88
379.929	1119.88
380.155	1125.88
380.38	982.88
380.606	1027.88
380.831	1150.88
381.057	1043.88
381.282	1020.88
381.507	1226.88
381.733	1493.88
381.958	1600.88
382.184	1707.88
382.409	1760.88
382.634	1734.88
382.86	1824.88
383.085	1485.88
383.31	1179.88
383.535	1263.88
383.761	1274.88
383.986	1207.88
384.211	1479.88
384.436	1417.88
384.662	1069.88
384.887	1012.88
385.112	1048.88
385.337	1084.88
385.562	1051.88
385.787	1103.88
386.013	1265.88
386.238	1342.88
386.463	1051.88
386.688	1015.88
386.913	953.88
387.138	904.88
387.363	970.88
387.588	1043.88
387.813	1056.88
388.038	1160.88
388.263	992.88
388.488	999.88
388.713	1154.88
388.938	1263.88
389.163	1058.88
389.387	941.88
389.612	919.88
389.837	994.88
390.062	975.88
390.287	1032.88
390.512	1048.88
390.736	953.88
390.961	903.88
391.186	863.88
391.411	837.88
391.636	865.88
391.86	945.88
392.085	1033.88
392.31	1044.88
392.534	953.88
392.759	967.88
392.984	1031.88
393.208	1013.88
393.433	893.88
393.658	803.88
393.882	824.88
394.107	818.88
394.331	796.88
394.556	805.88
394.78	826.88
395.005	868.88
395.229	874.88
395.454	890.88
395.678	908.88
395.903	936.88
396.127	895.88
396.352	916.88
396.576	990.88
396.801	1039.88
397.025	1133.88
397.249	1164.88
397.474	940.88
397.698	927.88
397.922	1006.88
398.147	953.88
398.371	946.88
398.595	997.88
398.82	968.88
399.044	936.88
399.268	1031.88
399.492	1084.88
399.717	1068.88
399.941	1092.88
400.165	1056.88
400.389	1045.88
400.613	1045.88
400.837	1053.88
401.062	892.88
401.286	900.88
401.51	924.88
401.734	912.88
401.958	919.88
402.182	914.88
402.406	924.88
402.63	922.88
402.854	977.88
403.078	1104.88
403.302	1320.88
403.526	1348.88
403.75	1200.88
403.974	1082.88
404.198	1112.88
404.422	1265.88
404.645	1473.88
404.869	1618.88
405.093	1195.88
405.317	1008.88
405.541	992.88
405.765	1037.88
405.988	1019.88
406.212	1134.88
406.436	1333.88
406.66	1469.88
406.883	1120.88
407.107	1184.88
407.331	1430.88
407.555	1351.88
407.778	1141.88
408.002	1072.88
408.226	1062.88
408.449	1045.88
408.673	997.88
408.896	906.88
409.12	929.88
409.344	876.88
409.567	891.88
409.791	900.88
410.014	904.88
410.238	898.88
410.461	888.88
410.685	908.88
410.908	920.88
411.132	959.88
411.355	945.88
411.578	961.88
411.802	967.88
412.025	1023.88
412.249	1033.88
412.472	957.88
412.695	971.88
412.919	952.88
413.142	988.88
413.365	1067.88
413.589	1108.88
413.812	968.88
414.035	931.88
414.258	964.88
414.482	1064.88
414.705	1091.88
414.928	935.88
415.151	875.88
415.374	891.88
415.597	967.88
415.821	947.88
416.044	891.88
416.267	851.88
416.49	890.88
416.713	857.88
416.936	860.88
417.159	861.88
417.382	882.88
417.605	911.88
417.828	935.88
418.051	918.88
418.274	939.88
418.497	961.88
418.72	950.88
418.943	979.88
419.166	1025.88
419.389	1021.88
419.611	1033.88
419.834	1053.88
420.057	1142.88
420.28	1161.88
420.503	1060.88
420.726	909.88
420.948	881.88
421.171	910.88
421.394	908.88
421.617	885.88
421.839	895.88
422.062	928.88
422.285	946.88
422.507	944.88
422.73	971.88
422.953	975.88
423.175	977.88
423.398	958.88
423.621	1007.88
423.843	1088.88
424.066	984.88
424.288	958.88
424.511	959.88
424.733	912.88
424.956	963.88
425.178	1106.88
425.401	1263.88
425.623	1431.88
425.846	1155.88
426.068	1041.88
426.291	1160.88
426.513	1091.88
426.735	928.88
426.958	999.88
427.18	1219.88
427.402	1589.88
427.625	1528.88
427.847	1211.88
428.069	917.88
428.292	927.88
428.514	904.88
428.736	876.88
428.958	991.88
429.181	1167.88
429.403	1015.88
429.625	911.88
429.847	885.88
430.069	911.88
430.292	921.88
430.514	904.88
430.736	963.88
430.958	1230.88
431.18	1103.88
431.402	852.88
431.624	840.88
431.846	813.88
432.068	807.88
432.29	869.88
432.512	936.88
432.734	1266.88
432.956	1124.88
433.178	880.88
433.4	847.88
433.622	872.88
433.844	909.88
434.066	967.88
434.287	932.88
434.509	899.88
434.731	935.88
434.953	883.88
435.175	947.88
435.397	1063.88
435.618	909.88
435.84	847.88
436.062	838.88
436.284	840.88
436.505	807.88
436.727	786.88
436.949	799.88
437.17	847.88
437.392	855.88
437.614	838.88
437.835	821.88
438.057	875.88
438.278	1023.88
438.5	1478.88
438.721	1409.88
438.943	949.88
439.165	835.88
439.386	813.88
439.608	806.88
439.829	779.88
440.05	800.88
440.272	862.88
440.493	1051.88
440.715	1238.88
440.936	998.88
441.158	867.88
441.379	897.88
441.6	1003.88
441.822	1065.88
442.043	953.88
442.264	868.88
442.486	888.88
442.707	903.88
442.928	904.88
443.149	884.88
443.371	906.88
443.592	912.88
443.813	919.88
444.034	871.88
444.255	886.88
444.476	949.88
444.698	964.88
444.919	980.88
445.14	1071.88
445.361	1053.88
445.582	963.88
445.803	920.88
446.024	957.88
446.245	965.88
446.466	933.88
446.687	865.88
446.908	893.88
447.129	832.88
447.35	843.88
447.571	805.88
447.792	803.88
448.013	811.88
448.234	817.88
448.455	808.88
448.675	809.88
448.896	836.88
449.117	838.88
449.338	830.88
449.559	849.88
449.779	879.88
450	896.88
450.221	833.88
450.442	831.88
450.662	803.88
450.883	814.88
451.104	817.88
451.324	814.88
451.545	795.88
451.766	838.88
451.986	785.88
452.207	763.88
452.428	768.88
452.648	795.88
452.869	835.88
453.089	868.88
453.31	865.88
453.53	763.88
453.751	750.88
453.971	764.88
454.192	768.88
454.412	801.88
454.633	752.88
454.853	759.88
455.073	743.88
455.294	749.88
455.514	733.88
455.734	797.88
455.955	831.88
456.175	835.88
456.395	747.88
456.616	699.88
456.836	719.88
457.056	698.88
457.276	707.88
457.497	716.88
457.717	738.88
457.937	763.88
458.157	734.88
458.377	723.88
458.598	749.88
458.818	757.88
459.038	807.88
459.258	835.88
459.478	845.88
459.698	930.88
459.918	933.88
460.138	886.88
460.358	909.88
460.578	869.88
460.798	865.88
461.018	886.88
461.238	859.88
461.458	843.88
461.678	891.88
461.898	947.88
462.118	921.88
462.338	928.88
462.558	951.88
462.777	999.88
462.997	1031.88
463.217	988.88
463.437	1049.88
463.657	1005.88
463.876	958.88
464.096	946.88
464.316	959.88
464.536	979.88
464.755	1027.88
464.975	1021.88
465.195	981.88
465.414	1042.88
465.634	984.88
465.854	943.88
466.073	877.88
466.293	879.88
466.512	959.88
466.732	1027.88
466.951	1068.88
467.171	927.88
467.391	887.88
467.61	873.88
467.829	937.88
468.049	962.88
468.268	893.88
468.488	893.88
468.707	940.88
468.927	1111.88
469.146	1173.88
469.365	1051.88
469.585	971.88
469.804	1001.88
470.023	1127.88
470.243	1021.88
470.462	921.88
470.681	934.88
470.901	925.88
471.12	996.88
471.339	960.88
471.558	947.88
471.777	933.88
471.997	1008.88
472.216	1114.88
472.435	1099.88
472.654	982.88
472.873	956.88
473.092	1042.88
473.311	1038.88
473.53	954.88
473.749	954.88
473.968	1009.88
474.187	990.88
474.406	940.88
474.625	903.88
474.844	955.88
475.063	1071.88
475.282	1053.88
475.501	1085.88
475.72	1118.88
475.939	1112.88
476.158	1120.88
476.377	1292.88
476.596	1518.88
476.814	1525.88
477.033	1272.88
477.252	1081.88
477.471	989.88
477.69	1013.88
477.908	1103.88
478.127	1151.88
478.346	1058.88
478.564	1144.88
478.783	1110.88
479.002	1125.88
479.22	1325.88
479.439	1415.88
479.658	1222.88
479.876	1110.88
480.095	1182.88
480.313	1218.88
480.532	1149.88
480.751	1105.88
480.969	1156.88
481.188	1273.88
481.406	1300.88
481.624	1246.88
481.843	1136.88
482.061	1078.88
482.28	1229.88
482.498	1443.88
482.717	1371.88
482.935	1206.88
483.153	1137.88
483.372	1055.88
483.59	1057.88
483.808	1047.88
484.027	1058.88
484.245	1005.88
484.463	976.88
484.681	1070.88
484.9	1126.88
485.118	1192.88
485.336	1107.88
485.554	1036.88
485.772	1119.88
485.99	1187.88
486.209	1246.88
486.427	1227.88
486.645	1212.88
486.863	1249.88
487.081	1235.88
487.299	1421.88
487.517	1384.88
487.735	1260.88
487.953	1266.88
488.171	1297.88
488.389	1215.88
488.607	1103.88
488.825	1198.88
489.043	1285.88
489.261	1501.88
489.479	1631.88
489.696	1304.88
489.914	1181.88
490.132	1127.88
490.35	1138.88
490.568	1156.88
490.786	1160.88
491.003	1143.88
491.221	1168.88
491.439	1144.88
491.657	1159.88
491.874	1247.88
492.092	1552.88
492.31	1833.88
492.527	1800.88
492.745	1554.88
492.963	1326.88
493.18	1303.88
493.398	1289.88
493.615	1292.88
