Data from NickelSpatula.Lamp.E10.P2_HRD10591_11-58-13-529.txt Node
Date: Tue Jul 23 11:58:13 EDT 2019
User: cochatt
Spectrometer: HR+D1059
Trigger mode: 1
Integration Time (sec): 1.000000E-1
Scans to average: 1
Electric dark correction enabled: true
Nonlinearity correction enabled: false
Boxcar width: 0
XAxis mode: Wavelengths
Number of Pixels in Spectrum: 2048
>>>>>Begin Spectral Data<<<<<
223.165	-8.94
223.4	-8.94
223.635	-8.94
223.869	-20.94
224.104	-18.94
224.338	-10.94
224.573	-8.94
224.808	-29.94
225.042	-6.94
225.277	-5.94
225.511	13.06
225.746	3.06
225.98	10.06
226.215	3.06
226.449	12.06
226.683	17.06
226.918	22.06
227.152	31.06
227.387	21.06
227.621	21.06
227.856	47.06
228.09	53.06
228.324	43.06
228.559	51.06
228.793	83.06
229.027	132.06
229.262	155.06
229.496	154.06
229.73	158.06
229.964	199.06
230.199	204.06
230.433	208.06
230.667	223.06
230.901	211.06
231.136	193.06
231.37	203.06
231.604	198.06
231.838	240.06
232.072	239.06
232.306	238.06
232.541	254.06
232.775	253.06
233.009	263.06
233.243	287.06
233.477	315.06
233.711	319.06
233.945	321.06
234.179	330.06
234.413	334.06
234.647	405.06
234.881	458.06
235.115	414.06
235.349	407.06
235.583	349.06
235.817	371.06
236.051	373.06
236.285	446.06
236.519	463.06
236.753	437.06
236.987	429.06
237.221	397.06
237.455	403.06
237.689	444.06
237.922	442.06
238.156	491.06
238.39	536.06
238.624	657.06
238.858	614.06
239.091	499.06
239.325	513.06
239.559	477.06
239.793	543.06
240.027	628.06
240.26	596.06
240.494	572.06
240.728	583.06
240.961	676.06
241.195	629.06
241.429	617.06
241.662	608.06
241.896	529.06
242.13	475.06
242.363	450.06
242.597	486.06
242.83	526.06
243.064	548.06
243.298	588.06
243.531	621.06
243.765	648.06
243.998	629.06
244.232	620.06
244.465	583.06
244.699	617.06
244.932	643.06
245.166	633.06
245.399	541.06
245.633	519.06
245.866	561.06
246.099	596.06
246.333	725.06
246.566	775.06
246.8	741.06
247.033	745.06
247.266	692.06
247.5	687.06
247.733	674.06
247.966	671.06
248.2	697.06
248.433	775.06
248.666	819.06
248.899	836.06
249.133	834.06
249.366	950.06
249.599	1018.06
249.832	928.06
250.066	797.06
250.299	819.06
250.532	828.06
250.765	814.06
250.998	709.06
251.231	695.06
251.465	774.06
251.698	843.06
251.931	789.06
252.164	843.06
252.397	922.06
252.63	1041.06
252.863	1170.06
253.096	1188.06
253.329	1149.06
253.562	1097.06
253.795	1222.06
254.028	1317.06
254.261	1399.06
254.494	1252.06
254.727	1134.06
254.96	1120.06
255.193	1167.06
255.426	1096.06
255.659	823.06
255.892	799.06
256.124	879.06
256.357	1010.06
256.59	1195.06
256.823	1132.06
257.056	983.06
257.289	937.06
257.521	978.06
257.754	1140.06
257.987	1304.06
258.22	1103.06
258.452	1002.06
258.685	1156.06
258.918	1281.06
259.151	1277.06
259.383	1343.06
259.616	1499.06
259.849	1585.06
260.081	1707.06
260.314	1882.06
260.547	1465.06
260.779	1475.06
261.012	1724.06
261.244	1597.06
261.477	1646.06
261.71	1541.06
261.942	1319.06
262.175	1285.06
262.407	1232.06
262.64	1289.06
262.872	1529.06
263.105	1626.06
263.337	1693.06
263.57	1513.06
263.802	1040.06
264.035	899.06
264.267	862.06
264.499	755.06
264.732	705.06
264.964	699.06
265.197	726.06
265.429	782.06
265.661	829.06
265.894	846.06
266.126	904.06
266.358	1018.06
266.591	1221.06
266.823	1474.06
267.055	1419.06
267.287	1249.06
267.52	1220.06
267.752	1327.06
267.984	1468.06
268.216	1366.06
268.448	1133.06
268.681	1103.06
268.913	1188.06
269.145	1277.06
269.377	1277.06
269.609	1313.06
269.841	1194.06
270.073	1299.06
270.306	1361.06
270.538	1390.06
270.77	1401.06
271.002	1425.06
271.234	1479.06
271.466	1519.06
271.698	1429.06
271.93	1436.06
272.162	1426.06
272.394	1438.06
272.626	1399.06
272.858	1471.06
273.09	1504.06
273.322	1295.06
273.553	1281.06
273.785	1513.06
274.017	1970.06
274.249	2448.06
274.481	2538.06
274.713	2713.06
274.945	3135.06
275.176	3238.06
275.408	2847.06
275.64	2644.06
275.872	2634.06
276.104	2225.06
276.335	1895.06
276.567	1897.06
276.799	1950.06
277.031	2085.06
277.262	1640.06
277.494	1274.06
277.726	1207.06
277.957	1349.06
278.189	1451.06
278.421	1479.06
278.652	1424.06
278.884	1355.06
279.115	1242.06
279.347	1173.06
279.579	1186.06
279.81	1212.06
280.042	1219.06
280.273	1227.06
280.505	1138.06
280.736	1004.06
280.968	1010.06
281.199	1089.06
281.431	1255.06
281.662	1202.06
281.894	1163.06
282.125	1230.06
282.356	1342.06
282.588	1391.06
282.819	1282.06
283.051	1364.06
283.282	1675.06
283.513	1950.06
283.745	2179.06
283.976	2175.06
284.207	2048.06
284.439	2082.06
284.67	2044.06
284.901	1788.06
285.132	1935.06
285.364	2029.06
285.595	1860.06
285.826	1954.06
286.057	2037.06
286.288	1948.06
286.52	1996.06
286.751	2119.06
286.982	2071.06
287.213	1793.06
287.444	1766.06
287.675	1850.06
287.906	1763.06
288.138	1534.06
288.369	1339.06
288.6	1297.06
288.831	1341.06
289.062	1553.06
289.293	1713.06
289.524	1587.06
289.755	1563.06
289.986	1627.06
290.217	1443.06
290.448	1090.06
290.679	967.06
290.91	944.06
291.141	934.06
291.371	998.06
291.602	965.06
291.833	970.06
292.064	1043.06
292.295	1204.06
292.526	1385.06
292.757	1445.06
292.987	1509.06
293.218	1579.06
293.449	1584.06
293.68	1654.06
293.91	1603.06
294.141	1631.06
294.372	1518.06
294.603	1425.06
294.833	1585.06
295.064	1829.06
295.295	1744.06
295.525	1309.06
295.756	1131.06
295.987	990.06
296.217	1029.06
296.448	1047.06
296.679	1136.06
296.909	1203.06
297.14	1297.06
297.37	1442.06
297.601	1347.06
297.831	1165.06
298.062	1262.06
298.292	1430.06
298.523	1563.06
298.753	1808.06
298.984	1551.06
299.214	1215.06
299.445	1046.06
299.675	1045.06
299.905	1040.06
300.136	1067.06
300.366	1131.06
300.597	1135.06
300.827	991.06
301.057	998.06
301.288	991.06
301.518	1093.06
301.748	1244.06
301.979	1307.06
302.209	1413.06
302.439	1461.06
302.669	1246.06
302.9	1233.06
303.13	1136.06
303.36	1086.06
303.59	1045.06
303.82	1073.06
304.051	1220.06
304.281	1305.06
304.511	1271.06
304.741	1147.06
304.971	1183.06
305.201	1281.06
305.431	1183.06
305.661	1065.06
305.891	1053.06
306.121	1065.06
306.352	971.06
306.582	903.06
306.812	846.06
307.042	843.06
307.272	801.06
307.502	804.06
307.731	866.06
307.961	893.06
308.191	819.06
308.421	800.06
308.651	808.06
308.881	755.06
309.111	752.06
309.341	839.06
309.571	914.06
309.8	915.06
310.03	924.06
310.26	973.06
310.49	957.06
310.72	861.06
310.949	864.06
311.179	867.06
311.409	919.06
311.639	1085.06
311.868	1392.06
312.098	1819.06
312.328	1970.06
312.557	1839.06
312.787	1923.06
313.017	1661.06
313.246	1830.06
313.476	1961.06
313.706	1618.06
313.935	1290.06
314.165	1035.06
314.394	952.06
314.624	956.06
314.853	1005.06
315.083	1030.06
315.312	1008.06
315.542	998.06
315.771	934.06
316.001	843.06
316.23	821.06
316.46	829.06
316.689	862.06
316.919	883.06
317.148	886.06
317.377	861.06
317.607	847.06
317.836	965.06
318.065	1086.06
318.295	1217.06
318.524	1127.06
318.753	965.06
318.983	929.06
319.212	944.06
319.441	1002.06
319.67	1124.06
319.9	1175.06
320.129	1107.06
320.358	991.06
320.587	907.06
320.816	993.06
321.046	1198.06
321.275	1318.06
321.504	1303.06
321.733	1257.06
321.962	1205.06
322.191	1138.06
322.42	1048.06
322.649	1094.06
322.878	1204.06
323.108	1198.06
323.337	1077.06
323.566	1117.06
323.795	1032.06
324.024	1003.06
324.253	967.06
324.482	982.06
324.71	1078.06
324.939	1190.06
325.168	1134.06
325.397	909.06
325.626	909.06
325.855	924.06
326.084	905.06
326.313	862.06
326.542	825.06
326.77	891.06
326.999	876.06
327.228	939.06
327.457	1035.06
327.686	982.06
327.914	845.06
328.143	818.06
328.372	807.06
328.6	826.06
328.829	874.06
329.058	889.06
329.287	879.06
329.515	903.06
329.744	881.06
329.972	834.06
330.201	791.06
330.43	838.06
330.658	939.06
330.887	1077.06
331.115	1041.06
331.344	990.06
331.572	975.06
331.801	879.06
332.03	869.06
332.258	879.06
332.486	945.06
332.715	968.06
332.943	925.06
333.172	894.06
333.4	948.06
333.629	1032.06
333.857	1117.06
334.085	1098.06
334.314	1101.06
334.542	1007.06
334.771	950.06
334.999	927.06
335.227	916.06
335.455	949.06
335.684	1014.06
335.912	1185.06
336.14	1331.06
336.369	1279.06
336.597	1199.06
336.825	1356.06
337.053	1537.06
337.281	1242.06
337.51	968.06
337.738	956.06
337.966	1050.06
338.194	1202.06
338.422	1116.06
338.65	923.06
338.878	876.06
339.106	911.06
339.334	1037.06
339.562	1066.06
339.79	1017.06
340.018	943.06
340.246	1023.06
340.474	1167.06
340.702	1242.06
340.93	1322.06
341.158	1282.06
341.386	1121.06
341.614	1118.06
341.842	1073.06
342.07	1139.06
342.298	1343.06
342.526	1379.06
342.754	1192.06
342.981	1087.06
343.209	1029.06
343.437	1108.06
343.665	1181.06
343.893	1178.06
344.12	1365.06
344.348	1606.06
344.576	1387.06
344.804	1167.06
345.031	1026.06
345.259	971.06
345.487	982.06
345.714	980.06
345.942	1072.06
346.17	1171.06
346.397	1110.06
346.625	990.06
346.853	983.06
347.08	928.06
347.308	988.06
347.535	1103.06
347.763	1118.06
347.99	978.06
348.218	930.06
348.445	982.06
348.673	981.06
348.9	961.06
349.128	1054.06
349.355	1101.06
349.583	1040.06
349.81	978.06
350.037	908.06
350.265	835.06
350.492	785.06
350.72	786.06
350.947	831.06
351.174	885.06
351.402	905.06
351.629	964.06
351.856	904.06
352.083	899.06
352.311	941.06
352.538	1077.06
352.765	1105.06
352.992	1021.06
353.22	963.06
353.447	992.06
353.674	932.06
353.901	927.06
354.128	985.06
354.355	974.06
354.583	966.06
354.81	965.06
355.037	1016.06
355.264	976.06
355.491	1057.06
355.718	1126.06
355.945	1109.06
356.172	1090.06
356.399	1088.06
356.626	1324.06
356.853	1612.06
357.08	1697.06
357.307	1758.06
357.534	1343.06
357.761	1383.06
357.988	1684.06
358.215	1985.06
358.441	1901.06
358.668	1596.06
358.895	1471.06
359.122	1205.06
359.349	1188.06
359.576	1293.06
359.802	1081.06
360.029	953.06
360.256	1009.06
360.483	1276.06
360.709	1589.06
360.936	1614.06
361.163	1387.06
361.39	1109.06
361.616	1035.06
361.843	1209.06
362.07	1469.06
362.296	1348.06
362.523	1062.06
362.749	900.06
362.976	967.06
363.203	1180.06
363.429	1323.06
363.656	1051.06
363.882	1014.06
364.109	979.06
364.335	962.06
364.562	986.06
364.788	1087.06
365.015	1262.06
365.241	1135.06
365.468	934.06
365.694	829.06
365.92	805.06
366.147	773.06
366.373	779.06
366.599	795.06
366.826	796.06
367.052	806.06
367.278	821.06
367.505	806.06
367.731	929.06
367.957	990.06
368.184	1015.06
368.41	1005.06
368.636	1012.06
368.862	1057.06
369.089	978.06
369.315	893.06
369.541	853.06
369.767	875.06
369.993	849.06
370.219	850.06
370.445	886.06
370.672	984.06
370.898	1073.06
371.124	1042.06
371.35	952.06
371.576	869.06
371.802	941.06
372.028	1155.06
372.254	1321.06
372.48	1108.06
372.706	1002.06
372.932	1041.06
373.158	1103.06
373.384	1345.06
373.61	1781.06
373.835	1850.06
374.061	1337.06
374.287	1112.06
374.513	1370.06
374.739	1597.06
374.965	1630.06
375.191	1622.06
375.416	1167.06
375.642	1024.06
375.868	1186.06
376.094	1349.06
376.319	1148.06
376.545	1264.06
376.771	1365.06
376.997	1145.06
377.222	858.06
377.448	753.06
377.674	742.06
377.899	733.06
378.125	759.06
378.35	729.06
378.576	771.06
378.802	843.06
379.027	910.06
379.253	876.06
379.478	913.06
379.704	1027.06
379.929	1029.06
380.155	1045.06
380.38	938.06
380.606	1009.06
380.831	1104.06
381.057	1004.06
381.282	970.06
381.507	1155.06
381.733	1425.06
381.958	1506.06
382.184	1630.06
382.409	1681.06
382.634	1642.06
382.86	1760.06
383.085	1429.06
383.31	1122.06
383.535	1197.06
383.761	1195.06
383.986	1151.06
384.211	1372.06
384.436	1310.06
384.662	1034.06
384.887	997.06
385.112	1001.06
385.337	1042.06
385.562	957.06
385.787	1082.06
386.013	1177.06
386.238	1220.06
386.463	986.06
386.688	944.06
386.913	961.06
387.138	895.06
387.363	962.06
387.588	996.06
387.813	976.06
388.038	1074.06
388.263	961.06
388.488	973.06
388.713	1097.06
388.938	1191.06
389.163	1009.06
389.387	921.06
389.612	930.06
389.837	938.06
390.062	951.06
390.287	991.06
390.512	981.06
390.736	950.06
390.961	881.06
391.186	849.06
391.411	848.06
391.636	892.06
391.86	899.06
392.085	1006.06
392.31	988.06
392.534	958.06
392.759	918.06
392.984	1000.06
393.208	962.06
393.433	860.06
393.658	791.06
393.882	811.06
394.107	782.06
394.331	796.06
394.556	778.06
394.78	791.06
395.005	850.06
395.229	849.06
395.454	873.06
395.678	889.06
395.903	909.06
396.127	894.06
396.352	886.06
396.576	992.06
396.801	998.06
397.025	1085.06
397.249	1133.06
397.474	921.06
397.698	937.06
397.922	971.06
398.147	898.06
398.371	885.06
398.595	967.06
398.82	941.06
399.044	935.06
399.268	1019.06
399.492	1051.06
399.717	1059.06
399.941	1126.06
400.165	1045.06
400.389	996.06
400.613	1053.06
400.837	1046.06
401.062	934.06
401.286	907.06
401.51	903.06
401.734	900.06
401.958	900.06
402.182	887.06
402.406	907.06
402.63	907.06
402.854	926.06
403.078	1053.06
403.302	1273.06
403.526	1342.06
403.75	1206.06
403.974	1044.06
404.198	1105.06
404.422	1223.06
404.645	1435.06
404.869	1569.06
405.093	1173.06
405.317	977.06
405.541	971.06
405.765	1025.06
405.988	1017.06
406.212	1107.06
406.436	1299.06
406.66	1402.06
406.883	1132.06
407.107	1166.06
407.331	1355.06
407.555	1285.06
407.778	1086.06
408.002	1053.06
408.226	1026.06
408.449	1065.06
408.673	1020.06
408.896	949.06
409.12	914.06
409.344	895.06
409.567	875.06
409.791	890.06
410.014	884.06
410.238	898.06
410.461	879.06
410.685	924.06
410.908	914.06
411.132	918.06
411.355	949.06
411.578	970.06
411.802	934.06
412.025	983.06
412.249	975.06
412.472	950.06
412.695	957.06
412.919	915.06
413.142	963.06
413.365	1058.06
413.589	1045.06
413.812	922.06
414.035	929.06
414.258	940.06
414.482	1046.06
414.705	1075.06
414.928	906.06
415.151	867.06
415.374	889.06
415.597	911.06
415.821	867.06
416.044	894.06
416.267	871.06
416.49	873.06
416.713	852.06
416.936	846.06
417.159	853.06
417.382	882.06
417.605	905.06
417.828	923.06
418.051	895.06
418.274	929.06
418.497	947.06
418.72	942.06
418.943	957.06
419.166	985.06
419.389	1014.06
419.611	998.06
419.834	1015.06
420.057	1111.06
420.28	1092.06
420.503	1032.06
420.726	871.06
420.948	870.06
421.171	883.06
421.394	856.06
421.617	854.06
421.839	860.06
422.062	935.06
422.285	925.06
422.507	950.06
422.73	956.06
422.953	979.06
423.175	943.06
423.398	944.06
423.621	1027.06
423.843	1022.06
424.066	945.06
424.288	937.06
424.511	934.06
424.733	908.06
424.956	943.06
425.178	1039.06
425.401	1220.06
425.623	1403.06
425.846	1131.06
426.068	1005.06
426.291	1095.06
426.513	1019.06
426.735	922.06
426.958	989.06
427.18	1158.06
427.402	1466.06
427.625	1461.06
427.847	1191.06
428.069	890.06
428.292	892.06
428.514	883.06
428.736	884.06
428.958	963.06
429.181	1134.06
429.403	958.06
429.625	913.06
429.847	863.06
430.069	899.06
430.292	891.06
430.514	859.06
430.736	957.06
430.958	1190.06
431.18	1098.06
431.402	847.06
431.624	796.06
431.846	794.06
432.068	765.06
432.29	831.06
432.512	892.06
432.734	1234.06
432.956	1121.06
433.178	873.06
433.4	853.06
433.622	865.06
433.844	875.06
434.066	927.06
434.287	909.06
434.509	899.06
434.731	883.06
434.953	882.06
435.175	886.06
435.397	1004.06
435.618	883.06
435.84	813.06
436.062	838.06
436.284	836.06
436.505	806.06
436.727	786.06
436.949	823.06
437.17	840.06
437.392	857.06
437.614	875.06
437.835	817.06
438.057	869.06
438.278	990.06
438.5	1376.06
438.721	1371.06
438.943	965.06
439.165	818.06
439.386	785.06
439.608	787.06
439.829	771.06
440.05	815.06
440.272	853.06
440.493	1027.06
440.715	1235.06
440.936	993.06
441.158	856.06
441.379	849.06
441.6	994.06
441.822	1013.06
442.043	906.06
442.264	876.06
442.486	886.06
442.707	860.06
442.928	889.06
443.149	880.06
443.371	870.06
443.592	922.06
443.813	921.06
444.034	911.06
444.255	919.06
444.476	968.06
444.698	920.06
444.919	959.06
445.14	1053.06
445.361	1020.06
445.582	934.06
445.803	896.06
446.024	937.06
446.245	932.06
446.466	926.06
446.687	884.06
446.908	868.06
447.129	838.06
447.35	793.06
447.571	801.06
447.792	787.06
448.013	771.06
448.234	801.06
448.455	781.06
448.675	783.06
448.896	809.06
449.117	793.06
449.338	787.06
449.559	832.06
449.779	892.06
450	889.06
450.221	829.06
450.442	812.06
450.662	779.06
450.883	795.06
451.104	800.06
451.324	792.06
451.545	815.06
451.766	792.06
451.986	754.06
452.207	771.06
452.428	774.06
452.648	776.06
452.869	810.06
453.089	831.06
453.31	838.06
453.53	736.06
453.751	745.06
453.971	750.06
454.192	762.06
454.412	821.06
454.633	737.06
454.853	749.06
455.073	727.06
455.294	720.06
455.514	729.06
455.734	764.06
455.955	817.06
456.175	832.06
456.395	755.06
456.616	718.06
456.836	710.06
457.056	684.06
457.276	700.06
457.497	711.06
457.717	720.06
457.937	723.06
458.157	708.06
458.377	751.06
458.598	745.06
458.818	771.06
459.038	802.06
459.258	819.06
459.478	839.06
459.698	908.06
459.918	903.06
460.138	870.06
460.358	885.06
460.578	868.06
460.798	903.06
461.018	881.06
461.238	889.06
461.458	856.06
461.678	890.06
461.898	944.06
462.118	921.06
462.338	925.06
462.558	939.06
462.777	1000.06
462.997	1030.06
463.217	1018.06
463.437	1035.06
463.657	997.06
463.876	955.06
464.096	987.06
464.316	945.06
464.536	971.06
464.755	994.06
464.975	1017.06
465.195	979.06
465.414	989.06
465.634	954.06
465.854	923.06
466.073	868.06
466.293	868.06
466.512	903.06
466.732	1016.06
466.951	1023.06
467.171	952.06
467.391	901.06
467.61	861.06
467.829	903.06
468.049	930.06
468.268	881.06
468.488	897.06
468.707	909.06
468.927	1046.06
469.146	1133.06
469.365	1038.06
469.585	957.06
469.804	1021.06
470.023	1113.06
470.243	954.06
470.462	909.06
470.681	907.06
470.901	939.06
471.12	980.06
471.339	963.06
471.558	914.06
471.777	941.06
471.997	1013.06
472.216	1109.06
472.435	1080.06
472.654	977.06
472.873	971.06
473.092	966.06
473.311	1059.06
473.53	954.06
473.749	938.06
473.968	1005.06
474.187	977.06
474.406	933.06
474.625	951.06
474.844	986.06
475.063	1010.06
475.282	1029.06
475.501	1106.06
475.72	1141.06
475.939	1103.06
476.158	1112.06
476.377	1253.06
476.596	1409.06
476.814	1503.06
477.033	1244.06
477.252	1054.06
477.471	995.06
477.69	1018.06
477.908	1113.06
478.127	1140.06
478.346	1051.06
478.564	1141.06
478.783	1052.06
479.002	1068.06
479.22	1285.06
479.439	1407.06
479.658	1211.06
479.876	1119.06
480.095	1215.06
480.313	1229.06
480.532	1098.06
480.751	1097.06
480.969	1129.06
481.188	1257.06
481.406	1292.06
481.624	1233.06
481.843	1138.06
482.061	1050.06
482.28	1224.06
482.498	1457.06
482.717	1358.06
482.935	1181.06
483.153	1147.06
483.372	1087.06
483.59	1049.06
483.808	1055.06
484.027	1040.06
484.245	998.06
484.463	985.06
484.681	1013.06
484.9	1124.06
485.118	1165.06
485.336	1112.06
485.554	1057.06
485.772	1088.06
485.99	1209.06
486.209	1229.06
486.427	1222.06
486.645	1179.06
486.863	1233.06
487.081	1263.06
487.299	1358.06
487.517	1332.06
487.735	1215.06
487.953	1231.06
488.171	1235.06
488.389	1176.06
488.607	1107.06
488.825	1187.06
489.043	1258.06
489.261	1437.06
489.479	1553.06
489.696	1293.06
489.914	1157.06
490.132	1142.06
490.35	1150.06
490.568	1133.06
490.786	1132.06
491.003	1166.06
491.221	1168.06
491.439	1135.06
491.657	1140.06
491.874	1205.06
492.092	1458.06
492.31	1758.06
492.527	1719.06
492.745	1524.06
492.963	1304.06
493.18	1322.06
493.398	1261.06
493.615	1283.06
493.833	1243.06
494.05	1234.06
494.268	1220.06
494.485	1231.06
