Data from NickelSpatula.Lamp.E5.5.P2_HRD10591_11-51-19-561.txt Node
Date: Tue Jul 23 11:51:19 EDT 2019
User: cochatt
Spectrometer: HR+D1059
Trigger mode: 1
Integration Time (sec): 1.000000E-1
Scans to average: 1
Electric dark correction enabled: true
Nonlinearity correction enabled: false
Boxcar width: 0
XAxis mode: Wavelengths
Number of Pixels in Spectrum: 2048
>>>>>Begin Spectral Data<<<<<
223.165	-18.75
223.4	-18.75
223.635	-18.75
223.869	-16.75
224.104	-21.75
224.338	-14.75
224.573	-2.75
224.808	-11.75
225.042	-0.75
225.277	-6.75
225.511	-0.75
225.746	-6.75
225.98	-4.75
226.215	23.25
226.449	8.25
226.683	24.25
226.918	20.25
227.152	30.25
227.387	37.25
227.621	39.25
227.856	53.25
228.09	51.25
228.324	51.25
228.559	60.25
228.793	72.25
229.027	73.25
229.262	80.25
229.496	84.25
229.73	65.25
229.964	100.25
230.199	93.25
230.433	95.25
230.667	97.25
230.901	114.25
231.136	95.25
231.37	105.25
231.604	116.25
231.838	95.25
232.072	98.25
232.306	105.25
232.541	111.25
232.775	97.25
233.009	108.25
233.243	112.25
233.477	113.25
233.711	107.25
233.945	115.25
234.179	107.25
234.413	120.25
234.647	113.25
234.881	148.25
235.115	139.25
235.349	130.25
235.583	126.25
235.817	108.25
236.051	123.25
236.285	127.25
236.519	134.25
236.753	128.25
236.987	134.25
237.221	122.25
237.455	120.25
237.689	127.25
237.922	126.25
238.156	124.25
238.39	132.25
238.624	148.25
238.858	147.25
239.091	141.25
239.325	141.25
239.559	128.25
239.793	151.25
240.027	179.25
240.26	155.25
240.494	159.25
240.728	162.25
240.961	181.25
241.195	146.25
241.429	167.25
241.662	151.25
241.896	154.25
242.13	119.25
242.363	154.25
242.597	139.25
242.83	157.25
243.064	151.25
243.298	146.25
243.531	164.25
243.765	146.25
243.998	171.25
244.232	161.25
244.465	163.25
244.699	137.25
244.932	170.25
245.166	160.25
245.399	151.25
245.633	139.25
245.866	153.25
246.099	163.25
246.333	169.25
246.566	190.25
246.8	181.25
247.033	186.25
247.266	180.25
247.5	164.25
247.733	165.25
247.966	164.25
248.2	166.25
248.433	166.25
248.666	197.25
248.899	199.25
249.133	197.25
249.366	217.25
249.599	202.25
249.832	215.25
250.066	192.25
250.299	196.25
250.532	191.25
250.765	189.25
250.998	170.25
251.231	175.25
251.465	183.25
251.698	192.25
251.931	183.25
252.164	200.25
252.397	215.25
252.63	225.25
252.863	228.25
253.096	255.25
253.329	234.25
253.562	258.25
253.795	252.25
254.028	280.25
254.261	279.25
254.494	265.25
254.727	235.25
254.96	224.25
255.193	249.25
255.426	255.25
255.659	196.25
255.892	187.25
256.124	202.25
256.357	228.25
256.59	235.25
256.823	251.25
257.056	226.25
257.289	215.25
257.521	218.25
257.754	251.25
257.987	302.25
258.22	255.25
258.452	219.25
258.685	241.25
258.918	278.25
259.151	261.25
259.383	281.25
259.616	322.25
259.849	329.25
260.081	333.25
260.314	363.25
260.547	293.25
260.779	296.25
261.012	355.25
261.244	326.25
261.477	325.25
261.71	315.25
261.942	265.25
262.175	268.25
262.407	248.25
262.64	278.25
262.872	295.25
263.105	325.25
263.337	357.25
263.57	316.25
263.802	224.25
264.035	214.25
264.267	206.25
264.499	191.25
264.732	173.25
264.964	175.25
265.197	175.25
265.429	185.25
265.661	204.25
265.894	200.25
266.126	206.25
266.358	220.25
266.591	266.25
266.823	311.25
267.055	291.25
267.287	264.25
267.52	258.25
267.752	278.25
267.984	333.25
268.216	285.25
268.448	251.25
268.681	244.25
268.913	257.25
269.145	252.25
269.377	273.25
269.609	266.25
269.841	275.25
270.073	270.25
270.306	301.25
270.538	291.25
270.77	290.25
271.002	289.25
271.234	324.25
271.466	303.25
271.698	294.25
271.93	289.25
272.162	279.25
272.394	274.25
272.626	283.25
272.858	289.25
273.09	306.25
273.322	267.25
273.553	240.25
273.785	285.25
274.017	338.25
274.249	427.25
274.481	445.25
274.713	480.25
274.945	540.25
275.176	575.25
275.408	486.25
275.64	482.25
275.872	487.25
276.104	410.25
276.335	368.25
276.567	377.25
276.799	371.25
277.031	401.25
277.262	320.25
277.494	263.25
277.726	241.25
277.957	275.25
278.189	315.25
278.421	300.25
278.652	294.25
278.884	299.25
279.115	260.25
279.347	257.25
279.579	244.25
279.81	267.25
280.042	265.25
280.273	256.25
280.505	259.25
280.736	237.25
280.968	220.25
281.199	213.25
281.431	265.25
281.662	257.25
281.894	264.25
282.125	268.25
282.356	287.25
282.588	284.25
282.819	267.25
283.051	282.25
283.282	331.25
283.513	371.25
283.745	422.25
283.976	412.25
284.207	380.25
284.439	400.25
284.67	393.25
284.901	344.25
285.132	360.25
285.364	379.25
285.595	351.25
285.826	377.25
286.057	369.25
286.288	380.25
286.52	382.25
286.751	383.25
286.982	385.25
287.213	353.25
287.444	327.25
287.675	358.25
287.906	356.25
288.138	328.25
288.369	297.25
288.6	283.25
288.831	298.25
289.062	331.25
289.293	353.25
289.524	341.25
289.755	332.25
289.986	347.25
290.217	306.25
290.448	266.25
290.679	231.25
290.91	214.25
291.141	214.25
291.371	211.25
291.602	215.25
291.833	221.25
292.064	217.25
292.295	261.25
292.526	288.25
292.757	290.25
292.987	311.25
293.218	313.25
293.449	347.25
293.68	353.25
293.91	346.25
294.141	355.25
294.372	324.25
294.603	317.25
294.833	295.25
295.064	365.25
295.295	374.25
295.525	284.25
295.756	249.25
295.987	223.25
296.217	219.25
296.448	223.25
296.679	231.25
296.909	251.25
297.14	253.25
297.37	281.25
297.601	261.25
297.831	256.25
298.062	270.25
298.292	280.25
298.523	297.25
298.753	331.25
298.984	309.25
299.214	269.25
299.445	228.25
299.675	240.25
299.905	249.25
300.136	252.25
300.366	227.25
300.597	235.25
300.827	245.25
301.057	236.25
301.288	228.25
301.518	242.25
301.748	275.25
301.979	271.25
302.209	285.25
302.439	291.25
302.669	278.25
302.9	247.25
303.13	263.25
303.36	247.25
303.59	238.25
303.82	257.25
304.051	291.25
304.281	285.25
304.511	271.25
304.741	253.25
304.971	258.25
305.201	276.25
305.431	261.25
305.661	239.25
305.891	206.25
306.121	218.25
306.352	226.25
306.582	220.25
306.812	195.25
307.042	196.25
307.272	210.25
307.502	200.25
307.731	209.25
307.961	201.25
308.191	179.25
308.421	209.25
308.651	195.25
308.881	189.25
309.111	202.25
309.341	198.25
309.571	192.25
309.8	199.25
310.03	218.25
310.26	199.25
310.49	205.25
310.72	194.25
310.949	203.25
311.179	192.25
311.409	211.25
311.639	234.25
311.868	281.25
312.098	341.25
312.328	360.25
312.557	351.25
312.787	358.25
313.017	321.25
313.246	353.25
313.476	388.25
313.706	340.25
313.935	274.25
314.165	227.25
314.394	218.25
314.624	217.25
314.853	239.25
315.083	235.25
315.312	230.25
315.542	211.25
315.771	209.25
316.001	205.25
316.23	173.25
316.46	189.25
316.689	206.25
316.919	211.25
317.148	204.25
317.377	201.25
317.607	205.25
317.836	220.25
318.065	209.25
318.295	279.25
318.524	236.25
318.753	209.25
318.983	202.25
319.212	214.25
319.441	198.25
319.67	244.25
319.9	224.25
320.129	232.25
320.358	221.25
320.587	213.25
320.816	216.25
321.046	233.25
321.275	252.25
321.504	245.25
321.733	246.25
321.962	250.25
322.191	228.25
322.42	217.25
322.649	214.25
322.878	237.25
323.108	245.25
323.337	216.25
323.566	242.25
323.795	241.25
324.024	224.25
324.253	221.25
324.482	226.25
324.71	232.25
324.939	249.25
325.168	256.25
325.397	224.25
325.626	215.25
325.855	199.25
326.084	223.25
326.313	227.25
326.542	200.25
326.77	204.25
326.999	200.25
327.228	206.25
327.457	228.25
327.686	220.25
327.914	215.25
328.143	196.25
328.372	196.25
328.6	205.25
328.829	208.25
329.058	219.25
329.287	231.25
329.515	213.25
329.744	208.25
329.972	204.25
330.201	211.25
330.43	200.25
330.658	200.25
330.887	234.25
331.115	226.25
331.344	230.25
331.572	219.25
331.801	223.25
332.03	204.25
332.258	220.25
332.486	231.25
332.715	244.25
332.943	216.25
333.172	215.25
333.4	223.25
333.629	256.25
333.857	264.25
334.085	243.25
334.314	246.25
334.542	257.25
334.771	224.25
334.999	228.25
335.227	229.25
335.455	222.25
335.684	242.25
335.912	240.25
336.14	265.25
336.369	274.25
336.597	261.25
336.825	275.25
337.053	304.25
337.281	270.25
337.51	206.25
337.738	222.25
337.966	225.25
338.194	252.25
338.422	230.25
338.65	220.25
338.878	216.25
339.106	195.25
339.334	211.25
339.562	225.25
339.79	226.25
340.018	215.25
340.246	224.25
340.474	251.25
340.702	245.25
340.93	277.25
341.158	253.25
341.386	233.25
341.614	226.25
341.842	212.25
342.07	237.25
342.298	261.25
342.526	274.25
342.754	259.25
342.981	252.25
343.209	226.25
343.437	238.25
343.665	256.25
343.893	245.25
344.12	259.25
344.348	332.25
344.576	287.25
344.804	243.25
345.031	237.25
345.259	213.25
345.487	210.25
345.714	216.25
345.942	240.25
346.17	256.25
346.397	253.25
346.625	219.25
346.853	223.25
347.08	210.25
347.308	220.25
347.535	237.25
347.763	255.25
347.99	224.25
348.218	222.25
348.445	202.25
348.673	219.25
348.9	212.25
349.128	240.25
349.355	230.25
349.583	223.25
349.81	230.25
350.037	217.25
350.265	204.25
350.492	191.25
350.72	181.25
350.947	191.25
351.174	215.25
351.402	192.25
351.629	220.25
351.856	206.25
352.083	215.25
352.311	215.25
352.538	221.25
352.765	240.25
352.992	214.25
353.22	220.25
353.447	232.25
353.674	216.25
353.901	217.25
354.128	223.25
354.355	221.25
354.583	228.25
354.81	231.25
355.037	225.25
355.264	211.25
355.491	245.25
355.718	239.25
355.945	233.25
356.172	245.25
356.399	242.25
356.626	281.25
356.853	307.25
357.08	312.25
357.307	332.25
357.534	290.25
357.761	292.25
357.988	332.25
358.215	381.25
358.441	355.25
358.668	298.25
358.895	300.25
359.122	251.25
359.349	251.25
359.576	271.25
359.802	256.25
360.029	204.25
360.256	237.25
360.483	273.25
360.709	318.25
360.936	318.25
361.163	271.25
361.39	245.25
361.616	215.25
361.843	243.25
362.07	280.25
362.296	269.25
362.523	242.25
362.749	209.25
362.976	205.25
363.203	258.25
363.429	260.25
363.656	251.25
363.882	236.25
364.109	212.25
364.335	231.25
364.562	226.25
364.788	223.25
365.015	258.25
365.241	228.25
365.468	226.25
365.694	223.25
365.92	226.25
366.147	208.25
366.373	183.25
366.599	204.25
366.826	181.25
367.052	189.25
367.278	197.25
367.505	194.25
367.731	206.25
367.957	222.25
368.184	227.25
368.41	212.25
368.636	228.25
368.862	233.25
369.089	219.25
369.315	194.25
369.541	202.25
369.767	211.25
369.993	200.25
370.219	186.25
370.445	207.25
370.672	213.25
370.898	231.25
371.124	250.25
371.35	221.25
371.576	199.25
371.802	212.25
372.028	255.25
372.254	273.25
372.48	274.25
372.706	243.25
372.932	245.25
373.158	256.25
373.384	291.25
373.61	339.25
373.835	363.25
374.061	282.25
374.287	247.25
374.513	273.25
374.739	321.25
374.965	328.25
375.191	332.25
375.416	259.25
375.642	247.25
375.868	261.25
376.094	273.25
376.319	253.25
376.545	264.25
376.771	282.25
376.997	247.25
377.222	198.25
377.448	209.25
377.674	218.25
377.899	187.25
378.125	196.25
378.35	190.25
378.576	190.25
378.802	199.25
379.027	204.25
379.253	216.25
379.478	216.25
379.704	229.25
379.929	236.25
380.155	237.25
380.38	221.25
380.606	217.25
380.831	240.25
381.057	236.25
381.282	229.25
381.507	247.25
381.733	282.25
381.958	291.25
382.184	303.25
382.409	311.25
382.634	308.25
382.86	325.25
383.085	296.25
383.31	261.25
383.535	273.25
383.761	279.25
383.986	240.25
384.211	279.25
384.436	289.25
384.662	243.25
384.887	245.25
385.112	224.25
385.337	234.25
385.562	241.25
385.787	253.25
386.013	281.25
386.238	287.25
386.463	242.25
386.688	232.25
386.913	220.25
387.138	203.25
387.363	228.25
387.588	239.25
387.813	242.25
388.038	251.25
388.263	233.25
388.488	223.25
388.713	243.25
388.938	262.25
389.163	235.25
389.387	226.25
389.612	206.25
389.837	231.25
390.062	235.25
390.287	234.25
390.512	232.25
390.736	221.25
390.961	204.25
391.186	215.25
391.411	202.25
391.636	216.25
391.86	223.25
392.085	253.25
392.31	232.25
392.534	233.25
392.759	228.25
392.984	244.25
393.208	251.25
393.433	212.25
393.658	221.25
393.882	200.25
394.107	219.25
394.331	223.25
394.556	195.25
394.78	212.25
395.005	203.25
395.229	198.25
395.454	219.25
395.678	213.25
395.903	215.25
396.127	213.25
396.352	218.25
396.576	209.25
396.801	207.25
397.025	242.25
397.249	268.25
397.474	229.25
397.698	228.25
397.922	211.25
398.147	226.25
398.371	234.25
398.595	225.25
398.82	216.25
399.044	224.25
399.268	275.25
399.492	287.25
399.717	299.25
399.941	279.25
400.165	287.25
400.389	259.25
400.613	239.25
400.837	236.25
401.062	224.25
401.286	219.25
401.51	242.25
401.734	209.25
401.958	247.25
402.182	211.25
402.406	227.25
402.63	235.25
402.854	264.25
403.078	263.25
403.302	346.25
403.526	359.25
403.75	315.25
403.974	261.25
404.198	279.25
404.422	301.25
404.645	314.25
404.869	342.25
405.093	291.25
405.317	249.25
405.541	255.25
405.765	268.25
405.988	264.25
406.212	275.25
406.436	287.25
406.66	288.25
406.883	272.25
407.107	287.25
407.331	307.25
407.555	303.25
407.778	272.25
408.002	281.25
408.226	264.25
408.449	263.25
408.673	270.25
408.896	244.25
409.12	274.25
409.344	233.25
409.567	230.25
409.791	232.25
410.014	241.25
410.238	240.25
410.461	235.25
410.685	233.25
410.908	257.25
411.132	247.25
411.355	231.25
411.578	244.25
411.802	218.25
412.025	240.25
412.249	251.25
412.472	250.25
412.695	248.25
412.919	226.25
413.142	237.25
413.365	248.25
413.589	258.25
413.812	252.25
414.035	238.25
414.258	243.25
414.482	260.25
414.705	257.25
414.928	240.25
415.151	223.25
415.374	225.25
415.597	236.25
415.821	231.25
416.044	235.25
416.267	233.25
416.49	227.25
416.713	237.25
416.936	225.25
417.159	225.25
417.382	227.25
417.605	236.25
417.828	244.25
418.051	243.25
418.274	235.25
418.497	235.25
418.72	239.25
418.943	242.25
419.166	257.25
419.389	245.25
419.611	272.25
419.834	238.25
420.057	255.25
420.28	257.25
420.503	239.25
420.726	233.25
420.948	241.25
421.171	236.25
421.394	240.25
421.617	239.25
421.839	229.25
422.062	214.25
422.285	235.25
422.507	228.25
422.73	230.25
422.953	237.25
423.175	259.25
423.398	244.25
423.621	247.25
423.843	252.25
424.066	233.25
424.288	261.25
424.511	257.25
424.733	245.25
424.956	256.25
425.178	272.25
425.401	281.25
425.623	329.25
425.846	286.25
426.068	253.25
426.291	248.25
426.513	247.25
426.735	240.25
426.958	245.25
427.18	267.25
427.402	333.25
427.625	362.25
427.847	289.25
428.069	239.25
428.292	234.25
428.514	255.25
428.736	246.25
428.958	255.25
429.181	294.25
429.403	256.25
429.625	225.25
429.847	229.25
430.069	218.25
430.292	224.25
430.514	200.25
430.736	239.25
430.958	246.25
431.18	255.25
431.402	221.25
431.624	213.25
431.846	204.25
432.068	219.25
432.29	229.25
432.512	228.25
432.734	268.25
432.956	269.25
433.178	222.25
433.4	203.25
433.622	227.25
433.844	203.25
434.066	219.25
434.287	244.25
434.509	231.25
434.731	242.25
434.953	241.25
435.175	253.25
435.397	265.25
435.618	231.25
435.84	230.25
436.062	229.25
436.284	219.25
436.505	207.25
436.727	209.25
436.949	216.25
437.17	210.25
437.392	233.25
437.614	221.25
437.835	226.25
438.057	214.25
438.278	222.25
438.5	279.25
438.721	302.25
438.943	244.25
439.165	224.25
439.386	207.25
439.608	213.25
439.829	213.25
440.05	218.25
440.272	204.25
440.493	230.25
440.715	279.25
440.936	226.25
441.158	215.25
441.379	227.25
441.6	257.25
441.822	264.25
442.043	233.25
442.264	228.25
442.486	230.25
442.707	230.25
442.928	239.25
443.149	256.25
443.371	250.25
443.592	244.25
443.813	239.25
444.034	250.25
444.255	242.25
444.476	243.25
444.698	272.25
444.919	247.25
445.14	339.25
445.361	298.25
445.582	255.25
445.803	248.25
446.024	253.25
446.245	225.25
446.466	218.25
446.687	236.25
446.908	232.25
447.129	225.25
447.35	224.25
447.571	203.25
447.792	223.25
448.013	196.25
448.234	199.25
448.455	210.25
448.675	209.25
448.896	209.25
449.117	216.25
449.338	224.25
449.559	190.25
449.779	222.25
450	220.25
450.221	201.25
450.442	215.25
450.662	209.25
450.883	222.25
451.104	205.25
451.324	240.25
451.545	212.25
451.766	202.25
451.986	207.25
452.207	220.25
452.428	207.25
452.648	200.25
452.869	228.25
453.089	236.25
453.31	228.25
453.53	204.25
453.751	217.25
453.971	200.25
454.192	223.25
454.412	220.25
454.633	199.25
454.853	207.25
455.073	198.25
455.294	191.25
455.514	209.25
455.734	196.25
455.955	200.25
456.175	215.25
456.395	202.25
456.616	189.25
456.836	203.25
457.056	200.25
457.276	188.25
457.497	196.25
457.717	202.25
457.937	194.25
458.157	196.25
458.377	200.25
458.598	193.25
458.818	197.25
459.038	200.25
459.258	218.25
459.478	215.25
459.698	241.25
459.918	225.25
460.138	231.25
460.358	236.25
460.578	240.25
460.798	235.25
461.018	249.25
461.238	247.25
461.458	233.25
461.678	243.25
461.898	273.25
462.118	243.25
462.338	259.25
462.558	266.25
462.777	283.25
462.997	268.25
463.217	317.25
463.437	299.25
463.657	273.25
463.876	251.25
464.096	244.25
464.316	277.25
464.536	264.25
464.755	275.25
464.975	265.25
465.195	242.25
465.414	252.25
465.634	252.25
465.854	247.25
466.073	219.25
466.293	227.25
466.512	224.25
466.732	253.25
466.951	265.25
467.171	228.25
467.391	209.25
467.61	221.25
467.829	239.25
468.049	220.25
468.268	236.25
468.488	238.25
468.707	234.25
468.927	257.25
469.146	267.25
469.365	245.25
469.585	254.25
469.804	226.25
470.023	253.25
470.243	244.25
470.462	232.25
470.681	220.25
470.901	228.25
471.12	246.25
471.339	251.25
471.558	226.25
471.777	243.25
471.997	241.25
472.216	276.25
472.435	267.25
472.654	243.25
472.873	230.25
473.092	251.25
473.311	234.25
473.53	232.25
473.749	221.25
473.968	243.25
474.187	222.25
474.406	228.25
474.625	229.25
474.844	230.25
475.063	243.25
475.282	243.25
475.501	273.25
475.72	269.25
475.939	256.25
476.158	261.25
476.377	293.25
476.596	317.25
476.814	329.25
477.033	292.25
477.252	245.25
477.471	243.25
477.69	260.25
477.908	261.25
478.127	288.25
478.346	275.25
478.564	304.25
478.783	274.25
479.002	294.25
479.22	319.25
479.439	323.25
479.658	279.25
479.876	258.25
480.095	271.25
480.313	295.25
480.532	277.25
480.751	270.25
480.969	285.25
481.188	289.25
481.406	284.25
481.624	300.25
481.843	255.25
482.061	261.25
482.28	284.25
482.498	323.25
482.717	322.25
482.935	288.25
483.153	252.25
483.372	241.25
483.59	271.25
483.808	256.25
484.027	265.25
484.245	247.25
484.463	234.25
484.681	243.25
484.9	255.25
485.118	264.25
485.336	259.25
485.554	254.25
485.772	252.25
485.99	280.25
486.209	285.25
486.427	283.25
486.645	267.25
486.863	287.25
487.081	274.25
487.299	315.25
487.517	303.25
487.735	279.25
487.953	275.25
488.171	304.25
488.389	268.25
488.607	268.25
488.825	249.25
489.043	272.25
489.261	313.25
489.479	307.25
489.696	294.25
489.914	251.25
490.132	266.25
490.35	275.25
490.568	260.25
490.786	236.25
491.003	259.25
491.221	256.25
491.439	260.25
491.657	268.25
491.874	275.25
492.092	305.25
492.31	333.25
492.527	321.25
492.745	303.25
492.963	274.25
493.18	287.25
493.398	283.25
493.615	300.25
493.833	292.25
494.05	283.25
494.268	287.25
494.485	278.25
494.703	282.25
494.92	297.25
495.138	275.25
495.355	285.25
495.573	276.25
495.79	285.25
496.008	344.25
496.225	309.25
496.442	269.25
496.66	307.25
496.877	279.25
497.094	294.25
497.312	291.25
497.529	296.25
497.746	273.25
497.963	303.25
498.181	327.25
498.398	334.25
498.615	336.25
498.832	376.25
499.049	377.25
499.267	358.25
499.484	395.25
499.701	392.25
499.918	450.25
500.135	481.25
500.352	531.25
500.569	548.25
500.786	563.25
501.003	533.25
501.22	471.25
501.437	439.25
501.654	393.25
501.871	363.25
502.088	364.25
502.305	342.25
502.522	339.25
