Data from NickelSpatula_HRD10591_16-34-18-126.txt Node
Date: Mon Jul 22 16:34:18 EDT 2019
User: cochatt
Spectrometer: HR+D1059
Trigger mode: 1
Integration Time (sec): 1.000000E-1
Scans to average: 1
Electric dark correction enabled: true
Nonlinearity correction enabled: false
Boxcar width: 0
XAxis mode: Wavelengths
Number of Pixels in Spectrum: 2048
>>>>>Begin Spectral Data<<<<<
223.165	-14.19
223.4	-14.19
223.635	-14.19
223.869	-7.19
224.104	-12.19
224.338	-2.19
224.573	-17.19
224.808	-14.19
225.042	-20.19
225.277	-8.19
225.511	2.81
225.746	-5.19
225.98	4.81
226.215	14.81
226.449	15.81
226.683	16.81
226.918	24.81
227.152	20.81
227.387	47.81
227.621	37.81
227.856	28.81
228.09	50.81
228.324	50.81
228.559	61.81
228.793	52.81
229.027	73.81
229.262	80.81
229.496	77.81
229.73	75.81
229.964	88.81
230.199	80.81
230.433	103.81
230.667	108.81
230.901	101.81
231.136	78.81
231.37	92.81
231.604	108.81
231.838	83.81
232.072	89.81
232.306	95.81
232.541	117.81
232.775	94.81
233.009	101.81
233.243	118.81
233.477	113.81
233.711	121.81
233.945	115.81
234.179	107.81
234.413	101.81
234.647	127.81
234.881	134.81
235.115	140.81
235.349	133.81
235.583	116.81
235.817	118.81
236.051	132.81
236.285	121.81
236.519	138.81
236.753	126.81
236.987	125.81
237.221	124.81
237.455	114.81
237.689	132.81
237.922	142.81
238.156	127.81
238.39	131.81
238.624	170.81
238.858	150.81
239.091	139.81
239.325	139.81
239.559	130.81
239.793	141.81
240.027	163.81
240.26	151.81
240.494	157.81
240.728	153.81
240.961	144.81
241.195	155.81
241.429	159.81
241.662	146.81
241.896	145.81
242.13	136.81
242.363	149.81
242.597	128.81
242.83	137.81
243.064	166.81
243.298	170.81
243.531	155.81
243.765	157.81
243.998	171.81
244.232	161.81
244.465	150.81
244.699	157.81
244.932	179.81
245.166	149.81
245.399	143.81
245.633	157.81
245.866	159.81
246.099	152.81
246.333	201.81
246.566	190.81
246.8	173.81
247.033	178.81
247.266	171.81
247.5	179.81
247.733	166.81
247.966	161.81
248.2	173.81
248.433	170.81
248.666	186.81
248.899	189.81
249.133	177.81
249.366	215.81
249.599	224.81
249.832	217.81
250.066	199.81
250.299	194.81
250.532	190.81
250.765	173.81
250.998	180.81
251.231	163.81
251.465	186.81
251.698	192.81
251.931	169.81
252.164	215.81
252.397	205.81
252.63	221.81
252.863	250.81
253.096	249.81
253.329	255.81
253.562	247.81
253.795	257.81
254.028	275.81
254.261	273.81
254.494	257.81
254.727	261.81
254.96	234.81
255.193	257.81
255.426	263.81
255.659	206.81
255.892	185.81
256.124	201.81
256.357	227.81
256.59	248.81
256.823	263.81
257.056	224.81
257.289	193.81
257.521	216.81
257.754	248.81
257.987	300.81
258.22	261.81
258.452	229.81
258.685	255.81
258.918	266.81
259.151	264.81
259.383	301.81
259.616	330.81
259.849	309.81
260.081	353.81
260.314	374.81
260.547	309.81
260.779	302.81
261.012	363.81
261.244	333.81
261.477	338.81
261.71	312.81
261.942	272.81
262.175	278.81
262.407	271.81
262.64	257.81
262.872	315.81
263.105	329.81
263.337	347.81
263.57	310.81
263.802	245.81
264.035	213.81
264.267	203.81
264.499	203.81
264.732	200.81
264.964	174.81
265.197	170.81
265.429	185.81
265.661	215.81
265.894	211.81
266.126	235.81
266.358	232.81
266.591	257.81
266.823	321.81
267.055	301.81
267.287	283.81
267.52	281.81
267.752	285.81
267.984	321.81
268.216	299.81
268.448	269.81
268.681	241.81
268.913	287.81
269.145	305.81
269.377	291.81
269.609	288.81
269.841	268.81
270.073	291.81
270.306	327.81
270.538	325.81
270.77	308.81
271.002	298.81
271.234	339.81
271.466	327.81
271.698	302.81
271.93	303.81
272.162	295.81
272.394	289.81
272.626	298.81
272.858	323.81
273.09	315.81
273.322	285.81
273.553	234.81
273.785	278.81
274.017	358.81
274.249	431.81
274.481	454.81
274.713	492.81
274.945	563.81
275.176	589.81
275.408	545.81
275.64	481.81
275.872	495.81
276.104	444.81
276.335	385.81
276.567	372.81
276.799	385.81
277.031	423.81
277.262	334.81
277.494	273.81
277.726	246.81
277.957	283.81
278.189	311.81
278.421	316.81
278.652	292.81
278.884	296.81
279.115	268.81
279.347	273.81
279.579	255.81
279.81	254.81
280.042	281.81
280.273	286.81
280.505	248.81
280.736	231.81
280.968	246.81
281.199	243.81
281.431	279.81
281.662	299.81
281.894	261.81
282.125	263.81
282.356	286.81
282.588	316.81
282.819	272.81
283.051	289.81
283.282	342.81
283.513	379.81
283.745	408.81
283.976	426.81
284.207	416.81
284.439	413.81
284.67	414.81
284.901	376.81
285.132	369.81
285.364	400.81
285.595	373.81
285.826	387.81
286.057	400.81
286.288	392.81
286.52	397.81
286.751	408.81
286.982	438.81
287.213	370.81
287.444	350.81
287.675	358.81
287.906	392.81
288.138	348.81
288.369	291.81
288.6	270.81
288.831	284.81
289.062	329.81
289.293	373.81
289.524	345.81
289.755	327.81
289.986	353.81
290.217	330.81
290.448	245.81
290.679	221.81
290.91	222.81
291.141	218.81
291.371	228.81
291.602	199.81
291.833	215.81
292.064	236.81
292.295	259.81
292.526	295.81
292.757	299.81
292.987	329.81
293.218	337.81
293.449	362.81
293.68	369.81
293.91	361.81
294.141	356.81
294.372	351.81
294.603	296.81
294.833	339.81
295.064	389.81
295.295	387.81
295.525	295.81
295.756	254.81
295.987	228.81
296.217	216.81
296.448	246.81
296.679	229.81
296.909	253.81
297.14	256.81
297.37	282.81
297.601	281.81
297.831	236.81
298.062	268.81
298.292	302.81
298.523	312.81
298.753	355.81
298.984	324.81
299.214	271.81
299.445	230.81
299.675	220.81
299.905	227.81
300.136	237.81
300.366	246.81
300.597	244.81
300.827	242.81
301.057	242.81
301.288	230.81
301.518	247.81
301.748	259.81
301.979	257.81
302.209	281.81
302.439	272.81
302.669	245.81
302.9	278.81
303.13	247.81
303.36	245.81
303.59	225.81
303.82	259.81
304.051	272.81
304.281	273.81
304.511	290.81
304.741	252.81
304.971	251.81
305.201	272.81
305.431	250.81
305.661	239.81
305.891	219.81
306.121	222.81
306.352	212.81
306.582	201.81
306.812	189.81
307.042	196.81
307.272	187.81
307.502	194.81
307.731	189.81
307.961	193.81
308.191	201.81
308.421	205.81
308.651	197.81
308.881	188.81
309.111	182.81
309.341	187.81
309.571	204.81
309.8	217.81
310.03	200.81
310.26	204.81
310.49	214.81
310.72	185.81
310.949	192.81
311.179	205.81
311.409	221.81
311.639	235.81
311.868	277.81
312.098	370.81
312.328	378.81
312.557	363.81
312.787	382.81
313.017	347.81
313.246	369.81
313.476	406.81
313.706	335.81
313.935	279.81
314.165	223.81
314.394	204.81
314.624	198.81
314.853	229.81
315.083	229.81
315.312	232.81
315.542	219.81
315.771	214.81
316.001	195.81
316.23	199.81
316.46	189.81
316.689	183.81
316.919	197.81
317.148	218.81
317.377	197.81
317.607	206.81
317.836	208.81
318.065	221.81
318.295	266.81
318.524	246.81
318.753	223.81
318.983	210.81
319.212	210.81
319.441	214.81
319.67	228.81
319.9	234.81
320.129	247.81
320.358	202.81
320.587	201.81
320.816	211.81
321.046	247.81
321.275	265.81
321.504	259.81
321.733	249.81
321.962	224.81
322.191	227.81
322.42	228.81
322.649	238.81
322.878	228.81
323.108	244.81
323.337	227.81
323.566	219.81
323.795	204.81
324.024	217.81
324.253	207.81
324.482	179.81
324.71	208.81
324.939	238.81
325.168	225.81
325.397	187.81
325.626	217.81
325.855	184.81
326.084	212.81
326.313	195.81
326.542	181.81
326.77	198.81
326.999	191.81
327.228	190.81
327.457	209.81
327.686	201.81
327.914	203.81
328.143	193.81
328.372	193.81
328.6	178.81
328.829	192.81
329.058	202.81
329.287	186.81
329.515	221.81
329.744	187.81
329.972	191.81
330.201	179.81
330.43	203.81
330.658	199.81
330.887	208.81
331.115	216.81
331.344	217.81
331.572	229.81
331.801	204.81
332.03	191.81
332.258	199.81
332.486	220.81
332.715	213.81
332.943	207.81
333.172	228.81
333.4	214.81
333.629	233.81
333.857	243.81
334.085	228.81
334.314	249.81
334.542	224.81
334.771	228.81
334.999	213.81
335.227	210.81
335.455	202.81
335.684	222.81
335.912	272.81
336.14	287.81
336.369	275.81
336.597	259.81
336.825	286.81
337.053	316.81
337.281	265.81
337.51	224.81
337.738	217.81
337.966	225.81
338.194	245.81
338.422	226.81
338.65	206.81
338.878	189.81
339.106	197.81
339.334	234.81
339.562	230.81
339.79	208.81
340.018	197.81
340.246	227.81
340.474	237.81
340.702	247.81
340.93	246.81
341.158	257.81
341.386	232.81
341.614	205.81
341.842	207.81
342.07	217.81
342.298	245.81
342.526	277.81
342.754	242.81
342.981	218.81
343.209	222.81
343.437	266.81
343.665	244.81
343.893	242.81
344.12	305.81
344.348	325.81
344.576	298.81
344.804	253.81
345.031	216.81
345.259	203.81
345.487	206.81
345.714	201.81
345.942	227.81
346.17	247.81
346.397	250.81
346.625	218.81
346.853	210.81
347.08	201.81
347.308	213.81
347.535	243.81
347.763	253.81
347.99	204.81
348.218	213.81
348.445	213.81
348.673	206.81
348.9	222.81
349.128	218.81
349.355	227.81
349.583	220.81
349.81	217.81
350.037	213.81
350.265	189.81
350.492	181.81
350.72	192.81
350.947	173.81
351.174	194.81
351.402	194.81
351.629	207.81
351.856	179.81
352.083	190.81
352.311	205.81
352.538	203.81
352.765	217.81
352.992	199.81
353.22	207.81
353.447	225.81
353.674	211.81
353.901	207.81
354.128	197.81
354.355	207.81
354.583	188.81
354.81	228.81
355.037	225.81
355.264	226.81
355.491	206.81
355.718	235.81
355.945	210.81
356.172	215.81
356.399	214.81
356.626	238.81
356.853	277.81
357.08	302.81
357.307	313.81
357.534	261.81
357.761	272.81
357.988	302.81
358.215	327.81
358.441	316.81
358.668	291.81
358.895	277.81
359.122	241.81
359.349	227.81
359.576	269.81
359.802	229.81
360.029	190.81
360.256	213.81
360.483	238.81
360.709	279.81
360.936	305.81
361.163	264.81
361.39	208.81
361.616	197.81
361.843	207.81
362.07	241.81
362.296	234.81
362.523	217.81
362.749	178.81
362.976	194.81
363.203	239.81
363.429	237.81
363.656	205.81
363.882	202.81
364.109	210.81
364.335	210.81
364.562	210.81
364.788	207.81
365.015	248.81
365.241	217.81
365.468	214.81
365.694	181.81
365.92	184.81
366.147	161.81
366.373	164.81
366.599	171.81
366.826	184.81
367.052	171.81
367.278	181.81
367.505	191.81
367.731	188.81
367.957	191.81
368.184	204.81
368.41	207.81
368.636	194.81
368.862	216.81
369.089	195.81
369.315	189.81
369.541	199.81
369.767	209.81
369.993	192.81
370.219	185.81
370.445	197.81
370.672	216.81
370.898	207.81
371.124	207.81
371.35	189.81
371.576	191.81
371.802	202.81
372.028	217.81
372.254	246.81
372.48	228.81
372.706	203.81
372.932	207.81
373.158	213.81
373.384	240.81
373.61	299.81
373.835	305.81
374.061	250.81
374.287	227.81
374.513	262.81
374.739	264.81
374.965	279.81
375.191	297.81
375.416	249.81
375.642	218.81
375.868	220.81
376.094	239.81
376.319	212.81
376.545	230.81
376.771	257.81
376.997	219.81
377.222	180.81
377.448	183.81
377.674	177.81
377.899	181.81
378.125	181.81
378.35	158.81
378.576	157.81
378.802	196.81
379.027	208.81
379.253	200.81
379.478	199.81
379.704	206.81
379.929	217.81
380.155	206.81
380.38	211.81
380.606	197.81
380.831	228.81
381.057	203.81
381.282	188.81
381.507	224.81
381.733	274.81
381.958	277.81
382.184	289.81
382.409	281.81
382.634	285.81
382.86	294.81
383.085	260.81
383.31	225.81
383.535	233.81
383.761	246.81
383.986	228.81
384.211	269.81
384.436	262.81
384.662	216.81
384.887	213.81
385.112	221.81
385.337	246.81
385.562	228.81
385.787	238.81
386.013	248.81
386.238	241.81
386.463	223.81
386.688	210.81
386.913	212.81
387.138	216.81
387.363	222.81
387.588	235.81
387.813	194.81
388.038	242.81
388.263	202.81
388.488	192.81
388.713	232.81
388.938	237.81
389.163	223.81
389.387	194.81
389.612	203.81
389.837	197.81
390.062	210.81
390.287	205.81
390.512	221.81
390.736	215.81
390.961	202.81
391.186	209.81
391.411	204.81
391.636	201.81
391.86	206.81
392.085	225.81
392.31	227.81
392.534	203.81
392.759	216.81
392.984	222.81
393.208	226.81
393.433	221.81
393.658	220.81
393.882	210.81
394.107	177.81
394.331	189.81
394.556	174.81
394.78	197.81
395.005	197.81
395.229	191.81
395.454	200.81
395.678	213.81
395.903	213.81
396.127	210.81
396.352	206.81
396.576	223.81
396.801	206.81
397.025	231.81
397.249	236.81
397.474	211.81
397.698	203.81
397.922	211.81
398.147	186.81
398.371	204.81
398.595	220.81
398.82	214.81
399.044	224.81
399.268	230.81
399.492	251.81
399.717	259.81
399.941	270.81
400.165	235.81
400.389	241.81
400.613	240.81
400.837	221.81
401.062	211.81
401.286	208.81
401.51	215.81
401.734	215.81
401.958	217.81
402.182	222.81
402.406	206.81
402.63	202.81
402.854	221.81
403.078	233.81
403.302	302.81
403.526	311.81
403.75	289.81
403.974	261.81
404.198	247.81
404.422	265.81
404.645	287.81
404.869	308.81
405.093	259.81
405.317	229.81
405.541	222.81
405.765	231.81
405.988	246.81
406.212	237.81
406.436	259.81
406.66	278.81
406.883	228.81
407.107	245.81
407.331	290.81
407.555	277.81
407.778	255.81
408.002	254.81
408.226	253.81
408.449	234.81
408.673	233.81
408.896	227.81
409.12	221.81
409.344	217.81
409.567	206.81
409.791	213.81
410.014	215.81
410.238	225.81
410.461	218.81
410.685	221.81
410.908	207.81
411.132	226.81
411.355	215.81
411.578	230.81
411.802	218.81
412.025	240.81
412.249	211.81
412.472	227.81
412.695	216.81
412.919	209.81
413.142	227.81
413.365	227.81
413.589	244.81
413.812	211.81
414.035	215.81
414.258	220.81
414.482	218.81
414.705	239.81
414.928	213.81
415.151	235.81
415.374	210.81
415.597	211.81
415.821	213.81
416.044	203.81
416.267	197.81
416.49	198.81
416.713	195.81
416.936	204.81
417.159	213.81
417.382	202.81
417.605	213.81
417.828	208.81
418.051	207.81
418.274	219.81
418.497	216.81
418.72	218.81
418.943	215.81
419.166	230.81
419.389	234.81
419.611	238.81
419.834	229.81
420.057	225.81
420.28	251.81
420.503	233.81
420.726	217.81
420.948	210.81
421.171	205.81
421.394	209.81
421.617	224.81
421.839	212.81
422.062	213.81
422.285	216.81
422.507	217.81
422.73	213.81
422.953	234.81
423.175	226.81
423.398	233.81
423.621	228.81
423.843	238.81
424.066	217.81
424.288	203.81
424.511	214.81
424.733	190.81
424.956	225.81
425.178	218.81
425.401	254.81
425.623	281.81
425.846	249.81
426.068	221.81
426.291	241.81
426.513	214.81
426.735	211.81
426.958	214.81
427.18	250.81
427.402	276.81
427.625	293.81
427.847	263.81
428.069	202.81
428.292	202.81
428.514	207.81
428.736	200.81
428.958	219.81
429.181	229.81
429.403	209.81
429.625	213.81
429.847	205.81
430.069	203.81
430.292	198.81
430.514	196.81
430.736	212.81
430.958	236.81
431.18	214.81
431.402	203.81
431.624	180.81
431.846	183.81
432.068	203.81
432.29	193.81
432.512	208.81
432.734	232.81
432.956	223.81
433.178	191.81
433.4	191.81
433.622	193.81
433.844	202.81
434.066	215.81
434.287	223.81
434.509	219.81
434.731	226.81
434.953	205.81
435.175	226.81
435.397	250.81
435.618	213.81
435.84	182.81
436.062	192.81
436.284	190.81
436.505	200.81
436.727	194.81
436.949	197.81
437.17	194.81
437.392	196.81
437.614	192.81
437.835	189.81
438.057	173.81
438.278	211.81
438.5	266.81
438.721	259.81
438.943	202.81
439.165	200.81
439.386	184.81
439.608	181.81
439.829	197.81
440.05	186.81
440.272	190.81
440.493	209.81
440.715	256.81
440.936	209.81
441.158	193.81
441.379	207.81
441.6	212.81
441.822	228.81
442.043	193.81
442.264	204.81
442.486	215.81
442.707	194.81
442.928	186.81
443.149	203.81
443.371	212.81
443.592	203.81
443.813	202.81
444.034	201.81
444.255	191.81
444.476	213.81
444.698	214.81
444.919	210.81
445.14	344.81
445.361	275.81
445.582	232.81
445.803	211.81
446.024	211.81
446.245	215.81
446.466	221.81
446.687	207.81
446.908	198.81
447.129	178.81
447.35	185.81
447.571	181.81
447.792	174.81
448.013	174.81
448.234	197.81
448.455	186.81
448.675	173.81
448.896	180.81
449.117	210.81
449.338	193.81
449.559	183.81
449.779	202.81
450	204.81
450.221	203.81
450.442	190.81
450.662	182.81
450.883	204.81
451.104	189.81
451.324	175.81
451.545	183.81
451.766	196.81
451.986	197.81
452.207	182.81
452.428	197.81
452.648	191.81
452.869	202.81
453.089	203.81
453.31	189.81
453.53	189.81
453.751	199.81
453.971	164.81
454.192	185.81
454.412	201.81
454.633	170.81
454.853	191.81
455.073	183.81
455.294	161.81
455.514	167.81
455.734	174.81
455.955	186.81
456.175	171.81
456.395	166.81
456.616	169.81
456.836	185.81
457.056	193.81
457.276	174.81
457.497	180.81
457.717	165.81
457.937	177.81
458.157	172.81
458.377	181.81
458.598	181.81
458.818	174.81
459.038	193.81
459.258	199.81
459.478	211.81
459.698	187.81
459.918	209.81
460.138	206.81
460.358	223.81
460.578	199.81
460.798	215.81
461.018	227.81
461.238	209.81
461.458	217.81
461.678	206.81
461.898	231.81
462.118	230.81
462.338	234.81
462.558	227.81
462.777	235.81
462.997	238.81
463.217	232.81
463.437	237.81
463.657	232.81
463.876	228.81
464.096	231.81
464.316	237.81
464.536	231.81
464.755	249.81
464.975	238.81
465.195	236.81
465.414	225.81
465.634	238.81
465.854	234.81
466.073	209.81
466.293	230.81
466.512	197.81
466.732	225.81
466.951	230.81
467.171	213.81
467.391	187.81
467.61	202.81
467.829	199.81
468.049	203.81
468.268	194.81
468.488	207.81
468.707	189.81
468.927	224.81
469.146	241.81
469.365	213.81
469.585	199.81
469.804	215.81
470.023	226.81
470.243	207.81
470.462	212.81
470.681	202.81
470.901	212.81
471.12	209.81
471.339	206.81
471.558	198.81
471.777	207.81
471.997	212.81
472.216	232.81
472.435	227.81
472.654	196.81
472.873	220.81
473.092	226.81
473.311	226.81
473.53	214.81
473.749	193.81
473.968	218.81
474.187	222.81
474.406	209.81
474.625	213.81
474.844	204.81
475.063	217.81
475.282	227.81
475.501	232.81
475.72	252.81
475.939	243.81
476.158	238.81
476.377	265.81
476.596	289.81
476.814	304.81
477.033	268.81
477.252	222.81
477.471	200.81
477.69	220.81
477.908	228.81
478.127	224.81
478.346	230.81
478.564	276.81
478.783	265.81
479.002	229.81
479.22	255.81
479.439	270.81
479.658	241.81
479.876	234.81
480.095	246.81
480.313	280.81
480.532	235.81
480.751	227.81
480.969	227.81
481.188	250.81
481.406	278.81
481.624	268.81
481.843	212.81
482.061	233.81
482.28	267.81
482.498	319.81
482.717	294.81
482.935	246.81
483.153	241.81
483.372	220.81
483.59	216.81
483.808	240.81
484.027	202.81
484.245	222.81
484.463	204.81
484.681	210.81
484.9	230.81
485.118	251.81
485.336	225.81
485.554	227.81
485.772	238.81
485.99	245.81
486.209	251.81
486.427	253.81
486.645	244.81
486.863	261.81
487.081	267.81
487.299	292.81
487.517	277.81
487.735	257.81
487.953	254.81
488.171	258.81
488.389	238.81
488.607	238.81
488.825	219.81
489.043	258.81
489.261	298.81
489.479	305.81
489.696	258.81
489.914	232.81
490.132	211.81
490.35	221.81
490.568	254.81
490.786	225.81
491.003	225.81
491.221	230.81
491.439	226.81
491.657	245.81
491.874	247.81
492.092	294.81
492.31	325.81
492.527	331.81
492.745	289.81
492.963	263.81
493.18	265.81
493.398	246.81
493.615	251.81
493.833	250.81
494.05	247.81
494.268	257.81
494.485	266.81
494.703	257.81
494.92	259.81
495.138	248.81
495.355	251.81
495.573	238.81
495.79	280.81
496.008	341.81
496.225	300.81
496.442	270.81
496.66	265.81
496.877	262.81
497.094	278.81
497.312	267.81
497.529	274.81
497.746	259.81
497.963	265.81
498.181	287.81
498.398	309.81
498.615	323.81
498.832	333.81
499.049	363.81
499.267	332.81
499.484	340.81
499.701	350.81
499.918	381.81
500.135	411.81
500.352	447.81
500.569	454.81
500.786	477.81
501.003	434.81
501.22	420.81
501.437	381.81
501.654	374.81
501.871	341.81
502.088	320.81
502.305	323.81
502.522	319.81
502.739	328.81
