Data from NickelSpatula_HRD10591_16-33-41-125.txt Node
Date: Mon Jul 22 16:33:41 EDT 2019
User: cochatt
Spectrometer: HR+D1059
Trigger mode: 1
Integration Time (sec): 1.000000E-1
Scans to average: 1
Electric dark correction enabled: true
Nonlinearity correction enabled: false
Boxcar width: 0
XAxis mode: Wavelengths
Number of Pixels in Spectrum: 2048
>>>>>Begin Spectral Data<<<<<
223.165	-3.25
223.4	-3.25
223.635	-3.25
223.869	-18.25
224.104	-16.25
224.338	-29.25
224.573	-12.25
224.808	-15.25
225.042	-10.25
225.277	-3.25
225.511	-4.25
225.746	12.75
225.98	0.75
226.215	22.75
226.449	3.75
226.683	11.75
226.918	19.75
227.152	40.75
227.387	38.75
227.621	36.75
227.856	42.75
228.09	42.75
228.324	51.75
228.559	57.75
228.793	60.75
229.027	77.75
229.262	70.75
229.496	80.75
229.73	99.75
229.964	94.75
230.199	100.75
230.433	96.75
230.667	99.75
230.901	81.75
231.136	97.75
231.37	93.75
231.604	99.75
231.838	97.75
232.072	105.75
232.306	96.75
232.541	95.75
232.775	106.75
233.009	97.75
233.243	115.75
233.477	125.75
233.711	118.75
233.945	112.75
234.179	123.75
234.413	112.75
234.647	134.75
234.881	125.75
235.115	123.75
235.349	143.75
235.583	122.75
235.817	129.75
236.051	112.75
236.285	108.75
236.519	125.75
236.753	136.75
236.987	137.75
237.221	129.75
237.455	139.75
237.689	123.75
237.922	123.75
238.156	149.75
238.39	130.75
238.624	168.75
238.858	142.75
239.091	148.75
239.325	142.75
239.559	147.75
239.793	146.75
240.027	171.75
240.26	147.75
240.494	162.75
240.728	139.75
240.961	181.75
241.195	161.75
241.429	168.75
241.662	161.75
241.896	153.75
242.13	140.75
242.363	124.75
242.597	147.75
242.83	156.75
243.064	169.75
243.298	169.75
243.531	153.75
243.765	160.75
243.998	178.75
244.232	165.75
244.465	163.75
244.699	161.75
244.932	175.75
245.166	159.75
245.399	165.75
245.633	158.75
245.866	160.75
246.099	182.75
246.333	186.75
246.566	186.75
246.8	189.75
247.033	203.75
247.266	183.75
247.5	173.75
247.733	190.75
247.966	165.75
248.2	177.75
248.433	208.75
248.666	201.75
248.899	183.75
249.133	201.75
249.366	214.75
249.599	220.75
249.832	224.75
250.066	192.75
250.299	221.75
250.532	203.75
250.765	198.75
250.998	179.75
251.231	187.75
251.465	200.75
251.698	209.75
251.931	192.75
252.164	205.75
252.397	212.75
252.63	236.75
252.863	249.75
253.096	264.75
253.329	249.75
253.562	263.75
253.795	273.75
254.028	300.75
254.261	303.75
254.494	275.75
254.727	248.75
254.96	253.75
255.193	281.75
255.426	255.75
255.659	220.75
255.892	209.75
256.124	210.75
256.357	235.75
256.59	261.75
256.823	277.75
257.056	238.75
257.289	230.75
257.521	225.75
257.754	259.75
257.987	305.75
258.22	268.75
258.452	239.75
258.685	280.75
258.918	277.75
259.151	289.75
259.383	310.75
259.616	343.75
259.849	351.75
260.081	364.75
260.314	372.75
260.547	322.75
260.779	336.75
261.012	375.75
261.244	354.75
261.477	361.75
261.71	348.75
261.942	292.75
262.175	293.75
262.407	300.75
262.64	297.75
262.872	316.75
263.105	341.75
263.337	362.75
263.57	324.75
263.802	240.75
264.035	220.75
264.267	234.75
264.499	198.75
264.732	185.75
264.964	177.75
265.197	189.75
265.429	192.75
265.661	201.75
265.894	231.75
266.126	214.75
266.358	248.75
266.591	297.75
266.823	337.75
267.055	325.75
267.287	304.75
267.52	304.75
267.752	308.75
267.984	344.75
268.216	329.75
268.448	295.75
268.681	280.75
268.913	289.75
269.145	311.75
269.377	306.75
269.609	308.75
269.841	304.75
270.073	306.75
270.306	321.75
270.538	324.75
270.77	346.75
271.002	342.75
271.234	351.75
271.466	340.75
271.698	314.75
271.93	295.75
272.162	317.75
272.394	319.75
272.626	324.75
272.858	332.75
273.09	332.75
273.322	296.75
273.553	270.75
273.785	315.75
274.017	385.75
274.249	457.75
274.481	488.75
274.713	513.75
274.945	599.75
275.176	605.75
275.408	557.75
275.64	515.75
275.872	514.75
276.104	454.75
276.335	397.75
276.567	396.75
276.799	413.75
277.031	439.75
277.262	361.75
277.494	300.75
277.726	263.75
277.957	294.75
278.189	331.75
278.421	344.75
278.652	329.75
278.884	307.75
279.115	296.75
279.347	284.75
279.579	287.75
279.81	293.75
280.042	273.75
280.273	308.75
280.505	294.75
280.736	251.75
280.968	234.75
281.199	266.75
281.431	304.75
281.662	284.75
281.894	278.75
282.125	269.75
282.356	303.75
282.588	317.75
282.819	292.75
283.051	297.75
283.282	362.75
283.513	380.75
283.745	452.75
283.976	448.75
284.207	431.75
284.439	421.75
284.67	408.75
284.901	361.75
285.132	402.75
285.364	423.75
285.595	401.75
285.826	423.75
286.057	429.75
286.288	415.75
286.52	432.75
286.751	447.75
286.982	447.75
287.213	402.75
287.444	390.75
287.675	425.75
287.906	383.75
288.138	373.75
288.369	318.75
288.6	296.75
288.831	318.75
289.062	372.75
289.293	387.75
289.524	376.75
289.755	344.75
289.986	368.75
290.217	343.75
290.448	273.75
290.679	241.75
290.91	233.75
291.141	211.75
291.371	229.75
291.602	234.75
291.833	231.75
292.064	244.75
292.295	273.75
292.526	304.75
292.757	324.75
292.987	356.75
293.218	385.75
293.449	379.75
293.68	403.75
293.91	357.75
294.141	385.75
294.372	377.75
294.603	331.75
294.833	352.75
295.064	404.75
295.295	405.75
295.525	307.75
295.756	274.75
295.987	225.75
296.217	231.75
296.448	230.75
296.679	241.75
296.909	268.75
297.14	282.75
297.37	313.75
297.601	293.75
297.831	274.75
298.062	264.75
298.292	305.75
298.523	325.75
298.753	354.75
298.984	330.75
299.214	268.75
299.445	231.75
299.675	235.75
299.905	235.75
300.136	239.75
300.366	264.75
300.597	269.75
300.827	222.75
301.057	225.75
301.288	232.75
301.518	269.75
301.748	282.75
301.979	307.75
302.209	291.75
302.439	297.75
302.669	273.75
302.9	283.75
303.13	259.75
303.36	274.75
303.59	252.75
303.82	256.75
304.051	285.75
304.281	316.75
304.511	308.75
304.741	267.75
304.971	261.75
305.201	306.75
305.431	293.75
305.661	242.75
305.891	240.75
306.121	251.75
306.352	229.75
306.582	183.75
306.812	204.75
307.042	197.75
307.272	204.75
307.502	208.75
307.731	196.75
307.961	211.75
308.191	213.75
308.421	193.75
308.651	201.75
308.881	188.75
309.111	210.75
309.341	197.75
309.571	215.75
309.8	212.75
310.03	217.75
310.26	241.75
310.49	224.75
310.72	189.75
310.949	204.75
311.179	211.75
311.409	219.75
311.639	226.75
311.868	291.75
312.098	362.75
312.328	411.75
312.557	392.75
312.787	403.75
313.017	364.75
313.246	399.75
313.476	407.75
313.706	355.75
313.935	308.75
314.165	231.75
314.394	220.75
314.624	227.75
314.853	217.75
315.083	246.75
315.312	228.75
315.542	221.75
315.771	210.75
316.001	205.75
316.23	202.75
316.46	197.75
316.689	190.75
316.919	193.75
317.148	216.75
317.377	189.75
317.607	202.75
317.836	212.75
318.065	243.75
318.295	292.75
318.524	252.75
318.753	212.75
318.983	216.75
319.212	228.75
319.441	225.75
319.67	249.75
319.9	273.75
320.129	266.75
320.358	229.75
320.587	204.75
320.816	232.75
321.046	240.75
321.275	282.75
321.504	294.75
321.733	283.75
321.962	270.75
322.191	251.75
322.42	247.75
322.649	258.75
322.878	268.75
323.108	262.75
323.337	254.75
323.566	243.75
323.795	243.75
324.024	244.75
324.253	223.75
324.482	204.75
324.71	229.75
324.939	243.75
325.168	239.75
325.397	218.75
325.626	204.75
325.855	213.75
326.084	211.75
326.313	199.75
326.542	179.75
326.77	204.75
326.999	198.75
327.228	219.75
327.457	204.75
327.686	215.75
327.914	191.75
328.143	203.75
328.372	177.75
328.6	191.75
328.829	202.75
329.058	201.75
329.287	201.75
329.515	211.75
329.744	199.75
329.972	189.75
330.201	179.75
330.43	191.75
330.658	207.75
330.887	225.75
331.115	223.75
331.344	219.75
331.572	234.75
331.801	219.75
332.03	203.75
332.258	196.75
332.486	213.75
332.715	216.75
332.943	202.75
333.172	209.75
333.4	218.75
333.629	231.75
333.857	232.75
334.085	240.75
334.314	244.75
334.542	246.75
334.771	227.75
334.999	212.75
335.227	223.75
335.455	207.75
335.684	234.75
335.912	266.75
336.14	309.75
336.369	291.75
336.597	256.75
336.825	286.75
337.053	326.75
337.281	275.75
337.51	203.75
337.738	208.75
337.966	233.75
338.194	251.75
338.422	237.75
338.65	226.75
338.878	209.75
339.106	202.75
339.334	219.75
339.562	247.75
339.79	216.75
340.018	209.75
340.246	208.75
340.474	260.75
340.702	273.75
340.93	282.75
341.158	275.75
341.386	249.75
341.614	239.75
341.842	250.75
342.07	237.75
342.298	279.75
342.526	315.75
342.754	256.75
342.981	249.75
343.209	213.75
343.437	261.75
343.665	265.75
343.893	252.75
344.12	298.75
344.348	354.75
344.576	345.75
344.804	273.75
345.031	219.75
345.259	211.75
345.487	204.75
345.714	228.75
345.942	244.75
346.17	269.75
346.397	251.75
346.625	217.75
346.853	225.75
347.08	196.75
347.308	213.75
347.535	244.75
347.763	252.75
347.99	221.75
348.218	198.75
348.445	228.75
348.673	228.75
348.9	204.75
349.128	233.75
349.355	228.75
349.583	224.75
349.81	246.75
350.037	207.75
350.265	188.75
350.492	162.75
350.72	165.75
350.947	179.75
351.174	184.75
351.402	197.75
351.629	213.75
351.856	206.75
352.083	196.75
352.311	213.75
352.538	227.75
352.765	241.75
352.992	224.75
353.22	220.75
353.447	239.75
353.674	216.75
353.901	196.75
354.128	225.75
354.355	212.75
354.583	224.75
354.81	236.75
355.037	247.75
355.264	228.75
355.491	227.75
355.718	261.75
355.945	241.75
356.172	227.75
356.399	219.75
356.626	275.75
356.853	321.75
357.08	339.75
357.307	362.75
357.534	290.75
357.761	300.75
357.988	360.75
358.215	395.75
358.441	383.75
358.668	352.75
358.895	331.75
359.122	249.75
359.349	262.75
359.576	277.75
359.802	235.75
360.029	210.75
360.256	209.75
360.483	259.75
360.709	312.75
360.936	337.75
361.163	303.75
361.39	233.75
361.616	226.75
361.843	245.75
362.07	291.75
362.296	257.75
362.523	228.75
362.749	202.75
362.976	205.75
363.203	231.75
363.429	273.75
363.656	232.75
363.882	206.75
364.109	227.75
364.335	207.75
364.562	200.75
364.788	256.75
365.015	267.75
365.241	244.75
365.468	209.75
365.694	189.75
365.92	191.75
366.147	189.75
366.373	175.75
366.599	187.75
366.826	188.75
367.052	181.75
367.278	178.75
367.505	175.75
367.731	194.75
367.957	209.75
368.184	230.75
368.41	208.75
368.636	219.75
368.862	233.75
369.089	220.75
369.315	198.75
369.541	193.75
369.767	205.75
369.993	187.75
370.219	191.75
370.445	208.75
370.672	211.75
370.898	247.75
371.124	239.75
371.35	205.75
371.576	188.75
371.802	201.75
372.028	237.75
372.254	249.75
372.48	239.75
372.706	220.75
372.932	228.75
373.158	235.75
373.384	261.75
373.61	319.75
373.835	329.75
374.061	270.75
374.287	244.75
374.513	284.75
374.739	313.75
374.965	324.75
375.191	332.75
375.416	265.75
375.642	216.75
375.868	219.75
376.094	275.75
376.319	252.75
376.545	239.75
376.771	273.75
376.997	243.75
377.222	195.75
377.448	171.75
377.674	164.75
377.899	182.75
378.125	167.75
378.35	161.75
378.576	179.75
378.802	191.75
379.027	197.75
379.253	207.75
379.478	187.75
379.704	222.75
379.929	239.75
380.155	256.75
380.38	219.75
380.606	239.75
380.831	234.75
381.057	239.75
381.282	218.75
381.507	253.75
381.733	297.75
381.958	280.75
382.184	327.75
382.409	332.75
382.634	327.75
382.86	343.75
383.085	294.75
383.31	233.75
383.535	263.75
383.761	274.75
383.986	253.75
384.211	297.75
384.436	275.75
384.662	228.75
384.887	218.75
385.112	231.75
385.337	240.75
385.562	213.75
385.787	239.75
386.013	248.75
386.238	272.75
386.463	213.75
386.688	213.75
386.913	205.75
387.138	192.75
387.363	211.75
387.588	222.75
387.813	227.75
388.038	241.75
388.263	209.75
388.488	213.75
388.713	240.75
388.938	259.75
389.163	231.75
389.387	180.75
389.612	202.75
389.837	205.75
390.062	211.75
390.287	219.75
390.512	223.75
390.736	201.75
390.961	223.75
391.186	191.75
391.411	179.75
391.636	195.75
391.86	218.75
392.085	225.75
392.31	234.75
392.534	218.75
392.759	204.75
392.984	224.75
393.208	213.75
393.433	220.75
393.658	179.75
393.882	181.75
394.107	172.75
394.331	177.75
394.556	188.75
394.78	182.75
395.005	184.75
395.229	188.75
395.454	196.75
395.678	183.75
395.903	203.75
396.127	193.75
396.352	198.75
396.576	202.75
396.801	233.75
397.025	248.75
397.249	255.75
397.474	205.75
397.698	220.75
397.922	226.75
398.147	204.75
398.371	210.75
398.595	212.75
398.82	222.75
399.044	216.75
399.268	217.75
399.492	234.75
399.717	233.75
399.941	233.75
400.165	223.75
400.389	224.75
400.613	240.75
400.837	205.75
401.062	201.75
401.286	194.75
401.51	201.75
401.734	197.75
401.958	195.75
402.182	188.75
402.406	207.75
402.63	205.75
402.854	208.75
403.078	240.75
403.302	307.75
403.526	312.75
403.75	286.75
403.974	236.75
404.198	231.75
404.422	279.75
404.645	303.75
404.869	334.75
405.093	260.75
405.317	231.75
405.541	213.75
405.765	217.75
405.988	218.75
406.212	242.75
406.436	272.75
406.66	286.75
406.883	260.75
407.107	240.75
407.331	280.75
407.555	281.75
407.778	230.75
408.002	229.75
408.226	240.75
408.449	242.75
408.673	227.75
408.896	204.75
409.12	191.75
409.344	199.75
409.567	201.75
409.791	183.75
410.014	201.75
410.238	196.75
410.461	206.75
410.685	195.75
410.908	197.75
411.132	198.75
411.355	198.75
411.578	199.75
411.802	219.75
412.025	214.75
412.249	224.75
412.472	212.75
412.695	212.75
412.919	218.75
413.142	219.75
413.365	220.75
413.589	214.75
413.812	212.75
414.035	215.75
414.258	209.75
414.482	225.75
414.705	252.75
414.928	203.75
415.151	189.75
415.374	199.75
415.597	216.75
415.821	211.75
416.044	210.75
416.267	206.75
416.49	195.75
416.713	209.75
416.936	183.75
417.159	209.75
417.382	194.75
417.605	222.75
417.828	221.75
418.051	207.75
418.274	222.75
418.497	220.75
418.72	211.75
418.943	228.75
419.166	240.75
419.389	217.75
419.611	216.75
419.834	217.75
420.057	250.75
420.28	237.75
420.503	242.75
420.726	212.75
420.948	193.75
421.171	203.75
421.394	207.75
421.617	205.75
421.839	204.75
422.062	193.75
422.285	205.75
422.507	212.75
422.73	216.75
422.953	207.75
423.175	202.75
423.398	221.75
423.621	235.75
423.843	256.75
424.066	203.75
424.288	209.75
424.511	204.75
424.733	210.75
424.956	215.75
425.178	249.75
425.401	260.75
425.623	309.75
425.846	252.75
426.068	227.75
426.291	253.75
426.513	230.75
426.735	203.75
426.958	203.75
427.18	244.75
427.402	305.75
427.625	296.75
427.847	272.75
428.069	207.75
428.292	203.75
428.514	194.75
428.736	204.75
428.958	214.75
429.181	234.75
429.403	229.75
429.625	209.75
429.847	197.75
430.069	183.75
430.292	195.75
430.514	193.75
430.736	186.75
430.958	235.75
431.18	239.75
431.402	188.75
431.624	185.75
431.846	185.75
432.068	186.75
432.29	166.75
432.512	192.75
432.734	257.75
432.956	255.75
433.178	187.75
433.4	191.75
433.622	202.75
433.844	205.75
434.066	222.75
434.287	205.75
434.509	201.75
434.731	214.75
434.953	188.75
435.175	206.75
435.397	249.75
435.618	216.75
435.84	181.75
436.062	190.75
436.284	199.75
436.505	201.75
436.727	167.75
436.949	193.75
437.17	204.75
437.392	191.75
437.614	187.75
437.835	181.75
438.057	187.75
438.278	200.75
438.5	266.75
438.721	284.75
438.943	199.75
439.165	184.75
439.386	174.75
439.608	176.75
439.829	175.75
440.05	186.75
440.272	183.75
440.493	205.75
440.715	271.75
440.936	198.75
441.158	186.75
441.379	178.75
441.6	210.75
441.822	232.75
442.043	197.75
442.264	193.75
442.486	203.75
442.707	196.75
442.928	191.75
443.149	196.75
443.371	208.75
443.592	200.75
443.813	201.75
444.034	200.75
444.255	186.75
444.476	201.75
444.698	214.75
444.919	214.75
445.14	332.75
445.361	281.75
445.582	228.75
445.803	234.75
446.024	224.75
446.245	208.75
446.466	243.75
446.687	209.75
446.908	202.75
447.129	193.75
447.35	186.75
447.571	175.75
447.792	188.75
448.013	186.75
448.234	176.75
448.455	167.75
448.675	178.75
448.896	172.75
449.117	177.75
449.338	182.75
449.559	189.75
449.779	198.75
450	209.75
450.221	208.75
450.442	179.75
450.662	191.75
450.883	180.75
451.104	192.75
451.324	171.75
451.545	210.75
451.766	187.75
451.986	180.75
452.207	164.75
452.428	175.75
452.648	177.75
452.869	184.75
453.089	207.75
453.31	189.75
453.53	181.75
453.751	191.75
453.971	170.75
454.192	171.75
454.412	180.75
454.633	183.75
454.853	171.75
455.073	164.75
455.294	171.75
455.514	179.75
455.734	185.75
455.955	203.75
456.175	175.75
456.395	162.75
456.616	169.75
456.836	168.75
457.056	167.75
457.276	158.75
457.497	169.75
457.717	153.75
457.937	168.75
458.157	160.75
458.377	172.75
458.598	168.75
458.818	178.75
459.038	180.75
459.258	170.75
459.478	196.75
459.698	204.75
459.918	191.75
460.138	189.75
460.358	210.75
460.578	175.75
460.798	191.75
461.018	196.75
461.238	202.75
461.458	194.75
461.678	204.75
461.898	210.75
462.118	193.75
462.338	214.75
462.558	202.75
462.777	225.75
462.997	240.75
463.217	236.75
463.437	245.75
463.657	216.75
463.876	204.75
464.096	216.75
464.316	208.75
464.536	233.75
464.755	229.75
464.975	240.75
465.195	215.75
465.414	237.75
465.634	217.75
465.854	193.75
466.073	187.75
466.293	187.75
466.512	194.75
466.732	213.75
466.951	227.75
467.171	199.75
467.391	181.75
467.61	183.75
467.829	204.75
468.049	193.75
468.268	178.75
468.488	184.75
468.707	203.75
468.927	228.75
469.146	230.75
469.365	209.75
469.585	207.75
469.804	220.75
470.023	229.75
470.243	228.75
470.462	185.75
470.681	215.75
470.901	204.75
471.12	230.75
471.339	211.75
471.558	192.75
471.777	201.75
471.997	201.75
472.216	230.75
472.435	227.75
472.654	202.75
472.873	215.75
473.092	212.75
473.311	227.75
473.53	205.75
473.749	205.75
473.968	215.75
474.187	200.75
474.406	193.75
474.625	213.75
474.844	215.75
475.063	219.75
475.282	220.75
475.501	228.75
475.72	273.75
475.939	234.75
476.158	225.75
476.377	233.75
476.596	290.75
476.814	303.75
477.033	277.75
477.252	219.75
477.471	192.75
477.69	205.75
477.908	219.75
478.127	231.75
478.346	222.75
478.564	263.75
478.783	250.75
479.002	251.75
479.22	250.75
479.439	275.75
479.658	244.75
479.876	226.75
480.095	242.75
480.313	261.75
480.532	240.75
480.751	220.75
480.969	214.75
481.188	241.75
481.406	273.75
481.624	255.75
481.843	239.75
482.061	217.75
482.28	232.75
482.498	290.75
482.717	313.75
482.935	249.75
483.153	247.75
483.372	228.75
483.59	220.75
483.808	211.75
484.027	207.75
484.245	191.75
484.463	216.75
484.681	209.75
484.9	228.75
485.118	243.75
485.336	219.75
485.554	221.75
485.772	237.75
485.99	243.75
486.209	251.75
486.427	261.75
486.645	235.75
486.863	246.75
487.081	251.75
487.299	294.75
487.517	280.75
487.735	251.75
487.953	242.75
488.171	253.75
488.389	244.75
488.607	230.75
488.825	252.75
489.043	247.75
489.261	305.75
489.479	337.75
489.696	255.75
489.914	234.75
490.132	201.75
490.35	238.75
490.568	231.75
490.786	240.75
491.003	230.75
491.221	235.75
491.439	226.75
491.657	209.75
491.874	257.75
492.092	301.75
492.31	372.75
492.527	369.75
492.745	291.75
492.963	244.75
493.18	249.75
493.398	251.75
493.615	267.75
493.833	244.75
494.05	250.75
494.268	269.75
494.485	229.75
494.703	232.75
494.92	250.75
495.138	231.75
495.355	249.75
495.573	237.75
495.79	272.75
496.008	390.75
496.225	305.75
496.442	261.75
496.66	260.75
496.877	294.75
497.094	263.75
497.312	267.75
497.529	253.75
497.746	256.75
497.963	247.75
498.181	287.75
498.398	296.75
498.615	320.75
498.832	332.75
499.049	335.75
499.267	312.75
499.484	313.75
499.701	319.75
499.918	353.75
500.135	393.75
500.352	397.75
500.569	424.75
500.786	439.75
501.003	421.75
501.22	375.75
501.437	347.75
501.654	335.75
501.871	322.75
502.088	336.75
502.305	311.75
502.522	296.75
502.739	295.75
