Data from NickelSpatula_HRD10591_16-36-22-127.txt Node
Date: Mon Jul 22 16:36:22 EDT 2019
User: cochatt
Spectrometer: HR+D1059
Trigger mode: 1
Integration Time (sec): 1.000000E-1
Scans to average: 1
Electric dark correction enabled: true
Nonlinearity correction enabled: false
Boxcar width: 0
XAxis mode: Wavelengths
Number of Pixels in Spectrum: 2048
>>>>>Begin Spectral Data<<<<<
223.165	-12.12
223.4	-12.12
223.635	-12.12
223.869	-31.12
224.104	-24.12
224.338	-10.12
224.573	-19.12
224.808	-5.12
225.042	2.88
225.277	-5.12
225.511	3.88
225.746	5.88
225.98	2.88
226.215	17.88
226.449	10.88
226.683	17.88
226.918	19.88
227.152	24.88
227.387	33.88
227.621	23.88
227.856	32.88
228.09	35.88
228.324	44.88
228.559	66.88
228.793	58.88
229.027	72.88
229.262	80.88
229.496	84.88
229.73	78.88
229.964	83.88
230.199	80.88
230.433	78.88
230.667	88.88
230.901	82.88
231.136	81.88
231.37	86.88
231.604	81.88
231.838	99.88
232.072	79.88
232.306	92.88
232.541	80.88
232.775	86.88
233.009	97.88
233.243	101.88
233.477	112.88
233.711	94.88
233.945	79.88
234.179	99.88
234.413	99.88
234.647	98.88
234.881	110.88
235.115	95.88
235.349	93.88
235.583	103.88
235.817	90.88
236.051	92.88
236.285	112.88
236.519	101.88
236.753	88.88
236.987	97.88
237.221	93.88
237.455	111.88
237.689	90.88
237.922	96.88
238.156	91.88
238.39	105.88
238.624	124.88
238.858	103.88
239.091	97.88
239.325	99.88
239.559	95.88
239.793	110.88
240.027	100.88
240.26	109.88
240.494	100.88
240.728	110.88
240.961	108.88
241.195	115.88
241.429	94.88
241.662	115.88
241.896	102.88
242.13	92.88
242.363	98.88
242.597	95.88
242.83	115.88
243.064	101.88
243.298	121.88
243.531	113.88
243.765	119.88
243.998	124.88
244.232	104.88
244.465	114.88
244.699	105.88
244.932	98.88
245.166	115.88
245.399	104.88
245.633	103.88
245.866	122.88
246.099	113.88
246.333	118.88
246.566	107.88
246.8	119.88
247.033	128.88
247.266	110.88
247.5	119.88
247.733	109.88
247.966	112.88
248.2	119.88
248.433	123.88
248.666	125.88
248.899	112.88
249.133	117.88
249.366	140.88
249.599	149.88
249.832	150.88
250.066	122.88
250.299	120.88
250.532	130.88
250.765	111.88
250.998	119.88
251.231	121.88
251.465	111.88
251.698	129.88
251.931	120.88
252.164	128.88
252.397	125.88
252.63	136.88
252.863	138.88
253.096	140.88
253.329	152.88
253.562	147.88
253.795	160.88
254.028	151.88
254.261	154.88
254.494	143.88
254.727	129.88
254.96	138.88
255.193	143.88
255.426	133.88
255.659	123.88
255.892	127.88
256.124	128.88
256.357	129.88
256.59	147.88
256.823	138.88
257.056	132.88
257.289	131.88
257.521	140.88
257.754	143.88
257.987	149.88
258.22	147.88
258.452	162.88
258.685	140.88
258.918	141.88
259.151	144.88
259.383	158.88
259.616	174.88
259.849	156.88
260.081	192.88
260.314	198.88
260.547	166.88
260.779	160.88
261.012	176.88
261.244	155.88
261.477	184.88
261.71	173.88
261.942	147.88
262.175	140.88
262.407	134.88
262.64	144.88
262.872	145.88
263.105	161.88
263.337	184.88
263.57	138.88
263.802	136.88
264.035	119.88
264.267	125.88
264.499	123.88
264.732	113.88
264.964	103.88
265.197	119.88
265.429	118.88
265.661	125.88
265.894	141.88
266.126	125.88
266.358	149.88
266.591	147.88
266.823	159.88
267.055	162.88
267.287	154.88
267.52	161.88
267.752	153.88
267.984	159.88
268.216	154.88
268.448	156.88
268.681	136.88
268.913	148.88
269.145	159.88
269.377	160.88
269.609	162.88
269.841	147.88
270.073	155.88
270.306	169.88
270.538	168.88
270.77	168.88
271.002	178.88
271.234	184.88
271.466	170.88
271.698	169.88
271.93	142.88
272.162	153.88
272.394	169.88
272.626	161.88
272.858	149.88
273.09	150.88
273.322	142.88
273.553	134.88
273.785	159.88
274.017	174.88
274.249	203.88
274.481	196.88
274.713	226.88
274.945	257.88
275.176	249.88
275.408	241.88
275.64	217.88
275.872	235.88
276.104	195.88
276.335	180.88
276.567	179.88
276.799	183.88
277.031	206.88
277.262	179.88
277.494	149.88
277.726	152.88
277.957	148.88
278.189	170.88
278.421	171.88
278.652	164.88
278.884	154.88
279.115	138.88
279.347	136.88
279.579	154.88
279.81	141.88
280.042	129.88
280.273	135.88
280.505	145.88
280.736	127.88
280.968	138.88
281.199	142.88
281.431	143.88
281.662	146.88
281.894	147.88
282.125	143.88
282.356	158.88
282.588	154.88
282.819	150.88
283.051	162.88
283.282	180.88
283.513	191.88
283.745	179.88
283.976	199.88
284.207	186.88
284.439	182.88
284.67	189.88
284.901	170.88
285.132	189.88
285.364	193.88
285.595	201.88
285.826	180.88
286.057	193.88
286.288	182.88
286.52	194.88
286.751	193.88
286.982	194.88
287.213	182.88
287.444	175.88
287.675	168.88
287.906	200.88
288.138	167.88
288.369	156.88
288.6	148.88
288.831	173.88
289.062	173.88
289.293	187.88
289.524	184.88
289.755	175.88
289.986	176.88
290.217	163.88
290.448	135.88
290.679	130.88
290.91	136.88
291.141	129.88
291.371	135.88
291.602	129.88
291.833	133.88
292.064	128.88
292.295	137.88
292.526	162.88
292.757	160.88
292.987	170.88
293.218	183.88
293.449	181.88
293.68	170.88
293.91	177.88
294.141	171.88
294.372	176.88
294.603	161.88
294.833	169.88
295.064	179.88
295.295	169.88
295.525	147.88
295.756	129.88
295.987	143.88
296.217	139.88
296.448	129.88
296.679	148.88
296.909	141.88
297.14	128.88
297.37	149.88
297.601	161.88
297.831	131.88
298.062	160.88
298.292	150.88
298.523	143.88
298.753	182.88
298.984	163.88
299.214	139.88
299.445	134.88
299.675	124.88
299.905	129.88
300.136	129.88
300.366	139.88
300.597	130.88
300.827	131.88
301.057	127.88
301.288	138.88
301.518	129.88
301.748	131.88
301.979	141.88
302.209	158.88
302.439	140.88
302.669	145.88
302.9	131.88
303.13	128.88
303.36	143.88
303.59	143.88
303.82	131.88
304.051	151.88
304.281	142.88
304.511	145.88
304.741	140.88
304.971	143.88
305.201	153.88
305.431	140.88
305.661	142.88
305.891	140.88
306.121	132.88
306.352	122.88
306.582	124.88
306.812	111.88
307.042	115.88
307.272	113.88
307.502	111.88
307.731	115.88
307.961	117.88
308.191	105.88
308.421	121.88
308.651	100.88
308.881	116.88
309.111	120.88
309.341	115.88
309.571	118.88
309.8	127.88
310.03	127.88
310.26	130.88
310.49	121.88
310.72	114.88
310.949	122.88
311.179	129.88
311.409	123.88
311.639	133.88
311.868	151.88
312.098	193.88
312.328	186.88
312.557	181.88
312.787	177.88
313.017	173.88
313.246	184.88
313.476	175.88
313.706	161.88
313.935	150.88
314.165	137.88
314.394	122.88
314.624	129.88
314.853	125.88
315.083	124.88
315.312	127.88
315.542	133.88
315.771	129.88
316.001	98.88
316.23	104.88
316.46	108.88
316.689	112.88
316.919	125.88
317.148	129.88
317.377	123.88
317.607	124.88
317.836	119.88
318.065	132.88
318.295	154.88
318.524	135.88
318.753	106.88
318.983	106.88
319.212	115.88
319.441	130.88
319.67	125.88
319.9	127.88
320.129	132.88
320.358	123.88
320.587	121.88
320.816	117.88
321.046	153.88
321.275	135.88
321.504	138.88
321.733	152.88
321.962	150.88
322.191	131.88
322.42	134.88
322.649	137.88
322.878	133.88
323.108	126.88
323.337	130.88
323.566	135.88
323.795	133.88
324.024	128.88
324.253	112.88
324.482	131.88
324.71	129.88
324.939	130.88
325.168	129.88
325.397	134.88
325.626	111.88
325.855	118.88
326.084	123.88
326.313	115.88
326.542	113.88
326.77	143.88
326.999	123.88
327.228	117.88
327.457	115.88
327.686	129.88
327.914	130.88
328.143	128.88
328.372	97.88
328.6	99.88
328.829	117.88
329.058	106.88
329.287	112.88
329.515	111.88
329.744	131.88
329.972	124.88
330.201	105.88
330.43	113.88
330.658	111.88
330.887	138.88
331.115	122.88
331.344	121.88
331.572	124.88
331.801	122.88
332.03	118.88
332.258	119.88
332.486	121.88
332.715	118.88
332.943	113.88
333.172	115.88
333.4	113.88
333.629	125.88
333.857	149.88
334.085	137.88
334.314	136.88
334.542	121.88
334.771	127.88
334.999	127.88
335.227	117.88
335.455	131.88
335.684	121.88
335.912	153.88
336.14	139.88
336.369	124.88
336.597	143.88
336.825	153.88
337.053	151.88
337.281	138.88
337.51	104.88
337.738	122.88
337.966	129.88
338.194	114.88
338.422	133.88
338.65	125.88
338.878	118.88
339.106	118.88
339.334	135.88
339.562	139.88
339.79	122.88
340.018	127.88
340.246	129.88
340.474	144.88
340.702	144.88
340.93	153.88
341.158	144.88
341.386	133.88
341.614	131.88
341.842	135.88
342.07	122.88
342.298	160.88
342.526	149.88
342.754	157.88
342.981	141.88
343.209	131.88
343.437	126.88
343.665	136.88
343.893	132.88
344.12	147.88
344.348	158.88
344.576	154.88
344.804	135.88
345.031	125.88
345.259	112.88
345.487	135.88
345.714	139.88
345.942	126.88
346.17	141.88
346.397	130.88
346.625	133.88
346.853	122.88
347.08	120.88
347.308	138.88
347.535	144.88
347.763	129.88
347.99	116.88
348.218	113.88
348.445	109.88
348.673	130.88
348.9	127.88
349.128	135.88
349.355	147.88
349.583	136.88
349.81	139.88
350.037	117.88
350.265	115.88
350.492	123.88
350.72	112.88
350.947	116.88
351.174	100.88
351.402	114.88
351.629	114.88
351.856	111.88
352.083	117.88
352.311	118.88
352.538	126.88
352.765	125.88
352.992	123.88
353.22	125.88
353.447	118.88
353.674	115.88
353.901	130.88
354.128	130.88
354.355	104.88
354.583	121.88
354.81	127.88
355.037	118.88
355.264	120.88
355.491	124.88
355.718	125.88
355.945	136.88
356.172	139.88
356.399	132.88
356.626	150.88
356.853	161.88
357.08	177.88
357.307	153.88
357.534	143.88
357.761	135.88
357.988	182.88
358.215	187.88
358.441	169.88
358.668	182.88
358.895	168.88
359.122	130.88
359.349	120.88
359.576	146.88
359.802	133.88
360.029	117.88
360.256	130.88
360.483	146.88
360.709	156.88
360.936	157.88
361.163	134.88
361.39	117.88
361.616	150.88
361.843	137.88
362.07	136.88
362.296	161.88
362.523	117.88
362.749	125.88
362.976	130.88
363.203	154.88
363.429	113.88
363.656	128.88
363.882	104.88
364.109	136.88
364.335	124.88
364.562	136.88
364.788	128.88
365.015	134.88
365.241	134.88
365.468	120.88
365.694	109.88
365.92	121.88
366.147	111.88
366.373	112.88
366.599	116.88
366.826	121.88
367.052	116.88
367.278	113.88
367.505	101.88
367.731	111.88
367.957	134.88
368.184	120.88
368.41	122.88
368.636	122.88
368.862	137.88
369.089	118.88
369.315	122.88
369.541	119.88
369.767	113.88
369.993	115.88
370.219	126.88
370.445	115.88
370.672	120.88
370.898	120.88
371.124	116.88
371.35	121.88
371.576	115.88
371.802	112.88
372.028	134.88
372.254	153.88
372.48	123.88
372.706	117.88
372.932	129.88
373.158	125.88
373.384	157.88
373.61	164.88
373.835	182.88
374.061	151.88
374.287	125.88
374.513	129.88
374.739	152.88
374.965	166.88
375.191	157.88
375.416	121.88
375.642	118.88
375.868	143.88
376.094	138.88
376.319	140.88
376.545	137.88
376.771	148.88
376.997	145.88
377.222	117.88
377.448	112.88
377.674	98.88
377.899	117.88
378.125	112.88
378.35	126.88
378.576	100.88
378.802	116.88
379.027	124.88
379.253	138.88
379.478	122.88
379.704	112.88
379.929	126.88
380.155	120.88
380.38	139.88
380.606	131.88
380.831	131.88
381.057	126.88
381.282	126.88
381.507	140.88
381.733	153.88
381.958	154.88
382.184	159.88
382.409	164.88
382.634	141.88
382.86	153.88
383.085	140.88
383.31	126.88
383.535	150.88
383.761	140.88
383.986	137.88
384.211	154.88
384.436	154.88
384.662	138.88
384.887	128.88
385.112	127.88
385.337	123.88
385.562	133.88
385.787	135.88
386.013	137.88
386.238	137.88
386.463	130.88
386.688	133.88
386.913	120.88
387.138	120.88
387.363	133.88
387.588	123.88
387.813	104.88
388.038	135.88
388.263	122.88
388.488	123.88
388.713	124.88
388.938	131.88
389.163	119.88
389.387	110.88
389.612	123.88
389.837	133.88
390.062	115.88
390.287	142.88
390.512	140.88
390.736	136.88
390.961	135.88
391.186	119.88
391.411	122.88
391.636	117.88
391.86	114.88
392.085	106.88
392.31	123.88
392.534	119.88
392.759	126.88
392.984	123.88
393.208	141.88
393.433	111.88
393.658	112.88
393.882	114.88
394.107	111.88
394.331	114.88
394.556	121.88
394.78	105.88
395.005	127.88
395.229	135.88
395.454	131.88
395.678	124.88
395.903	124.88
396.127	120.88
396.352	117.88
396.576	136.88
396.801	122.88
397.025	136.88
397.249	143.88
397.474	113.88
397.698	115.88
397.922	121.88
398.147	125.88
398.371	127.88
398.595	139.88
398.82	129.88
399.044	129.88
399.268	143.88
399.492	136.88
399.717	121.88
399.941	138.88
400.165	136.88
400.389	122.88
400.613	128.88
400.837	127.88
401.062	127.88
401.286	135.88
401.51	98.88
401.734	133.88
401.958	115.88
402.182	126.88
402.406	118.88
402.63	121.88
402.854	117.88
403.078	139.88
403.302	154.88
403.526	149.88
403.75	157.88
403.974	130.88
404.198	139.88
404.422	146.88
404.645	150.88
404.869	165.88
405.093	149.88
405.317	128.88
405.541	116.88
405.765	119.88
405.988	132.88
406.212	140.88
406.436	164.88
406.66	159.88
406.883	129.88
407.107	142.88
407.331	137.88
407.555	134.88
407.778	134.88
408.002	142.88
408.226	138.88
408.449	128.88
408.673	129.88
408.896	149.88
409.12	136.88
409.344	121.88
409.567	127.88
409.791	119.88
410.014	129.88
410.238	121.88
410.461	132.88
410.685	123.88
410.908	119.88
411.132	132.88
411.355	131.88
411.578	127.88
411.802	122.88
412.025	133.88
412.249	123.88
412.472	134.88
412.695	154.88
412.919	124.88
413.142	126.88
413.365	139.88
413.589	137.88
413.812	133.88
414.035	129.88
414.258	134.88
414.482	128.88
414.705	136.88
414.928	114.88
415.151	126.88
415.374	118.88
415.597	113.88
415.821	127.88
416.044	120.88
416.267	113.88
416.49	121.88
416.713	119.88
416.936	129.88
417.159	114.88
417.382	133.88
417.605	126.88
417.828	133.88
418.051	128.88
418.274	139.88
418.497	138.88
418.72	129.88
418.943	143.88
419.166	135.88
419.389	137.88
419.611	131.88
419.834	134.88
420.057	126.88
420.28	135.88
420.503	132.88
420.726	139.88
420.948	129.88
421.171	134.88
421.394	118.88
421.617	110.88
421.839	110.88
422.062	137.88
422.285	131.88
422.507	136.88
422.73	133.88
422.953	125.88
423.175	118.88
423.398	127.88
423.621	132.88
423.843	137.88
424.066	127.88
424.288	125.88
424.511	121.88
424.733	115.88
424.956	125.88
425.178	136.88
425.401	156.88
425.623	172.88
425.846	151.88
426.068	154.88
426.291	147.88
426.513	138.88
426.735	121.88
426.958	128.88
427.18	140.88
427.402	164.88
427.625	163.88
427.847	143.88
428.069	116.88
428.292	148.88
428.514	123.88
428.736	115.88
428.958	126.88
429.181	143.88
429.403	129.88
429.625	121.88
429.847	123.88
430.069	118.88
430.292	129.88
430.514	113.88
430.736	120.88
430.958	141.88
431.18	136.88
431.402	114.88
431.624	123.88
431.846	117.88
432.068	125.88
432.29	135.88
432.512	122.88
432.734	133.88
432.956	127.88
433.178	122.88
433.4	128.88
433.622	118.88
433.844	127.88
434.066	125.88
434.287	130.88
434.509	138.88
434.731	127.88
434.953	120.88
435.175	125.88
435.397	136.88
435.618	127.88
435.84	133.88
436.062	123.88
436.284	116.88
436.505	133.88
436.727	127.88
436.949	113.88
437.17	122.88
437.392	124.88
437.614	119.88
437.835	125.88
438.057	123.88
438.278	129.88
438.5	157.88
438.721	152.88
438.943	131.88
439.165	118.88
439.386	128.88
439.608	131.88
439.829	118.88
440.05	136.88
440.272	113.88
440.493	125.88
440.715	131.88
440.936	129.88
441.158	131.88
441.379	110.88
441.6	149.88
441.822	139.88
442.043	103.88
442.264	108.88
442.486	141.88
442.707	127.88
442.928	127.88
443.149	138.88
443.371	116.88
443.592	121.88
443.813	133.88
444.034	119.88
444.255	128.88
444.476	136.88
444.698	120.88
444.919	119.88
445.14	257.88
445.361	187.88
445.582	138.88
445.803	127.88
446.024	131.88
446.245	137.88
446.466	139.88
446.687	119.88
446.908	130.88
447.129	118.88
447.35	114.88
447.571	111.88
447.792	101.88
448.013	109.88
448.234	120.88
448.455	108.88
448.675	117.88
448.896	124.88
449.117	123.88
449.338	116.88
449.559	109.88
449.779	123.88
450	135.88
450.221	123.88
450.442	116.88
450.662	112.88
450.883	113.88
451.104	113.88
451.324	116.88
451.545	115.88
451.766	119.88
451.986	135.88
452.207	121.88
452.428	125.88
452.648	116.88
452.869	123.88
453.089	121.88
453.31	138.88
453.53	123.88
453.751	119.88
453.971	116.88
454.192	117.88
454.412	125.88
454.633	120.88
454.853	107.88
455.073	107.88
455.294	115.88
455.514	113.88
455.734	116.88
455.955	146.88
456.175	119.88
456.395	118.88
456.616	109.88
456.836	112.88
457.056	113.88
457.276	117.88
457.497	110.88
457.717	111.88
457.937	103.88
458.157	132.88
458.377	119.88
458.598	122.88
458.818	116.88
459.038	117.88
459.258	114.88
459.478	117.88
459.698	123.88
459.918	123.88
460.138	118.88
460.358	123.88
460.578	113.88
460.798	139.88
461.018	130.88
461.238	130.88
461.458	127.88
461.678	129.88
461.898	123.88
462.118	131.88
462.338	121.88
462.558	128.88
462.777	135.88
462.997	124.88
463.217	133.88
463.437	138.88
463.657	133.88
463.876	134.88
464.096	121.88
464.316	118.88
464.536	123.88
464.755	117.88
464.975	123.88
465.195	135.88
465.414	136.88
465.634	131.88
465.854	120.88
466.073	116.88
466.293	122.88
466.512	124.88
466.732	136.88
466.951	137.88
467.171	134.88
467.391	130.88
467.61	121.88
467.829	106.88
468.049	120.88
468.268	122.88
468.488	114.88
468.707	124.88
468.927	135.88
469.146	145.88
469.365	136.88
469.585	128.88
469.804	131.88
470.023	134.88
470.243	138.88
470.462	113.88
470.681	118.88
470.901	121.88
471.12	127.88
471.339	121.88
471.558	119.88
471.777	133.88
471.997	134.88
472.216	142.88
472.435	131.88
472.654	123.88
472.873	132.88
473.092	132.88
473.311	137.88
473.53	138.88
473.749	123.88
473.968	133.88
474.187	123.88
474.406	123.88
474.625	118.88
474.844	125.88
475.063	130.88
475.282	138.88
475.501	141.88
475.72	157.88
475.939	137.88
476.158	130.88
476.377	165.88
476.596	159.88
476.814	158.88
477.033	134.88
477.252	129.88
477.471	123.88
477.69	144.88
477.908	115.88
478.127	139.88
478.346	121.88
478.564	156.88
478.783	145.88
479.002	131.88
479.22	146.88
479.439	161.88
479.658	140.88
479.876	136.88
480.095	140.88
480.313	140.88
480.532	131.88
480.751	126.88
480.969	130.88
481.188	141.88
481.406	144.88
481.624	158.88
481.843	142.88
482.061	130.88
482.28	142.88
482.498	177.88
482.717	162.88
482.935	140.88
483.153	129.88
483.372	141.88
483.59	129.88
483.808	129.88
484.027	141.88
484.245	133.88
484.463	126.88
484.681	153.88
484.9	136.88
485.118	145.88
485.336	154.88
485.554	127.88
485.772	131.88
485.99	143.88
486.209	146.88
486.427	150.88
486.645	149.88
486.863	145.88
487.081	144.88
487.299	166.88
487.517	147.88
487.735	134.88
487.953	146.88
488.171	135.88
488.389	136.88
488.607	133.88
488.825	158.88
489.043	155.88
489.261	162.88
489.479	171.88
489.696	137.88
489.914	136.88
490.132	143.88
490.35	138.88
490.568	121.88
490.786	136.88
491.003	142.88
491.221	127.88
491.439	139.88
491.657	147.88
491.874	150.88
492.092	150.88
492.31	177.88
492.527	175.88
492.745	157.88
492.963	147.88
493.18	151.88
493.398	147.88
493.615	143.88
493.833	132.88
494.05	139.88
494.268	154.88
494.485	145.88
494.703	136.88
494.92	143.88
495.138	129.88
495.355	135.88
495.573	134.88
495.79	157.88
496.008	187.88
496.225	162.88
496.442	154.88
496.66	153.88
496.877	157.88
497.094	147.88
497.312	158.88
497.529	148.88
497.746	157.88
497.963	158.88
498.181	163.88
498.398	162.88
498.615	164.88
498.832	173.88
499.049	166.88
499.267	141.88
499.484	161.88
499.701	165.88
499.918	185.88
500.135	178.88
500.352	167.88
500.569	191.88
500.786	189.88
501.003	200.88
501.22	179.88
501.437	175.88
501.654	179.88
501.871	172.88
502.088	173.88
502.305	164.88
502.522	166.88
502.739	157.88
502.956	149.88
503.172	141.88
