Data from NickelSpatula_HRD10591_16-35-53-126.txt Node
Date: Mon Jul 22 16:35:53 EDT 2019
User: cochatt
Spectrometer: HR+D1059
Trigger mode: 1
Integration Time (sec): 1.000000E-1
Scans to average: 1
Electric dark correction enabled: true
Nonlinearity correction enabled: false
Boxcar width: 0
XAxis mode: Wavelengths
Number of Pixels in Spectrum: 2048
>>>>>Begin Spectral Data<<<<<
223.165	-13
223.4	-13
223.635	-13
223.869	-11
224.104	-22
224.338	-21
224.573	-20
224.808	-16
225.042	-20
225.277	4
225.511	-6
225.746	10
225.98	12
226.215	12
226.449	10
226.683	14
226.918	24
227.152	43
227.387	32
227.621	45
227.856	30
228.09	38
228.324	35
228.559	51
228.793	57
229.027	80
229.262	64
229.496	82
229.73	74
229.964	89
230.199	92
230.433	90
230.667	84
230.901	81
231.136	97
231.37	85
231.604	95
231.838	105
232.072	96
232.306	95
232.541	95
232.775	97
233.009	93
233.243	99
233.477	92
233.711	121
233.945	98
234.179	99
234.413	108
234.647	97
234.881	108
235.115	107
235.349	115
235.583	97
235.817	101
236.051	115
236.285	103
236.519	115
236.753	125
236.987	113
237.221	118
237.455	113
237.689	112
237.922	120
238.156	115
238.39	129
238.624	153
238.858	127
239.091	117
239.325	119
239.559	119
239.793	120
240.027	135
240.26	126
240.494	125
240.728	130
240.961	129
241.195	121
241.429	133
241.662	123
241.896	121
242.13	119
242.363	112
242.597	109
242.83	123
243.064	123
243.298	121
243.531	124
243.765	130
243.998	129
244.232	132
244.465	132
244.699	120
244.932	142
245.166	146
245.399	115
245.633	125
245.866	143
246.099	125
246.333	137
246.566	147
246.8	159
247.033	148
247.266	137
247.5	136
247.733	131
247.966	133
248.2	141
248.433	139
248.666	137
248.899	140
249.133	157
249.366	168
249.599	179
249.832	153
250.066	141
250.299	151
250.532	152
250.765	136
250.998	135
251.231	127
251.465	152
251.698	163
251.931	145
252.164	154
252.397	160
252.63	174
252.863	177
253.096	185
253.329	200
253.562	182
253.795	205
254.028	205
254.261	213
254.494	202
254.727	191
254.96	178
255.193	182
255.426	186
255.659	159
255.892	132
256.124	148
256.357	184
256.59	177
256.823	172
257.056	180
257.289	167
257.521	163
257.754	196
257.987	198
258.22	202
258.452	155
258.685	176
258.918	181
259.151	186
259.383	209
259.616	206
259.849	227
260.081	237
260.314	253
260.547	208
260.779	191
261.012	225
261.244	228
261.477	242
261.71	213
261.942	203
262.175	203
262.407	194
262.64	203
262.872	210
263.105	234
263.337	217
263.57	195
263.802	165
264.035	155
264.267	155
264.499	134
264.732	123
264.964	119
265.197	141
265.429	147
265.661	151
265.894	151
266.126	159
266.358	172
266.591	193
266.823	208
267.055	222
267.287	181
267.52	194
267.752	195
267.984	210
268.216	201
268.448	177
268.681	171
268.913	185
269.145	191
269.377	215
269.609	199
269.841	196
270.073	183
270.306	198
270.538	209
270.77	211
271.002	189
271.234	204
271.466	212
271.698	203
271.93	207
272.162	215
272.394	217
272.626	199
272.858	200
273.09	193
273.322	184
273.553	179
273.785	216
274.017	240
274.249	288
274.481	304
274.713	328
274.945	363
275.176	354
275.408	339
275.64	329
275.872	317
276.104	284
276.335	256
276.567	256
276.799	260
277.031	282
277.262	220
277.494	187
277.726	175
277.957	203
278.189	211
278.421	203
278.652	192
278.884	198
279.115	192
279.347	165
279.579	177
279.81	179
280.042	181
280.273	190
280.505	165
280.736	159
280.968	157
281.199	162
281.431	189
281.662	183
281.894	168
282.125	177
282.356	193
282.588	201
282.819	172
283.051	196
283.282	229
283.513	265
283.745	266
283.976	277
284.207	265
284.439	259
284.67	257
284.901	246
285.132	261
285.364	267
285.595	221
285.826	251
286.057	256
286.288	260
286.52	233
286.751	276
286.982	259
287.213	229
287.444	228
287.675	240
287.906	239
288.138	220
288.369	194
288.6	180
288.831	193
289.062	220
289.293	230
289.524	212
289.755	226
289.986	215
290.217	207
290.448	167
290.679	155
290.91	155
291.141	150
291.371	136
291.602	147
291.833	164
292.064	149
292.295	171
292.526	193
292.757	213
292.987	227
293.218	204
293.449	225
293.68	217
293.91	187
294.141	215
294.372	216
294.603	190
294.833	227
295.064	257
295.295	213
295.525	189
295.756	179
295.987	157
296.217	149
296.448	172
296.679	167
296.909	181
297.14	185
297.37	199
297.601	189
297.831	172
298.062	179
298.292	205
298.523	205
298.753	249
298.984	212
299.214	177
299.445	168
299.675	145
299.905	159
300.136	175
300.366	175
300.597	176
300.827	155
301.057	151
301.288	156
301.518	163
301.748	177
301.979	177
302.209	180
302.439	202
302.669	195
302.9	175
303.13	164
303.36	177
303.59	157
303.82	159
304.051	163
304.281	179
304.511	197
304.741	176
304.971	174
305.201	166
305.431	176
305.661	160
305.891	156
306.121	146
306.352	153
306.582	140
306.812	142
307.042	134
307.272	133
307.502	148
307.731	148
307.961	136
308.191	141
308.421	141
308.651	140
308.881	123
309.111	125
309.341	135
309.571	152
309.8	143
310.03	138
310.26	143
310.49	149
310.72	133
310.949	131
311.179	157
311.409	159
311.639	161
311.868	208
312.098	214
312.328	257
312.557	229
312.787	236
313.017	227
313.246	240
313.476	253
313.706	211
313.935	180
314.165	163
314.394	151
314.624	134
314.853	161
315.083	164
315.312	147
315.542	167
315.771	139
316.001	130
316.23	120
316.46	146
316.689	129
316.919	136
317.148	134
317.377	132
317.607	133
317.836	146
318.065	152
318.295	167
318.524	154
318.753	157
318.983	152
319.212	145
319.441	142
319.67	151
319.9	156
320.129	170
320.358	151
320.587	154
320.816	142
321.046	152
321.275	181
321.504	180
321.733	154
321.962	180
322.191	175
322.42	159
322.649	185
322.878	179
323.108	177
323.337	159
323.566	155
323.795	166
324.024	156
324.253	152
324.482	149
324.71	149
324.939	160
325.168	155
325.397	141
325.626	149
325.855	136
326.084	144
326.313	132
326.542	144
326.77	149
326.999	128
327.228	137
327.457	140
327.686	166
327.914	137
328.143	133
328.372	135
328.6	125
328.829	129
329.058	138
329.287	140
329.515	146
329.744	137
329.972	148
330.201	131
330.43	137
330.658	154
330.887	147
331.115	154
331.344	155
331.572	157
331.801	133
332.03	121
332.258	141
332.486	149
332.715	138
332.943	137
333.172	129
333.4	151
333.629	151
333.857	173
334.085	163
334.314	158
334.542	167
334.771	138
334.999	150
335.227	155
335.455	139
335.684	146
335.912	168
336.14	176
336.369	183
336.597	175
336.825	188
337.053	211
337.281	180
337.51	151
337.738	151
337.966	147
338.194	173
338.422	164
338.65	149
338.878	135
339.106	139
339.334	139
339.562	151
339.79	136
340.018	138
340.246	148
340.474	164
340.702	167
340.93	175
341.158	172
341.386	157
341.614	157
341.842	163
342.07	165
342.298	183
342.526	191
342.754	160
342.981	160
343.209	154
343.437	163
343.665	167
343.893	172
344.12	190
344.348	199
344.576	194
344.804	183
345.031	159
345.259	133
345.487	147
345.714	148
345.942	149
346.17	160
346.397	151
346.625	146
346.853	138
347.08	145
347.308	146
347.535	166
347.763	165
347.99	163
348.218	146
348.445	158
348.673	148
348.9	159
349.128	141
349.355	165
349.583	154
349.81	160
350.037	149
350.265	146
350.492	119
350.72	132
350.947	147
351.174	145
351.402	144
351.629	140
351.856	147
352.083	138
352.311	165
352.538	167
352.765	160
352.992	147
353.22	166
353.447	160
353.674	155
353.901	153
354.128	157
354.355	153
354.583	152
354.81	149
355.037	151
355.264	151
355.491	164
355.718	185
355.945	163
356.172	156
356.399	133
356.626	178
356.853	206
357.08	227
357.307	221
357.534	198
357.761	193
357.988	231
358.215	247
358.441	235
358.668	202
358.895	199
359.122	168
359.349	171
359.576	186
359.802	160
360.029	147
360.256	158
360.483	179
360.709	205
360.936	209
361.163	193
361.39	153
361.616	149
361.843	168
362.07	201
362.296	170
362.523	159
362.749	139
362.976	145
363.203	180
363.429	176
363.656	167
363.882	157
364.109	156
364.335	163
364.562	155
364.788	147
365.015	173
365.241	147
365.468	146
365.694	134
365.92	140
366.147	119
366.373	120
366.599	128
366.826	144
367.052	133
367.278	149
367.505	133
367.731	147
367.957	140
368.184	156
368.41	157
368.636	168
368.862	163
369.089	155
369.315	146
369.541	142
369.767	135
369.993	134
370.219	136
370.445	139
370.672	159
370.898	177
371.124	160
371.35	142
371.576	150
371.802	142
372.028	151
372.254	180
372.48	160
372.706	154
372.932	152
373.158	167
373.384	191
373.61	229
373.835	224
374.061	188
374.287	181
374.513	183
374.739	201
374.965	211
375.191	223
375.416	173
375.642	154
375.868	169
376.094	180
376.319	144
376.545	163
376.771	181
376.997	167
377.222	129
377.448	132
377.674	137
377.899	113
378.125	112
378.35	132
378.576	134
378.802	142
379.027	133
379.253	148
379.478	143
379.704	148
379.929	160
380.155	155
380.38	137
380.606	164
380.831	160
381.057	161
381.282	134
381.507	172
381.733	213
381.958	203
382.184	207
382.409	211
382.634	226
382.86	218
383.085	197
383.31	161
383.535	179
383.761	182
383.986	170
384.211	197
384.436	173
384.662	158
384.887	156
385.112	169
385.337	164
385.562	155
385.787	182
386.013	165
386.238	183
386.463	149
386.688	162
386.913	138
387.138	151
387.363	149
387.588	161
387.813	147
388.038	167
388.263	170
388.488	156
388.713	164
388.938	175
389.163	161
389.387	156
389.612	157
389.837	148
390.062	169
390.287	147
390.512	152
390.736	165
390.961	140
391.186	136
391.411	150
391.636	142
391.86	154
392.085	139
392.31	162
392.534	148
392.759	167
392.984	155
393.208	149
393.433	149
393.658	130
393.882	137
394.107	133
394.331	123
394.556	133
394.78	125
395.005	136
395.229	131
395.454	164
395.678	141
395.903	143
396.127	145
396.352	153
396.576	159
396.801	149
397.025	147
397.249	150
397.474	132
397.698	147
397.922	177
398.147	134
398.371	149
398.595	147
398.82	162
399.044	135
399.268	147
399.492	172
399.717	171
399.941	177
400.165	167
400.389	147
400.613	153
400.837	160
401.062	142
401.286	149
401.51	152
401.734	151
401.958	160
402.182	127
402.406	149
402.63	149
402.854	147
403.078	155
403.302	209
403.526	192
403.75	181
403.974	150
404.198	185
404.422	188
404.645	201
404.869	207
405.093	169
405.317	155
405.541	161
405.765	160
405.988	149
406.212	159
406.436	195
406.66	180
406.883	163
407.107	147
407.331	190
407.555	163
407.778	175
408.002	175
408.226	159
408.449	182
408.673	171
408.896	151
409.12	136
409.344	147
409.567	151
409.791	140
410.014	151
410.238	149
410.461	127
410.685	142
410.908	147
411.132	145
411.355	161
411.578	146
411.802	161
412.025	143
412.249	157
412.472	147
412.695	147
412.919	155
413.142	171
413.365	169
413.589	162
413.812	159
414.035	160
414.258	160
414.482	161
414.705	162
414.928	140
415.151	149
415.374	147
415.597	155
415.821	154
416.044	137
416.267	135
416.49	145
416.713	129
416.936	143
417.159	149
417.382	144
417.605	137
417.828	156
418.051	140
418.274	155
418.497	161
418.72	148
418.943	154
419.166	155
419.389	145
419.611	143
419.834	160
420.057	162
420.28	169
420.503	152
420.726	141
420.948	141
421.171	155
421.394	141
421.617	135
421.839	133
422.062	145
422.285	137
422.507	149
422.73	146
422.953	152
423.175	158
423.398	139
423.621	151
423.843	173
424.066	159
424.288	143
424.511	146
424.733	155
424.956	150
425.178	159
425.401	199
425.623	217
425.846	178
426.068	173
426.291	175
426.513	150
426.735	157
426.958	164
427.18	181
427.402	232
427.625	211
427.847	177
428.069	157
428.292	153
428.514	152
428.736	146
428.958	152
429.181	182
429.403	160
429.625	144
429.847	140
430.069	150
430.292	147
430.514	155
430.736	144
430.958	186
431.18	154
431.402	140
431.624	146
431.846	133
432.068	128
432.29	151
432.512	152
432.734	185
432.956	176
433.178	144
433.4	124
433.622	136
433.844	153
434.066	168
434.287	145
434.509	149
434.731	139
434.953	153
435.175	161
435.397	169
435.618	151
435.84	138
436.062	165
436.284	149
436.505	142
436.727	125
436.949	129
437.17	125
437.392	140
437.614	145
437.835	140
438.057	151
438.278	158
438.5	197
438.721	181
438.943	162
439.165	144
439.386	137
439.608	132
439.829	137
440.05	132
440.272	141
440.493	159
440.715	187
440.936	165
441.158	151
441.379	155
441.6	162
441.822	179
442.043	154
442.264	135
442.486	145
442.707	132
442.928	147
443.149	142
443.371	155
443.592	151
443.813	158
444.034	154
444.255	154
444.476	148
444.698	154
444.919	149
445.14	279
445.361	216
445.582	155
445.803	158
446.024	177
446.245	155
446.466	164
446.687	155
446.908	165
447.129	151
447.35	139
447.571	125
447.792	130
448.013	136
448.234	131
448.455	137
448.675	131
448.896	150
449.117	140
449.338	135
449.559	134
449.779	157
450	175
450.221	150
450.442	142
450.662	140
450.883	137
451.104	145
451.324	160
451.545	142
451.766	136
451.986	138
452.207	140
452.428	139
452.648	142
452.869	148
453.089	150
453.31	147
453.53	133
453.751	138
453.971	135
454.192	138
454.412	149
454.633	124
454.853	139
455.073	139
455.294	132
455.514	128
455.734	144
455.955	139
456.175	135
456.395	128
456.616	135
456.836	123
457.056	145
457.276	127
457.497	131
457.717	150
457.937	129
458.157	141
458.377	128
458.598	135
458.818	144
459.038	147
459.258	149
459.478	130
459.698	156
459.918	151
460.138	137
460.358	139
460.578	128
460.798	135
461.018	140
461.238	149
461.458	143
461.678	167
461.898	154
462.118	164
462.338	159
462.558	152
462.777	147
462.997	158
463.217	161
463.437	180
463.657	163
463.876	150
464.096	129
464.316	147
464.536	156
464.755	155
464.975	165
465.195	166
465.414	160
465.634	154
465.854	151
466.073	144
466.293	130
466.512	176
466.732	171
466.951	175
467.171	163
467.391	154
467.61	144
467.829	155
468.049	147
468.268	153
468.488	138
468.707	149
468.927	156
469.146	177
469.365	179
469.585	166
469.804	179
470.023	170
470.243	156
470.462	162
470.681	147
470.901	151
471.12	171
471.339	160
471.558	163
471.777	142
471.997	155
472.216	163
472.435	156
472.654	168
472.873	149
473.092	169
473.311	164
473.53	154
473.749	156
473.968	161
474.187	159
474.406	162
474.625	147
474.844	156
475.063	163
475.282	176
475.501	173
475.72	188
475.939	167
476.158	166
476.377	186
476.596	195
476.814	218
477.033	193
477.252	161
477.471	170
477.69	183
477.908	166
478.127	181
478.346	172
478.564	193
478.783	172
479.002	175
479.22	190
479.439	190
479.658	191
479.876	176
480.095	175
480.313	174
480.532	184
480.751	152
480.969	172
481.188	190
481.406	195
481.624	168
481.843	157
482.061	179
482.28	185
482.498	199
482.717	210
482.935	185
483.153	178
483.372	175
483.59	154
483.808	162
484.027	164
484.245	151
484.463	143
484.681	154
484.9	154
485.118	191
485.336	136
485.554	151
485.772	155
485.99	174
486.209	197
486.427	192
486.645	177
486.863	183
487.081	181
487.299	218
487.517	205
487.735	177
487.953	184
488.171	199
488.389	200
488.607	176
488.825	177
489.043	197
489.261	203
489.479	204
489.696	189
489.914	177
490.132	160
490.35	182
490.568	163
490.786	173
491.003	167
491.221	167
491.439	159
491.657	163
491.874	167
492.092	225
492.31	252
492.527	264
492.745	212
492.963	195
493.18	178
493.398	201
493.615	183
493.833	187
494.05	190
494.268	178
494.485	193
494.703	186
494.92	185
495.138	172
495.355	180
495.573	179
495.79	185
496.008	259
496.225	224
496.442	191
496.66	187
496.877	192
497.094	184
497.312	204
497.529	194
497.746	195
497.963	172
498.181	205
498.398	214
498.615	225
498.832	222
499.049	216
499.267	217
499.484	206
499.701	211
499.918	230
500.135	265
500.352	271
500.569	269
500.786	276
501.003	261
501.22	247
501.437	242
501.654	215
501.871	208
502.088	202
502.305	215
502.522	192
502.739	183
502.956	199
503.172	184
503.389	185
503.606	191
503.823	191
504.04	193
504.256	180
504.473	186
504.69	188
504.907	186
505.123	206
505.34	198
505.557	202
505.773	198
505.99	196
506.207	195
506.423	180
506.64	183
506.856	192
507.073	199
507.289	202
507.506	195
507.722	213
507.939	205
508.155	194
508.372	201
508.588	181
508.805	181
509.021	179
509.238	171
509.454	173
509.67	185
509.887	191
510.103	187
510.319	195
510.536	181
510.752	173
510.968	165
511.184	169
511.401	180
511.617	167
511.833	168
512.049	172
512.265	172
512.481	169
512.698	191
512.914	195
513.13	181
513.346	189
513.562	177
513.778	188
513.994	171
514.21	182
514.426	204
514.642	181
514.858	159
515.074	175
515.29	184
515.506	211
515.721	191
515.937	199
516.153	181
516.369	172
516.585	196
516.801	205
517.016	247
517.232	218
517.448	205
517.664	205
517.879	191
518.095	187
518.311	196
518.527	195
518.742	196
518.958	207
519.173	195
519.389	211
519.605	216
519.82	226
520.036	225
520.251	224
520.467	245
520.682	360
520.898	409
521.113	403
521.329	249
521.544	211
521.76	218
521.975	187
522.19	200
522.406	197
522.621	196
522.836	210
523.052	229
523.267	195
523.482	200
523.698	218
523.913	220
524.128	181
524.343	165
524.559	190
524.774	182
524.989	200
525.204	187
525.419	223
525.634	182
525.849	186
526.064	189
526.28	193
526.495	219
526.71	243
526.925	228
527.14	225
527.355	217
527.57	187
527.785	186
527.999	182
528.214	161
528.429	187
528.644	173
528.859	173
529.074	176
529.289	164
529.503	162
529.718	170
529.933	205
530.148	212
530.363	175
530.577	163
530.792	168
531.007	171
531.221	149
531.436	161
531.651	155
531.865	165
532.08	166
532.295	167
532.509	172
532.724	195
532.938	209
533.153	243
533.367	186
533.582	177
533.796	181
534.011	165
534.225	183
534.44	185
534.654	182
534.868	213
535.083	187
535.297	151
535.511	160
535.726	168
535.94	165
536.154	169
536.369	159
536.583	181
536.797	188
537.011	177
537.225	192
537.44	196
537.654	169
537.868	148
538.082	172
538.296	160
538.51	184
538.724	172
538.938	166
539.153	160
539.367	154
539.581	169
539.795	179
540.009	189
540.222	170
540.436	177
540.65	198
540.864	188
541.078	205
541.292	234
541.506	172
541.72	176
541.934	159
542.147	168
542.361	166
542.575	185
542.789	165
543.002	159
543.216	163
543.43	169
543.644	181
543.857	161
544.071	147
544.285	153
544.498	153
544.712	168
544.925	178
545.139	161
545.352	177
545.566	166
545.779	175
545.993	154
546.206	166
546.42	148
546.633	161
546.847	146
547.06	168
547.274	164
547.487	154
547.7	157
547.914	163
548.127	182
548.34	161
548.554	157
548.767	162
548.98	164
549.193	149
549.407	150
549.62	194
549.833	191
550.046	167
550.259	183
550.473	172
550.686	167
550.899	161
551.112	163
551.325	165
551.538	184
551.751	176
551.964	160
552.177	164
552.39	170
552.603	147
552.816	155
553.029	163
553.242	150
553.455	159
553.667	180
553.88	168
554.093	155
554.306	140
554.519	150
554.732	142
554.944	160
555.157	151
555.37	135
555.583	139
555.795	145
556.008	147
556.221	148
556.433	141
556.646	144
556.859	150
557.071	139
557.284	163
557.496	165
557.709	153
557.921	153
558.134	134
558.346	143
558.559	145
558.771	135
558.984	138
559.196	155
559.409	132
559.621	139
559.833	138
560.046	136
560.258	145
560.47	143
560.683	147
560.895	123
561.107	140
561.32	132
561.532	146
561.744	152
561.956	147
562.168	153
562.381	139
562.593	140
562.805	147
563.017	133
563.229	131
563.441	128
563.653	143
563.865	131
564.077	136
564.289	155
564.501	146
