Data from NickelSpatula.Lamp.E5.5.P2_HRD10591_11-52-56-551.txt Node
Date: Tue Jul 23 11:52:56 EDT 2019
User: cochatt
Spectrometer: HR+D1059
Trigger mode: 1
Integration Time (sec): 1.000000E-1
Scans to average: 1
Electric dark correction enabled: true
Nonlinearity correction enabled: false
Boxcar width: 0
XAxis mode: Wavelengths
Number of Pixels in Spectrum: 2048
>>>>>Begin Spectral Data<<<<<
223.165	-28.75
223.4	-28.75
223.635	-28.75
223.869	-13.75
224.104	-26.75
224.338	-13.75
224.573	2.25
224.808	0.25
225.042	-28.75
225.277	-1.75
225.511	2.25
225.746	-3.75
225.98	12.25
226.215	15.25
226.449	15.25
226.683	25.25
226.918	27.25
227.152	17.25
227.387	45.25
227.621	45.25
227.856	47.25
228.09	45.25
228.324	44.25
228.559	51.25
228.793	50.25
229.027	76.25
229.262	75.25
229.496	76.25
229.73	77.25
229.964	82.25
230.199	83.25
230.433	91.25
230.667	112.25
230.901	92.25
231.136	96.25
231.37	83.25
231.604	86.25
231.838	97.25
232.072	108.25
232.306	105.25
232.541	114.25
232.775	111.25
233.009	108.25
233.243	115.25
233.477	105.25
233.711	119.25
233.945	128.25
234.179	96.25
234.413	103.25
234.647	127.25
234.881	123.25
235.115	135.25
235.349	123.25
235.583	105.25
235.817	121.25
236.051	125.25
236.285	132.25
236.519	119.25
236.753	133.25
236.987	128.25
237.221	119.25
237.455	116.25
237.689	132.25
237.922	120.25
238.156	127.25
238.39	119.25
238.624	164.25
238.858	164.25
239.091	136.25
239.325	160.25
239.559	132.25
239.793	151.25
240.027	183.25
240.26	153.25
240.494	158.25
240.728	154.25
240.961	175.25
241.195	175.25
241.429	159.25
241.662	145.25
241.896	127.25
242.13	136.25
242.363	132.25
242.597	124.25
242.83	135.25
243.064	128.25
243.298	171.25
243.531	161.25
243.765	172.25
243.998	169.25
244.232	157.25
244.465	157.25
244.699	155.25
244.932	152.25
245.166	168.25
245.399	159.25
245.633	160.25
245.866	149.25
246.099	151.25
246.333	181.25
246.566	190.25
246.8	187.25
247.033	178.25
247.266	174.25
247.5	189.25
247.733	166.25
247.966	180.25
248.2	157.25
248.433	165.25
248.666	190.25
248.899	191.25
249.133	186.25
249.366	207.25
249.599	237.25
249.832	208.25
250.066	179.25
250.299	192.25
250.532	187.25
250.765	191.25
250.998	182.25
251.231	161.25
251.465	191.25
251.698	196.25
251.931	196.25
252.164	189.25
252.397	221.25
252.63	227.25
252.863	249.25
253.096	253.25
253.329	255.25
253.562	240.25
253.795	261.25
254.028	271.25
254.261	301.25
254.494	262.25
254.727	240.25
254.96	223.25
255.193	263.25
255.426	254.25
255.659	189.25
255.892	193.25
256.124	221.25
256.357	230.25
256.59	285.25
256.823	256.25
257.056	229.25
257.289	198.25
257.521	223.25
257.754	243.25
257.987	283.25
258.22	261.25
258.452	231.25
258.685	253.25
258.918	281.25
259.151	275.25
259.383	289.25
259.616	343.25
259.849	340.25
260.081	348.25
260.314	371.25
260.547	304.25
260.779	299.25
261.012	363.25
261.244	319.25
261.477	337.25
261.71	315.25
261.942	275.25
262.175	281.25
262.407	266.25
262.64	264.25
262.872	311.25
263.105	354.25
263.337	365.25
263.57	317.25
263.802	228.25
264.035	213.25
264.267	213.25
264.499	200.25
264.732	180.25
264.964	167.25
265.197	157.25
265.429	180.25
265.661	203.25
265.894	205.25
266.126	210.25
266.358	240.25
266.591	273.25
266.823	313.25
267.055	300.25
267.287	275.25
267.52	261.25
267.752	313.25
267.984	327.25
268.216	312.25
268.448	273.25
268.681	235.25
268.913	261.25
269.145	283.25
269.377	278.25
269.609	291.25
269.841	272.25
270.073	283.25
270.306	297.25
270.538	298.25
270.77	315.25
271.002	324.25
271.234	321.25
271.466	322.25
271.698	299.25
271.93	267.25
272.162	312.25
272.394	286.25
272.626	286.25
272.858	304.25
273.09	272.25
273.322	257.25
273.553	244.25
273.785	280.25
274.017	365.25
274.249	446.25
274.481	480.25
274.713	499.25
274.945	559.25
275.176	593.25
275.408	548.25
275.64	494.25
275.872	492.25
276.104	423.25
276.335	375.25
276.567	363.25
276.799	379.25
277.031	406.25
277.262	332.25
277.494	261.25
277.726	268.25
277.957	263.25
278.189	307.25
278.421	305.25
278.652	302.25
278.884	296.25
279.115	277.25
279.347	252.25
279.579	256.25
279.81	283.25
280.042	271.25
280.273	280.25
280.505	261.25
280.736	249.25
280.968	231.25
281.199	256.25
281.431	275.25
281.662	275.25
281.894	273.25
282.125	261.25
282.356	280.25
282.588	301.25
282.819	265.25
283.051	296.25
283.282	347.25
283.513	382.25
283.745	427.25
283.976	397.25
284.207	409.25
284.439	403.25
284.67	388.25
284.901	351.25
285.132	379.25
285.364	392.25
285.595	387.25
285.826	393.25
286.057	399.25
286.288	384.25
286.52	406.25
286.751	422.25
286.982	428.25
287.213	352.25
287.444	344.25
287.675	384.25
287.906	385.25
288.138	313.25
288.369	309.25
288.6	278.25
288.831	293.25
289.062	363.25
289.293	369.25
289.524	343.25
289.755	340.25
289.986	345.25
290.217	313.25
290.448	259.25
290.679	228.25
290.91	223.25
291.141	228.25
291.371	229.25
291.602	232.25
291.833	225.25
292.064	215.25
292.295	288.25
292.526	287.25
292.757	294.25
292.987	327.25
293.218	339.25
293.449	346.25
293.68	355.25
293.91	335.25
294.141	367.25
294.372	323.25
294.603	291.25
294.833	324.25
295.064	390.25
295.295	376.25
295.525	296.25
295.756	251.25
295.987	215.25
296.217	215.25
296.448	238.25
296.679	236.25
296.909	270.25
297.14	282.25
297.37	290.25
297.601	286.25
297.831	263.25
298.062	272.25
298.292	294.25
298.523	310.25
298.753	339.25
298.984	319.25
299.214	274.25
299.445	242.25
299.675	226.25
299.905	230.25
300.136	255.25
300.366	252.25
300.597	230.25
300.827	222.25
301.057	215.25
301.288	230.25
301.518	255.25
301.748	264.25
301.979	292.25
302.209	286.25
302.439	324.25
302.669	274.25
302.9	275.25
303.13	237.25
303.36	256.25
303.59	243.25
303.82	243.25
304.051	270.25
304.281	284.25
304.511	285.25
304.741	236.25
304.971	257.25
305.201	299.25
305.431	269.25
305.661	257.25
305.891	237.25
306.121	243.25
306.352	228.25
306.582	206.25
306.812	191.25
307.042	203.25
307.272	214.25
307.502	189.25
307.731	201.25
307.961	208.25
308.191	192.25
308.421	205.25
308.651	203.25
308.881	172.25
309.111	179.25
309.341	189.25
309.571	221.25
309.8	213.25
310.03	215.25
310.26	220.25
310.49	199.25
310.72	198.25
310.949	203.25
311.179	192.25
311.409	210.25
311.639	215.25
311.868	272.25
312.098	377.25
312.328	383.25
312.557	372.25
312.787	377.25
313.017	329.25
313.246	362.25
313.476	395.25
313.706	334.25
313.935	263.25
314.165	238.25
314.394	235.25
314.624	206.25
314.853	221.25
315.083	235.25
315.312	246.25
315.542	224.25
315.771	230.25
316.001	214.25
316.23	190.25
316.46	210.25
316.689	192.25
316.919	199.25
317.148	200.25
317.377	190.25
317.607	198.25
317.836	209.25
318.065	209.25
318.295	244.25
318.524	225.25
318.753	207.25
318.983	223.25
319.212	224.25
319.441	222.25
319.67	245.25
319.9	229.25
320.129	255.25
320.358	239.25
320.587	220.25
320.816	212.25
321.046	231.25
321.275	254.25
321.504	265.25
321.733	273.25
321.962	235.25
322.191	231.25
322.42	247.25
322.649	234.25
322.878	248.25
323.108	258.25
323.337	225.25
323.566	231.25
323.795	235.25
324.024	229.25
324.253	237.25
324.482	221.25
324.71	243.25
324.939	276.25
325.168	257.25
325.397	216.25
325.626	215.25
325.855	214.25
326.084	220.25
326.313	202.25
326.542	191.25
326.77	194.25
326.999	221.25
327.228	207.25
327.457	224.25
327.686	216.25
327.914	200.25
328.143	187.25
328.372	195.25
328.6	188.25
328.829	204.25
329.058	193.25
329.287	204.25
329.515	211.25
329.744	204.25
329.972	207.25
330.201	190.25
330.43	195.25
330.658	206.25
330.887	216.25
331.115	224.25
331.344	228.25
331.572	235.25
331.801	223.25
332.03	204.25
332.258	211.25
332.486	221.25
332.715	228.25
332.943	226.25
333.172	230.25
333.4	252.25
333.629	239.25
333.857	265.25
334.085	251.25
334.314	272.25
334.542	245.25
334.771	241.25
334.999	222.25
335.227	223.25
335.455	216.25
335.684	251.25
335.912	247.25
336.14	292.25
336.369	284.25
336.597	252.25
336.825	287.25
337.053	337.25
337.281	269.25
337.51	234.25
337.738	222.25
337.966	235.25
338.194	249.25
338.422	231.25
338.65	218.25
338.878	208.25
339.106	201.25
339.334	233.25
339.562	244.25
339.79	222.25
340.018	205.25
340.246	210.25
340.474	249.25
340.702	253.25
340.93	272.25
341.158	273.25
341.386	243.25
341.614	230.25
341.842	236.25
342.07	236.25
342.298	262.25
342.526	298.25
342.754	270.25
342.981	250.25
343.209	223.25
343.437	235.25
343.665	249.25
343.893	283.25
344.12	295.25
344.348	325.25
344.576	304.25
344.804	245.25
345.031	223.25
345.259	200.25
345.487	229.25
345.714	217.25
345.942	235.25
346.17	261.25
346.397	251.25
346.625	241.25
346.853	226.25
347.08	216.25
347.308	209.25
347.535	246.25
347.763	273.25
347.99	223.25
348.218	217.25
348.445	231.25
348.673	229.25
348.9	229.25
349.128	241.25
349.355	230.25
349.583	234.25
349.81	228.25
350.037	220.25
350.265	199.25
350.492	191.25
350.72	201.25
350.947	207.25
351.174	205.25
351.402	205.25
351.629	217.25
351.856	221.25
352.083	204.25
352.311	223.25
352.538	225.25
352.765	226.25
352.992	223.25
353.22	219.25
353.447	225.25
353.674	231.25
353.901	207.25
354.128	213.25
354.355	217.25
354.583	218.25
354.81	230.25
355.037	232.25
355.264	239.25
355.491	241.25
355.718	257.25
355.945	235.25
356.172	242.25
356.399	239.25
356.626	280.25
356.853	304.25
357.08	321.25
357.307	347.25
357.534	317.25
357.761	299.25
357.988	358.25
358.215	377.25
358.441	363.25
358.668	317.25
358.895	301.25
359.122	264.25
359.349	251.25
359.576	281.25
359.802	255.25
360.029	228.25
360.256	235.25
360.483	269.25
360.709	334.25
360.936	319.25
361.163	299.25
361.39	242.25
361.616	240.25
361.843	240.25
362.07	279.25
362.296	255.25
362.523	231.25
362.749	208.25
362.976	215.25
363.203	246.25
363.429	282.25
363.656	222.25
363.882	222.25
364.109	226.25
364.335	231.25
364.562	213.25
364.788	225.25
365.015	267.25
365.241	267.25
365.468	228.25
365.694	191.25
365.92	192.25
366.147	202.25
366.373	179.25
366.599	186.25
366.826	180.25
367.052	200.25
367.278	191.25
367.505	187.25
367.731	207.25
367.957	228.25
368.184	232.25
368.41	236.25
368.636	232.25
368.862	238.25
369.089	208.25
369.315	208.25
369.541	209.25
369.767	197.25
369.993	222.25
370.219	205.25
370.445	209.25
370.672	238.25
370.898	239.25
371.124	237.25
371.35	207.25
371.576	203.25
371.802	225.25
372.028	251.25
372.254	283.25
372.48	245.25
372.706	229.25
372.932	241.25
373.158	253.25
373.384	271.25
373.61	344.25
373.835	357.25
374.061	288.25
374.287	245.25
374.513	291.25
374.739	339.25
374.965	344.25
375.191	331.25
375.416	251.25
375.642	239.25
375.868	257.25
376.094	304.25
376.319	257.25
376.545	248.25
376.771	280.25
376.997	253.25
377.222	211.25
377.448	204.25
377.674	189.25
377.899	201.25
378.125	191.25
378.35	192.25
378.576	181.25
378.802	199.25
379.027	204.25
379.253	210.25
379.478	220.25
379.704	240.25
379.929	247.25
380.155	228.25
380.38	216.25
380.606	238.25
380.831	241.25
381.057	241.25
381.282	220.25
381.507	258.25
381.733	286.25
381.958	328.25
382.184	309.25
382.409	343.25
382.634	335.25
382.86	353.25
383.085	286.25
383.31	247.25
383.535	288.25
383.761	294.25
383.986	263.25
384.211	290.25
384.436	305.25
384.662	237.25
384.887	243.25
385.112	245.25
385.337	262.25
385.562	237.25
385.787	247.25
386.013	288.25
386.238	266.25
386.463	232.25
386.688	223.25
386.913	230.25
387.138	218.25
387.363	230.25
387.588	241.25
387.813	227.25
388.038	255.25
388.263	243.25
388.488	233.25
388.713	256.25
388.938	288.25
389.163	241.25
389.387	214.25
389.612	231.25
389.837	215.25
390.062	220.25
390.287	243.25
390.512	243.25
390.736	221.25
390.961	210.25
391.186	199.25
391.411	188.25
391.636	215.25
391.86	210.25
392.085	255.25
392.31	245.25
392.534	239.25
392.759	249.25
392.984	259.25
393.208	258.25
393.433	221.25
393.658	213.25
393.882	194.25
394.107	199.25
394.331	195.25
394.556	209.25
394.78	199.25
395.005	207.25
395.229	220.25
395.454	203.25
395.678	205.25
395.903	224.25
396.127	220.25
396.352	215.25
396.576	237.25
396.801	224.25
397.025	261.25
397.249	256.25
397.474	226.25
397.698	223.25
397.922	228.25
398.147	223.25
398.371	215.25
398.595	248.25
398.82	250.25
399.044	236.25
399.268	256.25
399.492	277.25
399.717	279.25
399.941	307.25
400.165	260.25
400.389	241.25
400.613	258.25
400.837	241.25
401.062	224.25
401.286	239.25
401.51	225.25
401.734	228.25
401.958	235.25
402.182	230.25
402.406	242.25
402.63	241.25
402.854	239.25
403.078	297.25
403.302	356.25
403.526	365.25
403.75	333.25
403.974	301.25
404.198	294.25
404.422	300.25
404.645	321.25
404.869	367.25
405.093	285.25
405.317	257.25
405.541	268.25
405.765	277.25
405.988	248.25
406.212	259.25
406.436	293.25
406.66	306.25
406.883	260.25
407.107	296.25
407.331	301.25
407.555	296.25
407.778	279.25
408.002	266.25
408.226	264.25
408.449	257.25
408.673	252.25
408.896	243.25
409.12	218.25
409.344	255.25
409.567	232.25
409.791	242.25
410.014	250.25
410.238	223.25
410.461	232.25
410.685	227.25
410.908	248.25
411.132	242.25
411.355	235.25
411.578	249.25
411.802	246.25
412.025	235.25
412.249	248.25
412.472	220.25
412.695	228.25
412.919	219.25
413.142	224.25
413.365	229.25
413.589	257.25
413.812	229.25
414.035	227.25
414.258	235.25
414.482	235.25
414.705	255.25
414.928	217.25
415.151	216.25
415.374	212.25
415.597	235.25
415.821	226.25
416.044	220.25
416.267	235.25
416.49	231.25
416.713	219.25
416.936	219.25
417.159	204.25
417.382	216.25
417.605	235.25
417.828	227.25
418.051	217.25
418.274	229.25
418.497	252.25
418.72	235.25
418.943	244.25
419.166	262.25
419.389	247.25
419.611	243.25
419.834	252.25
420.057	252.25
420.28	265.25
420.503	229.25
420.726	222.25
420.948	222.25
421.171	219.25
421.394	214.25
421.617	239.25
421.839	215.25
422.062	233.25
422.285	216.25
422.507	243.25
422.73	226.25
422.953	236.25
423.175	239.25
423.398	237.25
423.621	244.25
423.843	253.25
424.066	247.25
424.288	227.25
424.511	243.25
424.733	241.25
424.956	235.25
425.178	244.25
425.401	284.25
425.623	325.25
425.846	280.25
426.068	251.25
426.291	271.25
426.513	221.25
426.735	228.25
426.958	251.25
427.18	266.25
427.402	320.25
427.625	335.25
427.847	305.25
428.069	245.25
428.292	229.25
428.514	247.25
428.736	229.25
428.958	255.25
429.181	291.25
429.403	252.25
429.625	240.25
429.847	228.25
430.069	225.25
430.292	223.25
430.514	215.25
430.736	232.25
430.958	277.25
431.18	261.25
431.402	218.25
431.624	187.25
431.846	209.25
432.068	217.25
432.29	207.25
432.512	244.25
432.734	277.25
432.956	271.25
433.178	213.25
433.4	221.25
433.622	235.25
433.844	220.25
434.066	245.25
434.287	242.25
434.509	237.25
434.731	260.25
434.953	242.25
435.175	237.25
435.397	263.25
435.618	242.25
435.84	216.25
436.062	215.25
436.284	231.25
436.505	209.25
436.727	210.25
436.949	195.25
437.17	223.25
437.392	220.25
437.614	225.25
437.835	198.25
438.057	217.25
438.278	220.25
438.5	304.25
438.721	313.25
438.943	226.25
439.165	213.25
439.386	200.25
439.608	191.25
439.829	213.25
440.05	203.25
440.272	203.25
440.493	224.25
440.715	269.25
440.936	251.25
441.158	226.25
441.379	237.25
441.6	243.25
441.822	249.25
442.043	232.25
442.264	228.25
442.486	230.25
442.707	225.25
442.928	214.25
443.149	224.25
443.371	221.25
443.592	239.25
443.813	245.25
444.034	224.25
444.255	231.25
444.476	252.25
444.698	233.25
444.919	263.25
445.14	369.25
445.361	301.25
445.582	246.25
445.803	227.25
446.024	229.25
446.245	239.25
446.466	233.25
446.687	223.25
446.908	223.25
447.129	209.25
447.35	208.25
447.571	208.25
447.792	226.25
448.013	218.25
448.234	193.25
448.455	208.25
448.675	199.25
448.896	208.25
449.117	216.25
449.338	210.25
449.559	216.25
449.779	210.25
450	212.25
450.221	214.25
450.442	224.25
450.662	195.25
450.883	218.25
451.104	225.25
451.324	201.25
451.545	206.25
451.766	213.25
451.986	193.25
452.207	190.25
452.428	196.25
452.648	202.25
452.869	212.25
453.089	217.25
453.31	225.25
453.53	223.25
453.751	189.25
453.971	196.25
454.192	206.25
454.412	217.25
454.633	208.25
454.853	199.25
455.073	200.25
455.294	209.25
455.514	196.25
455.734	199.25
455.955	212.25
456.175	219.25
456.395	182.25
456.616	187.25
456.836	181.25
457.056	198.25
457.276	197.25
457.497	192.25
457.717	187.25
457.937	185.25
458.157	201.25
458.377	188.25
458.598	196.25
458.818	207.25
459.038	220.25
459.258	217.25
459.478	199.25
459.698	226.25
459.918	216.25
460.138	226.25
460.358	235.25
460.578	225.25
460.798	243.25
461.018	239.25
461.238	222.25
461.458	223.25
461.678	234.25
461.898	253.25
462.118	249.25
462.338	255.25
462.558	260.25
462.777	263.25
462.997	282.25
463.217	283.25
463.437	285.25
463.657	277.25
463.876	270.25
464.096	263.25
464.316	277.25
464.536	274.25
464.755	276.25
464.975	277.25
465.195	256.25
465.414	264.25
465.634	248.25
465.854	239.25
466.073	223.25
466.293	223.25
466.512	254.25
466.732	240.25
466.951	259.25
467.171	231.25
467.391	218.25
467.61	211.25
467.829	241.25
468.049	229.25
468.268	225.25
468.488	221.25
468.707	222.25
468.927	239.25
469.146	280.25
469.365	260.25
469.585	214.25
469.804	244.25
470.023	257.25
470.243	248.25
470.462	236.25
470.681	244.25
470.901	241.25
471.12	232.25
471.339	244.25
471.558	211.25
471.777	224.25
471.997	232.25
472.216	273.25
472.435	272.25
472.654	239.25
472.873	226.25
473.092	233.25
473.311	253.25
473.53	223.25
473.749	230.25
473.968	221.25
474.187	243.25
474.406	220.25
474.625	217.25
474.844	216.25
475.063	241.25
475.282	253.25
475.501	252.25
475.72	271.25
475.939	288.25
476.158	261.25
476.377	294.25
476.596	331.25
476.814	333.25
477.033	296.25
477.252	259.25
477.471	230.25
477.69	249.25
477.908	272.25
478.127	285.25
478.346	257.25
478.564	296.25
478.783	248.25
479.002	261.25
479.22	292.25
479.439	309.25
479.658	289.25
479.876	267.25
480.095	296.25
480.313	293.25
480.532	279.25
480.751	285.25
480.969	263.25
481.188	286.25
481.406	300.25
481.624	265.25
481.843	269.25
482.061	247.25
482.28	265.25
482.498	343.25
482.717	329.25
482.935	264.25
483.153	277.25
483.372	230.25
483.59	240.25
483.808	256.25
484.027	241.25
484.245	227.25
484.463	245.25
484.681	253.25
484.9	253.25
485.118	275.25
485.336	267.25
485.554	235.25
485.772	252.25
485.99	277.25
486.209	290.25
486.427	287.25
486.645	255.25
486.863	294.25
487.081	289.25
487.299	307.25
487.517	301.25
487.735	287.25
487.953	285.25
488.171	285.25
488.389	276.25
488.607	247.25
488.825	271.25
489.043	274.25
489.261	320.25
489.479	316.25
489.696	286.25
489.914	261.25
490.132	259.25
490.35	262.25
490.568	240.25
490.786	244.25
491.003	260.25
491.221	274.25
491.439	262.25
491.657	240.25
491.874	265.25
492.092	321.25
492.31	352.25
492.527	347.25
492.745	316.25
492.963	288.25
493.18	275.25
493.398	308.25
493.615	292.25
493.833	271.25
494.05	283.25
494.268	279.25
494.485	274.25
494.703	266.25
494.92	279.25
495.138	263.25
495.355	268.25
495.573	293.25
495.79	313.25
496.008	366.25
496.225	315.25
496.442	295.25
496.66	289.25
496.877	294.25
497.094	280.25
497.312	279.25
497.529	309.25
497.746	294.25
497.963	295.25
498.181	306.25
498.398	335.25
498.615	343.25
498.832	382.25
499.049	379.25
499.267	365.25
499.484	385.25
499.701	398.25
499.918	433.25
500.135	505.25
500.352	509.25
500.569	534.25
500.786	559.25
501.003	531.25
501.22	480.25
501.437	445.25
501.654	405.25
501.871	369.25
502.088	356.25
502.305	340.25
502.522	343.25
