Data from NickelSpatula.Lamp.E5.5.P2_HRD10591_11-51-38-559.txt Node
Date: Tue Jul 23 11:51:38 EDT 2019
User: cochatt
Spectrometer: HR+D1059
Trigger mode: 1
Integration Time (sec): 1.000000E-1
Scans to average: 1
Electric dark correction enabled: true
Nonlinearity correction enabled: false
Boxcar width: 0
XAxis mode: Wavelengths
Number of Pixels in Spectrum: 2048
>>>>>Begin Spectral Data<<<<<
223.165	-15.25
223.4	-15.25
223.635	-15.25
223.869	-17.25
224.104	-21.25
224.338	-10.25
224.573	-13.25
224.808	-8.25
225.042	-9.25
225.277	-1.25
225.511	-6.25
225.746	8.75
225.98	-10.25
226.215	13.75
226.449	15.75
226.683	23.75
226.918	24.75
227.152	25.75
227.387	38.75
227.621	38.75
227.856	27.75
228.09	23.75
228.324	47.75
228.559	56.75
228.793	50.75
229.027	74.75
229.262	68.75
229.496	74.75
229.73	74.75
229.964	80.75
230.199	100.75
230.433	88.75
230.667	87.75
230.901	111.75
231.136	102.75
231.37	110.75
231.604	99.75
231.838	102.75
232.072	110.75
232.306	106.75
232.541	122.75
232.775	110.75
233.009	107.75
233.243	101.75
233.477	119.75
233.711	119.75
233.945	118.75
234.179	106.75
234.413	116.75
234.647	133.75
234.881	141.75
235.115	142.75
235.349	131.75
235.583	119.75
235.817	116.75
236.051	127.75
236.285	143.75
236.519	136.75
236.753	132.75
236.987	135.75
237.221	113.75
237.455	125.75
237.689	147.75
237.922	136.75
238.156	146.75
238.39	164.75
238.624	183.75
238.858	156.75
239.091	139.75
239.325	142.75
239.559	150.75
239.793	149.75
240.027	171.75
240.26	157.75
240.494	138.75
240.728	147.75
240.961	175.75
241.195	167.75
241.429	171.75
241.662	150.75
241.896	159.75
242.13	135.75
242.363	143.75
242.597	136.75
242.83	146.75
243.064	157.75
243.298	161.75
243.531	144.75
243.765	169.75
243.998	172.75
244.232	169.75
244.465	160.75
244.699	155.75
244.932	173.75
245.166	182.75
245.399	164.75
245.633	156.75
245.866	163.75
246.099	152.75
246.333	190.75
246.566	179.75
246.8	209.75
247.033	190.75
247.266	176.75
247.5	156.75
247.733	155.75
247.966	151.75
248.2	192.75
248.433	163.75
248.666	185.75
248.899	187.75
249.133	205.75
249.366	241.75
249.599	241.75
249.832	227.75
250.066	206.75
250.299	195.75
250.532	202.75
250.765	193.75
250.998	195.75
251.231	173.75
251.465	185.75
251.698	195.75
251.931	201.75
252.164	209.75
252.397	227.75
252.63	228.75
252.863	260.75
253.096	262.75
253.329	239.75
253.562	250.75
253.795	279.75
254.028	309.75
254.261	320.75
254.494	277.75
254.727	269.75
254.96	236.75
255.193	262.75
255.426	274.75
255.659	205.75
255.892	188.75
256.124	223.75
256.357	255.75
256.59	278.75
256.823	253.75
257.056	223.75
257.289	209.75
257.521	242.75
257.754	265.75
257.987	303.75
258.22	270.75
258.452	243.75
258.685	248.75
258.918	301.75
259.151	286.75
259.383	303.75
259.616	337.75
259.849	349.75
260.081	367.75
260.314	392.75
260.547	321.75
260.779	334.75
261.012	363.75
261.244	331.75
261.477	356.75
261.71	325.75
261.942	295.75
262.175	283.75
262.407	275.75
262.64	270.75
262.872	318.75
263.105	367.75
263.337	375.75
263.57	348.75
263.802	227.75
264.035	220.75
264.267	204.75
264.499	187.75
264.732	196.75
264.964	183.75
265.197	181.75
265.429	197.75
265.661	196.75
265.894	207.75
266.126	223.75
266.358	236.75
266.591	287.75
266.823	328.75
267.055	299.75
267.287	272.75
267.52	285.75
267.752	292.75
267.984	317.75
268.216	311.75
268.448	269.75
268.681	270.75
268.913	264.75
269.145	294.75
269.377	278.75
269.609	292.75
269.841	270.75
270.073	287.75
270.306	304.75
270.538	326.75
270.77	293.75
271.002	304.75
271.234	313.75
271.466	329.75
271.698	304.75
271.93	292.75
272.162	305.75
272.394	280.75
272.626	301.75
272.858	307.75
273.09	342.75
273.322	255.75
273.553	265.75
273.785	305.75
274.017	391.75
274.249	482.75
274.481	488.75
274.713	510.75
274.945	616.75
275.176	632.75
275.408	567.75
275.64	534.75
275.872	513.75
276.104	442.75
276.335	413.75
276.567	402.75
276.799	387.75
277.031	428.75
277.262	341.75
277.494	277.75
277.726	275.75
277.957	273.75
278.189	312.75
278.421	319.75
278.652	296.75
278.884	290.75
279.115	276.75
279.347	268.75
279.579	276.75
279.81	276.75
280.042	279.75
280.273	276.75
280.505	271.75
280.736	240.75
280.968	232.75
281.199	238.75
281.431	288.75
281.662	286.75
281.894	274.75
282.125	279.75
282.356	299.75
282.588	311.75
282.819	264.75
283.051	292.75
283.282	356.75
283.513	387.75
283.745	455.75
283.976	452.75
284.207	416.75
284.439	433.75
284.67	420.75
284.901	357.75
285.132	389.75
285.364	415.75
285.595	374.75
285.826	390.75
286.057	406.75
286.288	401.75
286.52	419.75
286.751	427.75
286.982	429.75
287.213	373.75
287.444	391.75
287.675	386.75
287.906	381.75
288.138	317.75
288.369	289.75
288.6	289.75
288.831	291.75
289.062	354.75
289.293	383.75
289.524	356.75
289.755	359.75
289.986	369.75
290.217	335.75
290.448	257.75
290.679	234.75
290.91	207.75
291.141	210.75
291.371	226.75
291.602	233.75
291.833	213.75
292.064	253.75
292.295	274.75
292.526	293.75
292.757	323.75
292.987	332.75
293.218	337.75
293.449	368.75
293.68	373.75
293.91	357.75
294.141	372.75
294.372	333.75
294.603	307.75
294.833	347.75
295.064	409.75
295.295	392.75
295.525	290.75
295.756	254.75
295.987	231.75
296.217	227.75
296.448	238.75
296.679	243.75
296.909	248.75
297.14	287.75
297.37	297.75
297.601	292.75
297.831	262.75
298.062	277.75
298.292	311.75
298.523	326.75
298.753	355.75
298.984	339.75
299.214	287.75
299.445	253.75
299.675	231.75
299.905	256.75
300.136	230.75
300.366	264.75
300.597	252.75
300.827	221.75
301.057	252.75
301.288	232.75
301.518	244.75
301.748	279.75
301.979	303.75
302.209	306.75
302.439	295.75
302.669	290.75
302.9	273.75
303.13	273.75
303.36	263.75
303.59	245.75
303.82	253.75
304.051	277.75
304.281	299.75
304.511	301.75
304.741	279.75
304.971	279.75
305.201	280.75
305.431	277.75
305.661	254.75
305.891	238.75
306.121	249.75
306.352	222.75
306.582	203.75
306.812	186.75
307.042	205.75
307.272	194.75
307.502	211.75
307.731	195.75
307.961	214.75
308.191	217.75
308.421	208.75
308.651	192.75
308.881	208.75
309.111	195.75
309.341	188.75
309.571	208.75
309.8	201.75
310.03	233.75
310.26	236.75
310.49	215.75
310.72	212.75
310.949	213.75
311.179	218.75
311.409	203.75
311.639	236.75
311.868	287.75
312.098	371.75
312.328	395.75
312.557	387.75
312.787	380.75
313.017	358.75
313.246	360.75
313.476	381.75
313.706	337.75
313.935	278.75
314.165	236.75
314.394	224.75
314.624	218.75
314.853	243.75
315.083	254.75
315.312	228.75
315.542	243.75
315.771	213.75
316.001	189.75
316.23	199.75
316.46	205.75
316.689	193.75
316.919	197.75
317.148	211.75
317.377	210.75
317.607	195.75
317.836	211.75
318.065	255.75
318.295	259.75
318.524	257.75
318.753	227.75
318.983	216.75
319.212	202.75
319.441	222.75
319.67	233.75
319.9	264.75
320.129	242.75
320.358	221.75
320.587	209.75
320.816	217.75
321.046	253.75
321.275	271.75
321.504	255.75
321.733	254.75
321.962	254.75
322.191	267.75
322.42	229.75
322.649	244.75
322.878	285.75
323.108	250.75
323.337	247.75
323.566	249.75
323.795	240.75
324.024	229.75
324.253	225.75
324.482	224.75
324.71	243.75
324.939	265.75
325.168	256.75
325.397	228.75
325.626	211.75
325.855	226.75
326.084	214.75
326.313	204.75
326.542	203.75
326.77	213.75
326.999	230.75
327.228	241.75
327.457	240.75
327.686	223.75
327.914	228.75
328.143	207.75
328.372	189.75
328.6	202.75
328.829	206.75
329.058	223.75
329.287	201.75
329.515	196.75
329.744	227.75
329.972	201.75
330.201	199.75
330.43	204.75
330.658	220.75
330.887	238.75
331.115	223.75
331.344	225.75
331.572	234.75
331.801	216.75
332.03	213.75
332.258	214.75
332.486	235.75
332.715	233.75
332.943	211.75
333.172	223.75
333.4	231.75
333.629	242.75
333.857	281.75
334.085	264.75
334.314	255.75
334.542	244.75
334.771	253.75
334.999	213.75
335.227	220.75
335.455	225.75
335.684	238.75
335.912	269.75
336.14	287.75
336.369	287.75
336.597	295.75
336.825	291.75
337.053	324.75
337.281	281.75
337.51	227.75
337.738	228.75
337.966	233.75
338.194	251.75
338.422	248.75
338.65	224.75
338.878	214.75
339.106	198.75
339.334	233.75
339.562	240.75
339.79	229.75
340.018	229.75
340.246	224.75
340.474	250.75
340.702	271.75
340.93	273.75
341.158	271.75
341.386	254.75
341.614	246.75
341.842	238.75
342.07	263.75
342.298	273.75
342.526	288.75
342.754	255.75
342.981	235.75
343.209	241.75
343.437	236.75
343.665	273.75
343.893	255.75
344.12	303.75
344.348	347.75
344.576	306.75
344.804	268.75
345.031	231.75
345.259	216.75
345.487	232.75
345.714	232.75
345.942	236.75
346.17	266.75
346.397	247.75
346.625	220.75
346.853	221.75
347.08	229.75
347.308	235.75
347.535	253.75
347.763	269.75
347.99	225.75
348.218	211.75
348.445	227.75
348.673	237.75
348.9	209.75
349.128	257.75
349.355	253.75
349.583	235.75
349.81	248.75
350.037	228.75
350.265	207.75
350.492	207.75
350.72	194.75
350.947	186.75
351.174	213.75
351.402	211.75
351.629	217.75
351.856	192.75
352.083	207.75
352.311	223.75
352.538	229.75
352.765	254.75
352.992	251.75
353.22	224.75
353.447	236.75
353.674	233.75
353.901	207.75
354.128	220.75
354.355	209.75
354.583	211.75
354.81	220.75
355.037	246.75
355.264	228.75
355.491	228.75
355.718	238.75
355.945	225.75
356.172	251.75
356.399	238.75
356.626	275.75
356.853	313.75
357.08	351.75
357.307	355.75
357.534	295.75
357.761	310.75
357.988	357.75
358.215	394.75
358.441	379.75
358.668	319.75
358.895	316.75
359.122	267.75
359.349	273.75
359.576	306.75
359.802	260.75
360.029	214.75
360.256	232.75
360.483	267.75
360.709	343.75
360.936	346.75
361.163	289.75
361.39	252.75
361.616	229.75
361.843	245.75
362.07	296.75
362.296	287.75
362.523	234.75
362.749	219.75
362.976	222.75
363.203	262.75
363.429	293.75
363.656	237.75
363.882	224.75
364.109	205.75
364.335	223.75
364.562	222.75
364.788	241.75
365.015	279.75
365.241	267.75
365.468	225.75
365.694	206.75
365.92	200.75
366.147	203.75
366.373	182.75
366.599	185.75
366.826	189.75
367.052	186.75
367.278	190.75
367.505	199.75
367.731	213.75
367.957	215.75
368.184	229.75
368.41	225.75
368.636	222.75
368.862	251.75
369.089	243.75
369.315	211.75
369.541	206.75
369.767	195.75
369.993	192.75
370.219	213.75
370.445	207.75
370.672	228.75
370.898	266.75
371.124	251.75
371.35	250.75
371.576	209.75
371.802	241.75
372.028	256.75
372.254	305.75
372.48	250.75
372.706	248.75
372.932	242.75
373.158	263.75
373.384	299.75
373.61	361.75
373.835	395.75
374.061	287.75
374.287	264.75
374.513	303.75
374.739	343.75
374.965	366.75
375.191	365.75
375.416	247.75
375.642	240.75
375.868	277.75
376.094	285.75
376.319	263.75
376.545	277.75
376.771	294.75
376.997	261.75
377.222	199.75
377.448	194.75
377.674	202.75
377.899	189.75
378.125	189.75
378.35	217.75
378.576	205.75
378.802	213.75
379.027	219.75
379.253	222.75
379.478	204.75
379.704	227.75
379.929	226.75
380.155	240.75
380.38	229.75
380.606	228.75
380.831	251.75
381.057	246.75
381.282	202.75
381.507	241.75
381.733	295.75
381.958	326.75
382.184	314.75
382.409	351.75
382.634	356.75
382.86	346.75
383.085	310.75
383.31	261.75
383.535	285.75
383.761	275.75
383.986	264.75
384.211	310.75
384.436	309.75
384.662	240.75
384.887	237.75
385.112	237.75
385.337	250.75
385.562	243.75
385.787	262.75
386.013	284.75
386.238	285.75
386.463	256.75
386.688	243.75
386.913	245.75
387.138	221.75
387.363	211.75
387.588	249.75
387.813	226.75
388.038	267.75
388.263	256.75
388.488	221.75
388.713	269.75
388.938	267.75
389.163	219.75
389.387	211.75
389.612	209.75
389.837	220.75
390.062	228.75
390.287	227.75
390.512	244.75
390.736	223.75
390.961	224.75
391.186	219.75
391.411	214.75
391.636	204.75
391.86	239.75
392.085	251.75
392.31	245.75
392.534	241.75
392.759	233.75
392.984	245.75
393.208	235.75
393.433	214.75
393.658	204.75
393.882	205.75
394.107	220.75
394.331	202.75
394.556	190.75
394.78	213.75
395.005	204.75
395.229	223.75
395.454	231.75
395.678	211.75
395.903	224.75
396.127	215.75
396.352	199.75
396.576	245.75
396.801	235.75
397.025	239.75
397.249	266.75
397.474	224.75
397.698	221.75
397.922	223.75
398.147	240.75
398.371	226.75
398.595	237.75
398.82	248.75
399.044	231.75
399.268	252.75
399.492	293.75
399.717	286.75
399.941	296.75
400.165	273.75
400.389	249.75
400.613	263.75
400.837	238.75
401.062	222.75
401.286	227.75
401.51	230.75
401.734	221.75
401.958	234.75
402.182	227.75
402.406	233.75
402.63	238.75
402.854	255.75
403.078	289.75
403.302	374.75
403.526	377.75
403.75	348.75
403.974	285.75
404.198	305.75
404.422	307.75
404.645	319.75
404.869	349.75
405.093	280.75
405.317	255.75
405.541	248.75
405.765	255.75
405.988	250.75
406.212	267.75
406.436	304.75
406.66	323.75
406.883	280.75
407.107	275.75
407.331	313.75
407.555	301.75
407.778	278.75
408.002	275.75
408.226	287.75
408.449	268.75
408.673	267.75
408.896	242.75
409.12	241.75
409.344	244.75
409.567	232.75
409.791	253.75
410.014	251.75
410.238	227.75
410.461	240.75
410.685	245.75
410.908	258.75
411.132	246.75
411.355	260.75
411.578	245.75
411.802	239.75
412.025	248.75
412.249	236.75
412.472	239.75
412.695	243.75
412.919	233.75
413.142	250.75
413.365	252.75
413.589	257.75
413.812	219.75
414.035	233.75
414.258	223.75
414.482	254.75
414.705	261.75
414.928	244.75
415.151	227.75
415.374	219.75
415.597	237.75
415.821	226.75
416.044	241.75
416.267	222.75
416.49	230.75
416.713	206.75
416.936	230.75
417.159	213.75
417.382	236.75
417.605	237.75
417.828	230.75
418.051	223.75
418.274	255.75
418.497	257.75
418.72	242.75
418.943	227.75
419.166	255.75
419.389	284.75
419.611	269.75
419.834	276.75
420.057	273.75
420.28	261.75
420.503	270.75
420.726	241.75
420.948	219.75
421.171	228.75
421.394	233.75
421.617	221.75
421.839	231.75
422.062	242.75
422.285	219.75
422.507	253.75
422.73	237.75
422.953	238.75
423.175	239.75
423.398	258.75
423.621	236.75
423.843	272.75
424.066	250.75
424.288	231.75
424.511	248.75
424.733	258.75
424.956	268.75
425.178	259.75
425.401	313.75
425.623	334.75
425.846	286.75
426.068	275.75
426.291	277.75
426.513	233.75
426.735	240.75
426.958	232.75
427.18	283.75
427.402	325.75
427.625	339.75
427.847	284.75
428.069	232.75
428.292	227.75
428.514	255.75
428.736	253.75
428.958	241.75
429.181	294.75
429.403	278.75
429.625	224.75
429.847	219.75
430.069	227.75
430.292	225.75
430.514	216.75
430.736	241.75
430.958	270.75
431.18	263.75
431.402	215.75
431.624	209.75
431.846	218.75
432.068	214.75
432.29	227.75
432.512	232.75
432.734	286.75
432.956	261.75
433.178	226.75
433.4	216.75
433.622	218.75
433.844	235.75
434.066	251.75
434.287	247.75
434.509	229.75
434.731	257.75
434.953	257.75
435.175	254.75
435.397	277.75
435.618	236.75
435.84	232.75
436.062	214.75
436.284	226.75
436.505	203.75
436.727	220.75
436.949	224.75
437.17	227.75
437.392	218.75
437.614	212.75
437.835	204.75
438.057	227.75
438.278	251.75
438.5	319.75
438.721	336.75
438.943	222.75
439.165	205.75
439.386	206.75
439.608	221.75
439.829	217.75
440.05	222.75
440.272	224.75
440.493	261.75
440.715	287.75
440.936	245.75
441.158	212.75
441.379	212.75
441.6	240.75
441.822	258.75
442.043	243.75
442.264	227.75
442.486	230.75
442.707	241.75
442.928	238.75
443.149	220.75
443.371	226.75
443.592	243.75
443.813	234.75
444.034	238.75
444.255	237.75
444.476	235.75
444.698	258.75
444.919	269.75
445.14	363.75
445.361	295.75
445.582	261.75
445.803	258.75
446.024	229.75
446.245	249.75
446.466	256.75
446.687	228.75
446.908	217.75
447.129	205.75
447.35	224.75
447.571	222.75
447.792	212.75
448.013	220.75
448.234	202.75
448.455	188.75
448.675	208.75
448.896	210.75
449.117	209.75
449.338	211.75
449.559	248.75
449.779	230.75
450	233.75
450.221	218.75
450.442	230.75
450.662	206.75
450.883	203.75
451.104	213.75
451.324	219.75
451.545	209.75
451.766	203.75
451.986	204.75
452.207	195.75
452.428	205.75
452.648	216.75
452.869	216.75
453.089	212.75
453.31	221.75
453.53	213.75
453.751	205.75
453.971	211.75
454.192	200.75
454.412	213.75
454.633	200.75
454.853	200.75
455.073	209.75
455.294	196.75
455.514	214.75
455.734	221.75
455.955	219.75
456.175	222.75
456.395	204.75
456.616	192.75
456.836	209.75
457.056	178.75
457.276	194.75
457.497	182.75
457.717	198.75
457.937	206.75
458.157	206.75
458.377	206.75
458.598	206.75
458.818	215.75
459.038	192.75
459.258	213.75
459.478	227.75
459.698	249.75
459.918	255.75
460.138	237.75
460.358	251.75
460.578	229.75
460.798	251.75
461.018	240.75
461.238	236.75
461.458	244.75
461.678	251.75
461.898	265.75
462.118	253.75
462.338	241.75
462.558	267.75
462.777	275.75
462.997	277.75
463.217	286.75
463.437	315.75
463.657	278.75
463.876	283.75
464.096	265.75
464.316	259.75
464.536	280.75
464.755	281.75
464.975	283.75
465.195	279.75
465.414	257.75
465.634	247.75
465.854	256.75
466.073	220.75
466.293	222.75
466.512	249.75
466.732	263.75
466.951	261.75
467.171	241.75
467.391	232.75
467.61	232.75
467.829	256.75
468.049	244.75
468.268	208.75
468.488	215.75
468.707	216.75
468.927	262.75
469.146	263.75
469.365	252.75
469.585	227.75
469.804	239.75
470.023	272.75
470.243	244.75
470.462	245.75
470.681	236.75
470.901	231.75
471.12	262.75
471.339	241.75
471.558	239.75
471.777	244.75
471.997	261.75
472.216	259.75
472.435	267.75
472.654	244.75
472.873	244.75
473.092	257.75
473.311	247.75
473.53	240.75
473.749	225.75
473.968	238.75
474.187	241.75
474.406	227.75
474.625	229.75
474.844	219.75
475.063	263.75
475.282	246.75
475.501	261.75
475.72	292.75
475.939	266.75
476.158	257.75
476.377	286.75
476.596	340.75
476.814	337.75
477.033	301.75
477.252	264.75
477.471	240.75
477.69	262.75
477.908	248.75
478.127	291.75
478.346	271.75
478.564	291.75
478.783	275.75
479.002	277.75
479.22	302.75
479.439	344.75
479.658	286.75
479.876	280.75
480.095	294.75
480.313	312.75
480.532	278.75
480.751	285.75
480.969	275.75
481.188	299.75
481.406	320.75
481.624	289.75
481.843	274.75
482.061	277.75
482.28	305.75
482.498	349.75
482.717	344.75
482.935	289.75
483.153	271.75
483.372	272.75
483.59	248.75
483.808	268.75
484.027	256.75
484.245	244.75
484.463	255.75
484.681	245.75
484.9	253.75
485.118	302.75
485.336	275.75
485.554	258.75
485.772	291.75
485.99	295.75
486.209	308.75
486.427	299.75
486.645	272.75
486.863	285.75
487.081	292.75
487.299	323.75
487.517	293.75
487.735	289.75
487.953	282.75
488.171	277.75
488.389	292.75
488.607	265.75
488.825	263.75
489.043	300.75
489.261	320.75
489.479	337.75
489.696	293.75
489.914	295.75
490.132	279.75
490.35	265.75
490.568	275.75
490.786	275.75
491.003	269.75
491.221	278.75
491.439	269.75
491.657	280.75
491.874	282.75
492.092	313.75
492.31	364.75
492.527	366.75
492.745	341.75
492.963	300.75
493.18	299.75
493.398	306.75
493.615	314.75
493.833	301.75
494.05	280.75
494.268	291.75
494.485	301.75
494.703	298.75
494.92	292.75
495.138	290.75
495.355	287.75
495.573	294.75
495.79	297.75
496.008	385.75
496.225	335.75
496.442	312.75
496.66	309.75
496.877	337.75
497.094	312.75
497.312	288.75
497.529	291.75
497.746	296.75
497.963	319.75
498.181	329.75
498.398	352.75
498.615	364.75
498.832	392.75
499.049	407.75
499.267	384.75
499.484	394.75
499.701	415.75
499.918	445.75
500.135	486.75
500.352	537.75
500.569	555.75
500.786	568.75
501.003	546.75
501.22	470.75
501.437	439.75
501.654	419.75
501.871	407.75
502.088	383.75
502.305	355.75
