Data from NickelSpatula.Lamp.E10.P2_HRD10591_11-58-40-527.txt Node
Date: Tue Jul 23 11:58:40 EDT 2019
User: cochatt
Spectrometer: HR+D1059
Trigger mode: 1
Integration Time (sec): 1.000000E-1
Scans to average: 1
Electric dark correction enabled: true
Nonlinearity correction enabled: false
Boxcar width: 0
XAxis mode: Wavelengths
Number of Pixels in Spectrum: 2048
>>>>>Begin Spectral Data<<<<<
223.165	-11.19
223.4	-11.19
223.635	-11.19
223.869	-14.19
224.104	-25.19
224.338	-20.19
224.573	-23.19
224.808	-17.19
225.042	-9.19
225.277	-2.19
225.511	6.81
225.746	7.81
225.98	11.81
226.215	28.81
226.449	12.81
226.683	8.81
226.918	17.81
227.152	27.81
227.387	22.81
227.621	36.81
227.856	36.81
228.09	47.81
228.324	31.81
228.559	42.81
228.793	76.81
229.027	155.81
229.262	159.81
229.496	150.81
229.73	160.81
229.964	188.81
230.199	206.81
230.433	221.81
230.667	207.81
230.901	206.81
231.136	184.81
231.37	191.81
231.604	226.81
231.838	239.81
232.072	255.81
232.306	234.81
232.541	235.81
232.775	228.81
233.009	255.81
233.243	300.81
233.477	311.81
233.711	347.81
233.945	328.81
234.179	312.81
234.413	333.81
234.647	391.81
234.881	472.81
235.115	414.81
235.349	410.81
235.583	343.81
235.817	352.81
236.051	370.81
236.285	400.81
236.519	449.81
236.753	468.81
236.987	428.81
237.221	402.81
237.455	421.81
237.689	429.81
237.922	484.81
238.156	479.81
238.39	555.81
238.624	659.81
238.858	603.81
239.091	478.81
239.325	498.81
239.559	481.81
239.793	566.81
240.027	664.81
240.26	599.81
240.494	564.81
240.728	604.81
240.961	691.81
241.195	626.81
241.429	639.81
241.662	622.81
241.896	504.81
242.13	467.81
242.363	438.81
242.597	467.81
242.83	535.81
243.064	541.81
243.298	607.81
243.531	621.81
243.765	634.81
243.998	634.81
244.232	608.81
244.465	590.81
244.699	570.81
244.932	671.81
245.166	622.81
245.399	535.81
245.633	531.81
245.866	568.81
246.099	607.81
246.333	696.81
246.566	759.81
246.8	774.81
247.033	733.81
247.266	690.81
247.5	690.81
247.733	673.81
247.966	654.81
248.2	673.81
248.433	766.81
248.666	859.81
248.899	822.81
249.133	862.81
249.366	997.81
249.599	1056.81
249.832	942.81
250.066	816.81
250.299	832.81
250.532	802.81
250.765	805.81
250.998	757.81
251.231	727.81
251.465	791.81
251.698	819.81
251.931	798.81
252.164	848.81
252.397	931.81
252.63	1058.81
252.863	1160.81
253.096	1200.81
253.329	1141.81
253.562	1110.81
253.795	1232.81
254.028	1379.81
254.261	1367.81
254.494	1248.81
254.727	1119.81
254.96	1120.81
255.193	1158.81
255.426	1122.81
255.659	859.81
255.892	810.81
256.124	846.81
256.357	1042.81
256.59	1223.81
256.823	1177.81
257.056	989.81
257.289	922.81
257.521	963.81
257.754	1125.81
257.987	1288.81
258.22	1129.81
258.452	997.81
258.685	1163.81
258.918	1277.81
259.151	1256.81
259.383	1282.81
259.616	1485.81
259.849	1544.81
260.081	1712.81
260.314	1919.81
260.547	1488.81
260.779	1479.81
261.012	1706.81
261.244	1576.81
261.477	1653.81
261.71	1496.81
261.942	1276.81
262.175	1283.81
262.407	1220.81
262.64	1304.81
262.872	1495.81
263.105	1648.81
263.337	1716.81
263.57	1532.81
263.802	1042.81
264.035	886.81
264.267	882.81
264.499	772.81
264.732	708.81
264.964	726.81
265.197	705.81
265.429	785.81
265.661	808.81
265.894	833.81
266.126	914.81
266.358	1035.81
266.591	1253.81
266.823	1510.81
267.055	1378.81
267.287	1235.81
267.52	1232.81
267.752	1349.81
267.984	1454.81
268.216	1386.81
268.448	1120.81
268.681	1074.81
268.913	1210.81
269.145	1267.81
269.377	1328.81
269.609	1294.81
269.841	1245.81
270.073	1320.81
270.306	1368.81
270.538	1399.81
270.77	1360.81
271.002	1412.81
271.234	1483.81
271.466	1497.81
271.698	1480.81
271.93	1429.81
272.162	1411.81
272.394	1445.81
272.626	1401.81
272.858	1458.81
273.09	1509.81
273.322	1322.81
273.553	1292.81
273.785	1495.81
274.017	2004.81
274.249	2392.81
274.481	2532.81
274.713	2758.81
274.945	3124.81
275.176	3235.81
275.408	2860.81
275.64	2590.81
275.872	2645.81
276.104	2239.81
276.335	1890.81
276.567	1912.81
276.799	1963.81
277.031	2037.81
277.262	1601.81
277.494	1238.81
277.726	1192.81
277.957	1329.81
278.189	1498.81
278.421	1479.81
278.652	1464.81
278.884	1379.81
279.115	1266.81
279.347	1204.81
279.579	1181.81
279.81	1203.81
280.042	1190.81
280.273	1256.81
280.505	1116.81
280.736	1026.81
280.968	1043.81
281.199	1088.81
281.431	1232.81
281.662	1228.81
281.894	1173.81
282.125	1240.81
282.356	1354.81
282.588	1374.81
282.819	1274.81
283.051	1353.81
283.282	1675.81
283.513	1936.81
283.745	2194.81
283.976	2125.81
284.207	2036.81
284.439	2149.81
284.67	1997.81
284.901	1779.81
285.132	1938.81
285.364	2003.81
285.595	1873.81
285.826	1995.81
286.057	2046.81
286.288	1974.81
286.52	2010.81
286.751	2085.81
286.982	2098.81
287.213	1813.81
287.444	1715.81
287.675	1848.81
287.906	1795.81
288.138	1547.81
288.369	1338.81
288.6	1293.81
288.831	1344.81
289.062	1502.81
289.293	1706.81
289.524	1586.81
289.755	1581.81
289.986	1613.81
290.217	1404.81
290.448	1114.81
290.679	1007.81
290.91	889.81
291.141	924.81
291.371	977.81
291.602	972.81
291.833	982.81
292.064	1052.81
292.295	1221.81
292.526	1410.81
292.757	1440.81
292.987	1570.81
293.218	1558.81
293.449	1599.81
293.68	1651.81
293.91	1582.81
294.141	1634.81
294.372	1496.81
294.603	1422.81
294.833	1566.81
295.064	1792.81
295.295	1737.81
295.525	1328.81
295.756	1154.81
295.987	965.81
296.217	1006.81
296.448	1045.81
296.679	1115.81
296.909	1240.81
297.14	1311.81
297.37	1432.81
297.601	1360.81
297.831	1158.81
298.062	1234.81
298.292	1457.81
298.523	1568.81
298.753	1814.81
298.984	1598.81
299.214	1289.81
299.445	1092.81
299.675	1041.81
299.905	1018.81
300.136	1072.81
300.366	1170.81
300.597	1180.81
300.827	1008.81
301.057	974.81
301.288	999.81
301.518	1046.81
301.748	1255.81
301.979	1371.81
302.209	1459.81
302.439	1492.81
302.669	1249.81
302.9	1278.81
303.13	1150.81
303.36	1126.81
303.59	1066.81
303.82	1106.81
304.051	1241.81
304.281	1339.81
304.511	1327.81
304.741	1136.81
304.971	1195.81
305.201	1273.81
305.431	1168.81
305.661	1072.81
305.891	1085.81
306.121	1085.81
306.352	950.81
306.582	854.81
306.812	861.81
307.042	859.81
307.272	819.81
307.502	810.81
307.731	902.81
307.961	906.81
308.191	848.81
308.421	808.81
308.651	781.81
308.881	753.81
309.111	768.81
309.341	810.81
309.571	887.81
309.8	924.81
310.03	959.81
310.26	986.81
310.49	999.81
310.72	853.81
310.949	868.81
311.179	880.81
311.409	924.81
311.639	1087.81
311.868	1384.81
312.098	1748.81
312.328	1970.81
312.557	1869.81
312.787	1918.81
313.017	1642.81
313.246	1819.81
313.476	1943.81
313.706	1622.81
313.935	1238.81
314.165	1078.81
314.394	949.81
314.624	981.81
314.853	1007.81
315.083	1028.81
315.312	1011.81
315.542	1018.81
315.771	941.81
316.001	861.81
316.23	814.81
316.46	866.81
316.689	860.81
316.919	884.81
317.148	932.81
317.377	888.81
317.607	878.81
317.836	959.81
318.065	1100.81
318.295	1209.81
318.524	1139.81
318.753	1008.81
318.983	927.81
319.212	939.81
319.441	1034.81
319.67	1119.81
319.9	1217.81
320.129	1132.81
320.358	965.81
320.587	944.81
320.816	1066.81
321.046	1190.81
321.275	1328.81
321.504	1334.81
321.733	1293.81
321.962	1235.81
322.191	1201.81
322.42	1129.81
322.649	1132.81
322.878	1252.81
323.108	1206.81
323.337	1096.81
323.566	1112.81
323.795	1071.81
324.024	1031.81
324.253	978.81
324.482	987.81
324.71	1105.81
324.939	1232.81
325.168	1126.81
325.397	938.81
325.626	907.81
325.855	932.81
326.084	928.81
326.313	884.81
326.542	836.81
326.77	865.81
326.999	896.81
327.228	962.81
327.457	1033.81
327.686	1006.81
327.914	904.81
328.143	847.81
328.372	828.81
328.6	863.81
328.829	885.81
329.058	898.81
329.287	897.81
329.515	913.81
329.744	884.81
329.972	819.81
330.201	794.81
330.43	815.81
330.658	951.81
330.887	1067.81
331.115	1027.81
331.344	1008.81
331.572	974.81
331.801	887.81
332.03	841.81
332.258	876.81
332.486	940.81
332.715	985.81
332.943	892.81
333.172	879.81
333.4	920.81
333.629	1039.81
333.857	1114.81
334.085	1103.81
334.314	1103.81
334.542	1051.81
334.771	951.81
334.999	943.81
335.227	940.81
335.455	942.81
335.684	997.81
335.912	1203.81
336.14	1306.81
336.369	1266.81
336.597	1224.81
336.825	1350.81
337.053	1528.81
337.281	1254.81
337.51	1004.81
337.738	990.81
337.966	1069.81
338.194	1159.81
338.422	1121.81
338.65	934.81
338.878	871.81
339.106	928.81
339.334	1032.81
339.562	1106.81
339.79	1010.81
340.018	943.81
340.246	1043.81
340.474	1183.81
340.702	1281.81
340.93	1326.81
341.158	1338.81
341.386	1130.81
341.614	1136.81
341.842	1101.81
342.07	1142.81
342.298	1330.81
342.526	1392.81
342.754	1218.81
342.981	1101.81
343.209	1068.81
343.437	1134.81
343.665	1210.81
343.893	1203.81
344.12	1407.81
344.348	1598.81
344.576	1454.81
344.804	1225.81
345.031	1029.81
345.259	992.81
345.487	997.81
345.714	1054.81
345.942	1099.81
346.17	1186.81
346.397	1135.81
346.625	991.81
346.853	968.81
347.08	956.81
347.308	995.81
347.535	1142.81
347.763	1179.81
347.99	1025.81
348.218	930.81
348.445	992.81
348.673	987.81
348.9	965.81
349.128	1076.81
349.355	1120.81
349.583	1053.81
349.81	1007.81
350.037	922.81
350.265	834.81
350.492	825.81
350.72	777.81
350.947	822.81
351.174	898.81
351.402	957.81
351.629	994.81
351.856	956.81
352.083	888.81
352.311	993.81
352.538	1101.81
352.765	1143.81
352.992	1039.81
353.22	966.81
353.447	1014.81
353.674	973.81
353.901	962.81
354.128	964.81
354.355	1020.81
354.583	1019.81
354.81	987.81
355.037	1006.81
355.264	1006.81
355.491	1108.81
355.718	1181.81
355.945	1136.81
356.172	1110.81
356.399	1099.81
356.626	1308.81
356.853	1634.81
357.08	1747.81
357.307	1749.81
357.534	1365.81
357.761	1418.81
357.988	1802.81
358.215	2112.81
358.441	1971.81
358.668	1662.81
358.895	1530.81
359.122	1232.81
359.349	1212.81
359.576	1361.81
359.802	1125.81
360.029	948.81
360.256	1028.81
360.483	1298.81
360.709	1631.81
360.936	1712.81
361.163	1468.81
361.39	1156.81
361.616	1089.81
361.843	1253.81
362.07	1533.81
362.296	1394.81
362.523	1096.81
362.749	975.81
362.976	1004.81
363.203	1244.81
363.429	1389.81
363.656	1100.81
363.882	991.81
364.109	1036.81
364.335	984.81
364.562	982.81
364.788	1141.81
365.015	1313.81
365.241	1180.81
365.468	947.81
365.694	854.81
365.92	826.81
366.147	806.81
366.373	789.81
366.599	804.81
366.826	820.81
367.052	820.81
367.278	838.81
367.505	829.81
367.731	917.81
367.957	1026.81
368.184	1051.81
368.41	1042.81
368.636	1051.81
368.862	1066.81
369.089	1016.81
369.315	926.81
369.541	901.81
369.767	895.81
369.993	827.81
370.219	845.81
370.445	918.81
370.672	1023.81
370.898	1095.81
371.124	1076.81
371.35	983.81
371.576	908.81
371.802	975.81
372.028	1224.81
372.254	1334.81
372.48	1154.81
372.706	1048.81
372.932	1126.81
373.158	1124.81
373.384	1392.81
373.61	1871.81
373.835	1895.81
374.061	1400.81
374.287	1181.81
374.513	1391.81
374.739	1690.81
374.965	1714.81
375.191	1675.81
375.416	1171.81
375.642	1023.81
375.868	1194.81
376.094	1352.81
376.319	1194.81
376.545	1315.81
376.771	1378.81
376.997	1178.81
377.222	869.81
377.448	768.81
377.674	762.81
377.899	747.81
378.125	766.81
378.35	727.81
378.576	772.81
378.802	878.81
379.027	972.81
379.253	894.81
379.478	914.81
379.704	1049.81
379.929	1120.81
380.155	1093.81
380.38	939.81
380.606	1024.81
380.831	1132.81
381.057	1039.81
381.282	983.81
381.507	1198.81
381.733	1490.81
381.958	1599.81
382.184	1636.81
382.409	1756.81
382.634	1699.81
382.86	1801.81
383.085	1457.81
383.31	1127.81
383.535	1224.81
383.761	1251.81
383.986	1198.81
384.211	1459.81
384.436	1427.81
384.662	1093.81
384.887	1018.81
385.112	1050.81
385.337	1083.81
385.562	1005.81
385.787	1116.81
386.013	1212.81
386.238	1276.81
386.463	1005.81
386.688	975.81
386.913	964.81
387.138	896.81
387.363	968.81
387.588	1004.81
387.813	1002.81
388.038	1116.81
388.263	988.81
388.488	961.81
388.713	1138.81
388.938	1263.81
389.163	1042.81
389.387	900.81
389.612	915.81
389.837	954.81
390.062	954.81
390.287	1013.81
390.512	1024.81
390.736	963.81
390.961	885.81
391.186	865.81
391.411	832.81
391.636	855.81
391.86	943.81
392.085	1047.81
392.31	1055.81
392.534	968.81
392.759	939.81
392.984	990.81
393.208	976.81
393.433	909.81
393.658	813.81
393.882	797.81
394.107	793.81
394.331	783.81
394.556	829.81
394.78	808.81
395.005	859.81
395.229	861.81
395.454	874.81
395.678	901.81
395.903	927.81
396.127	879.81
396.352	895.81
396.576	991.81
396.801	1020.81
397.025	1142.81
397.249	1174.81
397.474	945.81
397.698	914.81
397.922	988.81
398.147	906.81
398.371	895.81
398.595	974.81
398.82	964.81
399.044	933.81
399.268	1006.81
399.492	1041.81
399.717	1081.81
399.941	1110.81
400.165	1070.81
400.389	1050.81
400.613	1052.81
400.837	1027.81
401.062	943.81
401.286	896.81
401.51	907.81
401.734	902.81
401.958	900.81
402.182	901.81
402.406	895.81
402.63	897.81
402.854	965.81
403.078	1066.81
403.302	1326.81
403.526	1316.81
403.75	1226.81
403.974	1069.81
404.198	1114.81
404.422	1260.81
404.645	1443.81
404.869	1554.81
405.093	1198.81
405.317	1024.81
405.541	1009.81
405.765	1043.81
405.988	1033.81
406.212	1109.81
406.436	1310.81
406.66	1441.81
406.883	1154.81
407.107	1214.81
407.331	1398.81
407.555	1328.81
407.778	1113.81
408.002	1080.81
408.226	1046.81
408.449	1044.81
408.673	1026.81
408.896	971.81
409.12	931.81
409.344	920.81
409.567	883.81
409.791	917.81
410.014	889.81
410.238	886.81
410.461	903.81
410.685	908.81
410.908	932.81
411.132	923.81
411.355	921.81
411.578	957.81
411.802	944.81
412.025	985.81
412.249	1000.81
412.472	972.81
412.695	920.81
412.919	938.81
413.142	958.81
413.365	1060.81
413.589	1081.81
413.812	995.81
414.035	901.81
414.258	910.81
414.482	1068.81
414.705	1055.81
414.928	920.81
415.151	888.81
415.374	894.81
415.597	914.81
415.821	929.81
416.044	904.81
416.267	893.81
416.49	882.81
416.713	843.81
416.936	842.81
417.159	854.81
417.382	860.81
417.605	901.81
417.828	914.81
418.051	909.81
418.274	929.81
418.497	938.81
418.72	926.81
418.943	959.81
419.166	1005.81
419.389	1008.81
419.611	1004.81
419.834	1014.81
420.057	1174.81
420.28	1127.81
420.503	1043.81
420.726	905.81
420.948	874.81
421.171	901.81
421.394	899.81
421.617	863.81
421.839	896.81
422.062	935.81
422.285	930.81
422.507	917.81
422.73	955.81
422.953	963.81
423.175	944.81
423.398	918.81
423.621	1013.81
423.843	1082.81
424.066	979.81
424.288	930.81
424.511	914.81
424.733	925.81
424.956	975.81
425.178	1094.81
425.401	1231.81
425.623	1416.81
425.846	1181.81
426.068	1029.81
426.291	1123.81
426.513	1030.81
426.735	961.81
426.958	1011.81
427.18	1194.81
427.402	1536.81
427.625	1489.81
427.847	1169.81
428.069	914.81
428.292	900.81
428.514	901.81
428.736	838.81
428.958	968.81
429.181	1149.81
429.403	976.81
429.625	900.81
429.847	901.81
430.069	926.81
430.292	924.81
430.514	864.81
430.736	968.81
430.958	1208.81
431.18	1117.81
431.402	848.81
431.624	817.81
431.846	809.81
432.068	804.81
432.29	855.81
432.512	932.81
432.734	1232.81
432.956	1136.81
433.178	864.81
433.4	836.81
433.622	850.81
433.844	891.81
434.066	940.81
434.287	906.81
434.509	901.81
434.731	929.81
434.953	875.81
435.175	925.81
435.397	1057.81
435.618	881.81
435.84	840.81
436.062	844.81
436.284	825.81
436.505	788.81
436.727	779.81
436.949	816.81
437.17	819.81
437.392	887.81
437.614	863.81
437.835	829.81
438.057	844.81
438.278	992.81
438.5	1398.81
438.721	1403.81
438.943	938.81
439.165	818.81
439.386	780.81
439.608	794.81
439.829	790.81
440.05	805.81
440.272	864.81
440.493	976.81
440.715	1236.81
440.936	1002.81
441.158	891.81
441.379	876.81
441.6	989.81
441.822	1045.81
442.043	882.81
442.264	858.81
442.486	887.81
442.707	892.81
442.928	862.81
443.149	887.81
443.371	893.81
443.592	910.81
443.813	940.81
444.034	903.81
444.255	902.81
444.476	945.81
444.698	940.81
444.919	949.81
445.14	1111.81
445.361	1023.81
445.582	958.81
445.803	935.81
446.024	968.81
446.245	939.81
446.466	921.81
446.687	871.81
446.908	910.81
447.129	830.81
447.35	800.81
447.571	821.81
447.792	792.81
448.013	798.81
448.234	755.81
448.455	784.81
448.675	805.81
448.896	805.81
449.117	827.81
449.338	797.81
449.559	794.81
449.779	853.81
450	872.81
450.221	839.81
450.442	799.81
450.662	799.81
450.883	791.81
451.104	830.81
451.324	808.81
451.545	798.81
451.766	784.81
451.986	795.81
452.207	744.81
452.428	767.81
452.648	766.81
452.869	844.81
453.089	852.81
453.31	840.81
453.53	766.81
453.751	738.81
453.971	736.81
454.192	775.81
454.412	771.81
454.633	741.81
454.853	772.81
455.073	714.81
455.294	746.81
455.514	739.81
455.734	782.81
455.955	790.81
456.175	846.81
456.395	733.81
456.616	725.81
456.836	709.81
457.056	699.81
457.276	702.81
457.497	712.81
457.717	737.81
457.937	693.81
458.157	732.81
458.377	718.81
458.598	766.81
458.818	755.81
459.038	795.81
459.258	815.81
459.478	848.81
459.698	909.81
459.918	892.81
460.138	876.81
460.358	908.81
460.578	883.81
460.798	856.81
461.018	914.81
461.238	862.81
461.458	863.81
461.678	890.81
461.898	934.81
462.118	926.81
462.338	944.81
462.558	948.81
462.777	1036.81
462.997	1020.81
463.217	1028.81
463.437	1067.81
463.657	999.81
463.876	952.81
464.096	971.81
464.316	1011.81
464.536	969.81
464.755	1038.81
464.975	1023.81
465.195	981.81
465.414	996.81
465.634	957.81
465.854	939.81
466.073	879.81
466.293	855.81
466.512	912.81
466.732	1016.81
466.951	1049.81
467.171	950.81
467.391	899.81
467.61	855.81
467.829	950.81
468.049	922.81
468.268	895.81
468.488	879.81
468.707	927.81
468.927	1062.81
469.146	1157.81
469.365	1052.81
469.585	939.81
469.804	981.81
470.023	1100.81
470.243	961.81
470.462	938.81
470.681	891.81
470.901	934.81
471.12	971.81
471.339	966.81
471.558	939.81
471.777	945.81
471.997	997.81
472.216	1158.81
472.435	1088.81
472.654	974.81
472.873	971.81
473.092	1018.81
473.311	1066.81
473.53	960.81
473.749	934.81
473.968	970.81
474.187	980.81
474.406	926.81
474.625	948.81
474.844	955.81
475.063	1002.81
475.282	1039.81
475.501	1108.81
475.72	1122.81
475.939	1093.81
476.158	1117.81
476.377	1297.81
476.596	1444.81
476.814	1492.81
477.033	1231.81
477.252	1072.81
477.471	983.81
477.69	1014.81
477.908	1110.81
478.127	1164.81
478.346	1074.81
478.564	1157.81
478.783	1112.81
479.002	1127.81
479.22	1296.81
479.439	1422.81
479.658	1222.81
479.876	1125.81
480.095	1216.81
480.313	1248.81
480.532	1129.81
480.751	1088.81
480.969	1133.81
481.188	1289.81
481.406	1308.81
481.624	1211.81
481.843	1099.81
482.061	1056.81
482.28	1198.81
482.498	1499.81
482.717	1395.81
482.935	1190.81
483.153	1111.81
483.372	1066.81
483.59	1068.81
483.808	1070.81
484.027	1018.81
484.245	1009.81
484.463	1004.81
484.681	1040.81
484.9	1139.81
485.118	1222.81
485.336	1113.81
485.554	1052.81
485.772	1083.81
485.99	1178.81
486.209	1229.81
486.427	1218.81
486.645	1178.81
486.863	1238.81
487.081	1268.81
487.299	1426.81
487.517	1373.81
487.735	1208.81
487.953	1245.81
488.171	1284.81
488.389	1224.81
488.607	1115.81
488.825	1169.81
489.043	1302.81
489.261	1482.81
489.479	1580.81
489.696	1299.81
489.914	1189.81
490.132	1086.81
490.35	1153.81
490.568	1147.81
490.786	1121.81
491.003	1119.81
491.221	1165.81
491.439	1150.81
491.657	1166.81
491.874	1230.81
492.092	1529.81
492.31	1831.81
492.527	1762.81
492.745	1526.81
492.963	1334.81
493.18	1282.81
493.398	1276.81
493.615	1267.81
493.833	1255.81
494.05	1255.81
