Data from NickelSpatula_HRD10591_16-36-09-126.txt Node
Date: Mon Jul 22 16:36:09 EDT 2019
User: cochatt
Spectrometer: HR+D1059
Trigger mode: 1
Integration Time (sec): 1.000000E-1
Scans to average: 1
Electric dark correction enabled: true
Nonlinearity correction enabled: false
Boxcar width: 0
XAxis mode: Wavelengths
Number of Pixels in Spectrum: 2048
>>>>>Begin Spectral Data<<<<<
223.165	-20.88
223.4	-20.88
223.635	-20.88
223.869	-15.88
224.104	-20.88
224.338	-20.88
224.573	-1.88
224.808	-4.88
225.042	-12.88
225.277	-4.88
225.511	-0.88
225.746	2.12
225.98	9.12
226.215	15.12
226.449	7.12
226.683	18.12
226.918	31.12
227.152	21.12
227.387	22.12
227.621	48.12
227.856	31.12
228.09	51.12
228.324	55.12
228.559	58.12
228.793	65.12
229.027	74.12
229.262	77.12
229.496	78.12
229.73	81.12
229.964	81.12
230.199	96.12
230.433	84.12
230.667	102.12
230.901	87.12
231.136	101.12
231.37	89.12
231.604	77.12
231.838	96.12
232.072	104.12
232.306	91.12
232.541	100.12
232.775	116.12
233.009	111.12
233.243	105.12
233.477	122.12
233.711	109.12
233.945	105.12
234.179	104.12
234.413	121.12
234.647	121.12
234.881	129.12
235.115	118.12
235.349	129.12
235.583	130.12
235.817	102.12
236.051	96.12
236.285	109.12
236.519	135.12
236.753	116.12
236.987	114.12
237.221	125.12
237.455	123.12
237.689	124.12
237.922	117.12
238.156	123.12
238.39	135.12
238.624	138.12
238.858	133.12
239.091	129.12
239.325	119.12
239.559	117.12
239.793	127.12
240.027	152.12
240.26	145.12
240.494	140.12
240.728	142.12
240.961	141.12
241.195	153.12
241.429	143.12
241.662	143.12
241.896	123.12
242.13	130.12
242.363	115.12
242.597	123.12
242.83	131.12
243.064	136.12
243.298	144.12
243.531	140.12
243.765	143.12
243.998	133.12
244.232	144.12
244.465	134.12
244.699	145.12
244.932	141.12
245.166	148.12
245.399	120.12
245.633	118.12
245.866	139.12
246.099	132.12
246.333	146.12
246.566	143.12
246.8	159.12
247.033	138.12
247.266	152.12
247.5	170.12
247.733	127.12
247.966	131.12
248.2	158.12
248.433	166.12
248.666	183.12
248.899	164.12
249.133	167.12
249.366	182.12
249.599	185.12
249.832	179.12
250.066	170.12
250.299	165.12
250.532	157.12
250.765	168.12
250.998	157.12
251.231	150.12
251.465	161.12
251.698	153.12
251.931	167.12
252.164	175.12
252.397	175.12
252.63	192.12
252.863	204.12
253.096	214.12
253.329	201.12
253.562	189.12
253.795	220.12
254.028	231.12
254.261	229.12
254.494	217.12
254.727	210.12
254.96	204.12
255.193	217.12
255.426	196.12
255.659	167.12
255.892	172.12
256.124	163.12
256.357	185.12
256.59	227.12
256.823	196.12
257.056	170.12
257.289	163.12
257.521	198.12
257.754	202.12
257.987	217.12
258.22	213.12
258.452	184.12
258.685	202.12
258.918	205.12
259.151	218.12
259.383	225.12
259.616	265.12
259.849	247.12
260.081	250.12
260.314	266.12
260.547	249.12
260.779	261.12
261.012	281.12
261.244	246.12
261.477	263.12
261.71	242.12
261.942	212.12
262.175	203.12
262.407	211.12
262.64	214.12
262.872	244.12
263.105	239.12
263.337	277.12
263.57	236.12
263.802	201.12
264.035	172.12
264.267	165.12
264.499	159.12
264.732	136.12
264.964	143.12
265.197	136.12
265.429	142.12
265.661	166.12
265.894	161.12
266.126	166.12
266.358	173.12
266.591	206.12
266.823	234.12
267.055	226.12
267.287	210.12
267.52	206.12
267.752	209.12
267.984	228.12
268.216	245.12
268.448	206.12
268.681	212.12
268.913	207.12
269.145	221.12
269.377	226.12
269.609	238.12
269.841	208.12
270.073	219.12
270.306	226.12
270.538	238.12
270.77	235.12
271.002	237.12
271.234	244.12
271.466	245.12
271.698	242.12
271.93	244.12
272.162	243.12
272.394	233.12
272.626	227.12
272.858	240.12
273.09	230.12
273.322	215.12
273.553	207.12
273.785	231.12
274.017	314.12
274.249	354.12
274.481	362.12
274.713	386.12
274.945	435.12
275.176	436.12
275.408	402.12
275.64	369.12
275.872	365.12
276.104	332.12
276.335	294.12
276.567	283.12
276.799	315.12
277.031	288.12
277.262	230.12
277.494	202.12
277.726	221.12
277.957	213.12
278.189	236.12
278.421	242.12
278.652	223.12
278.884	238.12
279.115	216.12
279.347	206.12
279.579	211.12
279.81	198.12
280.042	196.12
280.273	217.12
280.505	190.12
280.736	193.12
280.968	199.12
281.199	190.12
281.431	207.12
281.662	220.12
281.894	191.12
282.125	214.12
282.356	227.12
282.588	228.12
282.819	208.12
283.051	223.12
283.282	256.12
283.513	282.12
283.745	301.12
283.976	308.12
284.207	305.12
284.439	323.12
284.67	293.12
284.901	286.12
285.132	291.12
285.364	311.12
285.595	289.12
285.826	299.12
286.057	312.12
286.288	330.12
286.52	305.12
286.751	311.12
286.982	306.12
287.213	269.12
287.444	279.12
287.675	300.12
287.906	279.12
288.138	250.12
288.369	218.12
288.6	212.12
288.831	222.12
289.062	254.12
289.293	271.12
289.524	260.12
289.755	253.12
289.986	259.12
290.217	220.12
290.448	177.12
290.679	161.12
290.91	166.12
291.141	169.12
291.371	168.12
291.602	175.12
291.833	148.12
292.064	178.12
292.295	205.12
292.526	201.12
292.757	235.12
292.987	237.12
293.218	234.12
293.449	246.12
293.68	259.12
293.91	247.12
294.141	262.12
294.372	249.12
294.603	225.12
294.833	240.12
295.064	286.12
295.295	268.12
295.525	218.12
295.756	191.12
295.987	172.12
296.217	178.12
296.448	174.12
296.679	183.12
296.909	197.12
297.14	228.12
297.37	241.12
297.601	225.12
297.831	189.12
298.062	196.12
298.292	233.12
298.523	257.12
298.753	278.12
298.984	261.12
299.214	215.12
299.445	184.12
299.675	170.12
299.905	197.12
300.136	200.12
300.366	204.12
300.597	192.12
300.827	175.12
301.057	171.12
301.288	179.12
301.518	183.12
301.748	207.12
301.979	228.12
302.209	223.12
302.439	243.12
302.669	203.12
302.9	203.12
303.13	193.12
303.36	200.12
303.59	181.12
303.82	187.12
304.051	217.12
304.281	198.12
304.511	234.12
304.741	203.12
304.971	183.12
305.201	205.12
305.431	204.12
305.661	187.12
305.891	190.12
306.121	188.12
306.352	157.12
306.582	147.12
306.812	151.12
307.042	152.12
307.272	134.12
307.502	133.12
307.731	150.12
307.961	146.12
308.191	141.12
308.421	140.12
308.651	141.12
308.881	147.12
309.111	141.12
309.341	146.12
309.571	155.12
309.8	162.12
310.03	169.12
310.26	184.12
310.49	165.12
310.72	155.12
310.949	149.12
311.179	151.12
311.409	150.12
311.639	175.12
311.868	215.12
312.098	265.12
312.328	293.12
312.557	283.12
312.787	291.12
313.017	237.12
313.246	277.12
313.476	306.12
313.706	253.12
313.935	182.12
314.165	163.12
314.394	159.12
314.624	167.12
314.853	169.12
315.083	187.12
315.312	163.12
315.542	172.12
315.771	166.12
316.001	143.12
316.23	146.12
316.46	138.12
316.689	154.12
316.919	155.12
317.148	162.12
317.377	155.12
317.607	156.12
317.836	149.12
318.065	182.12
318.295	197.12
318.524	185.12
318.753	158.12
318.983	163.12
319.212	174.12
319.441	184.12
319.67	181.12
319.9	192.12
320.129	173.12
320.358	160.12
320.587	181.12
320.816	179.12
321.046	187.12
321.275	210.12
321.504	211.12
321.733	206.12
321.962	208.12
322.191	195.12
322.42	197.12
322.649	197.12
322.878	210.12
323.108	196.12
323.337	201.12
323.566	184.12
323.795	183.12
324.024	176.12
324.253	168.12
324.482	172.12
324.71	171.12
324.939	200.12
325.168	187.12
325.397	171.12
325.626	156.12
325.855	156.12
326.084	167.12
326.313	150.12
326.542	150.12
326.77	147.12
326.999	148.12
327.228	157.12
327.457	166.12
327.686	173.12
327.914	153.12
328.143	158.12
328.372	149.12
328.6	139.12
328.829	162.12
329.058	156.12
329.287	147.12
329.515	159.12
329.744	151.12
329.972	145.12
330.201	155.12
330.43	142.12
330.658	157.12
330.887	166.12
331.115	154.12
331.344	162.12
331.572	157.12
331.801	142.12
332.03	147.12
332.258	152.12
332.486	158.12
332.715	164.12
332.943	149.12
333.172	142.12
333.4	156.12
333.629	173.12
333.857	178.12
334.085	177.12
334.314	170.12
334.542	168.12
334.771	151.12
334.999	154.12
335.227	162.12
335.455	152.12
335.684	177.12
335.912	208.12
336.14	217.12
336.369	194.12
336.597	189.12
336.825	213.12
337.053	219.12
337.281	192.12
337.51	172.12
337.738	172.12
337.966	191.12
338.194	190.12
338.422	184.12
338.65	167.12
338.878	150.12
339.106	151.12
339.334	184.12
339.562	187.12
339.79	172.12
340.018	168.12
340.246	154.12
340.474	204.12
340.702	216.12
340.93	196.12
341.158	204.12
341.386	176.12
341.614	181.12
341.842	183.12
342.07	195.12
342.298	211.12
342.526	213.12
342.754	201.12
342.981	174.12
343.209	171.12
343.437	198.12
343.665	191.12
343.893	182.12
344.12	217.12
344.348	270.12
344.576	219.12
344.804	199.12
345.031	186.12
345.259	163.12
345.487	161.12
345.714	168.12
345.942	183.12
346.17	200.12
346.397	190.12
346.625	159.12
346.853	157.12
347.08	165.12
347.308	179.12
347.535	186.12
347.763	203.12
347.99	164.12
348.218	175.12
348.445	172.12
348.673	165.12
348.9	182.12
349.128	166.12
349.355	196.12
349.583	181.12
349.81	172.12
350.037	157.12
350.265	159.12
350.492	134.12
350.72	141.12
350.947	155.12
351.174	169.12
351.402	162.12
351.629	185.12
351.856	181.12
352.083	174.12
352.311	183.12
352.538	179.12
352.765	186.12
352.992	193.12
353.22	194.12
353.447	178.12
353.674	190.12
353.901	168.12
354.128	168.12
354.355	186.12
354.583	174.12
354.81	174.12
355.037	198.12
355.264	194.12
355.491	194.12
355.718	199.12
355.945	195.12
356.172	211.12
356.399	198.12
356.626	229.12
356.853	282.12
357.08	291.12
357.307	294.12
357.534	231.12
357.761	261.12
357.988	316.12
358.215	352.12
358.441	306.12
358.668	288.12
358.895	257.12
359.122	218.12
359.349	233.12
359.576	219.12
359.802	213.12
360.029	185.12
360.256	185.12
360.483	260.12
360.709	279.12
360.936	292.12
361.163	248.12
361.39	219.12
361.616	194.12
361.843	219.12
362.07	268.12
362.296	237.12
362.523	183.12
362.749	177.12
362.976	169.12
363.203	213.12
363.429	232.12
363.656	202.12
363.882	191.12
364.109	190.12
364.335	178.12
364.562	177.12
364.788	186.12
365.015	216.12
365.241	201.12
365.468	182.12
365.694	147.12
365.92	152.12
366.147	136.12
366.373	129.12
366.599	162.12
366.826	137.12
367.052	142.12
367.278	165.12
367.505	161.12
367.731	180.12
367.957	188.12
368.184	183.12
368.41	168.12
368.636	182.12
368.862	186.12
369.089	186.12
369.315	170.12
369.541	171.12
369.767	157.12
369.993	142.12
370.219	158.12
370.445	172.12
370.672	177.12
370.898	193.12
371.124	190.12
371.35	171.12
371.576	159.12
371.802	170.12
372.028	195.12
372.254	223.12
372.48	187.12
372.706	186.12
372.932	191.12
373.158	193.12
373.384	244.12
373.61	291.12
373.835	297.12
374.061	212.12
374.287	209.12
374.513	226.12
374.739	265.12
374.965	300.12
375.191	275.12
375.416	202.12
375.642	182.12
375.868	203.12
376.094	238.12
376.319	203.12
376.545	217.12
376.771	219.12
376.997	193.12
377.222	146.12
377.448	147.12
377.674	146.12
377.899	150.12
378.125	138.12
378.35	141.12
378.576	154.12
378.802	142.12
379.027	169.12
379.253	178.12
379.478	183.12
379.704	194.12
379.929	211.12
380.155	196.12
380.38	161.12
380.606	175.12
380.831	196.12
381.057	189.12
381.282	185.12
381.507	206.12
381.733	242.12
381.958	259.12
382.184	273.12
382.409	286.12
382.634	285.12
382.86	293.12
383.085	246.12
383.31	193.12
383.535	214.12
383.761	209.12
383.986	211.12
384.211	250.12
384.436	223.12
384.662	178.12
384.887	173.12
385.112	177.12
385.337	183.12
385.562	186.12
385.787	192.12
386.013	218.12
386.238	211.12
386.463	181.12
386.688	161.12
386.913	177.12
387.138	168.12
387.363	173.12
387.588	180.12
387.813	170.12
388.038	195.12
388.263	171.12
388.488	166.12
388.713	187.12
388.938	211.12
389.163	182.12
389.387	170.12
389.612	149.12
389.837	170.12
390.062	192.12
390.287	171.12
390.512	187.12
390.736	167.12
390.961	150.12
391.186	162.12
391.411	139.12
391.636	167.12
391.86	156.12
392.085	191.12
392.31	186.12
392.534	165.12
392.759	169.12
392.984	178.12
393.208	175.12
393.433	154.12
393.658	134.12
393.882	137.12
394.107	129.12
394.331	130.12
394.556	138.12
394.78	147.12
395.005	156.12
395.229	156.12
395.454	155.12
395.678	155.12
395.903	156.12
396.127	164.12
396.352	160.12
396.576	168.12
396.801	188.12
397.025	196.12
397.249	214.12
397.474	162.12
397.698	185.12
397.922	184.12
398.147	161.12
398.371	177.12
398.595	179.12
398.82	150.12
399.044	165.12
399.268	185.12
399.492	179.12
399.717	178.12
399.941	179.12
400.165	174.12
400.389	173.12
400.613	178.12
400.837	168.12
401.062	144.12
401.286	148.12
401.51	144.12
401.734	156.12
401.958	169.12
402.182	166.12
402.406	165.12
402.63	154.12
402.854	174.12
403.078	193.12
403.302	232.12
403.526	260.12
403.75	223.12
403.974	181.12
404.198	201.12
404.422	221.12
404.645	241.12
404.869	258.12
405.093	189.12
405.317	179.12
405.541	166.12
405.765	165.12
405.988	185.12
406.212	193.12
406.436	216.12
406.66	230.12
406.883	205.12
407.107	209.12
407.331	240.12
407.555	213.12
407.778	175.12
408.002	170.12
408.226	175.12
408.449	169.12
408.673	171.12
408.896	155.12
409.12	160.12
409.344	136.12
409.567	155.12
409.791	145.12
410.014	142.12
410.238	167.12
410.461	153.12
410.685	147.12
410.908	156.12
411.132	147.12
411.355	158.12
411.578	165.12
411.802	178.12
412.025	164.12
412.249	175.12
412.472	171.12
412.695	150.12
412.919	182.12
413.142	169.12
413.365	179.12
413.589	183.12
413.812	167.12
414.035	170.12
414.258	167.12
414.482	175.12
414.705	171.12
414.928	171.12
415.151	148.12
415.374	156.12
415.597	150.12
415.821	167.12
416.044	144.12
416.267	160.12
416.49	141.12
416.713	148.12
416.936	149.12
417.159	150.12
417.382	161.12
417.605	161.12
417.828	162.12
418.051	153.12
418.274	179.12
418.497	151.12
418.72	170.12
418.943	165.12
419.166	165.12
419.389	187.12
419.611	169.12
419.834	194.12
420.057	188.12
420.28	213.12
420.503	179.12
420.726	171.12
420.948	147.12
421.171	165.12
421.394	160.12
421.617	157.12
421.839	157.12
422.062	173.12
422.285	171.12
422.507	142.12
422.73	144.12
422.953	155.12
423.175	177.12
423.398	155.12
423.621	167.12
423.843	192.12
424.066	181.12
424.288	164.12
424.511	151.12
424.733	157.12
424.956	172.12
425.178	188.12
425.401	204.12
425.623	252.12
425.846	200.12
426.068	185.12
426.291	197.12
426.513	204.12
426.735	167.12
426.958	174.12
427.18	203.12
427.402	251.12
427.625	255.12
427.847	235.12
428.069	156.12
428.292	167.12
428.514	169.12
428.736	163.12
428.958	174.12
429.181	224.12
429.403	186.12
429.625	168.12
429.847	166.12
430.069	165.12
430.292	174.12
430.514	165.12
430.736	180.12
430.958	189.12
431.18	174.12
431.402	148.12
431.624	169.12
431.846	144.12
432.068	137.12
432.29	155.12
432.512	178.12
432.734	210.12
432.956	207.12
433.178	160.12
433.4	155.12
433.622	144.12
433.844	175.12
434.066	173.12
434.287	158.12
434.509	183.12
434.731	176.12
434.953	135.12
435.175	163.12
435.397	186.12
435.618	163.12
435.84	153.12
436.062	155.12
436.284	147.12
436.505	148.12
436.727	135.12
436.949	132.12
437.17	143.12
437.392	155.12
437.614	167.12
437.835	164.12
438.057	155.12
438.278	179.12
438.5	237.12
438.721	251.12
438.943	178.12
439.165	167.12
439.386	146.12
439.608	147.12
439.829	141.12
440.05	137.12
440.272	154.12
440.493	165.12
440.715	213.12
440.936	181.12
441.158	165.12
441.379	155.12
441.6	168.12
441.822	186.12
442.043	154.12
442.264	162.12
442.486	147.12
442.707	156.12
442.928	144.12
443.149	154.12
443.371	186.12
443.592	177.12
443.813	153.12
444.034	157.12
444.255	149.12
444.476	153.12
444.698	155.12
444.919	168.12
445.14	294.12
445.361	219.12
445.582	185.12
445.803	178.12
446.024	166.12
446.245	167.12
446.466	183.12
446.687	174.12
446.908	166.12
447.129	168.12
447.35	153.12
447.571	148.12
447.792	151.12
448.013	152.12
448.234	129.12
448.455	161.12
448.675	146.12
448.896	154.12
449.117	149.12
449.338	135.12
449.559	154.12
449.779	145.12
450	162.12
450.221	162.12
450.442	162.12
450.662	148.12
450.883	138.12
451.104	154.12
451.324	159.12
451.545	163.12
451.766	146.12
451.986	151.12
452.207	129.12
452.428	126.12
452.648	155.12
452.869	165.12
453.089	172.12
453.31	168.12
453.53	144.12
453.751	129.12
453.971	135.12
454.192	147.12
454.412	167.12
454.633	146.12
454.853	141.12
455.073	131.12
455.294	134.12
455.514	127.12
455.734	147.12
455.955	148.12
456.175	147.12
456.395	134.12
456.616	124.12
456.836	142.12
457.056	146.12
457.276	149.12
457.497	134.12
457.717	139.12
457.937	137.12
458.157	134.12
458.377	137.12
458.598	137.12
458.818	139.12
459.038	143.12
459.258	153.12
459.478	155.12
459.698	156.12
459.918	171.12
460.138	155.12
460.358	166.12
460.578	161.12
460.798	157.12
461.018	154.12
461.238	145.12
461.458	141.12
461.678	155.12
461.898	161.12
462.118	151.12
462.338	166.12
462.558	177.12
462.777	177.12
462.997	185.12
463.217	180.12
463.437	188.12
463.657	170.12
463.876	164.12
464.096	159.12
464.316	167.12
464.536	177.12
464.755	182.12
464.975	187.12
465.195	182.12
465.414	185.12
465.634	171.12
465.854	166.12
466.073	138.12
466.293	157.12
466.512	179.12
466.732	171.12
466.951	188.12
467.171	174.12
467.391	151.12
467.61	143.12
467.829	163.12
468.049	165.12
468.268	155.12
468.488	162.12
468.707	148.12
468.927	195.12
469.146	199.12
469.365	181.12
469.585	161.12
469.804	181.12
470.023	211.12
470.243	175.12
470.462	161.12
470.681	169.12
470.901	164.12
471.12	167.12
471.339	166.12
471.558	161.12
471.777	159.12
471.997	169.12
472.216	196.12
472.435	195.12
472.654	177.12
472.873	165.12
473.092	168.12
473.311	167.12
473.53	150.12
473.749	163.12
473.968	161.12
474.187	169.12
474.406	165.12
474.625	162.12
474.844	153.12
475.063	173.12
475.282	180.12
475.501	201.12
475.72	219.12
475.939	202.12
476.158	188.12
476.377	237.12
476.596	247.12
476.814	253.12
477.033	223.12
477.252	201.12
477.471	165.12
477.69	175.12
477.908	181.12
478.127	188.12
478.346	175.12
478.564	218.12
478.783	187.12
479.002	188.12
479.22	209.12
479.439	228.12
479.658	199.12
479.876	164.12
480.095	202.12
480.313	189.12
480.532	185.12
480.751	182.12
480.969	180.12
481.188	193.12
481.406	190.12
481.624	180.12
481.843	173.12
482.061	171.12
482.28	209.12
482.498	243.12
482.717	246.12
482.935	200.12
483.153	199.12
483.372	172.12
483.59	169.12
483.808	171.12
484.027	177.12
484.245	173.12
484.463	150.12
484.681	165.12
484.9	177.12
485.118	195.12
485.336	157.12
485.554	167.12
485.772	169.12
485.99	179.12
486.209	215.12
486.427	193.12
486.645	186.12
486.863	203.12
487.081	188.12
487.299	230.12
487.517	235.12
487.735	189.12
487.953	198.12
488.171	212.12
488.389	188.12
488.607	180.12
488.825	197.12
489.043	199.12
489.261	241.12
489.479	263.12
489.696	222.12
489.914	195.12
490.132	196.12
490.35	180.12
490.568	191.12
490.786	193.12
491.003	178.12
491.221	185.12
491.439	197.12
491.657	182.12
491.874	192.12
492.092	254.12
492.31	297.12
492.527	305.12
492.745	246.12
492.963	216.12
493.18	209.12
493.398	190.12
493.615	196.12
493.833	195.12
494.05	198.12
494.268	194.12
494.485	202.12
494.703	191.12
494.92	189.12
495.138	190.12
495.355	203.12
495.573	206.12
495.79	226.12
496.008	307.12
496.225	267.12
496.442	202.12
496.66	205.12
496.877	221.12
497.094	214.12
497.312	199.12
497.529	205.12
497.746	206.12
497.963	202.12
498.181	234.12
498.398	226.12
498.615	246.12
498.832	259.12
499.049	250.12
499.267	220.12
499.484	207.12
499.701	226.12
499.918	243.12
500.135	257.12
500.352	257.12
500.569	270.12
500.786	283.12
501.003	288.12
501.22	256.12
501.437	241.12
501.654	233.12
501.871	227.12
502.088	236.12
502.305	227.12
502.522	213.12
502.739	212.12
