Data from NickelSpatula_HRD10591_16-34-26-125.txt Node
Date: Mon Jul 22 16:34:26 EDT 2019
User: cochatt
Spectrometer: HR+D1059
Trigger mode: 1
Integration Time (sec): 1.000000E-1
Scans to average: 1
Electric dark correction enabled: true
Nonlinearity correction enabled: false
Boxcar width: 0
XAxis mode: Wavelengths
Number of Pixels in Spectrum: 2048
>>>>>Begin Spectral Data<<<<<
223.165	-12.06
223.4	-12.06
223.635	-12.06
223.869	-10.06
224.104	-6.06
224.338	-21.06
224.573	-12.06
224.808	-23.06
225.042	10.94
225.277	-8.06
225.511	-14.06
225.746	-1.06
225.98	5.94
226.215	4.94
226.449	22.94
226.683	10.94
226.918	19.94
227.152	31.94
227.387	28.94
227.621	26.94
227.856	43.94
228.09	51.94
228.324	43.94
228.559	44.94
228.793	64.94
229.027	66.94
229.262	87.94
229.496	70.94
229.73	88.94
229.964	93.94
230.199	88.94
230.433	83.94
230.667	91.94
230.901	92.94
231.136	102.94
231.37	93.94
231.604	98.94
231.838	106.94
232.072	105.94
232.306	109.94
232.541	105.94
232.775	104.94
233.009	98.94
233.243	109.94
233.477	118.94
233.711	132.94
233.945	115.94
234.179	119.94
234.413	121.94
234.647	120.94
234.881	140.94
235.115	132.94
235.349	121.94
235.583	117.94
235.817	117.94
236.051	122.94
236.285	146.94
236.519	141.94
236.753	146.94
236.987	135.94
237.221	128.94
237.455	144.94
237.689	138.94
237.922	158.94
238.156	139.94
238.39	149.94
238.624	162.94
238.858	156.94
239.091	155.94
239.325	148.94
239.559	140.94
239.793	149.94
240.027	150.94
240.26	152.94
240.494	155.94
240.728	163.94
240.961	173.94
241.195	162.94
241.429	159.94
241.662	169.94
241.896	153.94
242.13	129.94
242.363	144.94
242.597	147.94
242.83	149.94
243.064	164.94
243.298	155.94
243.531	179.94
243.765	162.94
243.998	166.94
244.232	155.94
244.465	161.94
244.699	157.94
244.932	173.94
245.166	171.94
245.399	161.94
245.633	164.94
245.866	166.94
246.099	162.94
246.333	180.94
246.566	192.94
246.8	210.94
247.033	199.94
247.266	193.94
247.5	196.94
247.733	172.94
247.966	177.94
248.2	178.94
248.433	198.94
248.666	216.94
248.899	206.94
249.133	207.94
249.366	212.94
249.599	251.94
249.832	236.94
250.066	188.94
250.299	203.94
250.532	195.94
250.765	203.94
250.998	193.94
251.231	190.94
251.465	211.94
251.698	200.94
251.931	214.94
252.164	212.94
252.397	227.94
252.63	245.94
252.863	266.94
253.096	282.94
253.329	276.94
253.562	259.94
253.795	304.94
254.028	316.94
254.261	327.94
254.494	276.94
254.727	254.94
254.96	259.94
255.193	280.94
255.426	267.94
255.659	212.94
255.892	200.94
256.124	218.94
256.357	250.94
256.59	280.94
256.823	268.94
257.056	227.94
257.289	221.94
257.521	229.94
257.754	274.94
257.987	299.94
258.22	286.94
258.452	248.94
258.685	253.94
258.918	283.94
259.151	276.94
259.383	307.94
259.616	318.94
259.849	357.94
260.081	356.94
260.314	387.94
260.547	323.94
260.779	322.94
261.012	363.94
261.244	344.94
261.477	358.94
261.71	329.94
261.942	295.94
262.175	305.94
262.407	283.94
262.64	273.94
262.872	349.94
263.105	372.94
263.337	372.94
263.57	365.94
263.802	244.94
264.035	235.94
264.267	220.94
264.499	211.94
264.732	208.94
264.964	176.94
265.197	198.94
265.429	198.94
265.661	200.94
265.894	219.94
266.126	215.94
266.358	236.94
266.591	280.94
266.823	332.94
267.055	306.94
267.287	286.94
267.52	313.94
267.752	308.94
267.984	339.94
268.216	314.94
268.448	271.94
268.681	265.94
268.913	280.94
269.145	290.94
269.377	287.94
269.609	310.94
269.841	298.94
270.073	294.94
270.306	332.94
270.538	323.94
270.77	330.94
271.002	329.94
271.234	352.94
271.466	361.94
271.698	308.94
271.93	315.94
272.162	300.94
272.394	324.94
272.626	292.94
272.858	331.94
273.09	314.94
273.322	293.94
273.553	266.94
273.785	325.94
274.017	390.94
274.249	454.94
274.481	493.94
274.713	541.94
274.945	574.94
275.176	636.94
275.408	576.94
275.64	548.94
275.872	536.94
276.104	469.94
276.335	418.94
276.567	416.94
276.799	418.94
277.031	444.94
277.262	361.94
277.494	284.94
277.726	273.94
277.957	307.94
278.189	329.94
278.421	322.94
278.652	323.94
278.884	324.94
279.115	266.94
279.347	252.94
279.579	284.94
279.81	276.94
280.042	289.94
280.273	282.94
280.505	282.94
280.736	243.94
280.968	230.94
281.199	257.94
281.431	298.94
281.662	270.94
281.894	272.94
282.125	295.94
282.356	305.94
282.588	327.94
282.819	288.94
283.051	293.94
283.282	348.94
283.513	402.94
283.745	413.94
283.976	452.94
284.207	414.94
284.439	416.94
284.67	431.94
284.901	365.94
285.132	400.94
285.364	428.94
285.595	399.94
285.826	398.94
286.057	424.94
286.288	406.94
286.52	416.94
286.751	441.94
286.982	440.94
287.213	399.94
287.444	359.94
287.675	400.94
287.906	400.94
288.138	333.94
288.369	314.94
288.6	293.94
288.831	312.94
289.062	338.94
289.293	373.94
289.524	372.94
289.755	344.94
289.986	358.94
290.217	340.94
290.448	263.94
290.679	228.94
290.91	217.94
291.141	207.94
291.371	231.94
291.602	232.94
291.833	246.94
292.064	231.94
292.295	274.94
292.526	294.94
292.757	341.94
292.987	316.94
293.218	369.94
293.449	340.94
293.68	378.94
293.91	355.94
294.141	371.94
294.372	355.94
294.603	312.94
294.833	342.94
295.064	414.94
295.295	400.94
295.525	293.94
295.756	258.94
295.987	225.94
296.217	221.94
296.448	218.94
296.679	254.94
296.909	262.94
297.14	247.94
297.37	308.94
297.601	303.94
297.831	265.94
298.062	268.94
298.292	297.94
298.523	300.94
298.753	351.94
298.984	336.94
299.214	297.94
299.445	250.94
299.675	223.94
299.905	229.94
300.136	224.94
300.366	246.94
300.597	249.94
300.827	253.94
301.057	217.94
301.288	225.94
301.518	224.94
301.748	268.94
301.979	274.94
302.209	293.94
302.439	305.94
302.669	261.94
302.9	266.94
303.13	263.94
303.36	251.94
303.59	250.94
303.82	244.94
304.051	271.94
304.281	299.94
304.511	280.94
304.741	265.94
304.971	253.94
305.201	282.94
305.431	278.94
305.661	241.94
305.891	244.94
306.121	258.94
306.352	206.94
306.582	196.94
306.812	191.94
307.042	196.94
307.272	197.94
307.502	196.94
307.731	201.94
307.961	219.94
308.191	183.94
308.421	182.94
308.651	195.94
308.881	190.94
309.111	195.94
309.341	194.94
309.571	193.94
309.8	190.94
310.03	219.94
310.26	215.94
310.49	220.94
310.72	208.94
310.949	214.94
311.179	216.94
311.409	217.94
311.639	228.94
311.868	269.94
312.098	362.94
312.328	416.94
312.557	388.94
312.787	392.94
313.017	354.94
313.246	364.94
313.476	418.94
313.706	335.94
313.935	270.94
314.165	232.94
314.394	223.94
314.624	220.94
314.853	230.94
315.083	237.94
315.312	221.94
315.542	231.94
315.771	217.94
316.001	212.94
316.23	201.94
316.46	192.94
316.689	199.94
316.919	218.94
317.148	204.94
317.377	206.94
317.607	203.94
317.836	216.94
318.065	222.94
318.295	279.94
318.524	257.94
318.753	224.94
318.983	198.94
319.212	204.94
319.441	219.94
319.67	231.94
319.9	268.94
320.129	261.94
320.358	207.94
320.587	218.94
320.816	208.94
321.046	245.94
321.275	285.94
321.504	270.94
321.733	266.94
321.962	262.94
322.191	249.94
322.42	230.94
322.649	245.94
322.878	254.94
323.108	268.94
323.337	265.94
323.566	223.94
323.795	227.94
324.024	238.94
324.253	218.94
324.482	216.94
324.71	222.94
324.939	237.94
325.168	244.94
325.397	215.94
325.626	204.94
325.855	212.94
326.084	193.94
326.313	202.94
326.542	186.94
326.77	233.94
326.999	220.94
327.228	220.94
327.457	227.94
327.686	195.94
327.914	201.94
328.143	186.94
328.372	185.94
328.6	197.94
328.829	181.94
329.058	181.94
329.287	200.94
329.515	206.94
329.744	209.94
329.972	197.94
330.201	181.94
330.43	183.94
330.658	206.94
330.887	226.94
331.115	221.94
331.344	225.94
331.572	212.94
331.801	203.94
332.03	184.94
332.258	192.94
332.486	223.94
332.715	231.94
332.943	225.94
333.172	212.94
333.4	210.94
333.629	234.94
333.857	245.94
334.085	256.94
334.314	250.94
334.542	247.94
334.771	219.94
334.999	214.94
335.227	224.94
335.455	192.94
335.684	214.94
335.912	253.94
336.14	283.94
336.369	264.94
336.597	260.94
336.825	294.94
337.053	312.94
337.281	252.94
337.51	200.94
337.738	209.94
337.966	226.94
338.194	253.94
338.422	254.94
338.65	213.94
338.878	196.94
339.106	200.94
339.334	220.94
339.562	225.94
339.79	217.94
340.018	205.94
340.246	213.94
340.474	242.94
340.702	248.94
340.93	266.94
341.158	262.94
341.386	230.94
341.614	204.94
341.842	226.94
342.07	247.94
342.298	260.94
342.526	304.94
342.754	250.94
342.981	216.94
343.209	228.94
343.437	222.94
343.665	267.94
343.893	266.94
344.12	306.94
344.348	328.94
344.576	299.94
344.804	246.94
345.031	219.94
345.259	214.94
345.487	215.94
345.714	227.94
345.942	233.94
346.17	254.94
346.397	235.94
346.625	224.94
346.853	220.94
347.08	203.94
347.308	220.94
347.535	244.94
347.763	258.94
347.99	214.94
348.218	190.94
348.445	206.94
348.673	228.94
348.9	217.94
349.128	225.94
349.355	216.94
349.583	224.94
349.81	209.94
350.037	215.94
350.265	189.94
350.492	180.94
350.72	188.94
350.947	169.94
351.174	196.94
351.402	200.94
351.629	207.94
351.856	205.94
352.083	198.94
352.311	205.94
352.538	210.94
352.765	242.94
352.992	239.94
353.22	201.94
353.447	233.94
353.674	232.94
353.901	214.94
354.128	210.94
354.355	220.94
354.583	209.94
354.81	215.94
355.037	226.94
355.264	210.94
355.491	218.94
355.718	230.94
355.945	235.94
356.172	210.94
356.399	221.94
356.626	265.94
356.853	312.94
357.08	329.94
357.307	354.94
357.534	264.94
357.761	269.94
357.988	323.94
358.215	356.94
358.441	351.94
358.668	326.94
358.895	294.94
359.122	244.94
359.349	246.94
359.576	249.94
359.802	246.94
360.029	215.94
360.256	208.94
360.483	244.94
360.709	296.94
360.936	312.94
361.163	292.94
361.39	246.94
361.616	216.94
361.843	227.94
362.07	283.94
362.296	250.94
362.523	216.94
362.749	181.94
362.976	207.94
363.203	233.94
363.429	252.94
363.656	220.94
363.882	212.94
364.109	220.94
364.335	237.94
364.562	199.94
364.788	233.94
365.015	256.94
365.241	244.94
365.468	200.94
365.694	188.94
365.92	201.94
366.147	176.94
366.373	171.94
366.599	189.94
366.826	162.94
367.052	167.94
367.278	176.94
367.505	185.94
367.731	197.94
367.957	220.94
368.184	214.94
368.41	202.94
368.636	206.94
368.862	216.94
369.089	202.94
369.315	178.94
369.541	206.94
369.767	180.94
369.993	195.94
370.219	186.94
370.445	185.94
370.672	214.94
370.898	216.94
371.124	222.94
371.35	212.94
371.576	197.94
371.802	201.94
372.028	245.94
372.254	253.94
372.48	228.94
372.706	212.94
372.932	258.94
373.158	237.94
373.384	250.94
373.61	312.94
373.835	320.94
374.061	260.94
374.287	223.94
374.513	284.94
374.739	310.94
374.965	301.94
375.191	308.94
375.416	241.94
375.642	221.94
375.868	230.94
376.094	277.94
376.319	222.94
376.545	232.94
376.771	269.94
376.997	241.94
377.222	197.94
377.448	178.94
377.674	170.94
377.899	167.94
378.125	169.94
378.35	164.94
378.576	163.94
378.802	191.94
379.027	204.94
379.253	226.94
379.478	213.94
379.704	214.94
379.929	243.94
380.155	214.94
380.38	197.94
380.606	205.94
380.831	243.94
381.057	235.94
381.282	213.94
381.507	224.94
381.733	276.94
381.958	270.94
382.184	287.94
382.409	321.94
382.634	311.94
382.86	327.94
383.085	272.94
383.31	237.94
383.535	235.94
383.761	279.94
383.986	223.94
384.211	262.94
384.436	264.94
384.662	244.94
384.887	221.94
385.112	206.94
385.337	232.94
385.562	244.94
385.787	252.94
386.013	259.94
386.238	270.94
386.463	211.94
386.688	214.94
386.913	212.94
387.138	192.94
387.363	221.94
387.588	220.94
387.813	214.94
388.038	217.94
388.263	206.94
388.488	204.94
388.713	230.94
388.938	258.94
389.163	216.94
389.387	197.94
389.612	196.94
389.837	209.94
390.062	232.94
390.287	203.94
390.512	219.94
390.736	194.94
390.961	202.94
391.186	208.94
391.411	187.94
391.636	192.94
391.86	219.94
392.085	221.94
392.31	237.94
392.534	229.94
392.759	195.94
392.984	207.94
393.208	230.94
393.433	200.94
393.658	206.94
393.882	202.94
394.107	181.94
394.331	169.94
394.556	184.94
394.78	175.94
395.005	183.94
395.229	188.94
395.454	204.94
395.678	210.94
395.903	210.94
396.127	196.94
396.352	196.94
396.576	229.94
396.801	230.94
397.025	231.94
397.249	245.94
397.474	202.94
397.698	216.94
397.922	221.94
398.147	197.94
398.371	200.94
398.595	224.94
398.82	208.94
399.044	225.94
399.268	234.94
399.492	212.94
399.717	233.94
399.941	240.94
400.165	228.94
400.389	211.94
400.613	229.94
400.837	218.94
401.062	204.94
401.286	204.94
401.51	189.94
401.734	208.94
401.958	220.94
402.182	213.94
402.406	213.94
402.63	210.94
402.854	209.94
403.078	230.94
403.302	310.94
403.526	316.94
403.75	294.94
403.974	242.94
404.198	257.94
404.422	260.94
404.645	277.94
404.869	312.94
405.093	272.94
405.317	210.94
405.541	221.94
405.765	237.94
405.988	235.94
406.212	242.94
406.436	274.94
406.66	304.94
406.883	245.94
407.107	257.94
407.331	269.94
407.555	283.94
407.778	253.94
408.002	230.94
408.226	247.94
408.449	242.94
408.673	234.94
408.896	226.94
409.12	204.94
409.344	197.94
409.567	213.94
409.791	219.94
410.014	220.94
410.238	202.94
410.461	197.94
410.685	210.94
410.908	206.94
411.132	213.94
411.355	219.94
411.578	228.94
411.802	217.94
412.025	226.94
412.249	227.94
412.472	208.94
412.695	220.94
412.919	213.94
413.142	218.94
413.365	236.94
413.589	219.94
413.812	217.94
414.035	212.94
414.258	206.94
414.482	242.94
414.705	233.94
414.928	214.94
415.151	201.94
415.374	198.94
415.597	208.94
415.821	194.94
416.044	200.94
416.267	202.94
416.49	203.94
416.713	190.94
416.936	200.94
417.159	187.94
417.382	196.94
417.605	194.94
417.828	218.94
418.051	201.94
418.274	221.94
418.497	203.94
418.72	227.94
418.943	246.94
419.166	234.94
419.389	253.94
419.611	231.94
419.834	211.94
420.057	249.94
420.28	249.94
420.503	216.94
420.726	206.94
420.948	200.94
421.171	215.94
421.394	205.94
421.617	204.94
421.839	202.94
422.062	202.94
422.285	189.94
422.507	210.94
422.73	220.94
422.953	217.94
423.175	198.94
423.398	221.94
423.621	246.94
423.843	238.94
424.066	229.94
424.288	221.94
424.511	198.94
424.733	211.94
424.956	223.94
425.178	230.94
425.401	277.94
425.623	301.94
425.846	245.94
426.068	208.94
426.291	244.94
426.513	225.94
426.735	215.94
426.958	231.94
427.18	228.94
427.402	294.94
427.625	290.94
427.847	265.94
428.069	219.94
428.292	206.94
428.514	213.94
428.736	209.94
428.958	225.94
429.181	259.94
429.403	229.94
429.625	206.94
429.847	184.94
430.069	197.94
430.292	205.94
430.514	200.94
430.736	216.94
430.958	265.94
431.18	229.94
431.402	182.94
431.624	196.94
431.846	199.94
432.068	178.94
432.29	187.94
432.512	180.94
432.734	232.94
432.956	244.94
433.178	200.94
433.4	197.94
433.622	196.94
433.844	214.94
434.066	222.94
434.287	214.94
434.509	201.94
434.731	211.94
434.953	221.94
435.175	218.94
435.397	240.94
435.618	210.94
435.84	172.94
436.062	191.94
436.284	197.94
436.505	180.94
436.727	196.94
436.949	188.94
437.17	191.94
437.392	189.94
437.614	196.94
437.835	190.94
438.057	187.94
438.278	211.94
438.5	273.94
438.721	291.94
438.943	236.94
439.165	177.94
439.386	174.94
439.608	190.94
439.829	177.94
440.05	182.94
440.272	207.94
440.493	222.94
440.715	246.94
440.936	215.94
441.158	208.94
441.379	205.94
441.6	230.94
441.822	225.94
442.043	192.94
442.264	196.94
442.486	200.94
442.707	183.94
442.928	189.94
443.149	207.94
443.371	206.94
443.592	198.94
443.813	232.94
444.034	217.94
444.255	215.94
444.476	215.94
444.698	217.94
444.919	199.94
445.14	342.94
445.361	292.94
445.582	220.94
445.803	218.94
446.024	220.94
446.245	223.94
446.466	205.94
446.687	202.94
446.908	212.94
447.129	171.94
447.35	188.94
447.571	187.94
447.792	179.94
448.013	179.94
448.234	190.94
448.455	192.94
448.675	194.94
448.896	179.94
449.117	200.94
449.338	202.94
449.559	185.94
449.779	203.94
450	219.94
450.221	188.94
450.442	171.94
450.662	184.94
450.883	187.94
451.104	188.94
451.324	165.94
451.545	189.94
451.766	178.94
451.986	173.94
452.207	178.94
452.428	188.94
452.648	171.94
452.869	178.94
453.089	189.94
453.31	192.94
453.53	174.94
453.751	186.94
453.971	189.94
454.192	164.94
454.412	189.94
454.633	205.94
454.853	184.94
455.073	186.94
455.294	168.94
455.514	165.94
455.734	179.94
455.955	185.94
456.175	200.94
456.395	181.94
456.616	183.94
456.836	155.94
457.056	173.94
457.276	176.94
457.497	174.94
457.717	174.94
457.937	161.94
458.157	185.94
458.377	170.94
458.598	188.94
458.818	165.94
459.038	192.94
459.258	185.94
459.478	202.94
459.698	192.94
459.918	199.94
460.138	201.94
460.358	213.94
460.578	213.94
460.798	196.94
461.018	207.94
461.238	184.94
461.458	192.94
461.678	207.94
461.898	228.94
462.118	199.94
462.338	208.94
462.558	232.94
462.777	230.94
462.997	229.94
463.217	252.94
463.437	239.94
463.657	242.94
463.876	218.94
464.096	221.94
464.316	209.94
464.536	211.94
464.755	254.94
464.975	225.94
465.195	218.94
465.414	238.94
465.634	224.94
465.854	212.94
466.073	186.94
466.293	210.94
466.512	209.94
466.732	226.94
466.951	236.94
467.171	195.94
467.391	193.94
467.61	195.94
467.829	202.94
468.049	211.94
468.268	199.94
468.488	198.94
468.707	201.94
468.927	218.94
469.146	246.94
469.365	212.94
469.585	214.94
469.804	202.94
470.023	245.94
470.243	203.94
470.462	216.94
470.681	209.94
470.901	206.94
471.12	214.94
471.339	203.94
471.558	213.94
471.777	202.94
471.997	211.94
472.216	245.94
472.435	235.94
472.654	210.94
472.873	220.94
473.092	224.94
473.311	221.94
473.53	228.94
473.749	199.94
473.968	227.94
474.187	217.94
474.406	215.94
474.625	203.94
474.844	196.94
475.063	210.94
475.282	220.94
475.501	240.94
475.72	259.94
475.939	242.94
476.158	235.94
476.377	265.94
476.596	310.94
476.814	321.94
477.033	271.94
477.252	236.94
477.471	209.94
477.69	217.94
477.908	228.94
478.127	242.94
478.346	228.94
478.564	264.94
478.783	240.94
479.002	238.94
479.22	264.94
479.439	273.94
479.658	247.94
479.876	249.94
480.095	254.94
480.313	260.94
480.532	243.94
480.751	236.94
480.969	237.94
481.188	260.94
481.406	270.94
481.624	252.94
481.843	248.94
482.061	243.94
482.28	248.94
482.498	311.94
482.717	309.94
482.935	236.94
483.153	230.94
483.372	213.94
483.59	215.94
483.808	228.94
484.027	226.94
484.245	210.94
484.463	218.94
484.681	215.94
484.9	241.94
485.118	253.94
485.336	223.94
485.554	236.94
485.772	241.94
485.99	260.94
486.209	274.94
486.427	250.94
486.645	252.94
486.863	258.94
487.081	281.94
487.299	291.94
487.517	274.94
487.735	240.94
487.953	259.94
488.171	248.94
488.389	252.94
488.607	229.94
488.825	235.94
489.043	261.94
489.261	299.94
489.479	334.94
489.696	265.94
489.914	232.94
490.132	224.94
490.35	227.94
490.568	212.94
490.786	236.94
491.003	222.94
491.221	231.94
491.439	229.94
491.657	224.94
491.874	240.94
492.092	294.94
492.31	340.94
492.527	354.94
492.745	300.94
492.963	260.94
493.18	269.94
493.398	274.94
493.615	274.94
493.833	254.94
494.05	258.94
494.268	268.94
494.485	268.94
494.703	259.94
494.92	262.94
495.138	257.94
495.355	261.94
495.573	251.94
495.79	271.94
496.008	363.94
496.225	298.94
496.442	247.94
496.66	277.94
496.877	279.94
497.094	280.94
497.312	275.94
497.529	263.94
497.746	247.94
497.963	261.94
498.181	293.94
498.398	321.94
498.615	333.94
498.832	331.94
499.049	359.94
499.267	316.94
499.484	336.94
499.701	346.94
499.918	385.94
500.135	412.94
500.352	422.94
500.569	445.94
500.786	462.94
501.003	447.94
501.22	399.94
501.437	385.94
501.654	359.94
501.871	327.94
502.088	338.94
502.305	309.94
502.522	288.94
502.739	312.94
