Data from NickelSpatula.Lamp.E5.5.P2_HRD10591_11-52-42-553.txt Node
Date: Tue Jul 23 11:52:42 EDT 2019
User: cochatt
Spectrometer: HR+D1059
Trigger mode: 1
Integration Time (sec): 1.000000E-1
Scans to average: 1
Electric dark correction enabled: true
Nonlinearity correction enabled: false
Boxcar width: 0
XAxis mode: Wavelengths
Number of Pixels in Spectrum: 2048
>>>>>Begin Spectral Data<<<<<
223.165	-10.06
223.4	-10.06
223.635	-10.06
223.869	-13.06
224.104	-14.06
224.338	-6.06
224.573	-21.06
224.808	-10.06
225.042	-5.06
225.277	-9.06
225.511	-10.06
225.746	-7.06
225.98	-0.06
226.215	7.94
226.449	7.94
226.683	23.94
226.918	33.94
227.152	31.94
227.387	37.94
227.621	45.94
227.856	31.94
228.09	36.94
228.324	52.94
228.559	54.94
228.793	52.94
229.027	85.94
229.262	78.94
229.496	98.94
229.73	86.94
229.964	96.94
230.199	95.94
230.433	101.94
230.667	88.94
230.901	98.94
231.136	94.94
231.37	110.94
231.604	119.94
231.838	111.94
232.072	108.94
232.306	98.94
232.541	97.94
232.775	95.94
233.009	102.94
233.243	115.94
233.477	114.94
233.711	132.94
233.945	121.94
234.179	116.94
234.413	108.94
234.647	126.94
234.881	141.94
235.115	134.94
235.349	136.94
235.583	121.94
235.817	116.94
236.051	126.94
236.285	127.94
236.519	124.94
236.753	134.94
236.987	142.94
237.221	134.94
237.455	125.94
237.689	137.94
237.922	128.94
238.156	138.94
238.39	153.94
238.624	170.94
238.858	166.94
239.091	151.94
239.325	133.94
239.559	140.94
239.793	141.94
240.027	171.94
240.26	161.94
240.494	156.94
240.728	171.94
240.961	182.94
241.195	174.94
241.429	152.94
241.662	159.94
241.896	145.94
242.13	143.94
242.363	140.94
242.597	146.94
242.83	129.94
243.064	168.94
243.298	168.94
243.531	171.94
243.765	171.94
243.998	162.94
244.232	160.94
244.465	179.94
244.699	158.94
244.932	170.94
245.166	166.94
245.399	164.94
245.633	161.94
245.866	150.94
246.099	156.94
246.333	183.94
246.566	187.94
246.8	200.94
247.033	188.94
247.266	177.94
247.5	178.94
247.733	187.94
247.966	180.94
248.2	186.94
248.433	196.94
248.666	198.94
248.899	199.94
249.133	212.94
249.366	227.94
249.599	228.94
249.832	203.94
250.066	208.94
250.299	194.94
250.532	207.94
250.765	198.94
250.998	183.94
251.231	177.94
251.465	178.94
251.698	208.94
251.931	193.94
252.164	185.94
252.397	199.94
252.63	233.94
252.863	255.94
253.096	268.94
253.329	251.94
253.562	260.94
253.795	284.94
254.028	299.94
254.261	312.94
254.494	283.94
254.727	254.94
254.96	254.94
255.193	271.94
255.426	252.94
255.659	211.94
255.892	180.94
256.124	200.94
256.357	245.94
256.59	276.94
256.823	266.94
257.056	226.94
257.289	234.94
257.521	232.94
257.754	264.94
257.987	295.94
258.22	260.94
258.452	220.94
258.685	270.94
258.918	283.94
259.151	278.94
259.383	294.94
259.616	350.94
259.849	346.94
260.081	357.94
260.314	392.94
260.547	321.94
260.779	342.94
261.012	360.94
261.244	357.94
261.477	347.94
261.71	344.94
261.942	295.94
262.175	266.94
262.407	280.94
262.64	277.94
262.872	319.94
263.105	359.94
263.337	347.94
263.57	354.94
263.802	254.94
264.035	232.94
264.267	227.94
264.499	206.94
264.732	188.94
264.964	178.94
265.197	180.94
265.429	178.94
265.661	202.94
265.894	209.94
266.126	232.94
266.358	222.94
266.591	282.94
266.823	318.94
267.055	292.94
267.287	286.94
267.52	302.94
267.752	286.94
267.984	321.94
268.216	291.94
268.448	271.94
268.681	247.94
268.913	283.94
269.145	283.94
269.377	290.94
269.609	294.94
269.841	286.94
270.073	290.94
270.306	309.94
270.538	314.94
270.77	297.94
271.002	305.94
271.234	328.94
271.466	345.94
271.698	309.94
271.93	298.94
272.162	320.94
272.394	297.94
272.626	278.94
272.858	287.94
273.09	316.94
273.322	270.94
273.553	243.94
273.785	282.94
274.017	392.94
274.249	480.94
274.481	508.94
274.713	532.94
274.945	599.94
275.176	616.94
275.408	529.94
275.64	510.94
275.872	521.94
276.104	422.94
276.335	402.94
276.567	396.94
276.799	398.94
277.031	415.94
277.262	327.94
277.494	280.94
277.726	266.94
277.957	282.94
278.189	332.94
278.421	289.94
278.652	307.94
278.884	302.94
279.115	293.94
279.347	266.94
279.579	273.94
279.81	276.94
280.042	286.94
280.273	280.94
280.505	243.94
280.736	235.94
280.968	232.94
281.199	241.94
281.431	293.94
281.662	289.94
281.894	263.94
282.125	278.94
282.356	294.94
282.588	314.94
282.819	268.94
283.051	297.94
283.282	336.94
283.513	380.94
283.745	444.94
283.976	436.94
284.207	387.94
284.439	401.94
284.67	404.94
284.901	369.94
285.132	382.94
285.364	384.94
285.595	384.94
285.826	383.94
286.057	410.94
286.288	394.94
286.52	414.94
286.751	438.94
286.982	407.94
287.213	358.94
287.444	370.94
287.675	391.94
287.906	374.94
288.138	303.94
288.369	307.94
288.6	274.94
288.831	297.94
289.062	344.94
289.293	378.94
289.524	347.94
289.755	344.94
289.986	349.94
290.217	311.94
290.448	257.94
290.679	231.94
290.91	219.94
291.141	215.94
291.371	221.94
291.602	236.94
291.833	235.94
292.064	244.94
292.295	265.94
292.526	307.94
292.757	303.94
292.987	347.94
293.218	344.94
293.449	339.94
293.68	357.94
293.91	346.94
294.141	359.94
294.372	332.94
294.603	339.94
294.833	335.94
295.064	397.94
295.295	370.94
295.525	294.94
295.756	260.94
295.987	254.94
296.217	230.94
296.448	248.94
296.679	256.94
296.909	277.94
297.14	283.94
297.37	316.94
297.601	290.94
297.831	272.94
298.062	272.94
298.292	304.94
298.523	324.94
298.753	367.94
298.984	334.94
299.214	286.94
299.445	249.94
299.675	240.94
299.905	219.94
300.136	229.94
300.366	261.94
300.597	263.94
300.827	260.94
301.057	238.94
301.288	226.94
301.518	228.94
301.748	257.94
301.979	288.94
302.209	310.94
302.439	305.94
302.669	303.94
302.9	265.94
303.13	242.94
303.36	258.94
303.59	239.94
303.82	260.94
304.051	273.94
304.281	308.94
304.511	277.94
304.741	269.94
304.971	271.94
305.201	291.94
305.431	272.94
305.661	248.94
305.891	242.94
306.121	246.94
306.352	204.94
306.582	224.94
306.812	211.94
307.042	192.94
307.272	194.94
307.502	200.94
307.731	202.94
307.961	218.94
308.191	213.94
308.421	200.94
308.651	210.94
308.881	193.94
309.111	199.94
309.341	203.94
309.571	231.94
309.8	211.94
310.03	212.94
310.26	234.94
310.49	190.94
310.72	205.94
310.949	189.94
311.179	202.94
311.409	211.94
311.639	234.94
311.868	283.94
312.098	382.94
312.328	380.94
312.557	394.94
312.787	382.94
313.017	337.94
313.246	356.94
313.476	408.94
313.706	362.94
313.935	293.94
314.165	227.94
314.394	224.94
314.624	210.94
314.853	227.94
315.083	227.94
315.312	240.94
315.542	238.94
315.771	211.94
316.001	208.94
316.23	186.94
316.46	215.94
316.689	201.94
316.919	201.94
317.148	202.94
317.377	194.94
317.607	216.94
317.836	225.94
318.065	250.94
318.295	279.94
318.524	260.94
318.753	226.94
318.983	208.94
319.212	208.94
319.441	222.94
319.67	241.94
319.9	253.94
320.129	260.94
320.358	226.94
320.587	218.94
320.816	225.94
321.046	241.94
321.275	262.94
321.504	294.94
321.733	252.94
321.962	258.94
322.191	259.94
322.42	228.94
322.649	228.94
322.878	262.94
323.108	256.94
323.337	235.94
323.566	264.94
323.795	225.94
324.024	213.94
324.253	216.94
324.482	203.94
324.71	231.94
324.939	265.94
325.168	246.94
325.397	232.94
325.626	223.94
325.855	223.94
326.084	233.94
326.313	218.94
326.542	207.94
326.77	198.94
326.999	218.94
327.228	217.94
327.457	252.94
327.686	232.94
327.914	202.94
328.143	222.94
328.372	194.94
328.6	209.94
328.829	201.94
329.058	219.94
329.287	200.94
329.515	221.94
329.744	203.94
329.972	188.94
330.201	201.94
330.43	199.94
330.658	233.94
330.887	233.94
331.115	242.94
331.344	234.94
331.572	224.94
331.801	212.94
332.03	208.94
332.258	203.94
332.486	232.94
332.715	228.94
332.943	227.94
333.172	228.94
333.4	222.94
333.629	245.94
333.857	247.94
334.085	256.94
334.314	261.94
334.542	241.94
334.771	238.94
334.999	232.94
335.227	221.94
335.455	219.94
335.684	242.94
335.912	275.94
336.14	275.94
336.369	273.94
336.597	255.94
336.825	302.94
337.053	293.94
337.281	264.94
337.51	217.94
337.738	231.94
337.966	247.94
338.194	264.94
338.422	262.94
338.65	231.94
338.878	210.94
339.106	216.94
339.334	228.94
339.562	243.94
339.79	254.94
340.018	214.94
340.246	239.94
340.474	244.94
340.702	260.94
340.93	279.94
341.158	294.94
341.386	244.94
341.614	248.94
341.842	242.94
342.07	250.94
342.298	291.94
342.526	298.94
342.754	269.94
342.981	245.94
343.209	244.94
343.437	239.94
343.665	257.94
343.893	252.94
344.12	299.94
344.348	346.94
344.576	331.94
344.804	260.94
345.031	243.94
345.259	224.94
345.487	235.94
345.714	227.94
345.942	263.94
346.17	261.94
346.397	255.94
346.625	235.94
346.853	207.94
347.08	219.94
347.308	234.94
347.535	252.94
347.763	251.94
347.99	248.94
348.218	215.94
348.445	237.94
348.673	242.94
348.9	229.94
349.128	238.94
349.355	254.94
349.583	232.94
349.81	221.94
350.037	221.94
350.265	198.94
350.492	203.94
350.72	198.94
350.947	190.94
351.174	193.94
351.402	212.94
351.629	242.94
351.856	209.94
352.083	213.94
352.311	217.94
352.538	252.94
352.765	231.94
352.992	235.94
353.22	217.94
353.447	235.94
353.674	246.94
353.901	222.94
354.128	209.94
354.355	228.94
354.583	217.94
354.81	233.94
355.037	241.94
355.264	234.94
355.491	242.94
355.718	238.94
355.945	269.94
356.172	242.94
356.399	240.94
356.626	286.94
356.853	327.94
357.08	351.94
357.307	357.94
357.534	275.94
357.761	299.94
357.988	357.94
358.215	404.94
358.441	387.94
358.668	317.94
358.895	314.94
359.122	287.94
359.349	266.94
359.576	294.94
359.802	251.94
360.029	220.94
360.256	242.94
360.483	288.94
360.709	354.94
360.936	343.94
361.163	297.94
361.39	244.94
361.616	229.94
361.843	268.94
362.07	283.94
362.296	274.94
362.523	247.94
362.749	212.94
362.976	218.94
363.203	255.94
363.429	282.94
363.656	248.94
363.882	231.94
364.109	232.94
364.335	227.94
364.562	231.94
364.788	260.94
365.015	291.94
365.241	242.94
365.468	230.94
365.694	184.94
365.92	199.94
366.147	192.94
366.373	203.94
366.599	186.94
366.826	194.94
367.052	201.94
367.278	199.94
367.505	207.94
367.731	212.94
367.957	220.94
368.184	227.94
368.41	243.94
368.636	217.94
368.862	236.94
369.089	228.94
369.315	203.94
369.541	219.94
369.767	204.94
369.993	192.94
370.219	198.94
370.445	216.94
370.672	241.94
370.898	246.94
371.124	242.94
371.35	209.94
371.576	212.94
371.802	221.94
372.028	267.94
372.254	288.94
372.48	264.94
372.706	227.94
372.932	250.94
373.158	263.94
373.384	307.94
373.61	363.94
373.835	375.94
374.061	282.94
374.287	251.94
374.513	289.94
374.739	345.94
374.965	357.94
375.191	337.94
375.416	259.94
375.642	242.94
375.868	270.94
376.094	276.94
376.319	258.94
376.545	277.94
376.771	310.94
376.997	259.94
377.222	209.94
377.448	176.94
377.674	207.94
377.899	191.94
378.125	202.94
378.35	196.94
378.576	193.94
378.802	208.94
379.027	223.94
379.253	212.94
379.478	221.94
379.704	233.94
379.929	236.94
380.155	233.94
380.38	216.94
380.606	220.94
380.831	252.94
381.057	262.94
381.282	242.94
381.507	254.94
381.733	310.94
381.958	341.94
382.184	330.94
382.409	344.94
382.634	351.94
382.86	354.94
383.085	304.94
383.31	260.94
383.535	271.94
383.761	283.94
383.986	277.94
384.211	309.94
384.436	295.94
384.662	248.94
384.887	226.94
385.112	250.94
385.337	251.94
385.562	248.94
385.787	248.94
386.013	291.94
386.238	264.94
386.463	254.94
386.688	252.94
386.913	242.94
387.138	222.94
387.363	231.94
387.588	240.94
387.813	240.94
388.038	247.94
388.263	235.94
388.488	220.94
388.713	268.94
388.938	279.94
389.163	231.94
389.387	209.94
389.612	223.94
389.837	216.94
390.062	250.94
390.287	237.94
390.512	233.94
390.736	227.94
390.961	205.94
391.186	206.94
391.411	216.94
391.636	205.94
391.86	241.94
392.085	250.94
392.31	249.94
392.534	248.94
392.759	225.94
392.984	250.94
393.208	254.94
393.433	232.94
393.658	212.94
393.882	203.94
394.107	202.94
394.331	222.94
394.556	214.94
394.78	189.94
395.005	209.94
395.229	209.94
395.454	216.94
395.678	217.94
395.903	231.94
396.127	225.94
396.352	198.94
396.576	222.94
396.801	239.94
397.025	239.94
397.249	269.94
397.474	226.94
397.698	231.94
397.922	250.94
398.147	230.94
398.371	226.94
398.595	247.94
398.82	227.94
399.044	243.94
399.268	272.94
399.492	274.94
399.717	272.94
399.941	292.94
400.165	275.94
400.389	246.94
400.613	246.94
400.837	240.94
401.062	251.94
401.286	226.94
401.51	233.94
401.734	217.94
401.958	257.94
402.182	245.94
402.406	236.94
402.63	242.94
402.854	263.94
403.078	282.94
403.302	353.94
403.526	376.94
403.75	332.94
403.974	286.94
404.198	303.94
404.422	310.94
404.645	328.94
404.869	352.94
405.093	316.94
405.317	254.94
405.541	275.94
405.765	272.94
405.988	278.94
406.212	263.94
406.436	302.94
406.66	302.94
406.883	270.94
407.107	271.94
407.331	318.94
407.555	326.94
407.778	292.94
408.002	274.94
408.226	279.94
408.449	270.94
408.673	254.94
408.896	243.94
409.12	250.94
409.344	233.94
409.567	242.94
409.791	231.94
410.014	258.94
410.238	256.94
410.461	242.94
410.685	235.94
410.908	264.94
411.132	245.94
411.355	244.94
411.578	247.94
411.802	243.94
412.025	246.94
412.249	254.94
412.472	243.94
412.695	246.94
412.919	224.94
413.142	248.94
413.365	238.94
413.589	270.94
413.812	238.94
414.035	232.94
414.258	235.94
414.482	257.94
414.705	266.94
414.928	223.94
415.151	219.94
415.374	234.94
415.597	246.94
415.821	247.94
416.044	222.94
416.267	229.94
416.49	230.94
416.713	225.94
416.936	234.94
417.159	241.94
417.382	231.94
417.605	238.94
417.828	234.94
418.051	241.94
418.274	244.94
418.497	241.94
418.72	243.94
418.943	252.94
419.166	252.94
419.389	262.94
419.611	260.94
419.834	266.94
420.057	274.94
420.28	265.94
420.503	248.94
420.726	225.94
420.948	219.94
421.171	211.94
421.394	225.94
421.617	239.94
421.839	243.94
422.062	248.94
422.285	245.94
422.507	235.94
422.73	250.94
422.953	243.94
423.175	252.94
423.398	245.94
423.621	257.94
423.843	272.94
424.066	245.94
424.288	250.94
424.511	228.94
424.733	224.94
424.956	217.94
425.178	283.94
425.401	315.94
425.623	344.94
425.846	293.94
426.068	272.94
426.291	279.94
426.513	275.94
426.735	239.94
426.958	255.94
427.18	292.94
427.402	343.94
427.625	372.94
427.847	314.94
428.069	242.94
428.292	216.94
428.514	223.94
428.736	235.94
428.958	235.94
429.181	323.94
429.403	265.94
429.625	236.94
429.847	224.94
430.069	223.94
430.292	240.94
430.514	228.94
430.736	249.94
430.958	297.94
431.18	266.94
431.402	227.94
431.624	222.94
431.846	219.94
432.068	225.94
432.29	233.94
432.512	225.94
432.734	292.94
432.956	272.94
433.178	231.94
433.4	222.94
433.622	230.94
433.844	225.94
434.066	265.94
434.287	254.94
434.509	251.94
434.731	252.94
434.953	257.94
435.175	257.94
435.397	283.94
435.618	248.94
435.84	226.94
436.062	214.94
436.284	229.94
436.505	205.94
436.727	216.94
436.949	207.94
437.17	206.94
437.392	213.94
437.614	225.94
437.835	202.94
438.057	222.94
438.278	231.94
438.5	327.94
438.721	321.94
438.943	238.94
439.165	206.94
439.386	212.94
439.608	202.94
439.829	221.94
440.05	211.94
440.272	230.94
440.493	223.94
440.715	288.94
440.936	234.94
441.158	230.94
441.379	237.94
441.6	243.94
441.822	261.94
442.043	229.94
442.264	246.94
442.486	235.94
442.707	242.94
442.928	224.94
443.149	237.94
443.371	234.94
443.592	256.94
443.813	234.94
444.034	243.94
444.255	233.94
444.476	259.94
444.698	266.94
444.919	273.94
445.14	355.94
445.361	301.94
445.582	246.94
445.803	238.94
446.024	247.94
446.245	248.94
446.466	241.94
446.687	234.94
446.908	245.94
447.129	239.94
447.35	212.94
447.571	214.94
447.792	202.94
448.013	200.94
448.234	193.94
448.455	200.94
448.675	204.94
448.896	212.94
449.117	225.94
449.338	220.94
449.559	230.94
449.779	214.94
450	232.94
450.221	227.94
450.442	204.94
450.662	220.94
450.883	218.94
451.104	223.94
451.324	212.94
451.545	231.94
451.766	217.94
451.986	222.94
452.207	211.94
452.428	205.94
452.648	217.94
452.869	218.94
453.089	211.94
453.31	233.94
453.53	201.94
453.751	214.94
453.971	196.94
454.192	214.94
454.412	216.94
454.633	184.94
454.853	205.94
455.073	209.94
455.294	194.94
455.514	206.94
455.734	194.94
455.955	210.94
456.175	220.94
456.395	199.94
456.616	184.94
456.836	192.94
457.056	194.94
457.276	193.94
457.497	198.94
457.717	203.94
457.937	189.94
458.157	194.94
458.377	193.94
458.598	197.94
458.818	216.94
459.038	212.94
459.258	222.94
459.478	238.94
459.698	238.94
459.918	227.94
460.138	234.94
460.358	250.94
460.578	241.94
460.798	250.94
461.018	248.94
461.238	231.94
461.458	232.94
461.678	239.94
461.898	254.94
462.118	232.94
462.338	266.94
462.558	258.94
462.777	257.94
462.997	272.94
463.217	304.94
463.437	302.94
463.657	269.94
463.876	251.94
464.096	250.94
464.316	263.94
464.536	277.94
464.755	284.94
464.975	294.94
465.195	262.94
465.414	270.94
465.634	252.94
465.854	251.94
466.073	229.94
466.293	218.94
466.512	226.94
466.732	265.94
466.951	273.94
467.171	238.94
467.391	224.94
467.61	210.94
467.829	222.94
468.049	235.94
468.268	224.94
468.488	231.94
468.707	215.94
468.927	247.94
469.146	266.94
469.365	239.94
469.585	235.94
469.804	274.94
470.023	282.94
470.243	252.94
470.462	241.94
470.681	226.94
470.901	223.94
471.12	249.94
471.339	256.94
471.558	229.94
471.777	235.94
471.997	252.94
472.216	255.94
472.435	258.94
472.654	218.94
472.873	242.94
473.092	244.94
473.311	278.94
473.53	228.94
473.749	229.94
473.968	243.94
474.187	255.94
474.406	234.94
474.625	244.94
474.844	226.94
475.063	258.94
475.282	246.94
475.501	255.94
475.72	275.94
475.939	253.94
476.158	262.94
476.377	294.94
476.596	322.94
476.814	351.94
477.033	292.94
477.252	257.94
477.471	260.94
477.69	253.94
477.908	270.94
478.127	260.94
478.346	248.94
478.564	274.94
478.783	258.94
479.002	277.94
479.22	298.94
479.439	320.94
479.658	284.94
479.876	287.94
480.095	276.94
480.313	295.94
480.532	288.94
480.751	255.94
480.969	273.94
481.188	298.94
481.406	296.94
481.624	295.94
481.843	279.94
482.061	279.94
482.28	275.94
482.498	338.94
482.717	338.94
482.935	274.94
483.153	275.94
483.372	254.94
483.59	260.94
483.808	262.94
484.027	262.94
484.245	238.94
484.463	223.94
484.681	260.94
484.9	266.94
485.118	286.94
485.336	282.94
485.554	262.94
485.772	272.94
485.99	289.94
486.209	285.94
486.427	289.94
486.645	280.94
486.863	314.94
487.081	295.94
487.299	337.94
487.517	296.94
487.735	286.94
487.953	294.94
488.171	287.94
488.389	266.94
488.607	257.94
488.825	276.94
489.043	306.94
489.261	337.94
489.479	355.94
489.696	308.94
489.914	275.94
490.132	250.94
490.35	259.94
490.568	258.94
490.786	279.94
491.003	278.94
491.221	271.94
491.439	268.94
491.657	278.94
491.874	268.94
492.092	322.94
492.31	355.94
492.527	368.94
492.745	316.94
492.963	289.94
493.18	280.94
493.398	296.94
493.615	293.94
493.833	275.94
494.05	277.94
494.268	280.94
494.485	287.94
494.703	272.94
494.92	290.94
495.138	289.94
495.355	302.94
495.573	292.94
495.79	300.94
496.008	371.94
496.225	319.94
496.442	313.94
496.66	298.94
496.877	291.94
497.094	312.94
497.312	307.94
497.529	290.94
497.746	296.94
497.963	303.94
498.181	329.94
498.398	353.94
498.615	359.94
498.832	374.94
499.049	393.94
499.267	378.94
499.484	382.94
499.701	408.94
499.918	452.94
500.135	506.94
500.352	530.94
500.569	564.94
500.786	532.94
501.003	531.94
501.22	464.94
501.437	430.94
501.654	418.94
501.871	395.94
502.088	374.94
502.305	359.94
502.522	349.94
