Data from NickelSpatula.Lamp.E10.P2_HRD10591_11-57-23-532.txt Node
Date: Tue Jul 23 11:57:23 EDT 2019
User: cochatt
Spectrometer: HR+D1059
Trigger mode: 1
Integration Time (sec): 1.000000E-1
Scans to average: 1
Electric dark correction enabled: true
Nonlinearity correction enabled: false
Boxcar width: 0
XAxis mode: Wavelengths
Number of Pixels in Spectrum: 2048
>>>>>Begin Spectral Data<<<<<
223.165	-17.62
223.4	-17.62
223.635	-17.62
223.869	-16.62
224.104	-11.62
224.338	-3.62
224.573	-19.62
224.808	-18.62
225.042	-11.62
225.277	-4.62
225.511	-7.62
225.746	10.38
225.98	14.38
226.215	16.38
226.449	15.38
226.683	11.38
226.918	11.38
227.152	32.38
227.387	30.38
227.621	50.38
227.856	42.38
228.09	35.38
228.324	63.38
228.559	68.38
228.793	86.38
229.027	149.38
229.262	148.38
229.496	144.38
229.73	156.38
229.964	182.38
230.199	225.38
230.433	220.38
230.667	209.38
230.901	209.38
231.136	186.38
231.37	222.38
231.604	222.38
231.838	231.38
232.072	241.38
232.306	243.38
232.541	241.38
232.775	258.38
233.009	257.38
233.243	301.38
233.477	312.38
233.711	341.38
233.945	341.38
234.179	329.38
234.413	370.38
234.647	392.38
234.881	448.38
235.115	406.38
235.349	395.38
235.583	371.38
235.817	354.38
236.051	367.38
236.285	420.38
236.519	462.38
236.753	416.38
236.987	430.38
237.221	406.38
237.455	407.38
237.689	456.38
237.922	462.38
238.156	448.38
238.39	577.38
238.624	676.38
238.858	607.38
239.091	483.38
239.325	518.38
239.559	504.38
239.793	535.38
240.027	629.38
240.26	596.38
240.494	586.38
240.728	577.38
240.961	680.38
241.195	642.38
241.429	643.38
241.662	614.38
241.896	544.38
242.13	470.38
242.363	441.38
242.597	464.38
242.83	530.38
243.064	538.38
243.298	603.38
243.531	632.38
243.765	612.38
243.998	620.38
244.232	624.38
244.465	591.38
244.699	581.38
244.932	640.38
245.166	620.38
245.399	549.38
245.633	542.38
245.866	571.38
246.099	628.38
246.333	726.38
246.566	767.38
246.8	739.38
247.033	744.38
247.266	708.38
247.5	679.38
247.733	655.38
247.966	656.38
248.2	708.38
248.433	756.38
248.666	825.38
248.899	838.38
249.133	879.38
249.366	978.38
249.599	1046.38
249.832	935.38
250.066	820.38
250.299	854.38
250.532	822.38
250.765	804.38
250.998	725.38
251.231	700.38
251.465	770.38
251.698	833.38
251.931	828.38
252.164	860.38
252.397	936.38
252.63	1070.38
252.863	1142.38
253.096	1199.38
253.329	1114.38
253.562	1120.38
253.795	1247.38
254.028	1353.38
254.261	1396.38
254.494	1250.38
254.727	1158.38
254.96	1106.38
255.193	1136.38
255.426	1116.38
255.659	871.38
255.892	789.38
256.124	896.38
256.357	1026.38
256.59	1192.38
256.823	1135.38
257.056	974.38
257.289	912.38
257.521	945.38
257.754	1121.38
257.987	1271.38
258.22	1109.38
258.452	998.38
258.685	1144.38
258.918	1298.38
259.151	1254.38
259.383	1330.38
259.616	1497.38
259.849	1604.38
260.081	1749.38
260.314	1884.38
260.547	1492.38
260.779	1479.38
261.012	1728.38
261.244	1650.38
261.477	1662.38
261.71	1516.38
261.942	1291.38
262.175	1263.38
262.407	1253.38
262.64	1253.38
262.872	1496.38
263.105	1682.38
263.337	1725.38
263.57	1537.38
263.802	1066.38
264.035	915.38
264.267	892.38
264.499	761.38
264.732	694.38
264.964	696.38
265.197	713.38
265.429	793.38
265.661	847.38
265.894	862.38
266.126	944.38
266.358	1015.38
266.591	1279.38
266.823	1507.38
267.055	1439.38
267.287	1299.38
267.52	1266.38
267.752	1346.38
267.984	1474.38
268.216	1410.38
268.448	1152.38
268.681	1111.38
268.913	1183.38
269.145	1269.38
269.377	1316.38
269.609	1339.38
269.841	1254.38
270.073	1341.38
270.306	1350.38
270.538	1370.38
270.77	1422.38
271.002	1402.38
271.234	1485.38
271.466	1529.38
271.698	1439.38
271.93	1404.38
272.162	1440.38
272.394	1430.38
272.626	1386.38
272.858	1428.38
273.09	1446.38
273.322	1327.38
273.553	1250.38
273.785	1511.38
274.017	1948.38
274.249	2399.38
274.481	2535.38
274.713	2734.38
274.945	3149.38
275.176	3236.38
275.408	2892.38
275.64	2662.38
275.872	2608.38
276.104	2181.38
276.335	1920.38
276.567	1927.38
276.799	1989.38
277.031	2052.38
277.262	1602.38
277.494	1261.38
277.726	1200.38
277.957	1296.38
278.189	1528.38
278.421	1470.38
278.652	1433.38
278.884	1364.38
279.115	1236.38
279.347	1213.38
279.579	1194.38
279.81	1188.38
280.042	1209.38
280.273	1226.38
280.505	1139.38
280.736	1040.38
280.968	1048.38
281.199	1103.38
281.431	1235.38
281.662	1213.38
281.894	1196.38
282.125	1259.38
282.356	1348.38
282.588	1406.38
282.819	1265.38
283.051	1364.38
283.282	1680.38
283.513	1958.38
283.745	2187.38
283.976	2194.38
284.207	1978.38
284.439	2109.38
284.67	1998.38
284.901	1824.38
285.132	1943.38
285.364	2066.38
285.595	1879.38
285.826	1958.38
286.057	2028.38
286.288	1968.38
286.52	2031.38
286.751	2132.38
286.982	2127.38
287.213	1797.38
287.444	1776.38
287.675	1882.38
287.906	1831.38
288.138	1575.38
288.369	1380.38
288.6	1304.38
288.831	1357.38
289.062	1590.38
289.293	1749.38
289.524	1647.38
289.755	1602.38
289.986	1660.38
290.217	1412.38
290.448	1103.38
290.679	964.38
290.91	922.38
291.141	921.38
291.371	998.38
291.602	994.38
291.833	987.38
292.064	1095.38
292.295	1210.38
292.526	1372.38
292.757	1453.38
292.987	1564.38
293.218	1603.38
293.449	1636.38
293.68	1708.38
293.91	1636.38
294.141	1650.38
294.372	1520.38
294.603	1432.38
294.833	1586.38
295.064	1849.38
295.295	1774.38
295.525	1315.38
295.756	1168.38
295.987	1002.38
296.217	1054.38
296.448	1037.38
296.679	1082.38
296.909	1215.38
297.14	1310.38
297.37	1466.38
297.601	1348.38
297.831	1188.38
298.062	1253.38
298.292	1417.38
298.523	1519.38
298.753	1788.38
298.984	1594.38
299.214	1256.38
299.445	1061.38
299.675	1064.38
299.905	1037.38
300.136	1076.38
300.366	1170.38
300.597	1136.38
300.827	1015.38
301.057	956.38
301.288	978.38
301.518	1049.38
301.748	1176.38
301.979	1268.38
302.209	1404.38
302.439	1400.38
302.669	1229.38
302.9	1220.38
303.13	1134.38
303.36	1092.38
303.59	1046.38
303.82	1079.38
304.051	1220.38
304.281	1343.38
304.511	1301.38
304.741	1148.38
304.971	1208.38
305.201	1284.38
305.431	1202.38
305.661	1076.38
305.891	1044.38
306.121	1061.38
306.352	962.38
306.582	879.38
306.812	848.38
307.042	840.38
307.272	787.38
307.502	790.38
307.731	874.38
307.961	889.38
308.191	836.38
308.421	788.38
308.651	790.38
308.881	783.38
309.111	770.38
309.341	829.38
309.571	879.38
309.8	911.38
310.03	928.38
310.26	973.38
310.49	968.38
310.72	864.38
310.949	845.38
311.179	872.38
311.409	917.38
311.639	1074.38
311.868	1415.38
312.098	1772.38
312.328	1956.38
312.557	1857.38
312.787	1887.38
313.017	1689.38
313.246	1844.38
313.476	1984.38
313.706	1629.38
313.935	1319.38
314.165	1057.38
314.394	958.38
314.624	972.38
314.853	1013.38
315.083	1032.38
315.312	1023.38
315.542	1004.38
315.771	919.38
316.001	846.38
316.23	828.38
316.46	844.38
316.689	838.38
316.919	876.38
317.148	869.38
317.377	871.38
317.607	873.38
317.836	960.38
318.065	1112.38
318.295	1239.38
318.524	1102.38
318.753	959.38
318.983	920.38
319.212	913.38
319.441	1001.38
319.67	1116.38
319.9	1198.38
320.129	1112.38
320.358	961.38
320.587	942.38
320.816	1024.38
321.046	1147.38
321.275	1283.38
321.504	1300.38
321.733	1262.38
321.962	1178.38
322.191	1116.38
322.42	1084.38
322.649	1095.38
322.878	1176.38
323.108	1190.38
323.337	1095.38
323.566	1095.38
323.795	1041.38
324.024	1004.38
324.253	948.38
324.482	964.38
324.71	1057.38
324.939	1173.38
325.168	1112.38
325.397	914.38
325.626	904.38
325.855	912.38
326.084	913.38
326.313	851.38
326.542	820.38
326.77	864.38
326.999	892.38
327.228	938.38
327.457	1000.38
327.686	1018.38
327.914	864.38
328.143	846.38
328.372	830.38
328.6	870.38
328.829	870.38
329.058	890.38
329.287	885.38
329.515	896.38
329.744	910.38
329.972	829.38
330.201	806.38
330.43	828.38
330.658	947.38
330.887	1078.38
331.115	1039.38
331.344	1013.38
331.572	942.38
331.801	911.38
332.03	856.38
332.258	862.38
332.486	947.38
332.715	983.38
332.943	920.38
333.172	917.38
333.4	953.38
333.629	1039.38
333.857	1110.38
334.085	1126.38
334.314	1108.38
334.542	1050.38
334.771	959.38
334.999	956.38
335.227	915.38
335.455	916.38
335.684	1030.38
335.912	1217.38
336.14	1311.38
336.369	1264.38
336.597	1232.38
336.825	1330.38
337.053	1538.38
337.281	1233.38
337.51	996.38
337.738	971.38
337.966	1040.38
338.194	1178.38
338.422	1094.38
338.65	960.38
338.878	893.38
339.106	912.38
339.334	997.38
339.562	1060.38
339.79	997.38
340.018	956.38
340.246	1026.38
340.474	1180.38
340.702	1267.38
340.93	1319.38
341.158	1274.38
341.386	1097.38
341.614	1094.38
341.842	1074.38
342.07	1143.38
342.298	1331.38
342.526	1389.38
342.754	1185.38
342.981	1098.38
343.209	1034.38
343.437	1111.38
343.665	1224.38
343.893	1156.38
344.12	1341.38
344.348	1579.38
344.576	1422.38
344.804	1157.38
345.031	1023.38
345.259	960.38
345.487	974.38
345.714	1014.38
345.942	1078.38
346.17	1197.38
346.397	1125.38
346.625	964.38
346.853	953.38
347.08	934.38
347.308	994.38
347.535	1092.38
347.763	1110.38
347.99	1000.38
348.218	914.38
348.445	963.38
348.673	971.38
348.9	969.38
349.128	1023.38
349.355	1058.38
349.583	1053.38
349.81	998.38
350.037	930.38
350.265	836.38
350.492	804.38
350.72	774.38
350.947	827.38
351.174	860.38
351.402	939.38
351.629	974.38
351.856	929.38
352.083	903.38
352.311	953.38
352.538	1083.38
352.765	1139.38
352.992	1022.38
353.22	969.38
353.447	992.38
353.674	953.38
353.901	932.38
354.128	934.38
354.355	986.38
354.583	946.38
354.81	959.38
355.037	1011.38
355.264	973.38
355.491	1045.38
355.718	1142.38
355.945	1099.38
356.172	1064.38
356.399	1081.38
356.626	1291.38
356.853	1566.38
357.08	1646.38
357.307	1717.38
357.534	1327.38
357.761	1342.38
357.988	1690.38
358.215	1938.38
358.441	1852.38
358.668	1600.38
358.895	1469.38
359.122	1193.38
359.349	1214.38
359.576	1294.38
359.802	1077.38
360.029	919.38
360.256	1025.38
360.483	1241.38
360.709	1555.38
360.936	1647.38
361.163	1359.38
361.39	1088.38
361.616	1029.38
361.843	1215.38
362.07	1448.38
362.296	1318.38
362.523	1038.38
362.749	946.38
362.976	965.38
363.203	1176.38
363.429	1304.38
363.656	1072.38
363.882	975.38
364.109	1006.38
364.335	942.38
364.562	986.38
364.788	1064.38
365.015	1265.38
365.241	1124.38
365.468	944.38
365.694	800.38
365.92	801.38
366.147	765.38
366.373	762.38
366.599	792.38
366.826	790.38
367.052	828.38
367.278	819.38
367.505	847.38
367.731	885.38
367.957	1011.38
368.184	1010.38
368.41	960.38
368.636	998.38
368.862	1042.38
369.089	991.38
369.315	890.38
369.541	872.38
369.767	851.38
369.993	834.38
370.219	831.38
370.445	897.38
370.672	1006.38
370.898	1089.38
371.124	1052.38
371.35	951.38
371.576	891.38
371.802	983.38
372.028	1148.38
372.254	1296.38
372.48	1069.38
372.706	987.38
372.932	1084.38
373.158	1091.38
373.384	1283.38
373.61	1753.38
373.835	1764.38
374.061	1341.38
374.287	1135.38
374.513	1323.38
374.739	1608.38
374.965	1620.38
375.191	1607.38
375.416	1130.38
375.642	1008.38
375.868	1161.38
376.094	1338.38
376.319	1146.38
376.545	1281.38
376.771	1326.38
376.997	1119.38
377.222	844.38
377.448	748.38
377.674	771.38
377.899	716.38
378.125	770.38
378.35	752.38
378.576	762.38
378.802	847.38
379.027	885.38
379.253	867.38
379.478	894.38
379.704	1017.38
379.929	1029.38
380.155	1042.38
380.38	923.38
380.606	997.38
380.831	1068.38
381.057	994.38
381.282	976.38
381.507	1138.38
381.733	1413.38
381.958	1476.38
382.184	1598.38
382.409	1599.38
382.634	1569.38
382.86	1676.38
383.085	1406.38
383.31	1107.38
383.535	1179.38
383.761	1206.38
383.986	1140.38
384.211	1378.38
384.436	1330.38
384.662	1030.38
384.887	995.38
385.112	987.38
385.337	1048.38
385.562	974.38
385.787	1077.38
386.013	1202.38
386.238	1194.38
386.463	1020.38
386.688	951.38
386.913	965.38
387.138	899.38
387.363	944.38
387.588	958.38
387.813	984.38
388.038	1069.38
388.263	944.38
388.488	957.38
388.713	1116.38
388.938	1149.38
389.163	988.38
389.387	901.38
389.612	905.38
389.837	935.38
390.062	934.38
390.287	956.38
390.512	986.38
390.736	914.38
390.961	870.38
391.186	849.38
391.411	808.38
391.636	856.38
391.86	898.38
392.085	991.38
392.31	990.38
392.534	951.38
392.759	931.38
392.984	997.38
393.208	962.38
393.433	861.38
393.658	822.38
393.882	783.38
394.107	812.38
394.331	845.38
394.556	804.38
394.78	806.38
395.005	854.38
395.229	840.38
395.454	874.38
395.678	888.38
395.903	902.38
396.127	864.38
396.352	910.38
396.576	974.38
396.801	992.38
397.025	1076.38
397.249	1096.38
397.474	928.38
397.698	889.38
397.922	962.38
398.147	891.38
398.371	908.38
398.595	971.38
398.82	947.38
399.044	964.38
399.268	1016.38
399.492	1048.38
399.717	1053.38
399.941	1107.38
400.165	1058.38
400.389	1050.38
400.613	1050.38
400.837	1030.38
401.062	912.38
401.286	908.38
401.51	912.38
401.734	917.38
401.958	922.38
402.182	917.38
402.406	915.38
402.63	917.38
402.854	949.38
403.078	1051.38
403.302	1274.38
403.526	1350.38
403.75	1184.38
403.974	1041.38
404.198	1104.38
404.422	1230.38
404.645	1399.38
404.869	1530.38
405.093	1192.38
405.317	1001.38
405.541	956.38
405.765	1014.38
405.988	1028.38
406.212	1092.38
406.436	1234.38
406.66	1408.38
406.883	1124.38
407.107	1146.38
407.331	1340.38
407.555	1273.38
407.778	1094.38
408.002	1070.38
408.226	1043.38
408.449	1026.38
408.673	1018.38
408.896	936.38
409.12	925.38
409.344	905.38
409.567	890.38
409.791	902.38
410.014	896.38
410.238	863.38
410.461	872.38
410.685	891.38
410.908	890.38
411.132	910.38
411.355	942.38
411.578	971.38
411.802	908.38
412.025	999.38
412.249	974.38
412.472	949.38
412.695	962.38
412.919	953.38
413.142	985.38
413.365	1040.38
413.589	1017.38
413.812	976.38
414.035	900.38
414.258	923.38
414.482	1022.38
414.705	1041.38
414.928	921.38
415.151	877.38
415.374	898.38
415.597	897.38
415.821	906.38
416.044	893.38
416.267	862.38
416.49	884.38
416.713	880.38
416.936	858.38
417.159	878.38
417.382	884.38
417.605	879.38
417.828	891.38
418.051	905.38
418.274	946.38
418.497	926.38
418.72	944.38
418.943	933.38
419.166	988.38
419.389	1025.38
419.611	1002.38
419.834	1024.38
420.057	1093.38
420.28	1103.38
420.503	1011.38
420.726	902.38
420.948	871.38
421.171	882.38
421.394	876.38
421.617	860.38
421.839	870.38
422.062	934.38
422.285	921.38
422.507	919.38
422.73	941.38
422.953	979.38
423.175	925.38
423.398	943.38
423.621	1007.38
423.843	1048.38
424.066	1015.38
424.288	935.38
424.511	893.38
424.733	908.38
424.956	957.38
425.178	1081.38
425.401	1178.38
425.623	1389.38
425.846	1174.38
426.068	1028.38
426.291	1081.38
426.513	1000.38
426.735	950.38
426.958	983.38
427.18	1160.38
427.402	1436.38
427.625	1430.38
427.847	1188.38
428.069	912.38
428.292	884.38
428.514	903.38
428.736	880.38
428.958	921.38
429.181	1094.38
429.403	955.38
429.625	853.38
429.847	845.38
430.069	921.38
430.292	919.38
430.514	881.38
430.736	971.38
430.958	1160.38
431.18	1052.38
431.402	854.38
431.624	790.38
431.846	834.38
432.068	824.38
432.29	823.38
432.512	913.38
432.734	1193.38
432.956	1139.38
433.178	877.38
433.4	841.38
433.622	859.38
433.844	865.38
434.066	916.38
434.287	896.38
434.509	892.38
434.731	909.38
434.953	874.38
435.175	914.38
435.397	1042.38
435.618	914.38
435.84	848.38
436.062	822.38
436.284	842.38
436.505	776.38
436.727	793.38
436.949	839.38
437.17	842.38
437.392	866.38
437.614	855.38
437.835	828.38
438.057	888.38
438.278	961.38
438.5	1354.38
438.721	1329.38
438.943	952.38
439.165	828.38
439.386	798.38
439.608	796.38
439.829	774.38
440.05	794.38
440.272	874.38
440.493	1010.38
440.715	1186.38
440.936	956.38
441.158	862.38
441.379	882.38
441.6	998.38
441.822	1044.38
442.043	885.38
442.264	885.38
442.486	889.38
442.707	886.38
442.928	880.38
443.149	941.38
443.371	878.38
443.592	945.38
443.813	922.38
444.034	916.38
444.255	925.38
444.476	951.38
444.698	948.38
444.919	950.38
445.14	1075.38
445.361	1037.38
445.582	976.38
445.803	928.38
446.024	948.38
446.245	966.38
446.466	940.38
446.687	900.38
446.908	891.38
447.129	833.38
447.35	808.38
447.571	830.38
447.792	830.38
448.013	819.38
448.234	802.38
448.455	779.38
448.675	791.38
448.896	818.38
449.117	804.38
449.338	796.38
449.559	851.38
449.779	888.38
450	841.38
450.221	853.38
450.442	812.38
450.662	792.38
450.883	791.38
451.104	814.38
451.324	817.38
451.545	803.38
451.766	804.38
451.986	809.38
452.207	786.38
452.428	815.38
452.648	798.38
452.869	831.38
453.089	841.38
453.31	852.38
453.53	739.38
453.751	756.38
453.971	737.38
454.192	784.38
454.412	798.38
454.633	746.38
454.853	752.38
455.073	766.38
455.294	731.38
455.514	741.38
455.734	784.38
455.955	818.38
456.175	847.38
456.395	760.38
456.616	701.38
456.836	713.38
457.056	700.38
457.276	708.38
457.497	719.38
457.717	716.38
457.937	709.38
458.157	712.38
458.377	733.38
458.598	764.38
458.818	786.38
459.038	793.38
459.258	818.38
459.478	861.38
459.698	905.38
459.918	904.38
460.138	888.38
460.358	896.38
460.578	900.38
460.798	884.38
461.018	908.38
461.238	837.38
461.458	859.38
461.678	871.38
461.898	929.38
462.118	932.38
462.338	972.38
462.558	958.38
462.777	954.38
462.997	1028.38
463.217	1024.38
463.437	1062.38
463.657	1032.38
463.876	992.38
464.096	997.38
464.316	966.38
464.536	982.38
464.755	1039.38
464.975	1030.38
465.195	964.38
465.414	992.38
465.634	940.38
465.854	951.38
466.073	914.38
466.293	868.38
466.512	948.38
466.732	1002.38
466.951	1064.38
467.171	914.38
467.391	876.38
467.61	905.38
467.829	966.38
468.049	896.38
468.268	863.38
468.488	847.38
468.707	912.38
468.927	1082.38
469.146	1184.38
469.365	1043.38
469.585	916.38
469.804	1033.38
470.023	1102.38
470.243	963.38
470.462	939.38
470.681	911.38
470.901	922.38
471.12	979.38
471.339	995.38
471.558	921.38
471.777	930.38
471.997	1022.38
472.216	1136.38
472.435	1089.38
472.654	977.38
472.873	950.38
473.092	982.38
473.311	1053.38
473.53	983.38
473.749	944.38
473.968	1005.38
474.187	1001.38
474.406	946.38
474.625	948.38
474.844	972.38
475.063	1035.38
475.282	990.38
475.501	1096.38
475.72	1119.38
475.939	1083.38
476.158	1118.38
476.377	1242.38
476.596	1402.38
476.814	1479.38
477.033	1238.38
477.252	1090.38
477.471	1040.38
477.69	1030.38
477.908	1116.38
478.127	1158.38
478.346	1058.38
478.564	1133.38
478.783	1094.38
479.002	1128.38
479.22	1310.38
479.439	1448.38
479.658	1222.38
479.876	1120.38
480.095	1219.38
480.313	1207.38
480.532	1111.38
480.751	1098.38
480.969	1125.38
481.188	1266.38
481.406	1332.38
481.624	1235.38
481.843	1134.38
482.061	1113.38
482.28	1220.38
482.498	1460.38
482.717	1386.38
482.935	1204.38
483.153	1120.38
483.372	1070.38
483.59	1053.38
483.808	1076.38
484.027	1040.38
484.245	1025.38
484.463	1016.38
484.681	1030.38
484.9	1141.38
485.118	1169.38
485.336	1133.38
485.554	1078.38
485.772	1071.38
485.99	1156.38
486.209	1224.38
486.427	1225.38
486.645	1219.38
486.863	1255.38
487.081	1237.38
487.299	1358.38
487.517	1326.38
487.735	1215.38
487.953	1232.38
488.171	1256.38
488.389	1161.38
488.607	1142.38
488.825	1165.38
489.043	1254.38
489.261	1412.38
489.479	1518.38
489.696	1302.38
489.914	1191.38
490.132	1120.38
490.35	1091.38
490.568	1121.38
490.786	1113.38
491.003	1128.38
491.221	1173.38
491.439	1172.38
491.657	1169.38
491.874	1223.38
492.092	1493.38
492.31	1737.38
492.527	1746.38
492.745	1563.38
492.963	1335.38
493.18	1314.38
493.398	1297.38
493.615	1271.38
493.833	1268.38
494.05	1286.38
494.268	1265.38
