Data from NickelSpatula.Lamp.E10.P2_HRD10591_11-58-21-528.txt Node
Date: Tue Jul 23 11:58:21 EDT 2019
User: cochatt
Spectrometer: HR+D1059
Trigger mode: 1
Integration Time (sec): 1.000000E-1
Scans to average: 1
Electric dark correction enabled: true
Nonlinearity correction enabled: false
Boxcar width: 0
XAxis mode: Wavelengths
Number of Pixels in Spectrum: 2048
>>>>>Begin Spectral Data<<<<<
223.165	-15.88
223.4	-15.88
223.635	-15.88
223.869	-20.88
224.104	-23.88
224.338	-10.88
224.573	-15.88
224.808	-19.88
225.042	-6.88
225.277	3.12
225.511	-3.88
225.746	12.12
225.98	3.12
226.215	-1.88
226.449	22.12
226.683	17.12
226.918	22.12
227.152	40.12
227.387	34.12
227.621	38.12
227.856	50.12
228.09	47.12
228.324	49.12
228.559	46.12
228.793	78.12
229.027	136.12
229.262	151.12
229.496	168.12
229.73	167.12
229.964	196.12
230.199	206.12
230.433	215.12
230.667	203.12
230.901	214.12
231.136	203.12
231.37	209.12
231.604	228.12
231.838	235.12
232.072	257.12
232.306	240.12
232.541	220.12
232.775	228.12
233.009	268.12
233.243	317.12
233.477	312.12
233.711	344.12
233.945	336.12
234.179	347.12
234.413	357.12
234.647	379.12
234.881	450.12
235.115	416.12
235.349	416.12
235.583	355.12
235.817	361.12
236.051	390.12
236.285	441.12
236.519	465.12
236.753	450.12
236.987	438.12
237.221	395.12
237.455	419.12
237.689	440.12
237.922	460.12
238.156	474.12
238.39	551.12
238.624	683.12
238.858	591.12
239.091	513.12
239.325	504.12
239.559	498.12
239.793	540.12
240.027	660.12
240.26	595.12
240.494	581.12
240.728	592.12
240.961	691.12
241.195	629.12
241.429	646.12
241.662	645.12
241.896	524.12
242.13	510.12
242.363	440.12
242.597	468.12
242.83	542.12
243.064	546.12
243.298	576.12
243.531	622.12
243.765	655.12
243.998	648.12
244.232	609.12
244.465	609.12
244.699	583.12
244.932	668.12
245.166	615.12
245.399	569.12
245.633	532.12
245.866	592.12
246.099	624.12
246.333	720.12
246.566	777.12
246.8	772.12
247.033	752.12
247.266	686.12
247.5	663.12
247.733	695.12
247.966	659.12
248.2	703.12
248.433	757.12
248.666	848.12
248.899	870.12
249.133	880.12
249.366	1000.12
249.599	1076.12
249.832	964.12
250.066	815.12
250.299	861.12
250.532	839.12
250.765	827.12
250.998	748.12
251.231	753.12
251.465	800.12
251.698	821.12
251.931	809.12
252.164	844.12
252.397	951.12
252.63	1041.12
252.863	1211.12
253.096	1217.12
253.329	1176.12
253.562	1124.12
253.795	1243.12
254.028	1379.12
254.261	1458.12
254.494	1275.12
254.727	1156.12
254.96	1112.12
255.193	1201.12
255.426	1161.12
255.659	861.12
255.892	803.12
256.124	860.12
256.357	1008.12
256.59	1202.12
256.823	1189.12
257.056	983.12
257.289	914.12
257.521	987.12
257.754	1175.12
257.987	1294.12
258.22	1140.12
258.452	1019.12
258.685	1167.12
258.918	1274.12
259.151	1229.12
259.383	1309.12
259.616	1490.12
259.849	1574.12
260.081	1737.12
260.314	1886.12
260.547	1492.12
260.779	1506.12
261.012	1708.12
261.244	1638.12
261.477	1675.12
261.71	1569.12
261.942	1329.12
262.175	1289.12
262.407	1232.12
262.64	1264.12
262.872	1515.12
263.105	1649.12
263.337	1720.12
263.57	1569.12
263.802	1025.12
264.035	905.12
264.267	859.12
264.499	799.12
264.732	724.12
264.964	711.12
265.197	734.12
265.429	797.12
265.661	836.12
265.894	870.12
266.126	926.12
266.358	1051.12
266.591	1251.12
266.823	1561.12
267.055	1427.12
267.287	1225.12
267.52	1268.12
267.752	1349.12
267.984	1483.12
268.216	1333.12
268.448	1142.12
268.681	1107.12
268.913	1221.12
269.145	1290.12
269.377	1336.12
269.609	1284.12
269.841	1233.12
270.073	1299.12
270.306	1395.12
270.538	1373.12
270.77	1419.12
271.002	1453.12
271.234	1461.12
271.466	1553.12
271.698	1444.12
271.93	1429.12
272.162	1439.12
272.394	1456.12
272.626	1391.12
272.858	1464.12
273.09	1498.12
273.322	1313.12
273.553	1287.12
273.785	1527.12
274.017	2000.12
274.249	2460.12
274.481	2564.12
274.713	2759.12
274.945	3206.12
275.176	3321.12
275.408	2887.12
275.64	2687.12
275.872	2676.12
276.104	2261.12
276.335	1908.12
276.567	1894.12
276.799	1996.12
277.031	2101.12
277.262	1639.12
277.494	1261.12
277.726	1195.12
277.957	1351.12
278.189	1487.12
278.421	1488.12
278.652	1449.12
278.884	1383.12
279.115	1227.12
279.347	1206.12
279.579	1230.12
279.81	1219.12
280.042	1228.12
280.273	1243.12
280.505	1173.12
280.736	1027.12
280.968	1013.12
281.199	1088.12
281.431	1255.12
281.662	1215.12
281.894	1192.12
282.125	1244.12
282.356	1363.12
282.588	1431.12
282.819	1248.12
283.051	1378.12
283.282	1705.12
283.513	1954.12
283.745	2219.12
283.976	2186.12
284.207	2009.12
284.439	2133.12
284.67	2039.12
284.901	1808.12
285.132	1937.12
285.364	2072.12
285.595	1888.12
285.826	1983.12
286.057	2102.12
286.288	1975.12
286.52	2005.12
286.751	2129.12
286.982	2125.12
287.213	1829.12
287.444	1749.12
287.675	1891.12
287.906	1838.12
288.138	1546.12
288.369	1397.12
288.6	1264.12
288.831	1355.12
289.062	1549.12
289.293	1724.12
289.524	1626.12
289.755	1610.12
289.986	1653.12
290.217	1439.12
290.448	1126.12
290.679	977.12
290.91	937.12
291.141	947.12
291.371	989.12
291.602	963.12
291.833	994.12
292.064	1077.12
292.295	1258.12
292.526	1421.12
292.757	1469.12
292.987	1579.12
293.218	1556.12
293.449	1617.12
293.68	1649.12
293.91	1584.12
294.141	1612.12
294.372	1499.12
294.603	1425.12
294.833	1595.12
295.064	1893.12
295.295	1700.12
295.525	1288.12
295.756	1149.12
295.987	1011.12
296.217	1008.12
296.448	1053.12
296.679	1137.12
296.909	1198.12
297.14	1320.12
297.37	1410.12
297.601	1367.12
297.831	1180.12
298.062	1275.12
298.292	1476.12
298.523	1590.12
298.753	1810.12
298.984	1642.12
299.214	1260.12
299.445	1088.12
299.675	1026.12
299.905	1045.12
300.136	1084.12
300.366	1183.12
300.597	1147.12
300.827	1030.12
301.057	982.12
301.288	1003.12
301.518	1064.12
301.748	1247.12
301.979	1331.12
302.209	1407.12
302.439	1455.12
302.669	1273.12
302.9	1262.12
303.13	1177.12
303.36	1104.12
303.59	1064.12
303.82	1134.12
304.051	1238.12
304.281	1332.12
304.511	1320.12
304.741	1165.12
304.971	1219.12
305.201	1273.12
305.431	1195.12
305.661	1065.12
305.891	1082.12
306.121	1083.12
306.352	976.12
306.582	851.12
306.812	873.12
307.042	879.12
307.272	821.12
307.502	794.12
307.731	903.12
307.961	928.12
308.191	845.12
308.421	816.12
308.651	832.12
308.881	776.12
309.111	775.12
309.341	822.12
309.571	893.12
309.8	927.12
310.03	959.12
310.26	1018.12
310.49	995.12
310.72	881.12
310.949	855.12
311.179	873.12
311.409	935.12
311.639	1105.12
311.868	1396.12
312.098	1816.12
312.328	1936.12
312.557	1901.12
312.787	1912.12
313.017	1685.12
313.246	1839.12
313.476	1997.12
313.706	1619.12
313.935	1300.12
314.165	1067.12
314.394	960.12
314.624	944.12
314.853	998.12
315.083	1076.12
315.312	1048.12
315.542	1005.12
315.771	921.12
316.001	857.12
316.23	846.12
316.46	847.12
316.689	895.12
316.919	891.12
317.148	888.12
317.377	894.12
317.607	870.12
317.836	978.12
318.065	1112.12
318.295	1258.12
318.524	1168.12
318.753	1008.12
318.983	952.12
319.212	940.12
319.441	1015.12
319.67	1135.12
319.9	1220.12
320.129	1195.12
320.358	973.12
320.587	961.12
320.816	1043.12
321.046	1203.12
321.275	1343.12
321.504	1330.12
321.733	1294.12
321.962	1232.12
322.191	1174.12
322.42	1106.12
322.649	1114.12
322.878	1207.12
323.108	1232.12
323.337	1118.12
323.566	1108.12
323.795	1056.12
324.024	1019.12
324.253	967.12
324.482	963.12
324.71	1061.12
324.939	1216.12
325.168	1154.12
325.397	927.12
325.626	912.12
325.855	917.12
326.084	945.12
326.313	881.12
326.542	856.12
326.77	903.12
326.999	911.12
327.228	962.12
327.457	1037.12
327.686	1019.12
327.914	911.12
328.143	848.12
328.372	838.12
328.6	861.12
328.829	883.12
329.058	916.12
329.287	874.12
329.515	903.12
329.744	869.12
329.972	860.12
330.201	827.12
330.43	849.12
330.658	947.12
330.887	1072.12
331.115	1049.12
331.344	1033.12
331.572	962.12
331.801	897.12
332.03	821.12
332.258	887.12
332.486	965.12
332.715	990.12
332.943	927.12
333.172	912.12
333.4	964.12
333.629	1027.12
333.857	1135.12
334.085	1148.12
334.314	1116.12
334.542	1030.12
334.771	965.12
334.999	954.12
335.227	931.12
335.455	931.12
335.684	1042.12
335.912	1179.12
336.14	1318.12
336.369	1242.12
336.597	1242.12
336.825	1383.12
337.053	1549.12
337.281	1221.12
337.51	996.12
337.738	975.12
337.966	1069.12
338.194	1217.12
338.422	1145.12
338.65	984.12
338.878	902.12
339.106	925.12
339.334	1014.12
339.562	1117.12
339.79	1017.12
340.018	972.12
340.246	1067.12
340.474	1178.12
340.702	1285.12
340.93	1362.12
341.158	1313.12
341.386	1128.12
341.614	1098.12
341.842	1133.12
342.07	1151.12
342.298	1343.12
342.526	1427.12
342.754	1208.12
342.981	1094.12
343.209	1063.12
343.437	1136.12
343.665	1224.12
343.893	1208.12
344.12	1387.12
344.348	1606.12
344.576	1441.12
344.804	1175.12
345.031	1033.12
345.259	962.12
345.487	1008.12
345.714	1039.12
345.942	1117.12
346.17	1170.12
346.397	1155.12
346.625	1011.12
346.853	980.12
347.08	949.12
347.308	999.12
347.535	1141.12
347.763	1154.12
347.99	1001.12
348.218	939.12
348.445	964.12
348.673	983.12
348.9	998.12
349.128	1044.12
349.355	1101.12
349.583	1060.12
349.81	1021.12
350.037	943.12
350.265	852.12
350.492	781.12
350.72	827.12
350.947	836.12
351.174	874.12
351.402	943.12
351.629	992.12
351.856	952.12
352.083	905.12
352.311	979.12
352.538	1109.12
352.765	1161.12
352.992	1040.12
353.22	965.12
353.447	1020.12
353.674	992.12
353.901	958.12
354.128	983.12
354.355	1011.12
354.583	1000.12
354.81	981.12
355.037	1045.12
355.264	976.12
355.491	1085.12
355.718	1153.12
355.945	1141.12
356.172	1120.12
356.399	1107.12
356.626	1352.12
356.853	1640.12
357.08	1715.12
357.307	1780.12
357.534	1387.12
357.761	1392.12
357.988	1760.12
358.215	2075.12
358.441	1929.12
358.668	1613.12
358.895	1559.12
359.122	1229.12
359.349	1212.12
359.576	1330.12
359.802	1082.12
360.029	931.12
360.256	1054.12
360.483	1284.12
360.709	1621.12
360.936	1645.12
361.163	1449.12
361.39	1147.12
361.616	1091.12
361.843	1264.12
362.07	1522.12
362.296	1363.12
362.523	1071.12
362.749	968.12
362.976	1001.12
363.203	1209.12
363.429	1355.12
363.656	1080.12
363.882	987.12
364.109	1019.12
364.335	997.12
364.562	987.12
364.788	1134.12
365.015	1353.12
365.241	1172.12
365.468	955.12
365.694	843.12
365.92	830.12
366.147	797.12
366.373	815.12
366.599	789.12
366.826	816.12
367.052	825.12
367.278	840.12
367.505	807.12
367.731	926.12
367.957	1002.12
368.184	1043.12
368.41	1013.12
368.636	1054.12
368.862	1059.12
369.089	992.12
369.315	907.12
369.541	908.12
369.767	903.12
369.993	863.12
370.219	881.12
370.445	931.12
370.672	1003.12
370.898	1087.12
371.124	1086.12
371.35	976.12
371.576	918.12
371.802	983.12
372.028	1150.12
372.254	1332.12
372.48	1131.12
372.706	1007.12
372.932	1084.12
373.158	1161.12
373.384	1361.12
373.61	1852.12
373.835	1911.12
374.061	1368.12
374.287	1177.12
374.513	1393.12
374.739	1694.12
374.965	1719.12
375.191	1684.12
375.416	1161.12
375.642	1021.12
375.868	1227.12
376.094	1364.12
376.319	1165.12
376.545	1319.12
376.771	1357.12
376.997	1169.12
377.222	859.12
377.448	766.12
377.674	763.12
377.899	749.12
378.125	732.12
378.35	749.12
378.576	791.12
378.802	879.12
379.027	920.12
379.253	926.12
379.478	965.12
379.704	1064.12
379.929	1115.12
380.155	1091.12
380.38	965.12
380.606	1038.12
380.831	1102.12
381.057	1037.12
381.282	979.12
381.507	1163.12
381.733	1471.12
381.958	1551.12
382.184	1631.12
382.409	1716.12
382.634	1678.12
382.86	1766.12
383.085	1467.12
383.31	1144.12
383.535	1233.12
383.761	1237.12
383.986	1147.12
384.211	1417.12
384.436	1356.12
384.662	1060.12
384.887	980.12
385.112	1054.12
385.337	1049.12
385.562	978.12
385.787	1104.12
386.013	1215.12
386.238	1225.12
386.463	1009.12
386.688	1006.12
386.913	985.12
387.138	897.12
387.363	969.12
387.588	988.12
387.813	1020.12
388.038	1092.12
388.263	972.12
388.488	1003.12
388.713	1123.12
388.938	1216.12
389.163	1047.12
389.387	916.12
389.612	907.12
389.837	957.12
390.062	979.12
390.287	1023.12
390.512	1029.12
390.736	952.12
390.961	888.12
391.186	839.12
391.411	825.12
391.636	852.12
391.86	939.12
392.085	1015.12
392.31	987.12
392.534	987.12
392.759	936.12
392.984	975.12
393.208	987.12
393.433	860.12
393.658	816.12
393.882	825.12
394.107	821.12
394.331	813.12
394.556	815.12
394.78	817.12
395.005	856.12
395.229	879.12
395.454	867.12
395.678	893.12
395.903	923.12
396.127	870.12
396.352	906.12
396.576	985.12
396.801	1002.12
397.025	1108.12
397.249	1151.12
397.474	934.12
397.698	932.12
397.922	972.12
398.147	924.12
398.371	914.12
398.595	955.12
398.82	949.12
399.044	965.12
399.268	1043.12
399.492	1063.12
399.717	1038.12
399.941	1126.12
400.165	1043.12
400.389	1053.12
400.613	1107.12
400.837	1042.12
401.062	919.12
401.286	903.12
401.51	945.12
401.734	928.12
401.958	921.12
402.182	929.12
402.406	942.12
402.63	936.12
402.854	951.12
403.078	1067.12
403.302	1290.12
403.526	1345.12
403.75	1185.12
403.974	1056.12
404.198	1075.12
404.422	1241.12
404.645	1443.12
404.869	1599.12
405.093	1198.12
405.317	982.12
405.541	980.12
405.765	1042.12
405.988	1046.12
406.212	1083.12
406.436	1269.12
406.66	1413.12
406.883	1138.12
407.107	1189.12
407.331	1376.12
407.555	1298.12
407.778	1089.12
408.002	1061.12
408.226	1059.12
408.449	1067.12
408.673	1035.12
408.896	928.12
409.12	915.12
409.344	941.12
409.567	892.12
409.791	898.12
410.014	928.12
410.238	897.12
410.461	917.12
410.685	917.12
410.908	909.12
411.132	931.12
411.355	957.12
411.578	957.12
411.802	950.12
412.025	1000.12
412.249	994.12
412.472	964.12
412.695	944.12
412.919	955.12
413.142	964.12
413.365	1063.12
413.589	1079.12
413.812	955.12
414.035	949.12
414.258	935.12
414.482	1067.12
414.705	1061.12
414.928	933.12
415.151	875.12
415.374	895.12
415.597	924.12
415.821	931.12
416.044	884.12
416.267	873.12
416.49	877.12
416.713	885.12
416.936	847.12
417.159	876.12
417.382	899.12
417.605	920.12
417.828	877.12
418.051	940.12
418.274	948.12
418.497	911.12
418.72	929.12
418.943	963.12
419.166	1009.12
419.389	1046.12
419.611	1012.12
419.834	1019.12
420.057	1110.12
420.28	1117.12
420.503	1031.12
420.726	889.12
420.948	892.12
421.171	856.12
421.394	896.12
421.617	870.12
421.839	880.12
422.062	943.12
422.285	949.12
422.507	944.12
422.73	949.12
422.953	970.12
423.175	961.12
423.398	975.12
423.621	1015.12
423.843	1089.12
424.066	996.12
424.288	966.12
424.511	920.12
424.733	932.12
424.956	969.12
425.178	1078.12
425.401	1217.12
425.623	1388.12
425.846	1176.12
426.068	1027.12
426.291	1137.12
426.513	1043.12
426.735	948.12
426.958	1005.12
427.18	1143.12
427.402	1522.12
427.625	1506.12
427.847	1216.12
428.069	915.12
428.292	889.12
428.514	900.12
428.736	883.12
428.958	981.12
429.181	1119.12
429.403	994.12
429.625	903.12
429.847	856.12
430.069	879.12
430.292	939.12
430.514	917.12
430.736	972.12
430.958	1200.12
431.18	1093.12
431.402	848.12
431.624	813.12
431.846	810.12
432.068	788.12
432.29	817.12
432.512	934.12
432.734	1197.12
432.956	1157.12
433.178	901.12
433.4	847.12
433.622	857.12
433.844	899.12
434.066	925.12
434.287	891.12
434.509	894.12
434.731	918.12
434.953	863.12
435.175	881.12
435.397	1040.12
435.618	930.12
435.84	848.12
436.062	830.12
436.284	832.12
436.505	813.12
436.727	796.12
436.949	807.12
437.17	849.12
437.392	862.12
437.614	838.12
437.835	860.12
438.057	859.12
438.278	980.12
438.5	1416.12
438.721	1380.12
438.943	946.12
439.165	817.12
439.386	797.12
439.608	782.12
439.829	784.12
440.05	801.12
440.272	854.12
440.493	1010.12
440.715	1241.12
440.936	995.12
441.158	870.12
441.379	871.12
441.6	1000.12
441.822	1053.12
442.043	915.12
442.264	864.12
442.486	895.12
442.707	879.12
442.928	884.12
443.149	898.12
443.371	927.12
443.592	934.12
443.813	941.12
444.034	926.12
444.255	912.12
444.476	942.12
444.698	907.12
444.919	977.12
445.14	1052.12
445.361	1029.12
445.582	943.12
445.803	913.12
446.024	928.12
446.245	924.12
446.466	926.12
446.687	906.12
446.908	910.12
447.129	839.12
447.35	848.12
447.571	830.12
447.792	818.12
448.013	791.12
448.234	781.12
448.455	781.12
448.675	834.12
448.896	849.12
449.117	812.12
449.338	806.12
449.559	848.12
449.779	886.12
450	875.12
450.221	831.12
450.442	836.12
450.662	795.12
450.883	821.12
451.104	840.12
451.324	835.12
451.545	826.12
451.766	802.12
451.986	797.12
452.207	806.12
452.428	777.12
452.648	788.12
452.869	806.12
453.089	860.12
453.31	833.12
453.53	729.12
453.751	773.12
453.971	773.12
454.192	770.12
454.412	809.12
454.633	747.12
454.853	748.12
455.073	723.12
455.294	755.12
455.514	720.12
455.734	789.12
455.955	819.12
456.175	851.12
456.395	786.12
456.616	735.12
456.836	691.12
457.056	697.12
457.276	692.12
457.497	701.12
457.717	747.12
457.937	715.12
458.157	720.12
458.377	747.12
458.598	724.12
458.818	759.12
459.038	797.12
459.258	833.12
459.478	844.12
459.698	911.12
459.918	918.12
460.138	891.12
460.358	904.12
460.578	866.12
460.798	909.12
461.018	912.12
461.238	872.12
461.458	869.12
461.678	917.12
461.898	932.12
462.118	917.12
462.338	965.12
462.558	957.12
462.777	968.12
462.997	999.12
463.217	1047.12
463.437	1031.12
463.657	1063.12
463.876	952.12
464.096	964.12
464.316	979.12
464.536	972.12
464.755	1033.12
464.975	1025.12
465.195	962.12
465.414	1020.12
465.634	971.12
465.854	955.12
466.073	878.12
466.293	892.12
466.512	922.12
466.732	1016.12
466.951	1034.12
467.171	949.12
467.391	877.12
467.61	880.12
467.829	955.12
468.049	956.12
468.268	885.12
468.488	893.12
468.707	964.12
468.927	1078.12
469.146	1160.12
469.365	1005.12
469.585	973.12
469.804	1021.12
470.023	1124.12
470.243	976.12
470.462	943.12
470.681	923.12
470.901	933.12
471.12	991.12
471.339	990.12
471.558	947.12
471.777	941.12
471.997	994.12
472.216	1084.12
472.435	1070.12
472.654	999.12
472.873	987.12
473.092	1041.12
473.311	1047.12
473.53	943.12
473.749	943.12
473.968	984.12
474.187	977.12
474.406	963.12
474.625	934.12
474.844	956.12
475.063	1029.12
475.282	1078.12
475.501	1079.12
475.72	1115.12
475.939	1117.12
476.158	1108.12
476.377	1276.12
476.596	1452.12
476.814	1499.12
477.033	1245.12
477.252	1059.12
477.471	997.12
477.69	1011.12
477.908	1093.12
478.127	1174.12
478.346	1069.12
478.564	1133.12
478.783	1100.12
479.002	1116.12
479.22	1279.12
479.439	1418.12
479.658	1217.12
479.876	1142.12
480.095	1229.12
480.313	1225.12
480.532	1143.12
480.751	1131.12
480.969	1138.12
481.188	1300.12
481.406	1314.12
481.624	1230.12
481.843	1119.12
482.061	1053.12
482.28	1223.12
482.498	1471.12
482.717	1371.12
482.935	1217.12
483.153	1149.12
483.372	1057.12
483.59	1067.12
483.808	1034.12
484.027	1036.12
484.245	1036.12
484.463	999.12
484.681	1022.12
484.9	1105.12
485.118	1182.12
485.336	1092.12
485.554	1064.12
485.772	1070.12
485.99	1179.12
486.209	1261.12
486.427	1230.12
486.645	1212.12
486.863	1254.12
487.081	1265.12
487.299	1391.12
487.517	1355.12
487.735	1249.12
487.953	1243.12
488.171	1295.12
488.389	1181.12
488.607	1115.12
488.825	1177.12
489.043	1295.12
489.261	1462.12
489.479	1569.12
489.696	1297.12
489.914	1214.12
490.132	1123.12
490.35	1173.12
490.568	1123.12
490.786	1134.12
491.003	1157.12
491.221	1179.12
491.439	1153.12
491.657	1145.12
491.874	1250.12
492.092	1523.12
492.31	1807.12
492.527	1730.12
492.745	1520.12
492.963	1348.12
493.18	1289.12
493.398	1328.12
493.615	1314.12
493.833	1275.12
494.05	1241.12
