Data from NickelSpatula.Lamp.E10.P2_HRD10591_11-57-17-532.txt Node
Date: Tue Jul 23 11:57:17 EDT 2019
User: cochatt
Spectrometer: HR+D1059
Trigger mode: 1
Integration Time (sec): 1.000000E-1
Scans to average: 1
Electric dark correction enabled: true
Nonlinearity correction enabled: false
Boxcar width: 0
XAxis mode: Wavelengths
Number of Pixels in Spectrum: 2048
>>>>>Begin Spectral Data<<<<<
223.165	-6.62
223.4	-6.62
223.635	-6.62
223.869	-22.62
224.104	-5.62
224.338	-35.62
224.573	-10.62
224.808	-12.62
225.042	-8.62
225.277	-6.62
225.511	-6.62
225.746	2.38
225.98	8.38
226.215	7.38
226.449	12.38
226.683	17.38
226.918	36.38
227.152	31.38
227.387	39.38
227.621	35.38
227.856	41.38
228.09	43.38
228.324	46.38
228.559	48.38
228.793	77.38
229.027	134.38
229.262	142.38
229.496	144.38
229.73	165.38
229.964	168.38
230.199	196.38
230.433	208.38
230.667	209.38
230.901	208.38
231.136	200.38
231.37	203.38
231.604	231.38
231.838	227.38
232.072	264.38
232.306	236.38
232.541	258.38
232.775	237.38
233.009	252.38
233.243	280.38
233.477	293.38
233.711	329.38
233.945	345.38
234.179	310.38
234.413	344.38
234.647	389.38
234.881	422.38
235.115	411.38
235.349	408.38
235.583	327.38
235.817	355.38
236.051	368.38
236.285	399.38
236.519	435.38
236.753	436.38
236.987	415.38
237.221	376.38
237.455	408.38
237.689	417.38
237.922	446.38
238.156	468.38
238.39	539.38
238.624	624.38
238.858	591.38
239.091	488.38
239.325	487.38
239.559	480.38
239.793	537.38
240.027	618.38
240.26	598.38
240.494	567.38
240.728	604.38
240.961	659.38
241.195	602.38
241.429	606.38
241.662	577.38
241.896	505.38
242.13	462.38
242.363	455.38
242.597	468.38
242.83	513.38
243.064	517.38
243.298	577.38
243.531	595.38
243.765	643.38
243.998	600.38
244.232	583.38
244.465	598.38
244.699	582.38
244.932	630.38
245.166	603.38
245.399	535.38
245.633	545.38
245.866	544.38
246.099	596.38
246.333	689.38
246.566	749.38
246.8	740.38
247.033	717.38
247.266	655.38
247.5	670.38
247.733	665.38
247.966	663.38
248.2	684.38
248.433	757.38
248.666	817.38
248.899	838.38
249.133	836.38
249.366	949.38
249.599	1030.38
249.832	891.38
250.066	802.38
250.299	817.38
250.532	793.38
250.765	793.38
250.998	709.38
251.231	671.38
251.465	778.38
251.698	815.38
251.931	764.38
252.164	839.38
252.397	905.38
252.63	1000.38
252.863	1108.38
253.096	1156.38
253.329	1111.38
253.562	1067.38
253.795	1173.38
254.028	1271.38
254.261	1341.38
254.494	1229.38
254.727	1122.38
254.96	1083.38
255.193	1131.38
255.426	1077.38
255.659	838.38
255.892	783.38
256.124	856.38
256.357	1001.38
256.59	1172.38
256.823	1071.38
257.056	939.38
257.289	903.38
257.521	954.38
257.754	1095.38
257.987	1290.38
258.22	1046.38
258.452	981.38
258.685	1134.38
258.918	1221.38
259.151	1185.38
259.383	1240.38
259.616	1456.38
259.849	1542.38
260.081	1667.38
260.314	1852.38
260.547	1403.38
260.779	1447.38
261.012	1661.38
261.244	1559.38
261.477	1573.38
261.71	1461.38
261.942	1236.38
262.175	1252.38
262.407	1187.38
262.64	1248.38
262.872	1428.38
263.105	1563.38
263.337	1662.38
263.57	1474.38
263.802	1035.38
264.035	878.38
264.267	849.38
264.499	767.38
264.732	713.38
264.964	673.38
265.197	710.38
265.429	754.38
265.661	800.38
265.894	838.38
266.126	893.38
266.358	994.38
266.591	1213.38
266.823	1427.38
267.055	1389.38
267.287	1228.38
267.52	1215.38
267.752	1304.38
267.984	1421.38
268.216	1344.38
268.448	1102.38
268.681	1069.38
268.913	1173.38
269.145	1261.38
269.377	1283.38
269.609	1280.38
269.841	1186.38
270.073	1277.38
270.306	1329.38
270.538	1326.38
270.77	1341.38
271.002	1391.38
271.234	1455.38
271.466	1498.38
271.698	1410.38
271.93	1371.38
272.162	1403.38
272.394	1363.38
272.626	1362.38
272.858	1377.38
273.09	1421.38
273.322	1243.38
273.553	1256.38
273.785	1446.38
274.017	1918.38
274.249	2334.38
274.481	2431.38
274.713	2655.38
274.945	3052.38
275.176	3087.38
275.408	2750.38
275.64	2519.38
275.872	2514.38
276.104	2142.38
276.335	1843.38
276.567	1884.38
276.799	1890.38
277.031	1993.38
277.262	1551.38
277.494	1191.38
277.726	1174.38
277.957	1276.38
278.189	1471.38
278.421	1423.38
278.652	1396.38
278.884	1329.38
279.115	1190.38
279.347	1147.38
279.579	1161.38
279.81	1173.38
280.042	1195.38
280.273	1208.38
280.505	1108.38
280.736	989.38
280.968	1016.38
281.199	1067.38
281.431	1215.38
281.662	1205.38
281.894	1125.38
282.125	1218.38
282.356	1337.38
282.588	1319.38
282.819	1211.38
283.051	1336.38
283.282	1655.38
283.513	1863.38
283.745	2105.38
283.976	2091.38
284.207	1989.38
284.439	2054.38
284.67	1939.38
284.901	1720.38
285.132	1895.38
285.364	1987.38
285.595	1781.38
285.826	1919.38
286.057	1935.38
286.288	1907.38
286.52	1942.38
286.751	2004.38
286.982	2005.38
287.213	1768.38
287.444	1699.38
287.675	1785.38
287.906	1783.38
288.138	1526.38
288.369	1328.38
288.6	1263.38
288.831	1322.38
289.062	1523.38
289.293	1659.38
289.524	1571.38
289.755	1586.38
289.986	1601.38
290.217	1395.38
290.448	1079.38
290.679	954.38
290.91	895.38
291.141	894.38
291.371	955.38
291.602	947.38
291.833	966.38
292.064	1045.38
292.295	1166.38
292.526	1340.38
292.757	1425.38
292.987	1483.38
293.218	1529.38
293.449	1547.38
293.68	1629.38
293.91	1564.38
294.141	1567.38
294.372	1511.38
294.603	1396.38
294.833	1517.38
295.064	1804.38
295.295	1691.38
295.525	1291.38
295.756	1103.38
295.987	994.38
296.217	984.38
296.448	1024.38
296.679	1079.38
296.909	1188.38
297.14	1265.38
297.37	1396.38
297.601	1323.38
297.831	1135.38
298.062	1235.38
298.292	1356.38
298.523	1501.38
298.753	1718.38
298.984	1533.38
299.214	1219.38
299.445	1037.38
299.675	1009.38
299.905	993.38
300.136	1017.38
300.366	1130.38
300.597	1093.38
300.827	1005.38
301.057	983.38
301.288	967.38
301.518	1032.38
301.748	1177.38
301.979	1272.38
302.209	1353.38
302.439	1385.38
302.669	1195.38
302.9	1197.38
303.13	1091.38
303.36	1062.38
303.59	997.38
303.82	1077.38
304.051	1204.38
304.281	1284.38
304.511	1272.38
304.741	1109.38
304.971	1183.38
305.201	1229.38
305.431	1159.38
305.661	1045.38
305.891	1023.38
306.121	1041.38
306.352	926.38
306.582	841.38
306.812	832.38
307.042	819.38
307.272	793.38
307.502	784.38
307.731	813.38
307.961	895.38
308.191	847.38
308.421	784.38
308.651	776.38
308.881	760.38
309.111	747.38
309.341	786.38
309.571	853.38
309.8	911.38
310.03	922.38
310.26	955.38
310.49	944.38
310.72	816.38
310.949	845.38
311.179	847.38
311.409	919.38
311.639	1049.38
311.868	1340.38
312.098	1768.38
312.328	1895.38
312.557	1821.38
312.787	1793.38
313.017	1600.38
313.246	1759.38
313.476	1891.38
313.706	1593.38
313.935	1278.38
314.165	996.38
314.394	924.38
314.624	926.38
314.853	977.38
315.083	1015.38
315.312	963.38
315.542	984.38
315.771	892.38
316.001	843.38
316.23	801.38
316.46	795.38
316.689	821.38
316.919	871.38
317.148	880.38
317.377	875.38
317.607	888.38
317.836	933.38
318.065	1065.38
318.295	1207.38
318.524	1083.38
318.753	949.38
318.983	900.38
319.212	875.38
319.441	946.38
319.67	1070.38
319.9	1172.38
320.129	1099.38
320.358	932.38
320.587	892.38
320.816	967.38
321.046	1120.38
321.275	1259.38
321.504	1271.38
321.733	1224.38
321.962	1177.38
322.191	1115.38
322.42	1075.38
322.649	1085.38
322.878	1158.38
323.108	1137.38
323.337	1070.38
323.566	1052.38
323.795	1035.38
324.024	979.38
324.253	950.38
324.482	931.38
324.71	1045.38
324.939	1171.38
325.168	1073.38
325.397	941.38
325.626	860.38
325.855	872.38
326.084	913.38
326.313	846.38
326.542	802.38
326.77	836.38
326.999	869.38
327.228	951.38
327.457	971.38
327.686	972.38
327.914	877.38
328.143	783.38
328.372	823.38
328.6	816.38
328.829	840.38
329.058	866.38
329.287	852.38
329.515	876.38
329.744	834.38
329.972	817.38
330.201	774.38
330.43	821.38
330.658	945.38
330.887	1040.38
331.115	956.38
331.344	970.38
331.572	951.38
331.801	856.38
332.03	823.38
332.258	869.38
332.486	944.38
332.715	963.38
332.943	893.38
333.172	879.38
333.4	889.38
333.629	1013.38
333.857	1093.38
334.085	1079.38
334.314	1082.38
334.542	1014.38
334.771	904.38
334.999	921.38
335.227	896.38
335.455	909.38
335.684	1004.38
335.912	1188.38
336.14	1298.38
336.369	1225.38
336.597	1184.38
336.825	1317.38
337.053	1439.38
337.281	1203.38
337.51	945.38
337.738	941.38
337.966	1020.38
338.194	1144.38
338.422	1079.38
338.65	931.38
338.878	871.38
339.106	915.38
339.334	988.38
339.562	1051.38
339.79	960.38
340.018	913.38
340.246	1011.38
340.474	1166.38
340.702	1225.38
340.93	1297.38
341.158	1259.38
341.386	1098.38
341.614	1060.38
341.842	1066.38
342.07	1138.38
342.298	1268.38
342.526	1323.38
342.754	1135.38
342.981	1077.38
343.209	1051.38
343.437	1094.38
343.665	1157.38
343.893	1154.38
344.12	1328.38
344.348	1559.38
344.576	1367.38
344.804	1165.38
345.031	1017.38
345.259	960.38
345.487	969.38
345.714	960.38
345.942	1066.38
346.17	1141.38
346.397	1085.38
346.625	988.38
346.853	933.38
347.08	896.38
347.308	959.38
347.535	1080.38
347.763	1116.38
347.99	989.38
348.218	900.38
348.445	921.38
348.673	947.38
348.9	933.38
349.128	1056.38
349.355	1057.38
349.583	1034.38
349.81	991.38
350.037	925.38
350.265	792.38
350.492	781.38
350.72	761.38
350.947	807.38
351.174	855.38
351.402	924.38
351.629	933.38
351.856	928.38
352.083	862.38
352.311	947.38
352.538	1036.38
352.765	1091.38
352.992	999.38
353.22	941.38
353.447	957.38
353.674	936.38
353.901	909.38
354.128	928.38
354.355	955.38
354.583	951.38
354.81	921.38
355.037	974.38
355.264	968.38
355.491	1037.38
355.718	1133.38
355.945	1092.38
356.172	1053.38
356.399	1056.38
356.626	1244.38
356.853	1541.38
357.08	1643.38
357.307	1654.38
357.534	1283.38
357.761	1343.38
357.988	1648.38
358.215	1915.38
358.441	1835.38
358.668	1579.38
358.895	1417.38
359.122	1164.38
359.349	1141.38
359.576	1253.38
359.802	1063.38
360.029	924.38
360.256	961.38
360.483	1203.38
360.709	1498.38
360.936	1597.38
361.163	1381.38
361.39	1096.38
361.616	1028.38
361.843	1158.38
362.07	1436.38
362.296	1305.38
362.523	1009.38
362.749	908.38
362.976	971.38
363.203	1159.38
363.429	1267.38
363.656	1028.38
363.882	944.38
364.109	950.38
364.335	959.38
364.562	941.38
364.788	1078.38
365.015	1220.38
365.241	1119.38
365.468	927.38
365.694	797.38
365.92	785.38
366.147	774.38
366.373	767.38
366.599	791.38
366.826	792.38
367.052	819.38
367.278	806.38
367.505	798.38
367.731	882.38
367.957	972.38
368.184	1015.38
368.41	971.38
368.636	997.38
368.862	1022.38
369.089	979.38
369.315	845.38
369.541	867.38
369.767	823.38
369.993	832.38
370.219	837.38
370.445	883.38
370.672	961.38
370.898	1073.38
371.124	1033.38
371.35	913.38
371.576	870.38
371.802	977.38
372.028	1100.38
372.254	1286.38
372.48	1071.38
372.706	995.38
372.932	1061.38
373.158	1073.38
373.384	1291.38
373.61	1695.38
373.835	1810.38
374.061	1316.38
374.287	1093.38
374.513	1285.38
374.739	1544.38
374.965	1608.38
375.191	1571.38
375.416	1129.38
375.642	973.38
375.868	1124.38
376.094	1305.38
376.319	1107.38
376.545	1234.38
376.771	1283.38
376.997	1097.38
377.222	830.38
377.448	729.38
377.674	757.38
377.899	737.38
378.125	737.38
378.35	713.38
378.576	761.38
378.802	831.38
379.027	881.38
379.253	878.38
379.478	887.38
379.704	1009.38
379.929	1037.38
380.155	1029.38
380.38	929.38
380.606	972.38
380.831	1054.38
381.057	978.38
381.282	945.38
381.507	1096.38
381.733	1390.38
381.958	1429.38
382.184	1559.38
382.409	1643.38
382.634	1583.38
382.86	1657.38
383.085	1380.38
383.31	1099.38
383.535	1160.38
383.761	1190.38
383.986	1105.38
384.211	1343.38
384.436	1325.38
384.662	995.38
384.887	959.38
385.112	1001.38
385.337	1007.38
385.562	949.38
385.787	1050.38
386.013	1207.38
386.238	1180.38
386.463	991.38
386.688	949.38
386.913	932.38
387.138	876.38
387.363	931.38
387.588	947.38
387.813	965.38
388.038	1060.38
388.263	956.38
388.488	936.38
388.713	1102.38
388.938	1178.38
389.163	967.38
389.387	901.38
389.612	864.38
389.837	899.38
390.062	943.38
390.287	979.38
390.512	958.38
390.736	941.38
390.961	880.38
391.186	841.38
391.411	841.38
391.636	853.38
391.86	913.38
392.085	970.38
392.31	956.38
392.534	902.38
392.759	901.38
392.984	944.38
393.208	965.38
393.433	849.38
393.658	807.38
393.882	787.38
394.107	780.38
394.331	802.38
394.556	784.38
394.78	810.38
395.005	813.38
395.229	842.38
395.454	885.38
395.678	855.38
395.903	891.38
396.127	859.38
396.352	843.38
396.576	934.38
396.801	956.38
397.025	1082.38
397.249	1085.38
397.474	915.38
397.698	891.38
397.922	965.38
398.147	897.38
398.371	919.38
398.595	953.38
398.82	926.38
399.044	908.38
399.268	981.38
399.492	1048.38
399.717	1060.38
399.941	1069.38
400.165	1065.38
400.389	998.38
400.613	1012.38
400.837	998.38
401.062	902.38
401.286	897.38
401.51	901.38
401.734	883.38
401.958	884.38
402.182	881.38
402.406	891.38
402.63	889.38
402.854	931.38
403.078	1062.38
403.302	1264.38
403.526	1295.38
403.75	1187.38
403.974	1039.38
404.198	1049.38
404.422	1172.38
404.645	1365.38
404.869	1506.38
405.093	1163.38
405.317	973.38
405.541	984.38
405.765	1004.38
405.988	989.38
406.212	1097.38
406.436	1238.38
406.66	1373.38
406.883	1124.38
407.107	1123.38
407.331	1325.38
407.555	1256.38
407.778	1083.38
408.002	1029.38
408.226	1034.38
408.449	1015.38
408.673	995.38
408.896	917.38
409.12	898.38
409.344	928.38
409.567	862.38
409.791	897.38
410.014	887.38
410.238	883.38
410.461	882.38
410.685	874.38
410.908	902.38
411.132	925.38
411.355	929.38
411.578	943.38
411.802	936.38
412.025	952.38
412.249	947.38
412.472	935.38
412.695	925.38
412.919	932.38
413.142	949.38
413.365	998.38
413.589	1054.38
413.812	931.38
414.035	904.38
414.258	909.38
414.482	1008.38
414.705	1026.38
414.928	904.38
415.151	861.38
415.374	869.38
415.597	898.38
415.821	926.38
416.044	878.38
416.267	838.38
416.49	866.38
416.713	877.38
416.936	839.38
417.159	848.38
417.382	878.38
417.605	905.38
417.828	884.38
418.051	911.38
418.274	943.38
418.497	896.38
418.72	915.38
418.943	927.38
419.166	981.38
419.389	1012.38
419.611	996.38
419.834	980.38
420.057	1089.38
420.28	1075.38
420.503	992.38
420.726	887.38
420.948	881.38
421.171	868.38
421.394	863.38
421.617	823.38
421.839	848.38
422.062	903.38
422.285	929.38
422.507	929.38
422.73	951.38
422.953	956.38
423.175	911.38
423.398	955.38
423.621	1015.38
423.843	1032.38
424.066	956.38
424.288	941.38
424.511	896.38
424.733	891.38
424.956	936.38
425.178	1054.38
425.401	1183.38
425.623	1326.38
425.846	1114.38
426.068	984.38
426.291	1053.38
426.513	1015.38
426.735	936.38
426.958	968.38
427.18	1110.38
427.402	1427.38
427.625	1437.38
427.847	1161.38
428.069	869.38
428.292	887.38
428.514	870.38
428.736	859.38
428.958	955.38
429.181	1098.38
429.403	955.38
429.625	889.38
429.847	867.38
430.069	874.38
430.292	889.38
430.514	888.38
430.736	932.38
430.958	1150.38
431.18	1059.38
431.402	812.38
431.624	803.38
431.846	806.38
432.068	764.38
432.29	791.38
432.512	906.38
432.734	1181.38
432.956	1112.38
433.178	880.38
433.4	829.38
433.622	856.38
433.844	862.38
434.066	925.38
434.287	885.38
434.509	851.38
434.731	901.38
434.953	856.38
435.175	897.38
435.397	999.38
435.618	907.38
435.84	799.38
436.062	837.38
436.284	818.38
436.505	769.38
436.727	775.38
436.949	786.38
437.17	819.38
437.392	848.38
437.614	816.38
437.835	807.38
438.057	813.38
438.278	961.38
438.5	1315.38
438.721	1329.38
438.943	917.38
439.165	811.38
439.386	777.38
439.608	754.38
439.829	781.38
440.05	763.38
440.272	840.38
440.493	970.38
440.715	1209.38
440.936	947.38
441.158	830.38
441.379	870.38
441.6	990.38
441.822	991.38
442.043	872.38
442.264	872.38
442.486	853.38
442.707	838.38
442.928	839.38
443.149	847.38
443.371	871.38
443.592	918.38
443.813	935.38
444.034	892.38
444.255	917.38
444.476	914.38
444.698	939.38
444.919	941.38
445.14	1023.38
445.361	996.38
445.582	961.38
445.803	899.38
446.024	912.38
446.245	950.38
446.466	893.38
446.687	861.38
446.908	886.38
447.129	821.38
447.35	787.38
447.571	803.38
447.792	789.38
448.013	793.38
448.234	792.38
448.455	775.38
448.675	791.38
448.896	775.38
449.117	768.38
449.338	760.38
449.559	823.38
449.779	838.38
450	848.38
450.221	835.38
450.442	793.38
450.662	790.38
450.883	807.38
451.104	803.38
451.324	798.38
451.545	766.38
451.766	794.38
451.986	793.38
452.207	760.38
452.428	789.38
452.648	752.38
452.869	804.38
453.089	791.38
453.31	802.38
453.53	727.38
453.751	731.38
453.971	737.38
454.192	766.38
454.412	791.38
454.633	737.38
454.853	747.38
455.073	744.38
455.294	740.38
455.514	726.38
455.734	772.38
455.955	811.38
456.175	824.38
456.395	740.38
456.616	693.38
456.836	730.38
457.056	696.38
457.276	712.38
457.497	713.38
457.717	708.38
457.937	729.38
458.157	704.38
458.377	714.38
458.598	730.38
458.818	772.38
459.038	795.38
459.258	795.38
459.478	859.38
459.698	868.38
459.918	870.38
460.138	853.38
460.358	905.38
460.578	870.38
460.798	869.38
461.018	879.38
461.238	859.38
461.458	851.38
461.678	872.38
461.898	903.38
462.118	901.38
462.338	947.38
462.558	945.38
462.777	985.38
462.997	979.38
463.217	998.38
463.437	1009.38
463.657	1027.38
463.876	942.38
464.096	961.38
464.316	953.38
464.536	965.38
464.755	988.38
464.975	1007.38
465.195	968.38
465.414	943.38
465.634	918.38
465.854	913.38
466.073	846.38
466.293	838.38
466.512	915.38
466.732	977.38
466.951	1021.38
467.171	889.38
467.391	876.38
467.61	873.38
467.829	925.38
468.049	911.38
468.268	887.38
468.488	897.38
468.707	912.38
468.927	1077.38
469.146	1147.38
469.365	1020.38
469.585	970.38
469.804	994.38
470.023	1085.38
470.243	967.38
470.462	914.38
470.681	903.38
470.901	919.38
471.12	958.38
471.339	949.38
471.558	908.38
471.777	925.38
471.997	992.38
472.216	1087.38
472.435	1050.38
472.654	924.38
472.873	925.38
473.092	969.38
473.311	997.38
473.53	949.38
473.749	918.38
473.968	984.38
474.187	983.38
474.406	940.38
474.625	919.38
474.844	943.38
475.063	995.38
475.282	1025.38
475.501	1076.38
475.72	1112.38
475.939	1097.38
476.158	1069.38
476.377	1269.38
476.596	1427.38
476.814	1461.38
477.033	1205.38
477.252	1039.38
477.471	947.38
477.69	995.38
477.908	1093.38
478.127	1165.38
478.346	1020.38
478.564	1118.38
478.783	1075.38
479.002	1103.38
479.22	1256.38
479.439	1412.38
479.658	1231.38
479.876	1126.38
480.095	1177.38
480.313	1207.38
480.532	1124.38
480.751	1096.38
480.969	1127.38
481.188	1226.38
481.406	1249.38
481.624	1233.38
481.843	1115.38
482.061	1050.38
482.28	1186.38
482.498	1424.38
482.717	1361.38
482.935	1182.38
483.153	1100.38
483.372	1049.38
483.59	1049.38
483.808	1050.38
484.027	995.38
484.245	990.38
484.463	1000.38
484.681	987.38
484.9	1082.38
485.118	1165.38
485.336	1097.38
485.554	1030.38
485.772	1048.38
485.99	1136.38
486.209	1219.38
486.427	1209.38
486.645	1182.38
486.863	1224.38
487.081	1205.38
487.299	1320.38
487.517	1302.38
487.735	1158.38
487.953	1215.38
488.171	1264.38
488.389	1173.38
488.607	1117.38
488.825	1173.38
489.043	1224.38
489.261	1406.38
489.479	1491.38
489.696	1252.38
489.914	1150.38
490.132	1101.38
490.35	1103.38
490.568	1118.38
490.786	1116.38
491.003	1135.38
491.221	1121.38
491.439	1134.38
491.657	1113.38
491.874	1201.38
492.092	1410.38
492.31	1719.38
492.527	1679.38
492.745	1480.38
492.963	1308.38
493.18	1281.38
493.398	1305.38
493.615	1261.38
493.833	1229.38
494.05	1218.38
494.268	1238.38
494.485	1206.38
494.703	1186.38
494.92	1228.38
495.138	1200.38
