Data from NickelSpatula_HRD10591_16-33-37-126.txt Node
Date: Mon Jul 22 16:33:37 EDT 2019
User: cochatt
Spectrometer: HR+D1059
Trigger mode: 1
Integration Time (sec): 1.000000E-1
Scans to average: 1
Electric dark correction enabled: true
Nonlinearity correction enabled: false
Boxcar width: 0
XAxis mode: Wavelengths
Number of Pixels in Spectrum: 2048
>>>>>Begin Spectral Data<<<<<
223.165	-3.69
223.4	-3.69
223.635	-3.69
223.869	-18.69
224.104	-9.69
224.338	-18.69
224.573	-14.69
224.808	-14.69
225.042	-11.69
225.277	-11.69
225.511	-1.69
225.746	1.31
225.98	8.31
226.215	18.31
226.449	11.31
226.683	18.31
226.918	12.31
227.152	35.31
227.387	42.31
227.621	39.31
227.856	45.31
228.09	49.31
228.324	61.31
228.559	59.31
228.793	64.31
229.027	80.31
229.262	76.31
229.496	76.31
229.73	81.31
229.964	76.31
230.199	73.31
230.433	95.31
230.667	93.31
230.901	100.31
231.136	93.31
231.37	96.31
231.604	91.31
231.838	104.31
232.072	97.31
232.306	102.31
232.541	122.31
232.775	107.31
233.009	107.31
233.243	126.31
233.477	106.31
233.711	121.31
233.945	116.31
234.179	111.31
234.413	96.31
234.647	136.31
234.881	126.31
235.115	123.31
235.349	133.31
235.583	123.31
235.817	116.31
236.051	108.31
236.285	123.31
236.519	132.31
236.753	131.31
236.987	134.31
237.221	121.31
237.455	146.31
237.689	131.31
237.922	142.31
238.156	138.31
238.39	131.31
238.624	145.31
238.858	152.31
239.091	134.31
239.325	149.31
239.559	139.31
239.793	132.31
240.027	163.31
240.26	145.31
240.494	158.31
240.728	157.31
240.961	166.31
241.195	160.31
241.429	163.31
241.662	156.31
241.896	148.31
242.13	150.31
242.363	129.31
242.597	128.31
242.83	149.31
243.064	168.31
243.298	167.31
243.531	157.31
243.765	160.31
243.998	144.31
244.232	147.31
244.465	156.31
244.699	151.31
244.932	176.31
245.166	146.31
245.399	141.31
245.633	151.31
245.866	154.31
246.099	142.31
246.333	178.31
246.566	187.31
246.8	169.31
247.033	181.31
247.266	152.31
247.5	168.31
247.733	160.31
247.966	166.31
248.2	167.31
248.433	171.31
248.666	190.31
248.899	183.31
249.133	177.31
249.366	200.31
249.599	233.31
249.832	203.31
250.066	172.31
250.299	186.31
250.532	179.31
250.765	176.31
250.998	156.31
251.231	178.31
251.465	188.31
251.698	192.31
251.931	186.31
252.164	181.31
252.397	194.31
252.63	232.31
252.863	244.31
253.096	249.31
253.329	243.31
253.562	241.31
253.795	253.31
254.028	293.31
254.261	288.31
254.494	243.31
254.727	247.31
254.96	226.31
255.193	239.31
255.426	226.31
255.659	188.31
255.892	186.31
256.124	197.31
256.357	234.31
256.59	251.31
256.823	242.31
257.056	206.31
257.289	193.31
257.521	224.31
257.754	231.31
257.987	281.31
258.22	244.31
258.452	232.31
258.685	226.31
258.918	262.31
259.151	267.31
259.383	278.31
259.616	323.31
259.849	302.31
260.081	321.31
260.314	348.31
260.547	272.31
260.779	296.31
261.012	350.31
261.244	313.31
261.477	336.31
261.71	305.31
261.942	256.31
262.175	254.31
262.407	258.31
262.64	260.31
262.872	306.31
263.105	313.31
263.337	338.31
263.57	302.31
263.802	242.31
264.035	210.31
264.267	211.31
264.499	186.31
264.732	173.31
264.964	172.31
265.197	181.31
265.429	186.31
265.661	178.31
265.894	195.31
266.126	196.31
266.358	249.31
266.591	276.31
266.823	324.31
267.055	301.31
267.287	267.31
267.52	278.31
267.752	286.31
267.984	314.31
268.216	290.31
268.448	250.31
268.681	252.31
268.913	273.31
269.145	260.31
269.377	277.31
269.609	285.31
269.841	254.31
270.073	284.31
270.306	289.31
270.538	296.31
270.77	296.31
271.002	285.31
271.234	308.31
271.466	312.31
271.698	277.31
271.93	288.31
272.162	279.31
272.394	282.31
272.626	294.31
272.858	285.31
273.09	286.31
273.322	272.31
273.553	247.31
273.785	266.31
274.017	360.31
274.249	417.31
274.481	452.31
274.713	485.31
274.945	545.31
275.176	547.31
275.408	485.31
275.64	472.31
275.872	484.31
276.104	424.31
276.335	369.31
276.567	354.31
276.799	378.31
277.031	402.31
277.262	314.31
277.494	266.31
277.726	244.31
277.957	255.31
278.189	288.31
278.421	299.31
278.652	280.31
278.884	269.31
279.115	248.31
279.347	255.31
279.579	265.31
279.81	258.31
280.042	256.31
280.273	262.31
280.505	248.31
280.736	209.31
280.968	227.31
281.199	238.31
281.431	264.31
281.662	250.31
281.894	249.31
282.125	270.31
282.356	276.31
282.588	279.31
282.819	257.31
283.051	269.31
283.282	317.31
283.513	346.31
283.745	410.31
283.976	409.31
284.207	370.31
284.439	380.31
284.67	349.31
284.901	320.31
285.132	342.31
285.364	381.31
285.595	355.31
285.826	369.31
286.057	391.31
286.288	363.31
286.52	375.31
286.751	390.31
286.982	406.31
287.213	362.31
287.444	349.31
287.675	366.31
287.906	356.31
288.138	311.31
288.369	286.31
288.6	264.31
288.831	262.31
289.062	308.31
289.293	337.31
289.524	322.31
289.755	320.31
289.986	330.31
290.217	296.31
290.448	246.31
290.679	227.31
290.91	195.31
291.141	196.31
291.371	216.31
291.602	226.31
291.833	214.31
292.064	207.31
292.295	228.31
292.526	289.31
292.757	287.31
292.987	297.31
293.218	314.31
293.449	321.31
293.68	345.31
293.91	312.31
294.141	355.31
294.372	313.31
294.603	274.31
294.833	307.31
295.064	364.31
295.295	361.31
295.525	294.31
295.756	224.31
295.987	220.31
296.217	217.31
296.448	215.31
296.679	198.31
296.909	229.31
297.14	261.31
297.37	276.31
297.601	261.31
297.831	231.31
298.062	249.31
298.292	279.31
298.523	282.31
298.753	323.31
298.984	327.31
299.214	261.31
299.445	228.31
299.675	220.31
299.905	212.31
300.136	218.31
300.366	237.31
300.597	213.31
300.827	213.31
301.057	185.31
301.288	199.31
301.518	221.31
301.748	246.31
301.979	266.31
302.209	280.31
302.439	272.31
302.669	267.31
302.9	250.31
303.13	241.31
303.36	225.31
303.59	224.31
303.82	249.31
304.051	264.31
304.281	291.31
304.511	244.31
304.741	234.31
304.971	244.31
305.201	262.31
305.431	244.31
305.661	211.31
305.891	219.31
306.121	209.31
306.352	201.31
306.582	195.31
306.812	192.31
307.042	188.31
307.272	168.31
307.502	185.31
307.731	190.31
307.961	202.31
308.191	198.31
308.421	193.31
308.651	181.31
308.881	166.31
309.111	168.31
309.341	180.31
309.571	203.31
309.8	192.31
310.03	197.31
310.26	226.31
310.49	212.31
310.72	192.31
310.949	179.31
311.179	182.31
311.409	205.31
311.639	216.31
311.868	266.31
312.098	328.31
312.328	363.31
312.557	350.31
312.787	335.31
313.017	329.31
313.246	324.31
313.476	373.31
313.706	333.31
313.935	258.31
314.165	236.31
314.394	215.31
314.624	197.31
314.853	219.31
315.083	214.31
315.312	209.31
315.542	194.31
315.771	200.31
316.001	185.31
316.23	183.31
316.46	185.31
316.689	192.31
316.919	195.31
317.148	180.31
317.377	180.31
317.607	176.31
317.836	200.31
318.065	219.31
318.295	243.31
318.524	228.31
318.753	202.31
318.983	186.31
319.212	188.31
319.441	199.31
319.67	227.31
319.9	221.31
320.129	226.31
320.358	209.31
320.587	188.31
320.816	211.31
321.046	206.31
321.275	254.31
321.504	249.31
321.733	256.31
321.962	229.31
322.191	213.31
322.42	212.31
322.649	225.31
322.878	214.31
323.108	247.31
323.337	218.31
323.566	200.31
323.795	205.31
324.024	219.31
324.253	195.31
324.482	186.31
324.71	215.31
324.939	238.31
325.168	218.31
325.397	201.31
325.626	182.31
325.855	185.31
326.084	205.31
326.313	189.31
326.542	184.31
326.77	180.31
326.999	193.31
327.228	211.31
327.457	197.31
327.686	187.31
327.914	180.31
328.143	181.31
328.372	189.31
328.6	173.31
328.829	195.31
329.058	190.31
329.287	201.31
329.515	192.31
329.744	197.31
329.972	177.31
330.201	188.31
330.43	177.31
330.658	207.31
330.887	209.31
331.115	204.31
331.344	190.31
331.572	185.31
331.801	200.31
332.03	180.31
332.258	174.31
332.486	201.31
332.715	215.31
332.943	190.31
333.172	202.31
333.4	201.31
333.629	217.31
333.857	249.31
334.085	233.31
334.314	233.31
334.542	220.31
334.771	211.31
334.999	208.31
335.227	197.31
335.455	201.31
335.684	220.31
335.912	240.31
336.14	264.31
336.369	256.31
336.597	253.31
336.825	274.31
337.053	316.31
337.281	273.31
337.51	219.31
337.738	203.31
337.966	222.31
338.194	242.31
338.422	218.31
338.65	202.31
338.878	172.31
339.106	169.31
339.334	196.31
339.562	218.31
339.79	182.31
340.018	195.31
340.246	211.31
340.474	224.31
340.702	245.31
340.93	256.31
341.158	249.31
341.386	210.31
341.614	220.31
341.842	209.31
342.07	224.31
342.298	258.31
342.526	279.31
342.754	242.31
342.981	218.31
343.209	191.31
343.437	216.31
343.665	232.31
343.893	248.31
344.12	256.31
344.348	301.31
344.576	273.31
344.804	227.31
345.031	202.31
345.259	204.31
345.487	208.31
345.714	197.31
345.942	202.31
346.17	235.31
346.397	206.31
346.625	208.31
346.853	195.31
347.08	196.31
347.308	196.31
347.535	219.31
347.763	235.31
347.99	207.31
348.218	189.31
348.445	217.31
348.673	216.31
348.9	204.31
349.128	222.31
349.355	202.31
349.583	210.31
349.81	190.31
350.037	200.31
350.265	182.31
350.492	170.31
350.72	165.31
350.947	176.31
351.174	171.31
351.402	187.31
351.629	194.31
351.856	198.31
352.083	180.31
352.311	186.31
352.538	197.31
352.765	218.31
352.992	203.31
353.22	199.31
353.447	189.31
353.674	180.31
353.901	188.31
354.128	207.31
354.355	198.31
354.583	224.31
354.81	213.31
355.037	226.31
355.264	203.31
355.491	213.31
355.718	221.31
355.945	236.31
356.172	217.31
356.399	215.31
356.626	236.31
356.853	274.31
357.08	299.31
357.307	330.31
357.534	241.31
357.761	268.31
357.988	312.31
358.215	335.31
358.441	312.31
358.668	290.31
358.895	282.31
359.122	224.31
359.349	233.31
359.576	253.31
359.802	200.31
360.029	192.31
360.256	219.31
360.483	233.31
360.709	285.31
360.936	288.31
361.163	262.31
361.39	225.31
361.616	185.31
361.843	219.31
362.07	253.31
362.296	274.31
362.523	217.31
362.749	184.31
362.976	187.31
363.203	210.31
363.429	236.31
363.656	216.31
363.882	218.31
364.109	208.31
364.335	198.31
364.562	174.31
364.788	213.31
365.015	241.31
365.241	206.31
365.468	197.31
365.694	178.31
365.92	168.31
366.147	163.31
366.373	163.31
366.599	173.31
366.826	166.31
367.052	178.31
367.278	169.31
367.505	170.31
367.731	178.31
367.957	199.31
368.184	202.31
368.41	205.31
368.636	195.31
368.862	198.31
369.089	196.31
369.315	189.31
369.541	176.31
369.767	178.31
369.993	177.31
370.219	174.31
370.445	192.31
370.672	202.31
370.898	211.31
371.124	198.31
371.35	188.31
371.576	195.31
371.802	196.31
372.028	228.31
372.254	231.31
372.48	218.31
372.706	227.31
372.932	205.31
373.158	228.31
373.384	241.31
373.61	300.31
373.835	299.31
374.061	241.31
374.287	209.31
374.513	257.31
374.739	297.31
374.965	293.31
375.191	310.31
375.416	229.31
375.642	201.31
375.868	227.31
376.094	249.31
376.319	225.31
376.545	226.31
376.771	247.31
376.997	229.31
377.222	187.31
377.448	163.31
377.674	168.31
377.899	164.31
378.125	160.31
378.35	177.31
378.576	184.31
378.802	184.31
379.027	192.31
379.253	187.31
379.478	181.31
379.704	213.31
379.929	212.31
380.155	210.31
380.38	203.31
380.606	203.31
380.831	224.31
381.057	194.31
381.282	201.31
381.507	221.31
381.733	260.31
381.958	254.31
382.184	290.31
382.409	300.31
382.634	286.31
382.86	300.31
383.085	264.31
383.31	215.31
383.535	235.31
383.761	245.31
383.986	224.31
384.211	270.31
384.436	249.31
384.662	198.31
384.887	200.31
385.112	225.31
385.337	227.31
385.562	211.31
385.787	226.31
386.013	234.31
386.238	224.31
386.463	207.31
386.688	203.31
386.913	186.31
387.138	191.31
387.363	197.31
387.588	198.31
387.813	192.31
388.038	243.31
388.263	209.31
388.488	201.31
388.713	235.31
388.938	250.31
389.163	216.31
389.387	204.31
389.612	202.31
389.837	197.31
390.062	188.31
390.287	218.31
390.512	209.31
390.736	197.31
390.961	198.31
391.186	167.31
391.411	173.31
391.636	180.31
391.86	213.31
392.085	210.31
392.31	220.31
392.534	198.31
392.759	186.31
392.984	201.31
393.208	212.31
393.433	200.31
393.658	196.31
393.882	195.31
394.107	177.31
394.331	178.31
394.556	171.31
394.78	178.31
395.005	188.31
395.229	158.31
395.454	204.31
395.678	182.31
395.903	191.31
396.127	192.31
396.352	192.31
396.576	199.31
396.801	212.31
397.025	230.31
397.249	234.31
397.474	199.31
397.698	198.31
397.922	192.31
398.147	192.31
398.371	190.31
398.595	204.31
398.82	209.31
399.044	218.31
399.268	206.31
399.492	231.31
399.717	240.31
399.941	228.31
400.165	231.31
400.389	212.31
400.613	222.31
400.837	215.31
401.062	192.31
401.286	200.31
401.51	195.31
401.734	200.31
401.958	186.31
402.182	180.31
402.406	212.31
402.63	209.31
402.854	214.31
403.078	230.31
403.302	279.31
403.526	297.31
403.75	280.31
403.974	230.31
404.198	256.31
404.422	255.31
404.645	250.31
404.869	281.31
405.093	241.31
405.317	217.31
405.541	213.31
405.765	230.31
405.988	223.31
406.212	219.31
406.436	240.31
406.66	269.31
406.883	229.31
407.107	238.31
407.331	262.31
407.555	242.31
407.778	232.31
408.002	221.31
408.226	237.31
408.449	225.31
408.673	213.31
408.896	201.31
409.12	196.31
409.344	196.31
409.567	219.31
409.791	200.31
410.014	204.31
410.238	204.31
410.461	200.31
410.685	199.31
410.908	217.31
411.132	192.31
411.355	184.31
411.578	197.31
411.802	202.31
412.025	205.31
412.249	206.31
412.472	213.31
412.695	206.31
412.919	192.31
413.142	202.31
413.365	217.31
413.589	220.31
413.812	208.31
414.035	198.31
414.258	209.31
414.482	231.31
414.705	234.31
414.928	210.31
415.151	195.31
415.374	215.31
415.597	195.31
415.821	203.31
416.044	205.31
416.267	183.31
416.49	205.31
416.713	190.31
416.936	172.31
417.159	196.31
417.382	206.31
417.605	197.31
417.828	211.31
418.051	210.31
418.274	190.31
418.497	199.31
418.72	209.31
418.943	198.31
419.166	220.31
419.389	233.31
419.611	204.31
419.834	231.31
420.057	236.31
420.28	230.31
420.503	214.31
420.726	202.31
420.948	167.31
421.171	185.31
421.394	195.31
421.617	186.31
421.839	199.31
422.062	185.31
422.285	179.31
422.507	198.31
422.73	199.31
422.953	200.31
423.175	187.31
423.398	207.31
423.621	216.31
423.843	224.31
424.066	203.31
424.288	191.31
424.511	200.31
424.733	198.31
424.956	190.31
425.178	228.31
425.401	251.31
425.623	276.31
425.846	238.31
426.068	206.31
426.291	228.31
426.513	203.31
426.735	199.31
426.958	210.31
427.18	220.31
427.402	297.31
427.625	299.31
427.847	247.31
428.069	202.31
428.292	220.31
428.514	198.31
428.736	198.31
428.958	200.31
429.181	237.31
429.403	208.31
429.625	191.31
429.847	218.31
430.069	205.31
430.292	202.31
430.514	193.31
430.736	205.31
430.958	218.31
431.18	214.31
431.402	177.31
431.624	201.31
431.846	180.31
432.068	168.31
432.29	157.31
432.512	191.31
432.734	212.31
432.956	240.31
433.178	187.31
433.4	187.31
433.622	187.31
433.844	185.31
434.066	198.31
434.287	204.31
434.509	196.31
434.731	216.31
434.953	185.31
435.175	217.31
435.397	230.31
435.618	199.31
435.84	180.31
436.062	184.31
436.284	182.31
436.505	174.31
436.727	194.31
436.949	172.31
437.17	177.31
437.392	178.31
437.614	186.31
437.835	188.31
438.057	179.31
438.278	198.31
438.5	241.31
438.721	272.31
438.943	205.31
439.165	182.31
439.386	165.31
439.608	188.31
439.829	179.31
440.05	177.31
440.272	178.31
440.493	198.31
440.715	230.31
440.936	200.31
441.158	189.31
441.379	198.31
441.6	192.31
441.822	220.31
442.043	201.31
442.264	186.31
442.486	180.31
442.707	197.31
442.928	192.31
443.149	195.31
443.371	194.31
443.592	212.31
443.813	192.31
444.034	202.31
444.255	204.31
444.476	189.31
444.698	209.31
444.919	225.31
445.14	330.31
445.361	270.31
445.582	218.31
445.803	197.31
446.024	209.31
446.245	206.31
446.466	189.31
446.687	193.31
446.908	195.31
447.129	194.31
447.35	187.31
447.571	186.31
447.792	171.31
448.013	162.31
448.234	164.31
448.455	163.31
448.675	178.31
448.896	185.31
449.117	183.31
449.338	192.31
449.559	191.31
449.779	189.31
450	207.31
450.221	177.31
450.442	180.31
450.662	166.31
450.883	170.31
451.104	180.31
451.324	186.31
451.545	181.31
451.766	166.31
451.986	177.31
452.207	173.31
452.428	153.31
452.648	180.31
452.869	184.31
453.089	194.31
453.31	222.31
453.53	182.31
453.751	162.31
453.971	181.31
454.192	174.31
454.412	181.31
454.633	173.31
454.853	164.31
455.073	154.31
455.294	161.31
455.514	171.31
455.734	168.31
455.955	176.31
456.175	188.31
456.395	170.31
456.616	165.31
456.836	178.31
457.056	160.31
457.276	152.31
457.497	157.31
457.717	174.31
457.937	165.31
458.157	157.31
458.377	161.31
458.598	178.31
458.818	162.31
459.038	179.31
459.258	176.31
459.478	200.31
459.698	171.31
459.918	190.31
460.138	192.31
460.358	199.31
460.578	203.31
460.798	190.31
461.018	200.31
461.238	191.31
461.458	200.31
461.678	211.31
461.898	227.31
462.118	194.31
462.338	200.31
462.558	205.31
462.777	218.31
462.997	241.31
463.217	242.31
463.437	228.31
463.657	216.31
463.876	221.31
464.096	206.31
464.316	224.31
464.536	214.31
464.755	222.31
464.975	226.31
465.195	217.31
465.414	230.31
465.634	202.31
465.854	199.31
466.073	197.31
466.293	188.31
466.512	197.31
466.732	204.31
466.951	226.31
467.171	196.31
467.391	180.31
467.61	185.31
467.829	181.31
468.049	194.31
468.268	192.31
468.488	168.31
468.707	186.31
468.927	200.31
469.146	217.31
469.365	214.31
469.585	205.31
469.804	206.31
470.023	218.31
470.243	220.31
470.462	203.31
470.681	197.31
470.901	199.31
471.12	212.31
471.339	213.31
471.558	186.31
471.777	197.31
471.997	217.31
472.216	212.31
472.435	218.31
472.654	204.31
472.873	211.31
473.092	214.31
473.311	217.31
473.53	202.31
473.749	200.31
473.968	221.31
474.187	190.31
474.406	198.31
474.625	200.31
474.844	216.31
475.063	193.31
475.282	214.31
475.501	236.31
475.72	254.31
475.939	226.31
476.158	231.31
476.377	240.31
476.596	268.31
476.814	291.31
477.033	259.31
477.252	211.31
477.471	204.31
477.69	213.31
477.908	227.31
478.127	243.31
478.346	216.31
478.564	235.31
478.783	217.31
479.002	224.31
479.22	252.31
479.439	276.31
479.658	247.31
479.876	225.31
480.095	243.31
480.313	258.31
480.532	227.31
480.751	231.31
480.969	224.31
481.188	240.31
481.406	257.31
481.624	250.31
481.843	218.31
482.061	214.31
482.28	243.31
482.498	282.31
482.717	303.31
482.935	251.31
483.153	231.31
483.372	210.31
483.59	209.31
483.808	212.31
484.027	221.31
484.245	198.31
484.463	200.31
484.681	215.31
484.9	227.31
485.118	245.31
485.336	213.31
485.554	212.31
485.772	212.31
485.99	233.31
486.209	248.31
486.427	252.31
486.645	222.31
486.863	224.31
487.081	240.31
487.299	272.31
487.517	262.31
487.735	233.31
487.953	242.31
488.171	243.31
488.389	221.31
488.607	210.31
488.825	212.31
489.043	257.31
489.261	267.31
489.479	302.31
489.696	238.31
489.914	236.31
490.132	228.31
490.35	216.31
490.568	227.31
490.786	216.31
491.003	232.31
491.221	218.31
491.439	205.31
491.657	214.31
491.874	225.31
492.092	278.31
492.31	331.31
492.527	316.31
492.745	255.31
492.963	246.31
493.18	261.31
493.398	233.31
493.615	258.31
493.833	215.31
494.05	236.31
494.268	248.31
494.485	229.31
494.703	221.31
494.92	241.31
495.138	238.31
495.355	219.31
495.573	229.31
495.79	258.31
496.008	356.31
496.225	276.31
496.442	254.31
496.66	258.31
496.877	256.31
497.094	252.31
497.312	258.31
497.529	264.31
497.746	253.31
497.963	267.31
498.181	268.31
498.398	295.31
498.615	301.31
498.832	309.31
499.049	323.31
499.267	316.31
499.484	306.31
499.701	347.31
499.918	346.31
500.135	390.31
500.352	394.31
500.569	420.31
500.786	429.31
501.003	438.31
501.22	372.31
501.437	368.31
501.654	350.31
501.871	308.31
502.088	312.31
502.305	304.31
502.522	307.31
502.739	289.31
