Data from NickelSpatula_HRD10591_16-35-45-126.txt Node
Date: Mon Jul 22 16:35:45 EDT 2019
User: cochatt
Spectrometer: HR+D1059
Trigger mode: 1
Integration Time (sec): 1.000000E-1
Scans to average: 1
Electric dark correction enabled: true
Nonlinearity correction enabled: false
Boxcar width: 0
XAxis mode: Wavelengths
Number of Pixels in Spectrum: 2048
>>>>>Begin Spectral Data<<<<<
223.165	-21.44
223.4	-21.44
223.635	-21.44
223.869	-19.44
224.104	-8.44
224.338	-10.44
224.573	-14.44
224.808	-18.44
225.042	-11.44
225.277	-7.44
225.511	3.56
225.746	-11.44
225.98	-6.44
226.215	22.56
226.449	14.56
226.683	31.56
226.918	31.56
227.152	25.56
227.387	43.56
227.621	41.56
227.856	53.56
228.09	45.56
228.324	53.56
228.559	57.56
228.793	74.56
229.027	63.56
229.262	68.56
229.496	87.56
229.73	84.56
229.964	94.56
230.199	103.56
230.433	94.56
230.667	98.56
230.901	100.56
231.136	101.56
231.37	100.56
231.604	93.56
231.838	106.56
232.072	102.56
232.306	104.56
232.541	99.56
232.775	100.56
233.009	105.56
233.243	119.56
233.477	109.56
233.711	119.56
233.945	121.56
234.179	110.56
234.413	127.56
234.647	127.56
234.881	123.56
235.115	130.56
235.349	130.56
235.583	121.56
235.817	108.56
236.051	124.56
236.285	119.56
236.519	131.56
236.753	120.56
236.987	122.56
237.221	119.56
237.455	124.56
237.689	109.56
237.922	124.56
238.156	128.56
238.39	153.56
238.624	163.56
238.858	147.56
239.091	135.56
239.325	143.56
239.559	124.56
239.793	115.56
240.027	150.56
240.26	131.56
240.494	133.56
240.728	142.56
240.961	145.56
241.195	140.56
241.429	153.56
241.662	143.56
241.896	107.56
242.13	131.56
242.363	120.56
242.597	121.56
242.83	137.56
243.064	125.56
243.298	150.56
243.531	140.56
243.765	151.56
243.998	129.56
244.232	141.56
244.465	129.56
244.699	145.56
244.932	164.56
245.166	146.56
245.399	133.56
245.633	135.56
245.866	142.56
246.099	144.56
246.333	164.56
246.566	158.56
246.8	165.56
247.033	167.56
247.266	165.56
247.5	158.56
247.733	149.56
247.966	163.56
248.2	158.56
248.433	174.56
248.666	182.56
248.899	186.56
249.133	173.56
249.366	176.56
249.599	209.56
249.832	189.56
250.066	178.56
250.299	170.56
250.532	161.56
250.765	164.56
250.998	157.56
251.231	169.56
251.465	187.56
251.698	178.56
251.931	155.56
252.164	167.56
252.397	185.56
252.63	212.56
252.863	221.56
253.096	215.56
253.329	221.56
253.562	220.56
253.795	222.56
254.028	251.56
254.261	252.56
254.494	235.56
254.727	229.56
254.96	224.56
255.193	224.56
255.426	215.56
255.659	170.56
255.892	177.56
256.124	166.56
256.357	192.56
256.59	232.56
256.823	217.56
257.056	195.56
257.289	193.56
257.521	203.56
257.754	236.56
257.987	250.56
258.22	213.56
258.452	200.56
258.685	204.56
258.918	222.56
259.151	258.56
259.383	254.56
259.616	280.56
259.849	285.56
260.081	283.56
260.314	301.56
260.547	263.56
260.779	281.56
261.012	303.56
261.244	277.56
261.477	281.56
261.71	271.56
261.942	238.56
262.175	231.56
262.407	202.56
262.64	221.56
262.872	261.56
263.105	289.56
263.337	282.56
263.57	278.56
263.802	195.56
264.035	182.56
264.267	173.56
264.499	165.56
264.732	163.56
264.964	141.56
265.197	153.56
265.429	153.56
265.661	177.56
265.894	165.56
266.126	190.56
266.358	203.56
266.591	226.56
266.823	262.56
267.055	269.56
267.287	244.56
267.52	235.56
267.752	253.56
267.984	283.56
268.216	252.56
268.448	223.56
268.681	196.56
268.913	229.56
269.145	236.56
269.377	247.56
269.609	255.56
269.841	236.56
270.073	245.56
270.306	266.56
270.538	275.56
270.77	242.56
271.002	258.56
271.234	284.56
271.466	280.56
271.698	263.56
271.93	238.56
272.162	254.56
272.394	245.56
272.626	243.56
272.858	252.56
273.09	266.56
273.322	250.56
273.553	223.56
273.785	270.56
274.017	317.56
274.249	353.56
274.481	358.56
274.713	388.56
274.945	458.56
275.176	484.56
275.408	437.56
275.64	407.56
275.872	393.56
276.104	350.56
276.335	327.56
276.567	318.56
276.799	329.56
277.031	351.56
277.262	271.56
277.494	224.56
277.726	220.56
277.957	226.56
278.189	243.56
278.421	249.56
278.652	239.56
278.884	250.56
279.115	218.56
279.347	215.56
279.579	214.56
279.81	228.56
280.042	224.56
280.273	241.56
280.505	205.56
280.736	186.56
280.968	192.56
281.199	199.56
281.431	229.56
281.662	227.56
281.894	225.56
282.125	215.56
282.356	262.56
282.588	259.56
282.819	225.56
283.051	234.56
283.282	265.56
283.513	325.56
283.745	334.56
283.976	339.56
284.207	329.56
284.439	356.56
284.67	339.56
284.901	307.56
285.132	323.56
285.364	317.56
285.595	300.56
285.826	315.56
286.057	331.56
286.288	322.56
286.52	313.56
286.751	353.56
286.982	338.56
287.213	292.56
287.444	291.56
287.675	293.56
287.906	303.56
288.138	262.56
288.369	257.56
288.6	232.56
288.831	244.56
289.062	262.56
289.293	294.56
289.524	251.56
289.755	259.56
289.986	279.56
290.217	229.56
290.448	211.56
290.679	184.56
290.91	156.56
291.141	171.56
291.371	186.56
291.602	165.56
291.833	183.56
292.064	181.56
292.295	217.56
292.526	233.56
292.757	252.56
292.987	244.56
293.218	266.56
293.449	270.56
293.68	283.56
293.91	277.56
294.141	271.56
294.372	265.56
294.603	240.56
294.833	283.56
295.064	316.56
295.295	300.56
295.525	237.56
295.756	204.56
295.987	190.56
296.217	182.56
296.448	192.56
296.679	186.56
296.909	207.56
297.14	213.56
297.37	215.56
297.601	228.56
297.831	194.56
298.062	207.56
298.292	245.56
298.523	250.56
298.753	289.56
298.984	265.56
299.214	221.56
299.445	197.56
299.675	175.56
299.905	180.56
300.136	177.56
300.366	196.56
300.597	181.56
300.827	173.56
301.057	185.56
301.288	171.56
301.518	189.56
301.748	228.56
301.979	222.56
302.209	217.56
302.439	229.56
302.669	207.56
302.9	216.56
303.13	201.56
303.36	199.56
303.59	190.56
303.82	203.56
304.051	203.56
304.281	227.56
304.511	211.56
304.741	207.56
304.971	213.56
305.201	226.56
305.431	214.56
305.661	177.56
305.891	159.56
306.121	189.56
306.352	177.56
306.582	169.56
306.812	158.56
307.042	146.56
307.272	151.56
307.502	146.56
307.731	163.56
307.961	155.56
308.191	160.56
308.421	149.56
308.651	144.56
308.881	137.56
309.111	167.56
309.341	137.56
309.571	158.56
309.8	165.56
310.03	174.56
310.26	164.56
310.49	171.56
310.72	163.56
310.949	171.56
311.179	180.56
311.409	167.56
311.639	189.56
311.868	241.56
312.098	294.56
312.328	311.56
312.557	284.56
312.787	309.56
313.017	290.56
313.246	295.56
313.476	301.56
313.706	255.56
313.935	200.56
314.165	182.56
314.394	165.56
314.624	160.56
314.853	165.56
315.083	184.56
315.312	162.56
315.542	181.56
315.771	170.56
316.001	152.56
316.23	143.56
316.46	145.56
316.689	142.56
316.919	157.56
317.148	150.56
317.377	155.56
317.607	157.56
317.836	163.56
318.065	198.56
318.295	197.56
318.524	205.56
318.753	171.56
318.983	171.56
319.212	159.56
319.441	165.56
319.67	183.56
319.9	196.56
320.129	193.56
320.358	170.56
320.587	169.56
320.816	168.56
321.046	181.56
321.275	228.56
321.504	218.56
321.733	183.56
321.962	209.56
322.191	185.56
322.42	175.56
322.649	197.56
322.878	212.56
323.108	188.56
323.337	198.56
323.566	194.56
323.795	192.56
324.024	173.56
324.253	177.56
324.482	182.56
324.71	196.56
324.939	187.56
325.168	167.56
325.397	170.56
325.626	156.56
325.855	171.56
326.084	170.56
326.313	161.56
326.542	138.56
326.77	163.56
326.999	161.56
327.228	161.56
327.457	180.56
327.686	158.56
327.914	157.56
328.143	144.56
328.372	134.56
328.6	157.56
328.829	152.56
329.058	171.56
329.287	152.56
329.515	156.56
329.744	162.56
329.972	149.56
330.201	154.56
330.43	157.56
330.658	163.56
330.887	188.56
331.115	175.56
331.344	185.56
331.572	177.56
331.801	163.56
332.03	137.56
332.258	162.56
332.486	165.56
332.715	155.56
332.943	161.56
333.172	148.56
333.4	174.56
333.629	172.56
333.857	187.56
334.085	186.56
334.314	199.56
334.542	184.56
334.771	166.56
334.999	157.56
335.227	160.56
335.455	163.56
335.684	167.56
335.912	212.56
336.14	215.56
336.369	203.56
336.597	203.56
336.825	230.56
337.053	252.56
337.281	194.56
337.51	165.56
337.738	164.56
337.966	179.56
338.194	197.56
338.422	187.56
338.65	158.56
338.878	154.56
339.106	160.56
339.334	178.56
339.562	202.56
339.79	187.56
340.018	160.56
340.246	161.56
340.474	181.56
340.702	207.56
340.93	209.56
341.158	211.56
341.386	187.56
341.614	176.56
341.842	177.56
342.07	184.56
342.298	226.56
342.526	216.56
342.754	197.56
342.981	177.56
343.209	188.56
343.437	202.56
343.665	202.56
343.893	174.56
344.12	228.56
344.348	255.56
344.576	230.56
344.804	207.56
345.031	178.56
345.259	161.56
345.487	167.56
345.714	173.56
345.942	177.56
346.17	185.56
346.397	181.56
346.625	147.56
346.853	173.56
347.08	165.56
347.308	169.56
347.535	196.56
347.763	191.56
347.99	170.56
348.218	162.56
348.445	161.56
348.673	165.56
348.9	178.56
349.128	177.56
349.355	170.56
349.583	185.56
349.81	165.56
350.037	155.56
350.265	143.56
350.492	145.56
350.72	145.56
350.947	158.56
351.174	156.56
351.402	151.56
351.629	182.56
351.856	173.56
352.083	148.56
352.311	161.56
352.538	166.56
352.765	189.56
352.992	190.56
353.22	169.56
353.447	202.56
353.674	179.56
353.901	152.56
354.128	165.56
354.355	154.56
354.583	177.56
354.81	188.56
355.037	180.56
355.264	185.56
355.491	192.56
355.718	190.56
355.945	187.56
356.172	173.56
356.399	184.56
356.626	206.56
356.853	243.56
357.08	285.56
357.307	272.56
357.534	226.56
357.761	234.56
357.988	278.56
358.215	321.56
358.441	299.56
358.668	257.56
358.895	234.56
359.122	215.56
359.349	200.56
359.576	211.56
359.802	196.56
360.029	170.56
360.256	182.56
360.483	204.56
360.709	247.56
360.936	279.56
361.163	233.56
361.39	199.56
361.616	169.56
361.843	192.56
362.07	227.56
362.296	214.56
362.523	195.56
362.749	143.56
362.976	177.56
363.203	184.56
363.429	201.56
363.656	166.56
363.882	170.56
364.109	182.56
364.335	168.56
364.562	187.56
364.788	181.56
365.015	197.56
365.241	200.56
365.468	167.56
365.694	163.56
365.92	150.56
366.147	142.56
366.373	124.56
366.599	153.56
366.826	141.56
367.052	152.56
367.278	152.56
367.505	151.56
367.731	161.56
367.957	164.56
368.184	177.56
368.41	174.56
368.636	182.56
368.862	174.56
369.089	177.56
369.315	145.56
369.541	160.56
369.767	152.56
369.993	161.56
370.219	148.56
370.445	152.56
370.672	178.56
370.898	164.56
371.124	170.56
371.35	162.56
371.576	146.56
371.802	178.56
372.028	167.56
372.254	194.56
372.48	183.56
372.706	174.56
372.932	195.56
373.158	182.56
373.384	219.56
373.61	270.56
373.835	263.56
374.061	208.56
374.287	185.56
374.513	216.56
374.739	241.56
374.965	247.56
375.191	234.56
375.416	187.56
375.642	166.56
375.868	197.56
376.094	205.56
376.319	190.56
376.545	213.56
376.771	209.56
376.997	210.56
377.222	149.56
377.448	157.56
377.674	139.56
377.899	146.56
378.125	122.56
378.35	133.56
378.576	135.56
378.802	151.56
379.027	179.56
379.253	165.56
379.478	157.56
379.704	178.56
379.929	193.56
380.155	172.56
380.38	157.56
380.606	177.56
380.831	201.56
381.057	177.56
381.282	170.56
381.507	191.56
381.733	230.56
381.958	241.56
382.184	261.56
382.409	257.56
382.634	258.56
382.86	275.56
383.085	222.56
383.31	197.56
383.535	201.56
383.761	202.56
383.986	197.56
384.211	233.56
384.436	212.56
384.662	168.56
384.887	175.56
385.112	192.56
385.337	175.56
385.562	180.56
385.787	195.56
386.013	205.56
386.238	219.56
386.463	189.56
386.688	162.56
386.913	166.56
387.138	168.56
387.363	157.56
387.588	178.56
387.813	166.56
388.038	177.56
388.263	178.56
388.488	166.56
388.713	188.56
388.938	212.56
389.163	171.56
389.387	158.56
389.612	158.56
389.837	174.56
390.062	156.56
390.287	163.56
390.512	164.56
390.736	176.56
390.961	165.56
391.186	174.56
391.411	154.56
391.636	154.56
391.86	161.56
392.085	183.56
392.31	159.56
392.534	160.56
392.759	174.56
392.984	183.56
393.208	174.56
393.433	161.56
393.658	166.56
393.882	149.56
394.107	152.56
394.331	153.56
394.556	148.56
394.78	155.56
395.005	159.56
395.229	167.56
395.454	165.56
395.678	157.56
395.903	149.56
396.127	160.56
396.352	145.56
396.576	170.56
396.801	167.56
397.025	193.56
397.249	179.56
397.474	172.56
397.698	157.56
397.922	171.56
398.147	162.56
398.371	185.56
398.595	195.56
398.82	173.56
399.044	169.56
399.268	175.56
399.492	179.56
399.717	178.56
399.941	178.56
400.165	171.56
400.389	157.56
400.613	170.56
400.837	156.56
401.062	141.56
401.286	149.56
401.51	159.56
401.734	161.56
401.958	161.56
402.182	150.56
402.406	157.56
402.63	163.56
402.854	162.56
403.078	190.56
403.302	240.56
403.526	249.56
403.75	210.56
403.974	194.56
404.198	193.56
404.422	216.56
404.645	234.56
404.869	245.56
405.093	206.56
405.317	181.56
405.541	181.56
405.765	173.56
405.988	164.56
406.212	179.56
406.436	213.56
406.66	232.56
406.883	188.56
407.107	186.56
407.331	209.56
407.555	214.56
407.778	176.56
408.002	179.56
408.226	201.56
408.449	184.56
408.673	180.56
408.896	163.56
409.12	151.56
409.344	159.56
409.567	152.56
409.791	154.56
410.014	167.56
410.238	166.56
410.461	152.56
410.685	147.56
410.908	174.56
411.132	148.56
411.355	173.56
411.578	190.56
411.802	163.56
412.025	153.56
412.249	169.56
412.472	169.56
412.695	179.56
412.919	165.56
413.142	182.56
413.365	187.56
413.589	174.56
413.812	166.56
414.035	153.56
414.258	156.56
414.482	177.56
414.705	179.56
414.928	175.56
415.151	164.56
415.374	165.56
415.597	177.56
415.821	158.56
416.044	159.56
416.267	164.56
416.49	153.56
416.713	153.56
416.936	170.56
417.159	168.56
417.382	169.56
417.605	164.56
417.828	157.56
418.051	164.56
418.274	171.56
418.497	153.56
418.72	161.56
418.943	174.56
419.166	177.56
419.389	166.56
419.611	179.56
419.834	172.56
420.057	189.56
420.28	190.56
420.503	188.56
420.726	157.56
420.948	155.56
421.171	163.56
421.394	148.56
421.617	148.56
421.839	152.56
422.062	160.56
422.285	149.56
422.507	159.56
422.73	167.56
422.953	170.56
423.175	141.56
423.398	152.56
423.621	172.56
423.843	190.56
424.066	170.56
424.288	166.56
424.511	164.56
424.733	170.56
424.956	165.56
425.178	200.56
425.401	199.56
425.623	236.56
425.846	206.56
426.068	163.56
426.291	183.56
426.513	167.56
426.735	170.56
426.958	180.56
427.18	207.56
427.402	244.56
427.625	247.56
427.847	208.56
428.069	173.56
428.292	166.56
428.514	163.56
428.736	154.56
428.958	171.56
429.181	202.56
429.403	167.56
429.625	172.56
429.847	163.56
430.069	157.56
430.292	166.56
430.514	166.56
430.736	157.56
430.958	199.56
431.18	194.56
431.402	155.56
431.624	148.56
431.846	147.56
432.068	147.56
432.29	155.56
432.512	184.56
432.734	204.56
432.956	203.56
433.178	166.56
433.4	153.56
433.622	159.56
433.844	153.56
434.066	185.56
434.287	188.56
434.509	182.56
434.731	174.56
434.953	169.56
435.175	177.56
435.397	178.56
435.618	163.56
435.84	160.56
436.062	157.56
436.284	155.56
436.505	159.56
436.727	136.56
436.949	169.56
437.17	158.56
437.392	162.56
437.614	170.56
437.835	150.56
438.057	154.56
438.278	184.56
438.5	237.56
438.721	217.56
438.943	170.56
439.165	153.56
439.386	141.56
439.608	154.56
439.829	136.56
440.05	161.56
440.272	164.56
440.493	168.56
440.715	210.56
440.936	180.56
441.158	155.56
441.379	163.56
441.6	179.56
441.822	182.56
442.043	153.56
442.264	178.56
442.486	174.56
442.707	161.56
442.928	165.56
443.149	164.56
443.371	171.56
443.592	150.56
443.813	162.56
444.034	165.56
444.255	150.56
444.476	179.56
444.698	167.56
444.919	159.56
445.14	296.56
445.361	244.56
445.582	181.56
445.803	174.56
446.024	178.56
446.245	177.56
446.466	165.56
446.687	157.56
446.908	157.56
447.129	152.56
447.35	152.56
447.571	154.56
447.792	146.56
448.013	164.56
448.234	146.56
448.455	159.56
448.675	155.56
448.896	134.56
449.117	159.56
449.338	155.56
449.559	139.56
449.779	173.56
450	163.56
450.221	165.56
450.442	155.56
450.662	144.56
450.883	143.56
451.104	153.56
451.324	137.56
451.545	145.56
451.766	169.56
451.986	148.56
452.207	154.56
452.428	147.56
452.648	145.56
452.869	158.56
453.089	145.56
453.31	171.56
453.53	151.56
453.751	147.56
453.971	154.56
454.192	141.56
454.412	163.56
454.633	141.56
454.853	151.56
455.073	151.56
455.294	137.56
455.514	149.56
455.734	144.56
455.955	135.56
456.175	158.56
456.395	150.56
456.616	141.56
456.836	133.56
457.056	143.56
457.276	143.56
457.497	133.56
457.717	144.56
457.937	143.56
458.157	144.56
458.377	139.56
458.598	149.56
458.818	133.56
459.038	149.56
459.258	158.56
459.478	145.56
459.698	169.56
459.918	164.56
460.138	156.56
460.358	172.56
460.578	142.56
460.798	165.56
461.018	159.56
461.238	169.56
461.458	158.56
461.678	171.56
461.898	185.56
462.118	167.56
462.338	156.56
462.558	179.56
462.777	167.56
462.997	187.56
463.217	167.56
463.437	182.56
463.657	195.56
463.876	161.56
464.096	157.56
464.316	167.56
464.536	180.56
464.755	195.56
464.975	186.56
465.195	163.56
465.414	179.56
465.634	178.56
465.854	168.56
466.073	165.56
466.293	147.56
466.512	171.56
466.732	188.56
466.951	164.56
467.171	175.56
467.391	158.56
467.61	146.56
467.829	158.56
468.049	198.56
468.268	154.56
468.488	159.56
468.707	172.56
468.927	179.56
469.146	204.56
469.365	184.56
469.585	172.56
469.804	177.56
470.023	197.56
470.243	177.56
470.462	165.56
470.681	178.56
470.901	163.56
471.12	193.56
471.339	171.56
471.558	172.56
471.777	171.56
471.997	184.56
472.216	199.56
472.435	191.56
472.654	169.56
472.873	167.56
473.092	174.56
473.311	194.56
473.53	169.56
473.749	168.56
473.968	171.56
474.187	202.56
474.406	172.56
474.625	169.56
474.844	175.56
475.063	187.56
475.282	181.56
475.501	189.56
475.72	233.56
475.939	181.56
476.158	193.56
476.377	229.56
476.596	253.56
476.814	247.56
477.033	236.56
477.252	185.56
477.471	182.56
477.69	169.56
477.908	192.56
478.127	192.56
478.346	187.56
478.564	214.56
478.783	198.56
479.002	199.56
479.22	211.56
479.439	223.56
479.658	206.56
479.876	191.56
480.095	196.56
480.313	208.56
480.532	198.56
480.751	181.56
480.969	183.56
481.188	218.56
481.406	207.56
481.624	227.56
481.843	193.56
482.061	181.56
482.28	215.56
482.498	248.56
482.717	263.56
482.935	197.56
483.153	197.56
483.372	169.56
483.59	185.56
483.808	187.56
484.027	190.56
484.245	197.56
484.463	182.56
484.681	151.56
484.9	182.56
485.118	197.56
485.336	192.56
485.554	182.56
485.772	198.56
485.99	207.56
486.209	217.56
486.427	225.56
486.645	203.56
486.863	203.56
487.081	216.56
487.299	237.56
487.517	223.56
487.735	200.56
487.953	218.56
488.171	204.56
488.389	204.56
488.607	180.56
488.825	187.56
489.043	226.56
489.261	252.56
489.479	233.56
489.696	207.56
489.914	207.56
490.132	176.56
490.35	189.56
490.568	188.56
490.786	196.56
491.003	187.56
491.221	188.56
491.439	188.56
491.657	190.56
491.874	206.56
492.092	231.56
492.31	289.56
492.527	274.56
492.745	253.56
492.963	217.56
493.18	214.56
493.398	206.56
493.615	215.56
493.833	213.56
494.05	207.56
494.268	193.56
494.485	181.56
494.703	195.56
494.92	213.56
495.138	200.56
495.355	191.56
495.573	197.56
495.79	229.56
496.008	291.56
496.225	236.56
496.442	212.56
496.66	215.56
496.877	230.56
497.094	217.56
497.312	202.56
497.529	198.56
497.746	219.56
497.963	204.56
498.181	212.56
498.398	254.56
498.615	277.56
498.832	258.56
499.049	254.56
499.267	251.56
499.484	235.56
499.701	260.56
499.918	256.56
500.135	292.56
500.352	287.56
500.569	300.56
500.786	303.56
501.003	306.56
501.22	288.56
501.437	262.56
501.654	258.56
501.871	245.56
502.088	232.56
502.305	256.56
502.522	213.56
