Data from NickelSpatula_HRD10591_16-35-20-125.txt Node
Date: Mon Jul 22 16:35:20 EDT 2019
User: cochatt
Spectrometer: HR+D1059
Trigger mode: 1
Integration Time (sec): 1.000000E-1
Scans to average: 1
Electric dark correction enabled: true
Nonlinearity correction enabled: false
Boxcar width: 0
XAxis mode: Wavelengths
Number of Pixels in Spectrum: 2048
>>>>>Begin Spectral Data<<<<<
223.165	-14.12
223.4	-14.12
223.635	-14.12
223.869	-18.12
224.104	-9.12
224.338	-14.12
224.573	-11.12
224.808	-15.12
225.042	-6.12
225.277	-1.12
225.511	-15.12
225.746	12.88
225.98	7.88
226.215	11.88
226.449	6.88
226.683	6.88
226.918	25.88
227.152	31.88
227.387	32.88
227.621	41.88
227.856	46.88
228.09	40.88
228.324	49.88
228.559	60.88
228.793	63.88
229.027	70.88
229.262	85.88
229.496	85.88
229.73	82.88
229.964	74.88
230.199	94.88
230.433	93.88
230.667	83.88
230.901	99.88
231.136	95.88
231.37	87.88
231.604	96.88
231.838	103.88
232.072	90.88
232.306	95.88
232.541	99.88
232.775	106.88
233.009	105.88
233.243	116.88
233.477	117.88
233.711	122.88
233.945	120.88
234.179	114.88
234.413	112.88
234.647	120.88
234.881	122.88
235.115	126.88
235.349	122.88
235.583	117.88
235.817	114.88
236.051	127.88
236.285	138.88
236.519	159.88
236.753	133.88
236.987	133.88
237.221	140.88
237.455	124.88
237.689	125.88
237.922	133.88
238.156	137.88
238.39	147.88
238.624	161.88
238.858	166.88
239.091	136.88
239.325	147.88
239.559	137.88
239.793	146.88
240.027	159.88
240.26	151.88
240.494	147.88
240.728	157.88
240.961	175.88
241.195	162.88
241.429	154.88
241.662	154.88
241.896	155.88
242.13	146.88
242.363	129.88
242.597	143.88
242.83	153.88
243.064	153.88
243.298	162.88
243.531	161.88
243.765	165.88
243.998	165.88
244.232	152.88
244.465	159.88
244.699	145.88
244.932	162.88
245.166	168.88
245.399	153.88
245.633	142.88
245.866	163.88
246.099	160.88
246.333	170.88
246.566	192.88
246.8	190.88
247.033	202.88
247.266	197.88
247.5	173.88
247.733	167.88
247.966	159.88
248.2	166.88
248.433	196.88
248.666	202.88
248.899	186.88
249.133	209.88
249.366	223.88
249.599	236.88
249.832	216.88
250.066	196.88
250.299	219.88
250.532	194.88
250.765	199.88
250.998	173.88
251.231	190.88
251.465	218.88
251.698	202.88
251.931	197.88
252.164	184.88
252.397	215.88
252.63	224.88
252.863	261.88
253.096	259.88
253.329	243.88
253.562	251.88
253.795	265.88
254.028	282.88
254.261	308.88
254.494	280.88
254.727	254.88
254.96	265.88
255.193	259.88
255.426	266.88
255.659	219.88
255.892	205.88
256.124	207.88
256.357	227.88
256.59	262.88
256.823	277.88
257.056	231.88
257.289	221.88
257.521	225.88
257.754	247.88
257.987	282.88
258.22	259.88
258.452	221.88
258.685	228.88
258.918	275.88
259.151	283.88
259.383	293.88
259.616	310.88
259.849	325.88
260.081	323.88
260.314	384.88
260.547	307.88
260.779	305.88
261.012	339.88
261.244	329.88
261.477	347.88
261.71	325.88
261.942	291.88
262.175	275.88
262.407	258.88
262.64	269.88
262.872	321.88
263.105	334.88
263.337	346.88
263.57	317.88
263.802	237.88
264.035	206.88
264.267	216.88
264.499	182.88
264.732	178.88
264.964	169.88
265.197	184.88
265.429	167.88
265.661	195.88
265.894	183.88
266.126	205.88
266.358	232.88
266.591	275.88
266.823	326.88
267.055	317.88
267.287	280.88
267.52	253.88
267.752	272.88
267.984	286.88
268.216	288.88
268.448	260.88
268.681	242.88
268.913	254.88
269.145	276.88
269.377	276.88
269.609	280.88
269.841	244.88
270.073	280.88
270.306	292.88
270.538	281.88
270.77	310.88
271.002	320.88
271.234	314.88
271.466	328.88
271.698	296.88
271.93	296.88
272.162	297.88
272.394	291.88
272.626	277.88
272.858	297.88
273.09	312.88
273.322	271.88
273.553	257.88
273.785	321.88
274.017	387.88
274.249	441.88
274.481	462.88
274.713	495.88
274.945	562.88
275.176	578.88
275.408	529.88
275.64	502.88
275.872	476.88
276.104	443.88
276.335	379.88
276.567	374.88
276.799	398.88
277.031	401.88
277.262	327.88
277.494	282.88
277.726	267.88
277.957	287.88
278.189	314.88
278.421	276.88
278.652	279.88
278.884	277.88
279.115	256.88
279.347	251.88
279.579	257.88
279.81	259.88
280.042	253.88
280.273	280.88
280.505	253.88
280.736	230.88
280.968	222.88
281.199	231.88
281.431	254.88
281.662	255.88
281.894	253.88
282.125	248.88
282.356	276.88
282.588	288.88
282.819	267.88
283.051	278.88
283.282	333.88
283.513	376.88
283.745	425.88
283.976	401.88
284.207	388.88
284.439	415.88
284.67	380.88
284.901	363.88
285.132	373.88
285.364	371.88
285.595	357.88
285.826	361.88
286.057	386.88
286.288	379.88
286.52	378.88
286.751	395.88
286.982	387.88
287.213	352.88
287.444	342.88
287.675	365.88
287.906	375.88
288.138	314.88
288.369	295.88
288.6	266.88
288.831	298.88
289.062	345.88
289.293	329.88
289.524	342.88
289.755	321.88
289.986	342.88
290.217	309.88
290.448	225.88
290.679	209.88
290.91	202.88
291.141	208.88
291.371	231.88
291.602	226.88
291.833	221.88
292.064	232.88
292.295	250.88
292.526	278.88
292.757	291.88
292.987	329.88
293.218	321.88
293.449	321.88
293.68	356.88
293.91	334.88
294.141	346.88
294.372	317.88
294.603	291.88
294.833	311.88
295.064	363.88
295.295	337.88
295.525	272.88
295.756	243.88
295.987	210.88
296.217	212.88
296.448	208.88
296.679	217.88
296.909	243.88
297.14	263.88
297.37	299.88
297.601	288.88
297.831	242.88
298.062	267.88
298.292	292.88
298.523	289.88
298.753	342.88
298.984	311.88
299.214	273.88
299.445	218.88
299.675	230.88
299.905	218.88
300.136	235.88
300.366	231.88
300.597	228.88
300.827	211.88
301.057	208.88
301.288	202.88
301.518	218.88
301.748	257.88
301.979	259.88
302.209	273.88
302.439	283.88
302.669	255.88
302.9	250.88
303.13	233.88
303.36	238.88
303.59	216.88
303.82	229.88
304.051	224.88
304.281	274.88
304.511	277.88
304.741	239.88
304.971	228.88
305.201	264.88
305.431	251.88
305.661	226.88
305.891	213.88
306.121	212.88
306.352	195.88
306.582	192.88
306.812	191.88
307.042	185.88
307.272	181.88
307.502	179.88
307.731	186.88
307.961	192.88
308.191	184.88
308.421	176.88
308.651	179.88
308.881	183.88
309.111	178.88
309.341	166.88
309.571	178.88
309.8	196.88
310.03	212.88
310.26	225.88
310.49	214.88
310.72	176.88
310.949	179.88
311.179	183.88
311.409	187.88
311.639	232.88
311.868	275.88
312.098	336.88
312.328	383.88
312.557	344.88
312.787	358.88
313.017	310.88
313.246	312.88
313.476	374.88
313.706	305.88
313.935	273.88
314.165	207.88
314.394	198.88
314.624	211.88
314.853	235.88
315.083	226.88
315.312	195.88
315.542	213.88
315.771	193.88
316.001	185.88
316.23	181.88
316.46	180.88
316.689	170.88
316.919	174.88
317.148	183.88
317.377	178.88
317.607	173.88
317.836	198.88
318.065	216.88
318.295	238.88
318.524	224.88
318.753	204.88
318.983	189.88
319.212	185.88
319.441	198.88
319.67	212.88
319.9	231.88
320.129	230.88
320.358	195.88
320.587	182.88
320.816	202.88
321.046	221.88
321.275	267.88
321.504	248.88
321.733	257.88
321.962	235.88
322.191	232.88
322.42	198.88
322.649	213.88
322.878	202.88
323.108	234.88
323.337	228.88
323.566	212.88
323.795	213.88
324.024	215.88
324.253	208.88
324.482	191.88
324.71	224.88
324.939	233.88
325.168	214.88
325.397	180.88
325.626	183.88
325.855	184.88
326.084	221.88
326.313	210.88
326.542	179.88
326.77	184.88
326.999	177.88
327.228	192.88
327.457	192.88
327.686	206.88
327.914	176.88
328.143	164.88
328.372	182.88
328.6	167.88
328.829	195.88
329.058	193.88
329.287	180.88
329.515	197.88
329.744	184.88
329.972	173.88
330.201	173.88
330.43	173.88
330.658	186.88
330.887	207.88
331.115	192.88
331.344	177.88
331.572	207.88
331.801	186.88
332.03	175.88
332.258	187.88
332.486	186.88
332.715	209.88
332.943	192.88
333.172	199.88
333.4	182.88
333.629	214.88
333.857	227.88
334.085	227.88
334.314	219.88
334.542	215.88
334.771	210.88
334.999	203.88
335.227	179.88
335.455	200.88
335.684	214.88
335.912	220.88
336.14	246.88
336.369	247.88
336.597	251.88
336.825	250.88
337.053	285.88
337.281	229.88
337.51	200.88
337.738	200.88
337.966	197.88
338.194	246.88
338.422	213.88
338.65	203.88
338.878	188.88
339.106	173.88
339.334	212.88
339.562	207.88
339.79	188.88
340.018	177.88
340.246	204.88
340.474	230.88
340.702	258.88
340.93	250.88
341.158	253.88
341.386	215.88
341.614	211.88
341.842	196.88
342.07	210.88
342.298	242.88
342.526	245.88
342.754	240.88
342.981	209.88
343.209	201.88
343.437	213.88
343.665	213.88
343.893	256.88
344.12	263.88
344.348	300.88
344.576	277.88
344.804	232.88
345.031	186.88
345.259	199.88
345.487	201.88
345.714	206.88
345.942	195.88
346.17	228.88
346.397	209.88
346.625	197.88
346.853	202.88
347.08	190.88
347.308	194.88
347.535	216.88
347.763	218.88
347.99	202.88
348.218	187.88
348.445	192.88
348.673	199.88
348.9	202.88
349.128	199.88
349.355	209.88
349.583	210.88
349.81	216.88
350.037	197.88
350.265	177.88
350.492	155.88
350.72	160.88
350.947	166.88
351.174	159.88
351.402	181.88
351.629	188.88
351.856	194.88
352.083	169.88
352.311	183.88
352.538	197.88
352.765	227.88
352.992	207.88
353.22	211.88
353.447	198.88
353.674	187.88
353.901	199.88
354.128	199.88
354.355	204.88
354.583	193.88
354.81	208.88
355.037	221.88
355.264	201.88
355.491	211.88
355.718	199.88
355.945	202.88
356.172	202.88
356.399	223.88
356.626	240.88
356.853	289.88
357.08	313.88
357.307	304.88
357.534	271.88
357.761	257.88
357.988	322.88
358.215	341.88
358.441	325.88
358.668	278.88
358.895	298.88
359.122	233.88
359.349	212.88
359.576	237.88
359.802	220.88
360.029	194.88
360.256	208.88
360.483	230.88
360.709	282.88
360.936	281.88
361.163	262.88
361.39	221.88
361.616	209.88
361.843	218.88
362.07	275.88
362.296	253.88
362.523	205.88
362.749	195.88
362.976	183.88
363.203	237.88
363.429	229.88
363.656	211.88
363.882	200.88
364.109	209.88
364.335	219.88
364.562	199.88
364.788	210.88
365.015	255.88
365.241	225.88
365.468	197.88
365.694	166.88
365.92	169.88
366.147	159.88
366.373	164.88
366.599	168.88
366.826	168.88
367.052	170.88
367.278	168.88
367.505	148.88
367.731	167.88
367.957	193.88
368.184	205.88
368.41	181.88
368.636	200.88
368.862	208.88
369.089	203.88
369.315	178.88
369.541	186.88
369.767	168.88
369.993	175.88
370.219	182.88
370.445	183.88
370.672	196.88
370.898	208.88
371.124	215.88
371.35	191.88
371.576	177.88
371.802	178.88
372.028	197.88
372.254	257.88
372.48	217.88
372.706	195.88
372.932	185.88
373.158	201.88
373.384	245.88
373.61	293.88
373.835	296.88
374.061	237.88
374.287	224.88
374.513	255.88
374.739	295.88
374.965	290.88
375.191	275.88
375.416	203.88
375.642	211.88
375.868	213.88
376.094	263.88
376.319	216.88
376.545	227.88
376.771	227.88
376.997	206.88
377.222	167.88
377.448	173.88
377.674	167.88
377.899	168.88
378.125	146.88
378.35	147.88
378.576	175.88
378.802	182.88
379.027	201.88
379.253	197.88
379.478	176.88
379.704	200.88
379.929	221.88
380.155	209.88
380.38	199.88
380.606	205.88
380.831	238.88
381.057	209.88
381.282	207.88
381.507	220.88
381.733	255.88
381.958	264.88
382.184	276.88
382.409	285.88
382.634	283.88
382.86	296.88
383.085	259.88
383.31	209.88
383.535	219.88
383.761	236.88
383.986	216.88
384.211	253.88
384.436	254.88
384.662	221.88
384.887	211.88
385.112	207.88
385.337	220.88
385.562	195.88
385.787	209.88
386.013	227.88
386.238	229.88
386.463	196.88
386.688	187.88
386.913	189.88
387.138	186.88
387.363	203.88
387.588	208.88
387.813	195.88
388.038	213.88
388.263	211.88
388.488	195.88
388.713	212.88
388.938	225.88
389.163	195.88
389.387	194.88
389.612	166.88
389.837	181.88
390.062	194.88
390.287	199.88
390.512	207.88
390.736	201.88
390.961	185.88
391.186	189.88
391.411	192.88
391.636	178.88
391.86	209.88
392.085	219.88
392.31	226.88
392.534	207.88
392.759	209.88
392.984	200.88
393.208	191.88
393.433	163.88
393.658	150.88
393.882	170.88
394.107	164.88
394.331	161.88
394.556	171.88
394.78	163.88
395.005	170.88
395.229	170.88
395.454	190.88
395.678	162.88
395.903	178.88
396.127	169.88
396.352	173.88
396.576	200.88
396.801	215.88
397.025	213.88
397.249	215.88
397.474	203.88
397.698	183.88
397.922	192.88
398.147	186.88
398.371	184.88
398.595	188.88
398.82	179.88
399.044	196.88
399.268	209.88
399.492	216.88
399.717	228.88
399.941	233.88
400.165	212.88
400.389	225.88
400.613	223.88
400.837	206.88
401.062	197.88
401.286	200.88
401.51	184.88
401.734	193.88
401.958	177.88
402.182	192.88
402.406	191.88
402.63	174.88
402.854	197.88
403.078	222.88
403.302	259.88
403.526	282.88
403.75	273.88
403.974	215.88
404.198	222.88
404.422	240.88
404.645	279.88
404.869	284.88
405.093	236.88
405.317	198.88
405.541	197.88
405.765	218.88
405.988	207.88
406.212	213.88
406.436	240.88
406.66	260.88
406.883	218.88
407.107	247.88
407.331	264.88
407.555	265.88
407.778	226.88
408.002	204.88
408.226	213.88
408.449	221.88
408.673	217.88
408.896	193.88
409.12	189.88
409.344	191.88
409.567	194.88
409.791	173.88
410.014	197.88
410.238	190.88
410.461	189.88
410.685	171.88
410.908	189.88
411.132	182.88
411.355	190.88
411.578	192.88
411.802	192.88
412.025	199.88
412.249	179.88
412.472	206.88
412.695	188.88
412.919	204.88
413.142	198.88
413.365	211.88
413.589	210.88
413.812	201.88
414.035	180.88
414.258	201.88
414.482	197.88
414.705	224.88
414.928	203.88
415.151	191.88
415.374	169.88
415.597	189.88
415.821	186.88
416.044	199.88
416.267	173.88
416.49	187.88
416.713	178.88
416.936	166.88
417.159	189.88
417.382	193.88
417.605	198.88
417.828	203.88
418.051	200.88
418.274	206.88
418.497	205.88
418.72	182.88
418.943	222.88
419.166	197.88
419.389	206.88
419.611	202.88
419.834	218.88
420.057	229.88
420.28	213.88
420.503	234.88
420.726	194.88
420.948	182.88
421.171	199.88
421.394	187.88
421.617	197.88
421.839	187.88
422.062	187.88
422.285	182.88
422.507	198.88
422.73	189.88
422.953	191.88
423.175	220.88
423.398	202.88
423.621	206.88
423.843	219.88
424.066	209.88
424.288	184.88
424.511	202.88
424.733	209.88
424.956	208.88
425.178	223.88
425.401	232.88
425.623	262.88
425.846	250.88
426.068	206.88
426.291	205.88
426.513	203.88
426.735	191.88
426.958	200.88
427.18	229.88
427.402	281.88
427.625	276.88
427.847	242.88
428.069	200.88
428.292	202.88
428.514	194.88
428.736	182.88
428.958	193.88
429.181	237.88
429.403	205.88
429.625	191.88
429.847	177.88
430.069	192.88
430.292	181.88
430.514	192.88
430.736	188.88
430.958	225.88
431.18	218.88
431.402	168.88
431.624	179.88
431.846	178.88
432.068	164.88
432.29	167.88
432.512	183.88
432.734	221.88
432.956	211.88
433.178	182.88
433.4	181.88
433.622	189.88
433.844	191.88
434.066	198.88
434.287	208.88
434.509	185.88
434.731	205.88
434.953	189.88
435.175	195.88
435.397	223.88
435.618	203.88
435.84	181.88
436.062	179.88
436.284	184.88
436.505	182.88
436.727	175.88
436.949	189.88
437.17	171.88
437.392	168.88
437.614	191.88
437.835	189.88
438.057	179.88
438.278	208.88
438.5	240.88
438.721	247.88
438.943	188.88
439.165	164.88
439.386	169.88
439.608	191.88
439.829	166.88
440.05	179.88
440.272	179.88
440.493	203.88
440.715	241.88
440.936	198.88
441.158	186.88
441.379	184.88
441.6	209.88
441.822	213.88
442.043	183.88
442.264	189.88
442.486	187.88
442.707	177.88
442.928	182.88
443.149	180.88
443.371	188.88
443.592	191.88
443.813	203.88
444.034	173.88
444.255	175.88
444.476	206.88
444.698	200.88
444.919	195.88
445.14	321.88
445.361	265.88
445.582	214.88
445.803	194.88
446.024	216.88
446.245	212.88
446.466	200.88
446.687	166.88
446.908	194.88
447.129	169.88
447.35	193.88
447.571	182.88
447.792	164.88
448.013	178.88
448.234	166.88
448.455	168.88
448.675	184.88
448.896	169.88
449.117	184.88
449.338	165.88
449.559	192.88
449.779	193.88
450	180.88
450.221	189.88
450.442	179.88
450.662	168.88
450.883	179.88
451.104	177.88
451.324	182.88
451.545	180.88
451.766	181.88
451.986	163.88
452.207	165.88
452.428	179.88
452.648	175.88
452.869	175.88
453.089	184.88
453.31	201.88
453.53	161.88
453.751	171.88
453.971	162.88
454.192	160.88
454.412	176.88
454.633	171.88
454.853	175.88
455.073	171.88
455.294	169.88
455.514	163.88
455.734	182.88
455.955	183.88
456.175	165.88
456.395	173.88
456.616	149.88
456.836	180.88
457.056	164.88
457.276	167.88
457.497	160.88
457.717	173.88
457.937	175.88
458.157	186.88
458.377	173.88
458.598	173.88
458.818	166.88
459.038	174.88
459.258	185.88
459.478	197.88
459.698	182.88
459.918	203.88
460.138	198.88
460.358	186.88
460.578	194.88
460.798	198.88
461.018	198.88
461.238	193.88
461.458	201.88
461.678	197.88
461.898	197.88
462.118	204.88
462.338	188.88
462.558	211.88
462.777	203.88
462.997	199.88
463.217	219.88
463.437	214.88
463.657	196.88
463.876	205.88
464.096	202.88
464.316	196.88
464.536	212.88
464.755	228.88
464.975	210.88
465.195	209.88
465.414	224.88
465.634	205.88
465.854	191.88
466.073	183.88
466.293	178.88
466.512	209.88
466.732	213.88
466.951	219.88
467.171	201.88
467.391	187.88
467.61	193.88
467.829	200.88
468.049	199.88
468.268	181.88
468.488	201.88
468.707	197.88
468.927	218.88
469.146	221.88
469.365	213.88
469.585	209.88
469.804	211.88
470.023	224.88
470.243	224.88
470.462	199.88
470.681	186.88
470.901	187.88
471.12	217.88
471.339	200.88
471.558	189.88
471.777	205.88
471.997	213.88
472.216	226.88
472.435	215.88
472.654	205.88
472.873	224.88
473.092	203.88
473.311	214.88
473.53	194.88
473.749	186.88
473.968	213.88
474.187	207.88
474.406	202.88
474.625	195.88
474.844	213.88
475.063	206.88
475.282	223.88
475.501	227.88
475.72	247.88
475.939	233.88
476.158	225.88
476.377	268.88
476.596	287.88
476.814	301.88
477.033	257.88
477.252	221.88
477.471	190.88
477.69	213.88
477.908	228.88
478.127	220.88
478.346	222.88
478.564	240.88
478.783	241.88
479.002	232.88
479.22	253.88
479.439	275.88
479.658	255.88
479.876	217.88
480.095	246.88
480.313	234.88
480.532	240.88
480.751	196.88
480.969	224.88
481.188	237.88
481.406	251.88
481.624	229.88
481.843	207.88
482.061	216.88
482.28	260.88
482.498	305.88
482.717	277.88
482.935	253.88
483.153	239.88
483.372	214.88
483.59	203.88
483.808	209.88
484.027	195.88
484.245	189.88
484.463	198.88
484.681	215.88
484.9	226.88
485.118	261.88
485.336	245.88
485.554	221.88
485.772	220.88
485.99	229.88
486.209	248.88
486.427	232.88
486.645	242.88
486.863	223.88
487.081	246.88
487.299	286.88
487.517	242.88
487.735	259.88
487.953	207.88
488.171	226.88
488.389	234.88
488.607	223.88
488.825	224.88
489.043	255.88
489.261	287.88
489.479	310.88
489.696	253.88
489.914	225.88
490.132	215.88
490.35	210.88
490.568	216.88
490.786	216.88
491.003	214.88
491.221	237.88
491.439	225.88
491.657	221.88
491.874	227.88
492.092	283.88
492.31	325.88
492.527	325.88
492.745	270.88
492.963	249.88
493.18	258.88
493.398	238.88
493.615	230.88
493.833	249.88
494.05	263.88
494.268	258.88
494.485	259.88
494.703	243.88
494.92	220.88
495.138	233.88
495.355	215.88
495.573	238.88
495.79	269.88
496.008	340.88
496.225	276.88
496.442	258.88
496.66	260.88
496.877	286.88
497.094	265.88
497.312	247.88
497.529	254.88
497.746	249.88
497.963	250.88
498.181	274.88
498.398	311.88
498.615	304.88
498.832	340.88
499.049	334.88
499.267	295.88
499.484	304.88
499.701	320.88
499.918	344.88
500.135	387.88
500.352	389.88
500.569	414.88
500.786	429.88
501.003	404.88
501.22	367.88
501.437	345.88
501.654	315.88
501.871	288.88
502.088	309.88
502.305	274.88
502.522	255.88
502.739	304.88
