Data from NickelSpatula_HRD10591_16-34-21-126.txt Node
Date: Mon Jul 22 16:34:21 EDT 2019
User: cochatt
Spectrometer: HR+D1059
Trigger mode: 1
Integration Time (sec): 1.000000E-1
Scans to average: 1
Electric dark correction enabled: true
Nonlinearity correction enabled: false
Boxcar width: 0
XAxis mode: Wavelengths
Number of Pixels in Spectrum: 2048
>>>>>Begin Spectral Data<<<<<
223.165	-19.94
223.4	-19.94
223.635	-19.94
223.869	-10.94
224.104	-23.94
224.338	-23.94
224.573	-14.94
224.808	-17.94
225.042	-14.94
225.277	1.06
225.511	5.06
225.746	-2.94
225.98	4.06
226.215	5.06
226.449	14.06
226.683	28.06
226.918	32.06
227.152	40.06
227.387	37.06
227.621	35.06
227.856	50.06
228.09	44.06
228.324	57.06
228.559	63.06
228.793	47.06
229.027	77.06
229.262	79.06
229.496	82.06
229.73	98.06
229.964	77.06
230.199	89.06
230.433	99.06
230.667	98.06
230.901	88.06
231.136	94.06
231.37	96.06
231.604	94.06
231.838	101.06
232.072	88.06
232.306	103.06
232.541	104.06
232.775	99.06
233.009	102.06
233.243	115.06
233.477	101.06
233.711	111.06
233.945	115.06
234.179	96.06
234.413	111.06
234.647	123.06
234.881	135.06
235.115	128.06
235.349	119.06
235.583	121.06
235.817	129.06
236.051	106.06
236.285	131.06
236.519	133.06
236.753	133.06
236.987	129.06
237.221	127.06
237.455	120.06
237.689	115.06
237.922	141.06
238.156	138.06
238.39	143.06
238.624	158.06
238.858	153.06
239.091	148.06
239.325	133.06
239.559	155.06
239.793	132.06
240.027	170.06
240.26	152.06
240.494	159.06
240.728	141.06
240.961	165.06
241.195	169.06
241.429	168.06
241.662	154.06
241.896	135.06
242.13	137.06
242.363	127.06
242.597	129.06
242.83	160.06
243.064	143.06
243.298	144.06
243.531	181.06
243.765	177.06
243.998	160.06
244.232	149.06
244.465	155.06
244.699	160.06
244.932	167.06
245.166	174.06
245.399	162.06
245.633	147.06
245.866	153.06
246.099	137.06
246.333	172.06
246.566	184.06
246.8	195.06
247.033	177.06
247.266	179.06
247.5	181.06
247.733	177.06
247.966	164.06
248.2	182.06
248.433	169.06
248.666	185.06
248.899	187.06
249.133	200.06
249.366	207.06
249.599	219.06
249.832	201.06
250.066	206.06
250.299	199.06
250.532	193.06
250.765	200.06
250.998	187.06
251.231	182.06
251.465	189.06
251.698	192.06
251.931	201.06
252.164	206.06
252.397	210.06
252.63	201.06
252.863	250.06
253.096	265.06
253.329	256.06
253.562	232.06
253.795	267.06
254.028	295.06
254.261	313.06
254.494	267.06
254.727	265.06
254.96	244.06
255.193	266.06
255.426	254.06
255.659	188.06
255.892	196.06
256.124	215.06
256.357	246.06
256.59	279.06
256.823	252.06
257.056	219.06
257.289	220.06
257.521	214.06
257.754	246.06
257.987	285.06
258.22	245.06
258.452	240.06
258.685	251.06
258.918	257.06
259.151	262.06
259.383	291.06
259.616	324.06
259.849	324.06
260.081	335.06
260.314	357.06
260.547	307.06
260.779	309.06
261.012	351.06
261.244	324.06
261.477	322.06
261.71	300.06
261.942	268.06
262.175	291.06
262.407	246.06
262.64	275.06
262.872	287.06
263.105	335.06
263.337	350.06
263.57	328.06
263.802	221.06
264.035	217.06
264.267	189.06
264.499	189.06
264.732	181.06
264.964	169.06
265.197	173.06
265.429	182.06
265.661	188.06
265.894	198.06
266.126	222.06
266.358	222.06
266.591	260.06
266.823	314.06
267.055	308.06
267.287	296.06
267.52	266.06
267.752	276.06
267.984	292.06
268.216	292.06
268.448	275.06
268.681	265.06
268.913	267.06
269.145	281.06
269.377	293.06
269.609	297.06
269.841	287.06
270.073	293.06
270.306	298.06
270.538	287.06
270.77	318.06
271.002	318.06
271.234	331.06
271.466	328.06
271.698	318.06
271.93	290.06
272.162	279.06
272.394	295.06
272.626	288.06
272.858	294.06
273.09	297.06
273.322	269.06
273.553	260.06
273.785	299.06
274.017	361.06
274.249	441.06
274.481	453.06
274.713	489.06
274.945	543.06
275.176	591.06
275.408	518.06
275.64	490.06
275.872	471.06
276.104	442.06
276.335	379.06
276.567	364.06
276.799	377.06
277.031	409.06
277.262	342.06
277.494	273.06
277.726	269.06
277.957	277.06
278.189	319.06
278.421	326.06
278.652	302.06
278.884	284.06
279.115	234.06
279.347	261.06
279.579	277.06
279.81	266.06
280.042	281.06
280.273	267.06
280.505	259.06
280.736	225.06
280.968	226.06
281.199	250.06
281.431	277.06
281.662	268.06
281.894	263.06
282.125	262.06
282.356	297.06
282.588	297.06
282.819	274.06
283.051	273.06
283.282	328.06
283.513	381.06
283.745	397.06
283.976	410.06
284.207	393.06
284.439	385.06
284.67	381.06
284.901	332.06
285.132	379.06
285.364	375.06
285.595	351.06
285.826	356.06
286.057	383.06
286.288	391.06
286.52	399.06
286.751	400.06
286.982	433.06
287.213	374.06
287.444	373.06
287.675	381.06
287.906	382.06
288.138	350.06
288.369	290.06
288.6	283.06
288.831	268.06
289.062	337.06
289.293	352.06
289.524	343.06
289.755	326.06
289.986	333.06
290.217	310.06
290.448	246.06
290.679	212.06
290.91	201.06
291.141	214.06
291.371	222.06
291.602	227.06
291.833	234.06
292.064	236.06
292.295	248.06
292.526	269.06
292.757	308.06
292.987	319.06
293.218	345.06
293.449	337.06
293.68	366.06
293.91	329.06
294.141	353.06
294.372	335.06
294.603	303.06
294.833	341.06
295.064	387.06
295.295	372.06
295.525	286.06
295.756	245.06
295.987	239.06
296.217	225.06
296.448	234.06
296.679	223.06
296.909	261.06
297.14	272.06
297.37	290.06
297.601	269.06
297.831	237.06
298.062	272.06
298.292	282.06
298.523	326.06
298.753	356.06
298.984	318.06
299.214	275.06
299.445	231.06
299.675	226.06
299.905	206.06
300.136	222.06
300.366	249.06
300.597	253.06
300.827	225.06
301.057	222.06
301.288	233.06
301.518	228.06
301.748	259.06
301.979	265.06
302.209	283.06
302.439	286.06
302.669	265.06
302.9	254.06
303.13	242.06
303.36	242.06
303.59	230.06
303.82	238.06
304.051	263.06
304.281	285.06
304.511	279.06
304.741	272.06
304.971	270.06
305.201	288.06
305.431	261.06
305.661	243.06
305.891	230.06
306.121	235.06
306.352	206.06
306.582	191.06
306.812	189.06
307.042	191.06
307.272	193.06
307.502	179.06
307.731	188.06
307.961	189.06
308.191	201.06
308.421	178.06
308.651	164.06
308.881	174.06
309.111	185.06
309.341	191.06
309.571	211.06
309.8	177.06
310.03	214.06
310.26	222.06
310.49	218.06
310.72	206.06
310.949	179.06
311.179	209.06
311.409	194.06
311.639	227.06
311.868	279.06
312.098	373.06
312.328	395.06
312.557	354.06
312.787	354.06
313.017	331.06
313.246	345.06
313.476	376.06
313.706	322.06
313.935	277.06
314.165	211.06
314.394	205.06
314.624	219.06
314.853	218.06
315.083	234.06
315.312	203.06
315.542	223.06
315.771	211.06
316.001	203.06
316.23	197.06
316.46	188.06
316.689	183.06
316.919	187.06
317.148	211.06
317.377	201.06
317.607	205.06
317.836	206.06
318.065	238.06
318.295	264.06
318.524	233.06
318.753	209.06
318.983	215.06
319.212	198.06
319.441	211.06
319.67	244.06
319.9	250.06
320.129	227.06
320.358	204.06
320.587	198.06
320.816	227.06
321.046	245.06
321.275	261.06
321.504	275.06
321.733	250.06
321.962	239.06
322.191	242.06
322.42	209.06
322.649	242.06
322.878	247.06
323.108	245.06
323.337	226.06
323.566	260.06
323.795	232.06
324.024	226.06
324.253	221.06
324.482	216.06
324.71	222.06
324.939	244.06
325.168	232.06
325.397	214.06
325.626	211.06
325.855	207.06
326.084	198.06
326.313	199.06
326.542	182.06
326.77	197.06
326.999	190.06
327.228	212.06
327.457	216.06
327.686	234.06
327.914	195.06
328.143	187.06
328.372	180.06
328.6	196.06
328.829	189.06
329.058	200.06
329.287	204.06
329.515	200.06
329.744	219.06
329.972	190.06
330.201	167.06
330.43	174.06
330.658	205.06
330.887	229.06
331.115	217.06
331.344	218.06
331.572	209.06
331.801	204.06
332.03	184.06
332.258	199.06
332.486	202.06
332.715	218.06
332.943	194.06
333.172	196.06
333.4	224.06
333.629	213.06
333.857	231.06
334.085	241.06
334.314	236.06
334.542	220.06
334.771	217.06
334.999	205.06
335.227	222.06
335.455	224.06
335.684	222.06
335.912	249.06
336.14	280.06
336.369	275.06
336.597	244.06
336.825	267.06
337.053	317.06
337.281	242.06
337.51	208.06
337.738	197.06
337.966	223.06
338.194	251.06
338.422	214.06
338.65	219.06
338.878	187.06
339.106	200.06
339.334	222.06
339.562	237.06
339.79	213.06
340.018	205.06
340.246	240.06
340.474	230.06
340.702	249.06
340.93	268.06
341.158	263.06
341.386	245.06
341.614	234.06
341.842	227.06
342.07	234.06
342.298	266.06
342.526	279.06
342.754	236.06
342.981	220.06
343.209	229.06
343.437	225.06
343.665	250.06
343.893	249.06
344.12	279.06
344.348	319.06
344.576	285.06
344.804	261.06
345.031	216.06
345.259	217.06
345.487	198.06
345.714	208.06
345.942	225.06
346.17	236.06
346.397	238.06
346.625	228.06
346.853	210.06
347.08	215.06
347.308	219.06
347.535	242.06
347.763	239.06
347.99	224.06
348.218	187.06
348.445	193.06
348.673	203.06
348.9	213.06
349.128	218.06
349.355	225.06
349.583	231.06
349.81	218.06
350.037	203.06
350.265	181.06
350.492	182.06
350.72	169.06
350.947	186.06
351.174	171.06
351.402	192.06
351.629	198.06
351.856	195.06
352.083	204.06
352.311	185.06
352.538	210.06
352.765	209.06
352.992	237.06
353.22	219.06
353.447	228.06
353.674	226.06
353.901	204.06
354.128	201.06
354.355	225.06
354.583	207.06
354.81	217.06
355.037	243.06
355.264	217.06
355.491	242.06
355.718	250.06
355.945	230.06
356.172	213.06
356.399	222.06
356.626	253.06
356.853	302.06
357.08	315.06
357.307	329.06
357.534	277.06
357.761	273.06
357.988	328.06
358.215	331.06
358.441	356.06
358.668	297.06
358.895	291.06
359.122	258.06
359.349	240.06
359.576	264.06
359.802	222.06
360.029	191.06
360.256	204.06
360.483	231.06
360.709	286.06
360.936	317.06
361.163	283.06
361.39	220.06
361.616	211.06
361.843	229.06
362.07	279.06
362.296	259.06
362.523	214.06
362.749	189.06
362.976	207.06
363.203	237.06
363.429	270.06
363.656	222.06
363.882	217.06
364.109	215.06
364.335	199.06
364.562	182.06
364.788	198.06
365.015	263.06
365.241	236.06
365.468	199.06
365.694	182.06
365.92	197.06
366.147	173.06
366.373	168.06
366.599	180.06
366.826	174.06
367.052	171.06
367.278	167.06
367.505	175.06
367.731	212.06
367.957	192.06
368.184	199.06
368.41	206.06
368.636	207.06
368.862	218.06
369.089	217.06
369.315	190.06
369.541	222.06
369.767	188.06
369.993	185.06
370.219	181.06
370.445	205.06
370.672	197.06
370.898	228.06
371.124	210.06
371.35	205.06
371.576	195.06
371.802	202.06
372.028	212.06
372.254	255.06
372.48	223.06
372.706	205.06
372.932	219.06
373.158	215.06
373.384	243.06
373.61	326.06
373.835	311.06
374.061	269.06
374.287	227.06
374.513	257.06
374.739	294.06
374.965	279.06
375.191	292.06
375.416	228.06
375.642	209.06
375.868	231.06
376.094	246.06
376.319	235.06
376.545	222.06
376.771	259.06
376.997	213.06
377.222	180.06
377.448	165.06
377.674	177.06
377.899	180.06
378.125	165.06
378.35	172.06
378.576	167.06
378.802	179.06
379.027	209.06
379.253	194.06
379.478	196.06
379.704	227.06
379.929	234.06
380.155	237.06
380.38	193.06
380.606	206.06
380.831	246.06
381.057	220.06
381.282	202.06
381.507	212.06
381.733	283.06
381.958	281.06
382.184	286.06
382.409	303.06
382.634	312.06
382.86	321.06
383.085	277.06
383.31	230.06
383.535	252.06
383.761	246.06
383.986	238.06
384.211	272.06
384.436	287.06
384.662	205.06
384.887	213.06
385.112	212.06
385.337	241.06
385.562	227.06
385.787	222.06
386.013	250.06
386.238	254.06
386.463	219.06
386.688	210.06
386.913	204.06
387.138	205.06
387.363	212.06
387.588	216.06
387.813	204.06
388.038	232.06
388.263	213.06
388.488	213.06
388.713	218.06
388.938	245.06
389.163	229.06
389.387	199.06
389.612	198.06
389.837	202.06
390.062	206.06
390.287	222.06
390.512	214.06
390.736	218.06
390.961	217.06
391.186	206.06
391.411	198.06
391.636	177.06
391.86	201.06
392.085	233.06
392.31	228.06
392.534	207.06
392.759	205.06
392.984	204.06
393.208	234.06
393.433	206.06
393.658	200.06
393.882	170.06
394.107	172.06
394.331	206.06
394.556	188.06
394.78	190.06
395.005	176.06
395.229	183.06
395.454	185.06
395.678	208.06
395.903	198.06
396.127	180.06
396.352	196.06
396.576	194.06
396.801	220.06
397.025	226.06
397.249	253.06
397.474	206.06
397.698	217.06
397.922	224.06
398.147	207.06
398.371	207.06
398.595	221.06
398.82	210.06
399.044	202.06
399.268	233.06
399.492	251.06
399.717	257.06
399.941	240.06
400.165	239.06
400.389	220.06
400.613	228.06
400.837	220.06
401.062	197.06
401.286	203.06
401.51	199.06
401.734	195.06
401.958	202.06
402.182	193.06
402.406	203.06
402.63	195.06
402.854	221.06
403.078	217.06
403.302	308.06
403.526	309.06
403.75	306.06
403.974	249.06
404.198	245.06
404.422	269.06
404.645	283.06
404.869	314.06
405.093	253.06
405.317	226.06
405.541	218.06
405.765	227.06
405.988	215.06
406.212	230.06
406.436	250.06
406.66	273.06
406.883	247.06
407.107	263.06
407.331	261.06
407.555	281.06
407.778	254.06
408.002	237.06
408.226	249.06
408.449	241.06
408.673	235.06
408.896	198.06
409.12	219.06
409.344	207.06
409.567	198.06
409.791	214.06
410.014	198.06
410.238	210.06
410.461	215.06
410.685	210.06
410.908	209.06
411.132	209.06
411.355	212.06
411.578	220.06
411.802	199.06
412.025	214.06
412.249	213.06
412.472	210.06
412.695	212.06
412.919	206.06
413.142	214.06
413.365	218.06
413.589	221.06
413.812	218.06
414.035	221.06
414.258	207.06
414.482	215.06
414.705	241.06
414.928	222.06
415.151	201.06
415.374	213.06
415.597	211.06
415.821	202.06
416.044	212.06
416.267	212.06
416.49	181.06
416.713	201.06
416.936	200.06
417.159	206.06
417.382	204.06
417.605	201.06
417.828	198.06
418.051	201.06
418.274	215.06
418.497	221.06
418.72	203.06
418.943	221.06
419.166	232.06
419.389	209.06
419.611	210.06
419.834	238.06
420.057	225.06
420.28	250.06
420.503	228.06
420.726	200.06
420.948	194.06
421.171	199.06
421.394	210.06
421.617	206.06
421.839	205.06
422.062	220.06
422.285	201.06
422.507	198.06
422.73	214.06
422.953	218.06
423.175	196.06
423.398	191.06
423.621	220.06
423.843	230.06
424.066	215.06
424.288	221.06
424.511	218.06
424.733	202.06
424.956	210.06
425.178	242.06
425.401	263.06
425.623	285.06
425.846	254.06
426.068	216.06
426.291	251.06
426.513	231.06
426.735	211.06
426.958	208.06
427.18	237.06
427.402	302.06
427.625	296.06
427.847	250.06
428.069	196.06
428.292	208.06
428.514	197.06
428.736	184.06
428.958	207.06
429.181	238.06
429.403	223.06
429.625	220.06
429.847	204.06
430.069	204.06
430.292	200.06
430.514	206.06
430.736	212.06
430.958	236.06
431.18	222.06
431.402	182.06
431.624	191.06
431.846	179.06
432.068	185.06
432.29	181.06
432.512	213.06
432.734	253.06
432.956	228.06
433.178	179.06
433.4	207.06
433.622	199.06
433.844	197.06
434.066	225.06
434.287	210.06
434.509	214.06
434.731	219.06
434.953	198.06
435.175	202.06
435.397	237.06
435.618	196.06
435.84	187.06
436.062	171.06
436.284	197.06
436.505	172.06
436.727	174.06
436.949	177.06
437.17	201.06
437.392	206.06
437.614	183.06
437.835	195.06
438.057	200.06
438.278	203.06
438.5	275.06
438.721	278.06
438.943	203.06
439.165	183.06
439.386	162.06
439.608	188.06
439.829	189.06
440.05	180.06
440.272	190.06
440.493	207.06
440.715	244.06
440.936	202.06
441.158	179.06
441.379	190.06
441.6	226.06
441.822	228.06
442.043	203.06
442.264	189.06
442.486	181.06
442.707	190.06
442.928	207.06
443.149	194.06
443.371	199.06
443.592	206.06
443.813	213.06
444.034	213.06
444.255	203.06
444.476	217.06
444.698	227.06
444.919	211.06
445.14	342.06
445.361	286.06
445.582	216.06
445.803	214.06
446.024	229.06
446.245	217.06
446.466	220.06
446.687	203.06
446.908	198.06
447.129	191.06
447.35	179.06
447.571	180.06
447.792	165.06
448.013	185.06
448.234	175.06
448.455	189.06
448.675	189.06
448.896	182.06
449.117	191.06
449.338	175.06
449.559	188.06
449.779	202.06
450	191.06
450.221	202.06
450.442	197.06
450.662	176.06
450.883	184.06
451.104	202.06
451.324	173.06
451.545	193.06
451.766	186.06
451.986	171.06
452.207	191.06
452.428	173.06
452.648	167.06
452.869	186.06
453.089	202.06
453.31	194.06
453.53	172.06
453.751	181.06
453.971	181.06
454.192	179.06
454.412	187.06
454.633	182.06
454.853	175.06
455.073	163.06
455.294	183.06
455.514	173.06
455.734	177.06
455.955	163.06
456.175	182.06
456.395	168.06
456.616	163.06
456.836	162.06
457.056	160.06
457.276	166.06
457.497	149.06
457.717	174.06
457.937	169.06
458.157	175.06
458.377	162.06
458.598	174.06
458.818	173.06
459.038	185.06
459.258	156.06
459.478	182.06
459.698	201.06
459.918	206.06
460.138	191.06
460.358	206.06
460.578	200.06
460.798	194.06
461.018	219.06
461.238	189.06
461.458	198.06
461.678	203.06
461.898	212.06
462.118	206.06
462.338	202.06
462.558	230.06
462.777	241.06
462.997	223.06
463.217	223.06
463.437	220.06
463.657	236.06
463.876	222.06
464.096	221.06
464.316	221.06
464.536	216.06
464.755	242.06
464.975	243.06
465.195	225.06
465.414	236.06
465.634	230.06
465.854	200.06
466.073	199.06
466.293	192.06
466.512	200.06
466.732	225.06
466.951	234.06
467.171	213.06
467.391	201.06
467.61	188.06
467.829	214.06
468.049	202.06
468.268	190.06
468.488	195.06
468.707	194.06
468.927	226.06
469.146	248.06
469.365	219.06
469.585	201.06
469.804	216.06
470.023	238.06
470.243	198.06
470.462	209.06
470.681	197.06
470.901	216.06
471.12	210.06
471.339	224.06
471.558	203.06
471.777	215.06
471.997	210.06
472.216	234.06
472.435	232.06
472.654	215.06
472.873	208.06
473.092	211.06
473.311	232.06
473.53	211.06
473.749	229.06
473.968	210.06
474.187	224.06
474.406	200.06
474.625	200.06
474.844	211.06
475.063	211.06
475.282	207.06
475.501	223.06
475.72	255.06
475.939	242.06
476.158	237.06
476.377	242.06
476.596	291.06
476.814	297.06
477.033	262.06
477.252	213.06
477.471	201.06
477.69	210.06
477.908	253.06
478.127	245.06
478.346	221.06
478.564	265.06
478.783	235.06
479.002	231.06
479.22	266.06
479.439	263.06
479.658	246.06
479.876	219.06
480.095	251.06
480.313	259.06
480.532	246.06
480.751	233.06
480.969	234.06
481.188	251.06
481.406	252.06
481.624	263.06
481.843	234.06
482.061	212.06
482.28	247.06
482.498	304.06
482.717	310.06
482.935	238.06
483.153	237.06
483.372	228.06
483.59	225.06
483.808	225.06
484.027	215.06
484.245	207.06
484.463	206.06
484.681	228.06
484.9	235.06
485.118	233.06
485.336	238.06
485.554	230.06
485.772	225.06
485.99	236.06
486.209	246.06
486.427	260.06
486.645	244.06
486.863	245.06
487.081	257.06
487.299	285.06
487.517	269.06
487.735	244.06
487.953	263.06
488.171	276.06
488.389	242.06
488.607	226.06
488.825	244.06
489.043	273.06
489.261	285.06
489.479	317.06
489.696	264.06
489.914	233.06
490.132	219.06
490.35	229.06
490.568	218.06
490.786	226.06
491.003	241.06
491.221	245.06
491.439	224.06
491.657	227.06
491.874	241.06
492.092	275.06
492.31	334.06
492.527	335.06
492.745	276.06
492.963	257.06
493.18	261.06
493.398	257.06
493.615	255.06
493.833	265.06
494.05	266.06
494.268	257.06
494.485	231.06
494.703	247.06
494.92	246.06
495.138	228.06
495.355	235.06
495.573	248.06
495.79	272.06
496.008	347.06
496.225	301.06
496.442	259.06
496.66	265.06
496.877	268.06
497.094	276.06
497.312	260.06
497.529	251.06
497.746	254.06
497.963	268.06
498.181	287.06
498.398	302.06
498.615	321.06
498.832	319.06
499.049	315.06
499.267	316.06
499.484	322.06
499.701	341.06
499.918	370.06
500.135	387.06
500.352	430.06
500.569	428.06
500.786	444.06
501.003	459.06
501.22	375.06
501.437	360.06
501.654	346.06
501.871	331.06
502.088	326.06
502.305	293.06
502.522	302.06
502.739	309.06
