Data from NickelSpatula.Lamp.E5.5.P2_HRD10591_11-52-40-552.txt Node
Date: Tue Jul 23 11:52:40 EDT 2019
User: cochatt
Spectrometer: HR+D1059
Trigger mode: 1
Integration Time (sec): 1.000000E-1
Scans to average: 1
Electric dark correction enabled: true
Nonlinearity correction enabled: false
Boxcar width: 0
XAxis mode: Wavelengths
Number of Pixels in Spectrum: 2048
>>>>>Begin Spectral Data<<<<<
223.165	-6.31
223.4	-6.31
223.635	-6.31
223.869	-28.31
224.104	-4.31
224.338	-24.31
224.573	-25.31
224.808	-16.31
225.042	-10.31
225.277	-5.31
225.511	-4.31
225.746	8.69
225.98	13.69
226.215	10.69
226.449	24.69
226.683	24.69
226.918	23.69
227.152	18.69
227.387	38.69
227.621	42.69
227.856	47.69
228.09	45.69
228.324	39.69
228.559	54.69
228.793	75.69
229.027	70.69
229.262	102.69
229.496	92.69
229.73	84.69
229.964	94.69
230.199	114.69
230.433	104.69
230.667	91.69
230.901	105.69
231.136	93.69
231.37	98.69
231.604	100.69
231.838	93.69
232.072	98.69
232.306	99.69
232.541	97.69
232.775	101.69
233.009	117.69
233.243	122.69
233.477	118.69
233.711	119.69
233.945	109.69
234.179	110.69
234.413	123.69
234.647	136.69
234.881	130.69
235.115	143.69
235.349	123.69
235.583	121.69
235.817	129.69
236.051	128.69
236.285	141.69
236.519	141.69
236.753	145.69
236.987	131.69
237.221	124.69
237.455	110.69
237.689	126.69
237.922	139.69
238.156	152.69
238.39	161.69
238.624	181.69
238.858	156.69
239.091	149.69
239.325	137.69
239.559	134.69
239.793	131.69
240.027	178.69
240.26	164.69
240.494	163.69
240.728	166.69
240.961	169.69
241.195	158.69
241.429	168.69
241.662	165.69
241.896	150.69
242.13	134.69
242.363	131.69
242.597	124.69
242.83	151.69
243.064	155.69
243.298	169.69
243.531	175.69
243.765	171.69
243.998	170.69
244.232	168.69
244.465	167.69
244.699	147.69
244.932	167.69
245.166	160.69
245.399	153.69
245.633	144.69
245.866	152.69
246.099	160.69
246.333	179.69
246.566	187.69
246.8	204.69
247.033	170.69
247.266	165.69
247.5	166.69
247.733	158.69
247.966	162.69
248.2	166.69
248.433	199.69
248.666	210.69
248.899	186.69
249.133	196.69
249.366	220.69
249.599	222.69
249.832	228.69
250.066	212.69
250.299	195.69
250.532	186.69
250.765	199.69
250.998	190.69
251.231	167.69
251.465	187.69
251.698	206.69
251.931	194.69
252.164	197.69
252.397	212.69
252.63	251.69
252.863	246.69
253.096	257.69
253.329	263.69
253.562	251.69
253.795	270.69
254.028	296.69
254.261	312.69
254.494	265.69
254.727	260.69
254.96	243.69
255.193	243.69
255.426	275.69
255.659	225.69
255.892	201.69
256.124	203.69
256.357	251.69
256.59	262.69
256.823	278.69
257.056	229.69
257.289	203.69
257.521	217.69
257.754	258.69
257.987	301.69
258.22	260.69
258.452	226.69
258.685	250.69
258.918	264.69
259.151	287.69
259.383	294.69
259.616	330.69
259.849	332.69
260.081	370.69
260.314	397.69
260.547	334.69
260.779	314.69
261.012	376.69
261.244	339.69
261.477	353.69
261.71	327.69
261.942	282.69
262.175	283.69
262.407	274.69
262.64	257.69
262.872	316.69
263.105	353.69
263.337	359.69
263.57	325.69
263.802	247.69
264.035	234.69
264.267	224.69
264.499	192.69
264.732	186.69
264.964	182.69
265.197	169.69
265.429	192.69
265.661	212.69
265.894	189.69
266.126	226.69
266.358	233.69
266.591	266.69
266.823	297.69
267.055	301.69
267.287	257.69
267.52	274.69
267.752	284.69
267.984	304.69
268.216	299.69
268.448	254.69
268.681	241.69
268.913	273.69
269.145	273.69
269.377	283.69
269.609	293.69
269.841	267.69
270.073	280.69
270.306	306.69
270.538	285.69
270.77	294.69
271.002	310.69
271.234	307.69
271.466	319.69
271.698	293.69
271.93	275.69
272.162	288.69
272.394	279.69
272.626	292.69
272.858	302.69
273.09	286.69
273.322	281.69
273.553	254.69
273.785	296.69
274.017	361.69
274.249	448.69
274.481	468.69
274.713	497.69
274.945	580.69
275.176	610.69
275.408	548.69
275.64	521.69
275.872	489.69
276.104	430.69
276.335	374.69
276.567	367.69
276.799	399.69
277.031	392.69
277.262	328.69
277.494	256.69
277.726	245.69
277.957	274.69
278.189	288.69
278.421	305.69
278.652	299.69
278.884	259.69
279.115	260.69
279.347	252.69
279.579	266.69
279.81	274.69
280.042	259.69
280.273	283.69
280.505	249.69
280.736	228.69
280.968	218.69
281.199	227.69
281.431	263.69
281.662	270.69
281.894	256.69
282.125	275.69
282.356	297.69
282.588	294.69
282.819	255.69
283.051	273.69
283.282	319.69
283.513	354.69
283.745	393.69
283.976	418.69
284.207	374.69
284.439	390.69
284.67	389.69
284.901	347.69
285.132	354.69
285.364	378.69
285.595	351.69
285.826	362.69
286.057	374.69
286.288	366.69
286.52	384.69
286.751	399.69
286.982	383.69
287.213	344.69
287.444	342.69
287.675	384.69
287.906	377.69
288.138	325.69
288.369	286.69
288.6	294.69
288.831	298.69
289.062	332.69
289.293	350.69
289.524	324.69
289.755	323.69
289.986	342.69
290.217	310.69
290.448	230.69
290.679	202.69
290.91	208.69
291.141	210.69
291.371	218.69
291.602	217.69
291.833	219.69
292.064	235.69
292.295	257.69
292.526	277.69
292.757	310.69
292.987	321.69
293.218	312.69
293.449	334.69
293.68	375.69
293.91	330.69
294.141	351.69
294.372	340.69
294.603	296.69
294.833	323.69
295.064	389.69
295.295	369.69
295.525	312.69
295.756	262.69
295.987	225.69
296.217	216.69
296.448	215.69
296.679	246.69
296.909	245.69
297.14	262.69
297.37	287.69
297.601	278.69
297.831	259.69
298.062	270.69
298.292	306.69
298.523	319.69
298.753	352.69
298.984	334.69
299.214	270.69
299.445	249.69
299.675	230.69
299.905	219.69
300.136	226.69
300.366	230.69
300.597	241.69
300.827	213.69
301.057	217.69
301.288	238.69
301.518	231.69
301.748	268.69
301.979	286.69
302.209	287.69
302.439	296.69
302.669	269.69
302.9	254.69
303.13	247.69
303.36	250.69
303.59	227.69
303.82	258.69
304.051	251.69
304.281	293.69
304.511	280.69
304.741	246.69
304.971	264.69
305.201	273.69
305.431	257.69
305.661	224.69
305.891	235.69
306.121	233.69
306.352	219.69
306.582	203.69
306.812	195.69
307.042	197.69
307.272	196.69
307.502	202.69
307.731	200.69
307.961	223.69
308.191	211.69
308.421	197.69
308.651	187.69
308.881	203.69
309.111	196.69
309.341	199.69
309.571	190.69
309.8	209.69
310.03	211.69
310.26	224.69
310.49	215.69
310.72	207.69
310.949	191.69
311.179	181.69
311.409	224.69
311.639	235.69
311.868	284.69
312.098	333.69
312.328	378.69
312.557	383.69
312.787	354.69
313.017	339.69
313.246	346.69
313.476	366.69
313.706	327.69
313.935	274.69
314.165	210.69
314.394	210.69
314.624	212.69
314.853	235.69
315.083	215.69
315.312	226.69
315.542	204.69
315.771	223.69
316.001	200.69
316.23	210.69
316.46	206.69
316.689	196.69
316.919	212.69
317.148	198.69
317.377	195.69
317.607	193.69
317.836	213.69
318.065	238.69
318.295	252.69
318.524	226.69
318.753	211.69
318.983	192.69
319.212	203.69
319.441	216.69
319.67	226.69
319.9	241.69
320.129	240.69
320.358	209.69
320.587	201.69
320.816	208.69
321.046	250.69
321.275	260.69
321.504	244.69
321.733	259.69
321.962	247.69
322.191	218.69
322.42	218.69
322.649	212.69
322.878	258.69
323.108	257.69
323.337	247.69
323.566	239.69
323.795	222.69
324.024	227.69
324.253	231.69
324.482	209.69
324.71	202.69
324.939	232.69
325.168	242.69
325.397	204.69
325.626	213.69
325.855	201.69
326.084	211.69
326.313	214.69
326.542	196.69
326.77	200.69
326.999	211.69
327.228	212.69
327.457	225.69
327.686	218.69
327.914	204.69
328.143	197.69
328.372	199.69
328.6	191.69
328.829	207.69
329.058	202.69
329.287	212.69
329.515	205.69
329.744	196.69
329.972	177.69
330.201	188.69
330.43	194.69
330.658	208.69
330.887	222.69
331.115	217.69
331.344	236.69
331.572	214.69
331.801	218.69
332.03	195.69
332.258	186.69
332.486	239.69
332.715	222.69
332.943	217.69
333.172	210.69
333.4	226.69
333.629	237.69
333.857	248.69
334.085	240.69
334.314	232.69
334.542	223.69
334.771	218.69
334.999	222.69
335.227	209.69
335.455	206.69
335.684	242.69
335.912	264.69
336.14	281.69
336.369	278.69
336.597	256.69
336.825	264.69
337.053	310.69
337.281	274.69
337.51	233.69
337.738	242.69
337.966	233.69
338.194	228.69
338.422	227.69
338.65	216.69
338.878	196.69
339.106	203.69
339.334	218.69
339.562	231.69
339.79	232.69
340.018	231.69
340.246	222.69
340.474	251.69
340.702	260.69
340.93	270.69
341.158	269.69
341.386	226.69
341.614	219.69
341.842	224.69
342.07	227.69
342.298	260.69
342.526	273.69
342.754	243.69
342.981	228.69
343.209	231.69
343.437	246.69
343.665	266.69
343.893	243.69
344.12	290.69
344.348	329.69
344.576	287.69
344.804	250.69
345.031	210.69
345.259	224.69
345.487	223.69
345.714	212.69
345.942	217.69
346.17	253.69
346.397	232.69
346.625	234.69
346.853	220.69
347.08	220.69
347.308	234.69
347.535	228.69
347.763	245.69
347.99	231.69
348.218	216.69
348.445	239.69
348.673	228.69
348.9	235.69
349.128	235.69
349.355	245.69
349.583	240.69
349.81	221.69
350.037	210.69
350.265	194.69
350.492	190.69
350.72	194.69
350.947	198.69
351.174	201.69
351.402	217.69
351.629	220.69
351.856	209.69
352.083	198.69
352.311	225.69
352.538	225.69
352.765	239.69
352.992	221.69
353.22	223.69
353.447	221.69
353.674	221.69
353.901	224.69
354.128	210.69
354.355	226.69
354.583	214.69
354.81	232.69
355.037	231.69
355.264	231.69
355.491	222.69
355.718	252.69
355.945	235.69
356.172	241.69
356.399	251.69
356.626	272.69
356.853	312.69
357.08	327.69
357.307	331.69
357.534	269.69
357.761	288.69
357.988	328.69
358.215	383.69
358.441	340.69
358.668	318.69
358.895	306.69
359.122	267.69
359.349	276.69
359.576	298.69
359.802	252.69
360.029	224.69
360.256	228.69
360.483	258.69
360.709	311.69
360.936	330.69
361.163	285.69
361.39	238.69
361.616	225.69
361.843	254.69
362.07	289.69
362.296	256.69
362.523	233.69
362.749	195.69
362.976	222.69
363.203	255.69
363.429	274.69
363.656	231.69
363.882	238.69
364.109	225.69
364.335	218.69
364.562	218.69
364.788	227.69
365.015	245.69
365.241	241.69
365.468	209.69
365.694	209.69
365.92	199.69
366.147	192.69
366.373	180.69
366.599	172.69
366.826	205.69
367.052	200.69
367.278	203.69
367.505	196.69
367.731	204.69
367.957	207.69
368.184	219.69
368.41	211.69
368.636	223.69
368.862	199.69
369.089	228.69
369.315	201.69
369.541	213.69
369.767	206.69
369.993	187.69
370.219	185.69
370.445	212.69
370.672	232.69
370.898	226.69
371.124	250.69
371.35	222.69
371.576	227.69
371.802	227.69
372.028	240.69
372.254	284.69
372.48	249.69
372.706	235.69
372.932	236.69
373.158	262.69
373.384	275.69
373.61	329.69
373.835	366.69
374.061	303.69
374.287	267.69
374.513	284.69
374.739	319.69
374.965	323.69
375.191	310.69
375.416	248.69
375.642	223.69
375.868	227.69
376.094	265.69
376.319	255.69
376.545	249.69
376.771	277.69
376.997	253.69
377.222	221.69
377.448	189.69
377.674	195.69
377.899	186.69
378.125	199.69
378.35	190.69
378.576	186.69
378.802	195.69
379.027	210.69
379.253	206.69
379.478	218.69
379.704	231.69
379.929	238.69
380.155	240.69
380.38	216.69
380.606	253.69
380.831	248.69
381.057	244.69
381.282	214.69
381.507	253.69
381.733	292.69
381.958	291.69
382.184	320.69
382.409	342.69
382.634	330.69
382.86	353.69
383.085	290.69
383.31	238.69
383.535	271.69
383.761	290.69
383.986	257.69
384.211	291.69
384.436	284.69
384.662	228.69
384.887	229.69
385.112	236.69
385.337	253.69
385.562	230.69
385.787	256.69
386.013	263.69
386.238	278.69
386.463	241.69
386.688	228.69
386.913	218.69
387.138	217.69
387.363	227.69
387.588	216.69
387.813	231.69
388.038	251.69
388.263	227.69
388.488	231.69
388.713	262.69
388.938	270.69
389.163	226.69
389.387	204.69
389.612	204.69
389.837	216.69
390.062	220.69
390.287	234.69
390.512	243.69
390.736	216.69
390.961	219.69
391.186	208.69
391.411	207.69
391.636	215.69
391.86	239.69
392.085	230.69
392.31	239.69
392.534	246.69
392.759	204.69
392.984	235.69
393.208	251.69
393.433	225.69
393.658	207.69
393.882	201.69
394.107	199.69
394.331	190.69
394.556	201.69
394.78	196.69
395.005	210.69
395.229	203.69
395.454	203.69
395.678	211.69
395.903	226.69
396.127	210.69
396.352	216.69
396.576	216.69
396.801	227.69
397.025	242.69
397.249	256.69
397.474	219.69
397.698	211.69
397.922	219.69
398.147	219.69
398.371	210.69
398.595	235.69
398.82	209.69
399.044	220.69
399.268	257.69
399.492	252.69
399.717	281.69
399.941	276.69
400.165	265.69
400.389	249.69
400.613	239.69
400.837	231.69
401.062	231.69
401.286	222.69
401.51	230.69
401.734	219.69
401.958	213.69
402.182	227.69
402.406	229.69
402.63	223.69
402.854	231.69
403.078	269.69
403.302	337.69
403.526	358.69
403.75	321.69
403.974	276.69
404.198	272.69
404.422	293.69
404.645	312.69
404.869	326.69
405.093	292.69
405.317	244.69
405.541	259.69
405.765	268.69
405.988	246.69
406.212	266.69
406.436	272.69
406.66	306.69
406.883	271.69
407.107	275.69
407.331	311.69
407.555	305.69
407.778	280.69
408.002	275.69
408.226	285.69
408.449	261.69
408.673	259.69
408.896	214.69
409.12	224.69
409.344	225.69
409.567	236.69
409.791	233.69
410.014	232.69
410.238	223.69
410.461	226.69
410.685	231.69
410.908	226.69
411.132	222.69
411.355	235.69
411.578	252.69
411.802	234.69
412.025	237.69
412.249	229.69
412.472	231.69
412.695	236.69
412.919	234.69
413.142	240.69
413.365	243.69
413.589	252.69
413.812	249.69
414.035	224.69
414.258	224.69
414.482	232.69
414.705	260.69
414.928	246.69
415.151	218.69
415.374	221.69
415.597	231.69
415.821	234.69
416.044	222.69
416.267	227.69
416.49	233.69
416.713	216.69
416.936	220.69
417.159	219.69
417.382	223.69
417.605	220.69
417.828	224.69
418.051	234.69
418.274	227.69
418.497	230.69
418.72	250.69
418.943	226.69
419.166	230.69
419.389	243.69
419.611	254.69
419.834	252.69
420.057	257.69
420.28	244.69
420.503	247.69
420.726	214.69
420.948	220.69
421.171	219.69
421.394	231.69
421.617	215.69
421.839	215.69
422.062	233.69
422.285	238.69
422.507	228.69
422.73	230.69
422.953	229.69
423.175	227.69
423.398	235.69
423.621	224.69
423.843	270.69
424.066	244.69
424.288	262.69
424.511	233.69
424.733	225.69
424.956	230.69
425.178	270.69
425.401	294.69
425.623	332.69
425.846	295.69
426.068	230.69
426.291	259.69
426.513	229.69
426.735	244.69
426.958	231.69
427.18	239.69
427.402	316.69
427.625	345.69
427.847	294.69
428.069	242.69
428.292	219.69
428.514	228.69
428.736	224.69
428.958	240.69
429.181	302.69
429.403	257.69
429.625	214.69
429.847	219.69
430.069	228.69
430.292	226.69
430.514	219.69
430.736	238.69
430.958	280.69
431.18	241.69
431.402	225.69
431.624	223.69
431.846	216.69
432.068	218.69
432.29	209.69
432.512	236.69
432.734	274.69
432.956	250.69
433.178	239.69
433.4	206.69
433.622	203.69
433.844	244.69
434.066	243.69
434.287	238.69
434.509	227.69
434.731	235.69
434.953	229.69
435.175	250.69
435.397	267.69
435.618	231.69
435.84	218.69
436.062	204.69
436.284	193.69
436.505	188.69
436.727	210.69
436.949	198.69
437.17	207.69
437.392	211.69
437.614	209.69
437.835	200.69
438.057	206.69
438.278	238.69
438.5	291.69
438.721	278.69
438.943	228.69
439.165	198.69
439.386	184.69
439.608	202.69
439.829	204.69
440.05	222.69
440.272	225.69
440.493	247.69
440.715	275.69
440.936	234.69
441.158	225.69
441.379	215.69
441.6	242.69
441.822	232.69
442.043	236.69
442.264	234.69
442.486	226.69
442.707	226.69
442.928	223.69
443.149	231.69
443.371	226.69
443.592	227.69
443.813	244.69
444.034	233.69
444.255	232.69
444.476	254.69
444.698	247.69
444.919	258.69
445.14	331.69
445.361	293.69
445.582	244.69
445.803	250.69
446.024	227.69
446.245	230.69
446.466	235.69
446.687	222.69
446.908	216.69
447.129	225.69
447.35	208.69
447.571	209.69
447.792	203.69
448.013	205.69
448.234	201.69
448.455	211.69
448.675	213.69
448.896	201.69
449.117	219.69
449.338	191.69
449.559	194.69
449.779	217.69
450	228.69
450.221	213.69
450.442	223.69
450.662	216.69
450.883	217.69
451.104	224.69
451.324	226.69
451.545	181.69
451.766	216.69
451.986	213.69
452.207	199.69
452.428	201.69
452.648	202.69
452.869	232.69
453.089	216.69
453.31	221.69
453.53	195.69
453.751	203.69
453.971	207.69
454.192	210.69
454.412	203.69
454.633	198.69
454.853	208.69
455.073	211.69
455.294	203.69
455.514	178.69
455.734	206.69
455.955	208.69
456.175	213.69
456.395	199.69
456.616	202.69
456.836	192.69
457.056	193.69
457.276	185.69
457.497	192.69
457.717	183.69
457.937	197.69
458.157	209.69
458.377	192.69
458.598	212.69
458.818	208.69
459.038	197.69
459.258	232.69
459.478	230.69
459.698	239.69
459.918	229.69
460.138	231.69
460.358	225.69
460.578	227.69
460.798	234.69
461.018	240.69
461.238	222.69
461.458	227.69
461.678	235.69
461.898	234.69
462.118	240.69
462.338	240.69
462.558	254.69
462.777	265.69
462.997	265.69
463.217	265.69
463.437	302.69
463.657	260.69
463.876	268.69
464.096	267.69
464.316	255.69
464.536	241.69
464.755	269.69
464.975	274.69
465.195	251.69
465.414	259.69
465.634	244.69
465.854	246.69
466.073	226.69
466.293	218.69
466.512	231.69
466.732	262.69
466.951	248.69
467.171	246.69
467.391	232.69
467.61	214.69
467.829	233.69
468.049	236.69
468.268	232.69
468.488	216.69
468.707	218.69
468.927	262.69
469.146	277.69
469.365	233.69
469.585	226.69
469.804	250.69
470.023	258.69
470.243	244.69
470.462	218.69
470.681	241.69
470.901	214.69
471.12	236.69
471.339	240.69
471.558	225.69
471.777	231.69
471.997	253.69
472.216	259.69
472.435	251.69
472.654	248.69
472.873	224.69
473.092	241.69
473.311	242.69
473.53	229.69
473.749	209.69
473.968	234.69
474.187	232.69
474.406	237.69
474.625	226.69
474.844	230.69
475.063	231.69
475.282	230.69
475.501	260.69
475.72	272.69
475.939	254.69
476.158	248.69
476.377	291.69
476.596	315.69
476.814	339.69
477.033	289.69
477.252	251.69
477.471	262.69
477.69	254.69
477.908	252.69
478.127	258.69
478.346	261.69
478.564	294.69
478.783	250.69
479.002	258.69
479.22	284.69
479.439	327.69
479.658	291.69
479.876	256.69
480.095	282.69
480.313	283.69
480.532	258.69
480.751	252.69
480.969	258.69
481.188	298.69
481.406	304.69
481.624	269.69
481.843	263.69
482.061	249.69
482.28	279.69
482.498	335.69
482.717	331.69
482.935	281.69
483.153	273.69
483.372	245.69
483.59	245.69
483.808	233.69
484.027	230.69
484.245	245.69
484.463	236.69
484.681	244.69
484.9	253.69
485.118	278.69
485.336	242.69
485.554	249.69
485.772	257.69
485.99	260.69
486.209	264.69
486.427	265.69
486.645	263.69
486.863	309.69
487.081	274.69
487.299	298.69
487.517	306.69
487.735	283.69
487.953	266.69
488.171	288.69
488.389	278.69
488.607	264.69
488.825	238.69
489.043	284.69
489.261	312.69
489.479	310.69
489.696	281.69
489.914	254.69
490.132	252.69
490.35	242.69
490.568	244.69
490.786	245.69
491.003	274.69
491.221	254.69
491.439	264.69
491.657	261.69
491.874	276.69
492.092	298.69
492.31	329.69
492.527	347.69
492.745	305.69
492.963	282.69
493.18	283.69
493.398	287.69
493.615	302.69
493.833	284.69
494.05	270.69
494.268	279.69
494.485	300.69
494.703	257.69
494.92	292.69
495.138	268.69
495.355	279.69
495.573	276.69
495.79	278.69
496.008	338.69
496.225	309.69
496.442	267.69
496.66	280.69
496.877	295.69
497.094	314.69
497.312	294.69
497.529	299.69
497.746	302.69
497.963	292.69
498.181	330.69
498.398	330.69
498.615	350.69
498.832	374.69
499.049	387.69
499.267	370.69
499.484	386.69
499.701	394.69
499.918	436.69
500.135	484.69
500.352	506.69
500.569	516.69
500.786	540.69
501.003	491.69
501.22	453.69
501.437	417.69
501.654	398.69
501.871	352.69
502.088	355.69
502.305	336.69
502.522	307.69
