Data from NickelSpatula_HRD10591_16-36-30-126.txt Node
Date: Mon Jul 22 16:36:30 EDT 2019
User: cochatt
Spectrometer: HR+D1059
Trigger mode: 1
Integration Time (sec): 1.000000E-1
Scans to average: 1
Electric dark correction enabled: true
Nonlinearity correction enabled: false
Boxcar width: 0
XAxis mode: Wavelengths
Number of Pixels in Spectrum: 2048
>>>>>Begin Spectral Data<<<<<
223.165	-18.88
223.4	-18.88
223.635	-18.88
223.869	-24.88
224.104	-22.88
224.338	-7.88
224.573	-7.88
224.808	-8.88
225.042	-3.88
225.277	-3.88
225.511	8.12
225.746	-2.88
225.98	13.12
226.215	9.12
226.449	22.12
226.683	11.12
226.918	25.12
227.152	13.12
227.387	47.12
227.621	38.12
227.856	38.12
228.09	40.12
228.324	41.12
228.559	58.12
228.793	56.12
229.027	72.12
229.262	80.12
229.496	63.12
229.73	75.12
229.964	69.12
230.199	71.12
230.433	87.12
230.667	81.12
230.901	75.12
231.136	95.12
231.37	75.12
231.604	83.12
231.838	80.12
232.072	90.12
232.306	85.12
232.541	89.12
232.775	93.12
233.009	85.12
233.243	100.12
233.477	95.12
233.711	88.12
233.945	91.12
234.179	97.12
234.413	95.12
234.647	104.12
234.881	101.12
235.115	92.12
235.349	87.12
235.583	91.12
235.817	90.12
236.051	83.12
236.285	111.12
236.519	119.12
236.753	105.12
236.987	106.12
237.221	101.12
237.455	108.12
237.689	96.12
237.922	97.12
238.156	95.12
238.39	97.12
238.624	114.12
238.858	100.12
239.091	95.12
239.325	103.12
239.559	97.12
239.793	113.12
240.027	106.12
240.26	89.12
240.494	88.12
240.728	93.12
240.961	117.12
241.195	99.12
241.429	107.12
241.662	107.12
241.896	93.12
242.13	92.12
242.363	96.12
242.597	101.12
242.83	118.12
243.064	106.12
243.298	107.12
243.531	122.12
243.765	94.12
243.998	107.12
244.232	106.12
244.465	111.12
244.699	106.12
244.932	106.12
245.166	125.12
245.399	102.12
245.633	103.12
245.866	105.12
246.099	107.12
246.333	123.12
246.566	122.12
246.8	108.12
247.033	115.12
247.266	105.12
247.5	113.12
247.733	95.12
247.966	108.12
248.2	132.12
248.433	104.12
248.666	119.12
248.899	120.12
249.133	118.12
249.366	124.12
249.599	122.12
249.832	119.12
250.066	142.12
250.299	123.12
250.532	111.12
250.765	121.12
250.998	111.12
251.231	119.12
251.465	113.12
251.698	113.12
251.931	127.12
252.164	123.12
252.397	116.12
252.63	129.12
252.863	137.12
253.096	154.12
253.329	148.12
253.562	144.12
253.795	152.12
254.028	144.12
254.261	149.12
254.494	144.12
254.727	138.12
254.96	126.12
255.193	135.12
255.426	134.12
255.659	123.12
255.892	111.12
256.124	115.12
256.357	122.12
256.59	144.12
256.823	123.12
257.056	136.12
257.289	129.12
257.521	122.12
257.754	125.12
257.987	144.12
258.22	141.12
258.452	129.12
258.685	132.12
258.918	145.12
259.151	147.12
259.383	159.12
259.616	164.12
259.849	155.12
260.081	171.12
260.314	182.12
260.547	153.12
260.779	153.12
261.012	159.12
261.244	157.12
261.477	165.12
261.71	151.12
261.942	141.12
262.175	161.12
262.407	140.12
262.64	141.12
262.872	148.12
263.105	163.12
263.337	167.12
263.57	161.12
263.802	127.12
264.035	111.12
264.267	119.12
264.499	115.12
264.732	123.12
264.964	105.12
265.197	107.12
265.429	117.12
265.661	114.12
265.894	135.12
266.126	118.12
266.358	134.12
266.591	139.12
266.823	154.12
267.055	142.12
267.287	149.12
267.52	127.12
267.752	148.12
267.984	137.12
268.216	147.12
268.448	141.12
268.681	129.12
268.913	135.12
269.145	136.12
269.377	140.12
269.609	140.12
269.841	151.12
270.073	136.12
270.306	144.12
270.538	147.12
270.77	159.12
271.002	155.12
271.234	136.12
271.466	153.12
271.698	161.12
271.93	165.12
272.162	140.12
272.394	137.12
272.626	140.12
272.858	148.12
273.09	152.12
273.322	141.12
273.553	136.12
273.785	159.12
274.017	150.12
274.249	213.12
274.481	203.12
274.713	209.12
274.945	232.12
275.176	242.12
275.408	235.12
275.64	223.12
275.872	200.12
276.104	188.12
276.335	162.12
276.567	179.12
276.799	180.12
277.031	190.12
277.262	149.12
277.494	139.12
277.726	116.12
277.957	136.12
278.189	144.12
278.421	155.12
278.652	155.12
278.884	144.12
279.115	164.12
279.347	139.12
279.579	143.12
279.81	141.12
280.042	135.12
280.273	141.12
280.505	127.12
280.736	125.12
280.968	135.12
281.199	139.12
281.431	149.12
281.662	127.12
281.894	142.12
282.125	131.12
282.356	145.12
282.588	161.12
282.819	141.12
283.051	155.12
283.282	163.12
283.513	171.12
283.745	178.12
283.976	175.12
284.207	175.12
284.439	172.12
284.67	183.12
284.901	162.12
285.132	177.12
285.364	182.12
285.595	179.12
285.826	172.12
286.057	175.12
286.288	165.12
286.52	181.12
286.751	183.12
286.982	192.12
287.213	181.12
287.444	165.12
287.675	169.12
287.906	163.12
288.138	166.12
288.369	155.12
288.6	145.12
288.831	136.12
289.062	178.12
289.293	159.12
289.524	149.12
289.755	170.12
289.986	160.12
290.217	155.12
290.448	127.12
290.679	142.12
290.91	143.12
291.141	115.12
291.371	109.12
291.602	121.12
291.833	104.12
292.064	122.12
292.295	137.12
292.526	146.12
292.757	169.12
292.987	161.12
293.218	156.12
293.449	169.12
293.68	170.12
293.91	158.12
294.141	167.12
294.372	169.12
294.603	151.12
294.833	172.12
295.064	170.12
295.295	140.12
295.525	137.12
295.756	129.12
295.987	101.12
296.217	124.12
296.448	120.12
296.679	128.12
296.909	132.12
297.14	139.12
297.37	147.12
297.601	147.12
297.831	122.12
298.062	117.12
298.292	151.12
298.523	157.12
298.753	168.12
298.984	145.12
299.214	151.12
299.445	109.12
299.675	119.12
299.905	123.12
300.136	131.12
300.366	128.12
300.597	127.12
300.827	125.12
301.057	121.12
301.288	117.12
301.518	123.12
301.748	132.12
301.979	133.12
302.209	134.12
302.439	125.12
302.669	124.12
302.9	130.12
303.13	131.12
303.36	141.12
303.59	124.12
303.82	129.12
304.051	146.12
304.281	143.12
304.511	137.12
304.741	142.12
304.971	121.12
305.201	141.12
305.431	140.12
305.661	124.12
305.891	118.12
306.121	118.12
306.352	112.12
306.582	114.12
306.812	116.12
307.042	116.12
307.272	114.12
307.502	120.12
307.731	127.12
307.961	117.12
308.191	106.12
308.421	115.12
308.651	102.12
308.881	114.12
309.111	105.12
309.341	121.12
309.571	121.12
309.8	115.12
310.03	113.12
310.26	121.12
310.49	114.12
310.72	111.12
310.949	114.12
311.179	116.12
311.409	120.12
311.639	146.12
311.868	163.12
312.098	156.12
312.328	157.12
312.557	188.12
312.787	162.12
313.017	164.12
313.246	185.12
313.476	164.12
313.706	147.12
313.935	135.12
314.165	119.12
314.394	119.12
314.624	114.12
314.853	116.12
315.083	116.12
315.312	129.12
315.542	122.12
315.771	109.12
316.001	115.12
316.23	120.12
316.46	117.12
316.689	127.12
316.919	106.12
317.148	112.12
317.377	137.12
317.607	131.12
317.836	131.12
318.065	120.12
318.295	129.12
318.524	126.12
318.753	112.12
318.983	122.12
319.212	132.12
319.441	112.12
319.67	125.12
319.9	133.12
320.129	125.12
320.358	108.12
320.587	122.12
320.816	121.12
321.046	128.12
321.275	153.12
321.504	135.12
321.733	127.12
321.962	128.12
322.191	113.12
322.42	118.12
322.649	123.12
322.878	117.12
323.108	139.12
323.337	104.12
323.566	125.12
323.795	115.12
324.024	127.12
324.253	113.12
324.482	121.12
324.71	121.12
324.939	132.12
325.168	106.12
325.397	127.12
325.626	127.12
325.855	139.12
326.084	109.12
326.313	112.12
326.542	116.12
326.77	127.12
326.999	112.12
327.228	118.12
327.457	118.12
327.686	125.12
327.914	105.12
328.143	117.12
328.372	96.12
328.6	120.12
328.829	119.12
329.058	110.12
329.287	134.12
329.515	123.12
329.744	113.12
329.972	108.12
330.201	113.12
330.43	104.12
330.658	122.12
330.887	124.12
331.115	113.12
331.344	121.12
331.572	106.12
331.801	111.12
332.03	109.12
332.258	122.12
332.486	117.12
332.715	112.12
332.943	114.12
333.172	127.12
333.4	113.12
333.629	125.12
333.857	131.12
334.085	122.12
334.314	143.12
334.542	131.12
334.771	107.12
334.999	127.12
335.227	130.12
335.455	121.12
335.684	125.12
335.912	132.12
336.14	124.12
336.369	138.12
336.597	121.12
336.825	129.12
337.053	148.12
337.281	147.12
337.51	126.12
337.738	127.12
337.966	126.12
338.194	136.12
338.422	114.12
338.65	120.12
338.878	121.12
339.106	119.12
339.334	117.12
339.562	119.12
339.79	117.12
340.018	131.12
340.246	122.12
340.474	125.12
340.702	128.12
340.93	127.12
341.158	145.12
341.386	119.12
341.614	120.12
341.842	119.12
342.07	123.12
342.298	142.12
342.526	136.12
342.754	130.12
342.981	120.12
343.209	119.12
343.437	127.12
343.665	120.12
343.893	136.12
344.12	170.12
344.348	151.12
344.576	134.12
344.804	131.12
345.031	123.12
345.259	112.12
345.487	123.12
345.714	125.12
345.942	129.12
346.17	133.12
346.397	117.12
346.625	127.12
346.853	115.12
347.08	123.12
347.308	120.12
347.535	135.12
347.763	143.12
347.99	118.12
348.218	115.12
348.445	133.12
348.673	129.12
348.9	140.12
349.128	122.12
349.355	129.12
349.583	140.12
349.81	136.12
350.037	118.12
350.265	116.12
350.492	115.12
350.72	106.12
350.947	97.12
351.174	117.12
351.402	96.12
351.629	127.12
351.856	114.12
352.083	118.12
352.311	119.12
352.538	130.12
352.765	122.12
352.992	117.12
353.22	121.12
353.447	123.12
353.674	121.12
353.901	125.12
354.128	115.12
354.355	110.12
354.583	119.12
354.81	124.12
355.037	110.12
355.264	112.12
355.491	116.12
355.718	117.12
355.945	119.12
356.172	125.12
356.399	124.12
356.626	128.12
356.853	136.12
357.08	163.12
357.307	149.12
357.534	130.12
357.761	147.12
357.988	156.12
358.215	168.12
358.441	151.12
358.668	144.12
358.895	144.12
359.122	118.12
359.349	119.12
359.576	108.12
359.802	115.12
360.029	135.12
360.256	131.12
360.483	125.12
360.709	154.12
360.936	140.12
361.163	135.12
361.39	111.12
361.616	126.12
361.843	132.12
362.07	128.12
362.296	133.12
362.523	108.12
362.749	113.12
362.976	115.12
363.203	138.12
363.429	131.12
363.656	114.12
363.882	115.12
364.109	136.12
364.335	116.12
364.562	119.12
364.788	136.12
365.015	130.12
365.241	129.12
365.468	117.12
365.694	113.12
365.92	128.12
366.147	114.12
366.373	115.12
366.599	112.12
366.826	115.12
367.052	104.12
367.278	118.12
367.505	106.12
367.731	118.12
367.957	111.12
368.184	113.12
368.41	123.12
368.636	128.12
368.862	111.12
369.089	114.12
369.315	108.12
369.541	107.12
369.767	119.12
369.993	115.12
370.219	116.12
370.445	129.12
370.672	138.12
370.898	121.12
371.124	108.12
371.35	117.12
371.576	119.12
371.802	131.12
372.028	126.12
372.254	135.12
372.48	120.12
372.706	116.12
372.932	118.12
373.158	139.12
373.384	135.12
373.61	131.12
373.835	149.12
374.061	124.12
374.287	145.12
374.513	147.12
374.739	135.12
374.965	145.12
375.191	141.12
375.416	116.12
375.642	121.12
375.868	125.12
376.094	126.12
376.319	119.12
376.545	132.12
376.771	128.12
376.997	115.12
377.222	129.12
377.448	109.12
377.674	122.12
377.899	128.12
378.125	111.12
378.35	117.12
378.576	117.12
378.802	105.12
379.027	119.12
379.253	108.12
379.478	115.12
379.704	123.12
379.929	135.12
380.155	116.12
380.38	125.12
380.606	128.12
380.831	133.12
381.057	137.12
381.282	117.12
381.507	117.12
381.733	136.12
381.958	138.12
382.184	156.12
382.409	156.12
382.634	154.12
382.86	134.12
383.085	137.12
383.31	140.12
383.535	134.12
383.761	126.12
383.986	136.12
384.211	138.12
384.436	127.12
384.662	123.12
384.887	126.12
385.112	116.12
385.337	131.12
385.562	119.12
385.787	132.12
386.013	129.12
386.238	143.12
386.463	124.12
386.688	121.12
386.913	106.12
387.138	108.12
387.363	114.12
387.588	126.12
387.813	130.12
388.038	134.12
388.263	119.12
388.488	104.12
388.713	114.12
388.938	145.12
389.163	139.12
389.387	131.12
389.612	116.12
389.837	120.12
390.062	125.12
390.287	119.12
390.512	117.12
390.736	113.12
390.961	102.12
391.186	105.12
391.411	132.12
391.636	124.12
391.86	125.12
392.085	141.12
392.31	128.12
392.534	116.12
392.759	127.12
392.984	121.12
393.208	145.12
393.433	145.12
393.658	151.12
393.882	118.12
394.107	116.12
394.331	106.12
394.556	108.12
394.78	121.12
395.005	117.12
395.229	125.12
395.454	113.12
395.678	107.12
395.903	108.12
396.127	125.12
396.352	122.12
396.576	132.12
396.801	132.12
397.025	145.12
397.249	129.12
397.474	133.12
397.698	131.12
397.922	108.12
398.147	119.12
398.371	117.12
398.595	126.12
398.82	118.12
399.044	109.12
399.268	129.12
399.492	119.12
399.717	124.12
399.941	129.12
400.165	131.12
400.389	118.12
400.613	122.12
400.837	135.12
401.062	109.12
401.286	115.12
401.51	119.12
401.734	122.12
401.958	115.12
402.182	116.12
402.406	104.12
402.63	105.12
402.854	133.12
403.078	129.12
403.302	131.12
403.526	161.12
403.75	139.12
403.974	126.12
404.198	140.12
404.422	131.12
404.645	147.12
404.869	147.12
405.093	135.12
405.317	131.12
405.541	134.12
405.765	124.12
405.988	116.12
406.212	132.12
406.436	128.12
406.66	136.12
406.883	125.12
407.107	134.12
407.331	140.12
407.555	131.12
407.778	120.12
408.002	132.12
408.226	134.12
408.449	123.12
408.673	122.12
408.896	129.12
409.12	126.12
409.344	108.12
409.567	115.12
409.791	92.12
410.014	99.12
410.238	118.12
410.461	115.12
410.685	129.12
410.908	118.12
411.132	124.12
411.355	125.12
411.578	130.12
411.802	128.12
412.025	98.12
412.249	123.12
412.472	124.12
412.695	127.12
412.919	129.12
413.142	129.12
413.365	138.12
413.589	128.12
413.812	115.12
414.035	121.12
414.258	108.12
414.482	133.12
414.705	124.12
414.928	131.12
415.151	118.12
415.374	113.12
415.597	124.12
415.821	123.12
416.044	122.12
416.267	133.12
416.49	122.12
416.713	104.12
416.936	113.12
417.159	108.12
417.382	125.12
417.605	112.12
417.828	122.12
418.051	119.12
418.274	128.12
418.497	115.12
418.72	132.12
418.943	133.12
419.166	115.12
419.389	131.12
419.611	126.12
419.834	116.12
420.057	136.12
420.28	137.12
420.503	142.12
420.726	123.12
420.948	117.12
421.171	122.12
421.394	117.12
421.617	107.12
421.839	125.12
422.062	126.12
422.285	113.12
422.507	128.12
422.73	128.12
422.953	137.12
423.175	130.12
423.398	109.12
423.621	129.12
423.843	148.12
424.066	149.12
424.288	127.12
424.511	117.12
424.733	108.12
424.956	136.12
425.178	136.12
425.401	141.12
425.623	140.12
425.846	123.12
426.068	143.12
426.291	127.12
426.513	120.12
426.735	122.12
426.958	130.12
427.18	143.12
427.402	154.12
427.625	145.12
427.847	137.12
428.069	135.12
428.292	126.12
428.514	111.12
428.736	123.12
428.958	113.12
429.181	132.12
429.403	131.12
429.625	120.12
429.847	113.12
430.069	125.12
430.292	113.12
430.514	105.12
430.736	122.12
430.958	136.12
431.18	113.12
431.402	123.12
431.624	100.12
431.846	115.12
432.068	121.12
432.29	118.12
432.512	126.12
432.734	153.12
432.956	117.12
433.178	121.12
433.4	119.12
433.622	102.12
433.844	123.12
434.066	129.12
434.287	123.12
434.509	106.12
434.731	117.12
434.953	120.12
435.175	111.12
435.397	123.12
435.618	116.12
435.84	122.12
436.062	121.12
436.284	116.12
436.505	124.12
436.727	113.12
436.949	115.12
437.17	112.12
437.392	119.12
437.614	113.12
437.835	117.12
438.057	119.12
438.278	135.12
438.5	159.12
438.721	147.12
438.943	131.12
439.165	126.12
439.386	113.12
439.608	117.12
439.829	116.12
440.05	113.12
440.272	116.12
440.493	132.12
440.715	147.12
440.936	132.12
441.158	122.12
441.379	125.12
441.6	147.12
441.822	124.12
442.043	125.12
442.264	116.12
442.486	127.12
442.707	106.12
442.928	121.12
443.149	128.12
443.371	127.12
443.592	125.12
443.813	123.12
444.034	127.12
444.255	123.12
444.476	118.12
444.698	120.12
444.919	130.12
445.14	245.12
445.361	183.12
445.582	141.12
445.803	121.12
446.024	136.12
446.245	123.12
446.466	121.12
446.687	121.12
446.908	102.12
447.129	133.12
447.35	112.12
447.571	111.12
447.792	109.12
448.013	119.12
448.234	113.12
448.455	130.12
448.675	123.12
448.896	124.12
449.117	121.12
449.338	117.12
449.559	141.12
449.779	125.12
450	122.12
450.221	106.12
450.442	119.12
450.662	118.12
450.883	127.12
451.104	131.12
451.324	119.12
451.545	124.12
451.766	123.12
451.986	122.12
452.207	111.12
452.428	125.12
452.648	121.12
452.869	124.12
453.089	106.12
453.31	111.12
453.53	123.12
453.751	113.12
453.971	127.12
454.192	110.12
454.412	115.12
454.633	118.12
454.853	121.12
455.073	126.12
455.294	105.12
455.514	106.12
455.734	119.12
455.955	121.12
456.175	124.12
456.395	108.12
456.616	119.12
456.836	99.12
457.056	113.12
457.276	119.12
457.497	104.12
457.717	129.12
457.937	113.12
458.157	117.12
458.377	124.12
458.598	113.12
458.818	112.12
459.038	112.12
459.258	108.12
459.478	108.12
459.698	113.12
459.918	135.12
460.138	122.12
460.358	132.12
460.578	122.12
460.798	124.12
461.018	106.12
461.238	119.12
461.458	125.12
461.678	117.12
461.898	136.12
462.118	130.12
462.338	133.12
462.558	132.12
462.777	144.12
462.997	132.12
463.217	135.12
463.437	127.12
463.657	121.12
463.876	131.12
464.096	114.12
464.316	129.12
464.536	131.12
464.755	129.12
464.975	140.12
465.195	132.12
465.414	136.12
465.634	123.12
465.854	120.12
466.073	121.12
466.293	117.12
466.512	122.12
466.732	136.12
466.951	132.12
467.171	136.12
467.391	120.12
467.61	108.12
467.829	131.12
468.049	123.12
468.268	109.12
468.488	110.12
468.707	112.12
468.927	123.12
469.146	131.12
469.365	115.12
469.585	114.12
469.804	137.12
470.023	123.12
470.243	118.12
470.462	127.12
470.681	117.12
470.901	127.12
471.12	140.12
471.339	140.12
471.558	120.12
471.777	131.12
471.997	121.12
472.216	127.12
472.435	119.12
472.654	125.12
472.873	120.12
473.092	135.12
473.311	149.12
473.53	120.12
473.749	132.12
473.968	134.12
474.187	128.12
474.406	118.12
474.625	122.12
474.844	123.12
475.063	133.12
475.282	127.12
475.501	126.12
475.72	141.12
475.939	145.12
476.158	129.12
476.377	146.12
476.596	157.12
476.814	142.12
477.033	139.12
477.252	127.12
477.471	123.12
477.69	136.12
477.908	150.12
478.127	148.12
478.346	124.12
478.564	158.12
478.783	124.12
479.002	123.12
479.22	131.12
479.439	138.12
479.658	155.12
479.876	143.12
480.095	141.12
480.313	135.12
480.532	137.12
480.751	128.12
480.969	127.12
481.188	120.12
481.406	146.12
481.624	129.12
481.843	119.12
482.061	127.12
482.28	145.12
482.498	169.12
482.717	147.12
482.935	129.12
483.153	134.12
483.372	134.12
483.59	128.12
483.808	116.12
484.027	139.12
484.245	127.12
484.463	133.12
484.681	133.12
484.9	135.12
485.118	139.12
485.336	144.12
485.554	123.12
485.772	144.12
485.99	127.12
486.209	130.12
486.427	147.12
486.645	134.12
486.863	136.12
487.081	150.12
487.299	137.12
487.517	154.12
487.735	144.12
487.953	143.12
488.171	149.12
488.389	117.12
488.607	125.12
488.825	140.12
489.043	142.12
489.261	160.12
489.479	161.12
489.696	137.12
489.914	133.12
490.132	127.12
490.35	126.12
490.568	143.12
490.786	138.12
491.003	123.12
491.221	145.12
491.439	141.12
491.657	135.12
491.874	139.12
492.092	153.12
492.31	175.12
492.527	177.12
492.745	140.12
492.963	149.12
493.18	141.12
493.398	142.12
493.615	154.12
493.833	140.12
494.05	145.12
494.268	141.12
494.485	147.12
494.703	153.12
494.92	139.12
495.138	141.12
495.355	143.12
495.573	147.12
495.79	139.12
496.008	169.12
496.225	138.12
496.442	132.12
496.66	159.12
496.877	137.12
497.094	142.12
497.312	143.12
497.529	145.12
497.746	138.12
497.963	133.12
498.181	148.12
498.398	165.12
498.615	160.12
498.832	166.12
499.049	150.12
499.267	146.12
499.484	165.12
499.701	167.12
499.918	180.12
500.135	189.12
500.352	172.12
500.569	166.12
500.786	186.12
501.003	186.12
501.22	172.12
501.437	167.12
501.654	153.12
501.871	172.12
502.088	162.12
502.305	142.12
502.522	151.12
502.739	159.12
502.956	135.12
503.172	140.12
