Data from NickelSpatula_HRD10591_16-35-03-126.txt Node
Date: Mon Jul 22 16:35:03 EDT 2019
User: cochatt
Spectrometer: HR+D1059
Trigger mode: 1
Integration Time (sec): 1.000000E-1
Scans to average: 1
Electric dark correction enabled: true
Nonlinearity correction enabled: false
Boxcar width: 0
XAxis mode: Wavelengths
Number of Pixels in Spectrum: 2048
>>>>>Begin Spectral Data<<<<<
223.165	-12.31
223.4	-12.31
223.635	-12.31
223.869	-26.31
224.104	-23.31
224.338	-18.31
224.573	-11.31
224.808	-9.31
225.042	-9.31
225.277	-14.31
225.511	-8.31
225.746	8.69
225.98	15.69
226.215	18.69
226.449	10.69
226.683	21.69
226.918	36.69
227.152	20.69
227.387	22.69
227.621	50.69
227.856	47.69
228.09	40.69
228.324	48.69
228.559	65.69
228.793	59.69
229.027	72.69
229.262	62.69
229.496	73.69
229.73	82.69
229.964	83.69
230.199	110.69
230.433	82.69
230.667	90.69
230.901	96.69
231.136	100.69
231.37	114.69
231.604	106.69
231.838	115.69
232.072	96.69
232.306	103.69
232.541	100.69
232.775	115.69
233.009	98.69
233.243	103.69
233.477	127.69
233.711	124.69
233.945	123.69
234.179	113.69
234.413	122.69
234.647	118.69
234.881	121.69
235.115	139.69
235.349	132.69
235.583	126.69
235.817	118.69
236.051	125.69
236.285	147.69
236.519	142.69
236.753	144.69
236.987	136.69
237.221	136.69
237.455	121.69
237.689	134.69
237.922	125.69
238.156	139.69
238.39	136.69
238.624	159.69
238.858	150.69
239.091	136.69
239.325	133.69
239.559	138.69
239.793	140.69
240.027	170.69
240.26	162.69
240.494	157.69
240.728	148.69
240.961	158.69
241.195	154.69
241.429	158.69
241.662	164.69
241.896	146.69
242.13	140.69
242.363	126.69
242.597	138.69
242.83	149.69
243.064	130.69
243.298	159.69
243.531	173.69
243.765	162.69
243.998	166.69
244.232	152.69
244.465	160.69
244.699	155.69
244.932	159.69
245.166	158.69
245.399	153.69
245.633	124.69
245.866	152.69
246.099	147.69
246.333	160.69
246.566	197.69
246.8	171.69
247.033	180.69
247.266	184.69
247.5	172.69
247.733	185.69
247.966	165.69
248.2	173.69
248.433	187.69
248.666	190.69
248.899	170.69
249.133	186.69
249.366	214.69
249.599	222.69
249.832	212.69
250.066	193.69
250.299	184.69
250.532	180.69
250.765	178.69
250.998	179.69
251.231	166.69
251.465	188.69
251.698	189.69
251.931	202.69
252.164	212.69
252.397	206.69
252.63	233.69
252.863	262.69
253.096	249.69
253.329	234.69
253.562	214.69
253.795	268.69
254.028	286.69
254.261	279.69
254.494	263.69
254.727	232.69
254.96	237.69
255.193	254.69
255.426	249.69
255.659	191.69
255.892	191.69
256.124	203.69
256.357	225.69
256.59	274.69
256.823	242.69
257.056	217.69
257.289	207.69
257.521	202.69
257.754	245.69
257.987	265.69
258.22	246.69
258.452	212.69
258.685	234.69
258.918	264.69
259.151	266.69
259.383	279.69
259.616	264.69
259.849	308.69
260.081	339.69
260.314	344.69
260.547	309.69
260.779	283.69
261.012	329.69
261.244	310.69
261.477	335.69
261.71	292.69
261.942	245.69
262.175	269.69
262.407	263.69
262.64	249.69
262.872	297.69
263.105	313.69
263.337	311.69
263.57	299.69
263.802	232.69
264.035	201.69
264.267	203.69
264.499	182.69
264.732	172.69
264.964	173.69
265.197	168.69
265.429	176.69
265.661	188.69
265.894	202.69
266.126	205.69
266.358	225.69
266.591	258.69
266.823	302.69
267.055	312.69
267.287	272.69
267.52	267.69
267.752	276.69
267.984	292.69
268.216	279.69
268.448	233.69
268.681	243.69
268.913	250.69
269.145	269.69
269.377	270.69
269.609	272.69
269.841	242.69
270.073	260.69
270.306	269.69
270.538	280.69
270.77	282.69
271.002	289.69
271.234	330.69
271.466	296.69
271.698	302.69
271.93	282.69
272.162	272.69
272.394	275.69
272.626	270.69
272.858	280.69
273.09	297.69
273.322	270.69
273.553	252.69
273.785	276.69
274.017	348.69
274.249	423.69
274.481	437.69
274.713	466.69
274.945	524.69
275.176	565.69
275.408	493.69
275.64	450.69
275.872	473.69
276.104	408.69
276.335	369.69
276.567	356.69
276.799	370.69
277.031	390.69
277.262	319.69
277.494	255.69
277.726	244.69
277.957	267.69
278.189	298.69
278.421	289.69
278.652	266.69
278.884	276.69
279.115	251.69
279.347	246.69
279.579	262.69
279.81	243.69
280.042	221.69
280.273	252.69
280.505	248.69
280.736	220.69
280.968	230.69
281.199	233.69
281.431	240.69
281.662	244.69
281.894	261.69
282.125	264.69
282.356	273.69
282.588	265.69
282.819	255.69
283.051	272.69
283.282	314.69
283.513	356.69
283.745	374.69
283.976	381.69
284.207	370.69
284.439	376.69
284.67	374.69
284.901	321.69
285.132	358.69
285.364	369.69
285.595	342.69
285.826	370.69
286.057	371.69
286.288	362.69
286.52	374.69
286.751	390.69
286.982	369.69
287.213	356.69
287.444	349.69
287.675	340.69
287.906	337.69
288.138	314.69
288.369	293.69
288.6	258.69
288.831	261.69
289.062	314.69
289.293	343.69
289.524	311.69
289.755	308.69
289.986	307.69
290.217	284.69
290.448	231.69
290.679	204.69
290.91	190.69
291.141	212.69
291.371	221.69
291.602	189.69
291.833	208.69
292.064	216.69
292.295	248.69
292.526	269.69
292.757	284.69
292.987	306.69
293.218	305.69
293.449	312.69
293.68	344.69
293.91	317.69
294.141	311.69
294.372	310.69
294.603	278.69
294.833	296.69
295.064	342.69
295.295	332.69
295.525	264.69
295.756	249.69
295.987	205.69
296.217	198.69
296.448	214.69
296.679	196.69
296.909	217.69
297.14	242.69
297.37	290.69
297.601	257.69
297.831	240.69
298.062	231.69
298.292	284.69
298.523	293.69
298.753	321.69
298.984	306.69
299.214	245.69
299.445	213.69
299.675	208.69
299.905	202.69
300.136	203.69
300.366	224.69
300.597	230.69
300.827	209.69
301.057	197.69
301.288	194.69
301.518	224.69
301.748	248.69
301.979	256.69
302.209	268.69
302.439	260.69
302.669	238.69
302.9	226.69
303.13	229.69
303.36	219.69
303.59	216.69
303.82	200.69
304.051	225.69
304.281	261.69
304.511	249.69
304.741	209.69
304.971	213.69
305.201	241.69
305.431	233.69
305.661	202.69
305.891	219.69
306.121	209.69
306.352	197.69
306.582	176.69
306.812	180.69
307.042	166.69
307.272	161.69
307.502	183.69
307.731	169.69
307.961	192.69
308.191	176.69
308.421	170.69
308.651	180.69
308.881	170.69
309.111	158.69
309.341	171.69
309.571	176.69
309.8	195.69
310.03	201.69
310.26	188.69
310.49	201.69
310.72	179.69
310.949	169.69
311.179	178.69
311.409	188.69
311.639	200.69
311.868	257.69
312.098	316.69
312.328	362.69
312.557	333.69
312.787	324.69
313.017	314.69
313.246	331.69
313.476	325.69
313.706	286.69
313.935	234.69
314.165	194.69
314.394	198.69
314.624	198.69
314.853	204.69
315.083	217.69
315.312	199.69
315.542	196.69
315.771	191.69
316.001	172.69
316.23	171.69
316.46	169.69
316.689	186.69
316.919	167.69
317.148	183.69
317.377	182.69
317.607	178.69
317.836	188.69
318.065	205.69
318.295	218.69
318.524	208.69
318.753	186.69
318.983	190.69
319.212	187.69
319.441	192.69
319.67	208.69
319.9	216.69
320.129	210.69
320.358	198.69
320.587	189.69
320.816	195.69
321.046	215.69
321.275	227.69
321.504	240.69
321.733	215.69
321.962	205.69
322.191	221.69
322.42	205.69
322.649	220.69
322.878	229.69
323.108	233.69
323.337	200.69
323.566	208.69
323.795	206.69
324.024	201.69
324.253	192.69
324.482	193.69
324.71	197.69
324.939	198.69
325.168	203.69
325.397	184.69
325.626	202.69
325.855	193.69
326.084	202.69
326.313	195.69
326.542	171.69
326.77	179.69
326.999	183.69
327.228	177.69
327.457	196.69
327.686	205.69
327.914	155.69
328.143	169.69
328.372	167.69
328.6	168.69
328.829	163.69
329.058	165.69
329.287	179.69
329.515	188.69
329.744	189.69
329.972	168.69
330.201	149.69
330.43	161.69
330.658	189.69
330.887	199.69
331.115	208.69
331.344	189.69
331.572	196.69
331.801	173.69
332.03	180.69
332.258	180.69
332.486	181.69
332.715	198.69
332.943	190.69
333.172	198.69
333.4	177.69
333.629	201.69
333.857	217.69
334.085	209.69
334.314	219.69
334.542	199.69
334.771	200.69
334.999	194.69
335.227	183.69
335.455	185.69
335.684	205.69
335.912	215.69
336.14	258.69
336.369	248.69
336.597	222.69
336.825	235.69
337.053	267.69
337.281	226.69
337.51	196.69
337.738	190.69
337.966	201.69
338.194	219.69
338.422	206.69
338.65	206.69
338.878	166.69
339.106	189.69
339.334	198.69
339.562	209.69
339.79	190.69
340.018	183.69
340.246	198.69
340.474	224.69
340.702	223.69
340.93	231.69
341.158	234.69
341.386	214.69
341.614	196.69
341.842	196.69
342.07	206.69
342.298	236.69
342.526	243.69
342.754	216.69
342.981	206.69
343.209	202.69
343.437	213.69
343.665	237.69
343.893	215.69
344.12	245.69
344.348	272.69
344.576	260.69
344.804	216.69
345.031	196.69
345.259	188.69
345.487	208.69
345.714	174.69
345.942	184.69
346.17	219.69
346.397	209.69
346.625	179.69
346.853	194.69
347.08	172.69
347.308	176.69
347.535	203.69
347.763	200.69
347.99	187.69
348.218	193.69
348.445	199.69
348.673	190.69
348.9	192.69
349.128	196.69
349.355	189.69
349.583	180.69
349.81	200.69
350.037	169.69
350.265	154.69
350.492	178.69
350.72	157.69
350.947	157.69
351.174	157.69
351.402	183.69
351.629	190.69
351.856	174.69
352.083	179.69
352.311	188.69
352.538	196.69
352.765	210.69
352.992	198.69
353.22	187.69
353.447	188.69
353.674	184.69
353.901	192.69
354.128	195.69
354.355	193.69
354.583	187.69
354.81	198.69
355.037	216.69
355.264	195.69
355.491	204.69
355.718	218.69
355.945	196.69
356.172	188.69
356.399	209.69
356.626	227.69
356.853	250.69
357.08	292.69
357.307	290.69
357.534	236.69
357.761	238.69
357.988	280.69
358.215	307.69
358.441	280.69
358.668	282.69
358.895	251.69
359.122	211.69
359.349	209.69
359.576	215.69
359.802	204.69
360.029	169.69
360.256	192.69
360.483	211.69
360.709	257.69
360.936	277.69
361.163	264.69
361.39	218.69
361.616	180.69
361.843	214.69
362.07	244.69
362.296	226.69
362.523	206.69
362.749	184.69
362.976	182.69
363.203	199.69
363.429	241.69
363.656	196.69
363.882	178.69
364.109	194.69
364.335	198.69
364.562	182.69
364.788	205.69
365.015	215.69
365.241	209.69
365.468	194.69
365.694	164.69
365.92	165.69
366.147	164.69
366.373	169.69
366.599	165.69
366.826	165.69
367.052	171.69
367.278	173.69
367.505	148.69
367.731	189.69
367.957	187.69
368.184	199.69
368.41	195.69
368.636	180.69
368.862	177.69
369.089	180.69
369.315	185.69
369.541	171.69
369.767	167.69
369.993	159.69
370.219	173.69
370.445	168.69
370.672	205.69
370.898	205.69
371.124	204.69
371.35	170.69
371.576	178.69
371.802	171.69
372.028	205.69
372.254	225.69
372.48	206.69
372.706	181.69
372.932	223.69
373.158	206.69
373.384	222.69
373.61	297.69
373.835	276.69
374.061	227.69
374.287	206.69
374.513	234.69
374.739	273.69
374.965	261.69
375.191	270.69
375.416	204.69
375.642	192.69
375.868	209.69
376.094	230.69
376.319	199.69
376.545	220.69
376.771	209.69
376.997	198.69
377.222	178.69
377.448	155.69
377.674	156.69
377.899	154.69
378.125	180.69
378.35	164.69
378.576	164.69
378.802	167.69
379.027	183.69
379.253	179.69
379.478	173.69
379.704	190.69
379.929	197.69
380.155	205.69
380.38	181.69
380.606	198.69
380.831	205.69
381.057	219.69
381.282	180.69
381.507	204.69
381.733	229.69
381.958	231.69
382.184	237.69
382.409	274.69
382.634	261.69
382.86	289.69
383.085	252.69
383.31	198.69
383.535	229.69
383.761	224.69
383.986	212.69
384.211	249.69
384.436	240.69
384.662	211.69
384.887	173.69
385.112	207.69
385.337	203.69
385.562	182.69
385.787	208.69
386.013	214.69
386.238	211.69
386.463	197.69
386.688	186.69
386.913	184.69
387.138	177.69
387.363	191.69
387.588	197.69
387.813	189.69
388.038	203.69
388.263	196.69
388.488	188.69
388.713	211.69
388.938	211.69
389.163	199.69
389.387	181.69
389.612	169.69
389.837	194.69
390.062	192.69
390.287	198.69
390.512	203.69
390.736	164.69
390.961	168.69
391.186	173.69
391.411	152.69
391.636	141.69
391.86	182.69
392.085	205.69
392.31	197.69
392.534	205.69
392.759	192.69
392.984	184.69
393.208	197.69
393.433	160.69
393.658	166.69
393.882	164.69
394.107	162.69
394.331	148.69
394.556	163.69
394.78	171.69
395.005	178.69
395.229	165.69
395.454	192.69
395.678	190.69
395.903	178.69
396.127	185.69
396.352	173.69
396.576	200.69
396.801	198.69
397.025	188.69
397.249	219.69
397.474	195.69
397.698	189.69
397.922	214.69
398.147	165.69
398.371	184.69
398.595	203.69
398.82	193.69
399.044	189.69
399.268	220.69
399.492	200.69
399.717	208.69
399.941	212.69
400.165	201.69
400.389	209.69
400.613	214.69
400.837	194.69
401.062	186.69
401.286	174.69
401.51	165.69
401.734	182.69
401.958	189.69
402.182	178.69
402.406	178.69
402.63	172.69
402.854	170.69
403.078	213.69
403.302	268.69
403.526	256.69
403.75	234.69
403.974	216.69
404.198	230.69
404.422	251.69
404.645	246.69
404.869	271.69
405.093	242.69
405.317	194.69
405.541	200.69
405.765	197.69
405.988	193.69
406.212	218.69
406.436	236.69
406.66	256.69
406.883	209.69
407.107	214.69
407.331	241.69
407.555	233.69
407.778	214.69
408.002	220.69
408.226	215.69
408.449	221.69
408.673	209.69
408.896	192.69
409.12	197.69
409.344	196.69
409.567	198.69
409.791	174.69
410.014	169.69
410.238	188.69
410.461	176.69
410.685	194.69
410.908	171.69
411.132	182.69
411.355	186.69
411.578	188.69
411.802	189.69
412.025	190.69
412.249	194.69
412.472	195.69
412.695	188.69
412.919	200.69
413.142	222.69
413.365	200.69
413.589	206.69
413.812	187.69
414.035	194.69
414.258	198.69
414.482	203.69
414.705	209.69
414.928	181.69
415.151	167.69
415.374	190.69
415.597	190.69
415.821	181.69
416.044	185.69
416.267	179.69
416.49	171.69
416.713	205.69
416.936	170.69
417.159	184.69
417.382	168.69
417.605	189.69
417.828	172.69
418.051	186.69
418.274	194.69
418.497	214.69
418.72	181.69
418.943	197.69
419.166	183.69
419.389	197.69
419.611	202.69
419.834	212.69
420.057	200.69
420.28	207.69
420.503	211.69
420.726	183.69
420.948	180.69
421.171	170.69
421.394	178.69
421.617	173.69
421.839	176.69
422.062	187.69
422.285	199.69
422.507	195.69
422.73	188.69
422.953	188.69
423.175	184.69
423.398	197.69
423.621	195.69
423.843	203.69
424.066	184.69
424.288	189.69
424.511	172.69
424.733	192.69
424.956	184.69
425.178	205.69
425.401	250.69
425.623	244.69
425.846	233.69
426.068	192.69
426.291	224.69
426.513	209.69
426.735	190.69
426.958	204.69
427.18	210.69
427.402	273.69
427.625	270.69
427.847	233.69
428.069	188.69
428.292	175.69
428.514	177.69
428.736	176.69
428.958	189.69
429.181	222.69
429.403	206.69
429.625	180.69
429.847	185.69
430.069	193.69
430.292	197.69
430.514	189.69
430.736	201.69
430.958	214.69
431.18	207.69
431.402	171.69
431.624	169.69
431.846	184.69
432.068	167.69
432.29	178.69
432.512	193.69
432.734	235.69
432.956	215.69
433.178	186.69
433.4	178.69
433.622	184.69
433.844	197.69
434.066	208.69
434.287	199.69
434.509	184.69
434.731	212.69
434.953	178.69
435.175	180.69
435.397	200.69
435.618	185.69
435.84	164.69
436.062	178.69
436.284	198.69
436.505	175.69
436.727	177.69
436.949	157.69
437.17	178.69
437.392	182.69
437.614	172.69
437.835	168.69
438.057	175.69
438.278	194.69
438.5	243.69
438.721	251.69
438.943	190.69
439.165	181.69
439.386	169.69
439.608	160.69
439.829	188.69
440.05	187.69
440.272	181.69
440.493	196.69
440.715	222.69
440.936	191.69
441.158	179.69
441.379	191.69
441.6	207.69
441.822	194.69
442.043	189.69
442.264	177.69
442.486	182.69
442.707	189.69
442.928	171.69
443.149	185.69
443.371	189.69
443.592	182.69
443.813	195.69
444.034	183.69
444.255	189.69
444.476	196.69
444.698	192.69
444.919	197.69
445.14	323.69
445.361	258.69
445.582	192.69
445.803	202.69
446.024	209.69
446.245	204.69
446.466	190.69
446.687	194.69
446.908	162.69
447.129	169.69
447.35	189.69
447.571	171.69
447.792	169.69
448.013	155.69
448.234	166.69
448.455	174.69
448.675	168.69
448.896	189.69
449.117	162.69
449.338	156.69
449.559	186.69
449.779	192.69
450	195.69
450.221	167.69
450.442	181.69
450.662	161.69
450.883	162.69
451.104	185.69
451.324	174.69
451.545	195.69
451.766	168.69
451.986	157.69
452.207	171.69
452.428	165.69
452.648	165.69
452.869	172.69
453.089	177.69
453.31	176.69
453.53	171.69
453.751	167.69
453.971	167.69
454.192	165.69
454.412	184.69
454.633	174.69
454.853	165.69
455.073	170.69
455.294	171.69
455.514	177.69
455.734	154.69
455.955	199.69
456.175	164.69
456.395	182.69
456.616	152.69
456.836	173.69
457.056	146.69
457.276	150.69
457.497	171.69
457.717	156.69
457.937	171.69
458.157	170.69
458.377	170.69
458.598	156.69
458.818	178.69
459.038	168.69
459.258	189.69
459.478	192.69
459.698	191.69
459.918	191.69
460.138	184.69
460.358	182.69
460.578	183.69
460.798	182.69
461.018	194.69
461.238	181.69
461.458	196.69
461.678	201.69
461.898	205.69
462.118	208.69
462.338	195.69
462.558	200.69
462.777	212.69
462.997	233.69
463.217	200.69
463.437	200.69
463.657	217.69
463.876	188.69
464.096	197.69
464.316	201.69
464.536	202.69
464.755	206.69
464.975	217.69
465.195	217.69
465.414	198.69
465.634	182.69
465.854	183.69
466.073	186.69
466.293	180.69
466.512	191.69
466.732	190.69
466.951	225.69
467.171	192.69
467.391	186.69
467.61	194.69
467.829	188.69
468.049	192.69
468.268	173.69
468.488	181.69
468.707	188.69
468.927	202.69
469.146	221.69
469.365	207.69
469.585	202.69
469.804	207.69
470.023	207.69
470.243	179.69
470.462	193.69
470.681	185.69
470.901	204.69
471.12	202.69
471.339	199.69
471.558	192.69
471.777	200.69
471.997	200.69
472.216	212.69
472.435	205.69
472.654	197.69
472.873	209.69
473.092	216.69
473.311	215.69
473.53	191.69
473.749	189.69
473.968	192.69
474.187	199.69
474.406	204.69
474.625	190.69
474.844	206.69
475.063	219.69
475.282	222.69
475.501	223.69
475.72	244.69
475.939	206.69
476.158	210.69
476.377	247.69
476.596	259.69
476.814	277.69
477.033	245.69
477.252	208.69
477.471	207.69
477.69	199.69
477.908	214.69
478.127	239.69
478.346	206.69
478.564	254.69
478.783	231.69
479.002	214.69
479.22	241.69
479.439	285.69
479.658	243.69
479.876	199.69
480.095	214.69
480.313	247.69
480.532	225.69
480.751	214.69
480.969	227.69
481.188	240.69
481.406	250.69
481.624	246.69
481.843	215.69
482.061	210.69
482.28	235.69
482.498	278.69
482.717	286.69
482.935	241.69
483.153	216.69
483.372	215.69
483.59	211.69
483.808	204.69
484.027	210.69
484.245	200.69
484.463	202.69
484.681	211.69
484.9	215.69
485.118	235.69
485.336	224.69
485.554	208.69
485.772	211.69
485.99	228.69
486.209	247.69
486.427	221.69
486.645	217.69
486.863	233.69
487.081	236.69
487.299	261.69
487.517	274.69
487.735	240.69
487.953	225.69
488.171	235.69
488.389	223.69
488.607	216.69
488.825	216.69
489.043	245.69
489.261	282.69
489.479	284.69
489.696	229.69
489.914	235.69
490.132	221.69
490.35	208.69
490.568	230.69
490.786	222.69
491.003	220.69
491.221	217.69
491.439	221.69
491.657	230.69
491.874	212.69
492.092	245.69
492.31	316.69
492.527	313.69
492.745	257.69
492.963	261.69
493.18	230.69
493.398	242.69
493.615	240.69
493.833	235.69
494.05	247.69
494.268	228.69
494.485	221.69
494.703	240.69
494.92	232.69
495.138	224.69
495.355	231.69
495.573	228.69
495.79	240.69
496.008	329.69
496.225	267.69
496.442	262.69
496.66	251.69
496.877	250.69
497.094	245.69
497.312	227.69
497.529	263.69
497.746	256.69
497.963	237.69
498.181	262.69
498.398	262.69
498.615	293.69
498.832	317.69
499.049	330.69
499.267	285.69
499.484	275.69
499.701	320.69
499.918	320.69
500.135	356.69
500.352	362.69
500.569	378.69
500.786	382.69
501.003	397.69
501.22	342.69
501.437	330.69
501.654	317.69
501.871	301.69
502.088	287.69
502.305	287.69
502.522	286.69
