Data from NickelSpatula.Lamp.E10.P2_HRD10591_11-58-42-527.txt Node
Date: Tue Jul 23 11:58:42 EDT 2019
User: cochatt
Spectrometer: HR+D1059
Trigger mode: 1
Integration Time (sec): 1.000000E-1
Scans to average: 1
Electric dark correction enabled: true
Nonlinearity correction enabled: false
Boxcar width: 0
XAxis mode: Wavelengths
Number of Pixels in Spectrum: 2048
>>>>>Begin Spectral Data<<<<<
223.165	-8.19
223.4	-8.19
223.635	-8.19
223.869	-15.19
224.104	-8.19
224.338	-5.19
224.573	-20.19
224.808	-14.19
225.042	-10.19
225.277	-7.19
225.511	-4.19
225.746	4.81
225.98	9.81
226.215	8.81
226.449	12.81
226.683	14.81
226.918	20.81
227.152	20.81
227.387	25.81
227.621	45.81
227.856	58.81
228.09	47.81
228.324	61.81
228.559	49.81
228.793	81.81
229.027	146.81
229.262	153.81
229.496	161.81
229.73	173.81
229.964	193.81
230.199	238.81
230.433	230.81
230.667	218.81
230.901	215.81
231.136	213.81
231.37	220.81
231.604	220.81
231.838	265.81
232.072	258.81
232.306	251.81
232.541	259.81
232.775	255.81
233.009	274.81
233.243	300.81
233.477	314.81
233.711	366.81
233.945	350.81
234.179	330.81
234.413	382.81
234.647	405.81
234.881	473.81
235.115	437.81
235.349	427.81
235.583	355.81
235.817	354.81
236.051	383.81
236.285	433.81
236.519	473.81
236.753	438.81
236.987	443.81
237.221	429.81
237.455	433.81
237.689	426.81
237.922	476.81
238.156	507.81
238.39	585.81
238.624	687.81
238.858	625.81
239.091	506.81
239.325	523.81
239.559	492.81
239.793	545.81
240.027	659.81
240.26	620.81
240.494	619.81
240.728	620.81
240.961	700.81
241.195	635.81
241.429	659.81
241.662	648.81
241.896	547.81
242.13	492.81
242.363	471.81
242.597	504.81
242.83	561.81
243.064	559.81
243.298	597.81
243.531	635.81
243.765	648.81
243.998	652.81
244.232	631.81
244.465	604.81
244.699	591.81
244.932	670.81
245.166	649.81
245.399	555.81
245.633	549.81
245.866	585.81
246.099	616.81
246.333	731.81
246.566	802.81
246.8	792.81
247.033	790.81
247.266	699.81
247.5	711.81
247.733	693.81
247.966	678.81
248.2	711.81
248.433	806.81
248.666	874.81
248.899	853.81
249.133	901.81
249.366	1031.81
249.599	1095.81
249.832	941.81
250.066	842.81
250.299	853.81
250.532	859.81
250.765	801.81
250.998	745.81
251.231	746.81
251.465	805.81
251.698	854.81
251.931	800.81
252.164	871.81
252.397	998.81
252.63	1116.81
252.863	1187.81
253.096	1236.81
253.329	1191.81
253.562	1140.81
253.795	1299.81
254.028	1385.81
254.261	1449.81
254.494	1311.81
254.727	1173.81
254.96	1167.81
255.193	1218.81
255.426	1157.81
255.659	881.81
255.892	804.81
256.124	870.81
256.357	1058.81
256.59	1236.81
256.823	1157.81
257.056	989.81
257.289	943.81
257.521	975.81
257.754	1167.81
257.987	1306.81
258.22	1159.81
258.452	1047.81
258.685	1199.81
258.918	1317.81
259.151	1294.81
259.383	1306.81
259.616	1518.81
259.849	1581.81
260.081	1737.81
260.314	1934.81
260.547	1502.81
260.779	1510.81
261.012	1770.81
261.244	1663.81
261.477	1692.81
261.71	1590.81
261.942	1287.81
262.175	1340.81
262.407	1293.81
262.64	1286.81
262.872	1567.81
263.105	1695.81
263.337	1754.81
263.57	1605.81
263.802	1040.81
264.035	910.81
264.267	917.81
264.499	777.81
264.732	716.81
264.964	694.81
265.197	738.81
265.429	774.81
265.661	836.81
265.894	869.81
266.126	913.81
266.358	1064.81
266.591	1270.81
266.823	1537.81
267.055	1431.81
267.287	1268.81
267.52	1299.81
267.752	1371.81
267.984	1453.81
268.216	1390.81
268.448	1161.81
268.681	1131.81
268.913	1201.81
269.145	1300.81
269.377	1329.81
269.609	1337.81
269.841	1256.81
270.073	1354.81
270.306	1388.81
270.538	1406.81
270.77	1446.81
271.002	1443.81
271.234	1509.81
271.466	1546.81
271.698	1523.81
271.93	1457.81
272.162	1511.81
272.394	1466.81
272.626	1423.81
272.858	1475.81
273.09	1507.81
273.322	1364.81
273.553	1358.81
273.785	1529.81
274.017	2034.81
274.249	2497.81
274.481	2606.81
274.713	2821.81
274.945	3207.81
275.176	3324.81
275.408	2943.81
275.64	2684.81
275.872	2702.81
276.104	2278.81
276.335	1967.81
276.567	1961.81
276.799	2041.81
277.031	2089.81
277.262	1632.81
277.494	1282.81
277.726	1253.81
277.957	1353.81
278.189	1517.81
278.421	1517.81
278.652	1482.81
278.884	1395.81
279.115	1289.81
279.347	1221.81
279.579	1225.81
279.81	1234.81
280.042	1238.81
280.273	1281.81
280.505	1149.81
280.736	1041.81
280.968	1049.81
281.199	1108.81
281.431	1248.81
281.662	1269.81
281.894	1187.81
282.125	1314.81
282.356	1394.81
282.588	1397.81
282.819	1315.81
283.051	1409.81
283.282	1737.81
283.513	1994.81
283.745	2197.81
283.976	2174.81
284.207	2084.81
284.439	2103.81
284.67	2071.81
284.901	1809.81
285.132	1991.81
285.364	2111.81
285.595	1922.81
285.826	2011.81
286.057	2133.81
286.288	2031.81
286.52	2040.81
286.751	2181.81
286.982	2147.81
287.213	1873.81
287.444	1788.81
287.675	1886.81
287.906	1890.81
288.138	1593.81
288.369	1375.81
288.6	1310.81
288.831	1376.81
289.062	1591.81
289.293	1715.81
289.524	1631.81
289.755	1658.81
289.986	1664.81
290.217	1450.81
290.448	1113.81
290.679	990.81
290.91	958.81
291.141	959.81
291.371	1014.81
291.602	1015.81
291.833	1023.81
292.064	1075.81
292.295	1255.81
292.526	1447.81
292.757	1458.81
292.987	1618.81
293.218	1566.81
293.449	1675.81
293.68	1690.81
293.91	1598.81
294.141	1651.81
294.372	1537.81
294.603	1429.81
294.833	1577.81
295.064	1852.81
295.295	1730.81
295.525	1341.81
295.756	1171.81
295.987	1027.81
296.217	1044.81
296.448	1076.81
296.679	1149.81
296.909	1270.81
297.14	1333.81
297.37	1497.81
297.601	1395.81
297.831	1193.81
298.062	1247.81
298.292	1481.81
298.523	1605.81
298.753	1812.81
298.984	1601.81
299.214	1304.81
299.445	1106.81
299.675	1069.81
299.905	1068.81
300.136	1120.81
300.366	1243.81
300.597	1189.81
300.827	1060.81
301.057	1013.81
301.288	1048.81
301.518	1150.81
301.748	1262.81
301.979	1390.81
302.209	1522.81
302.439	1534.81
302.669	1316.81
302.9	1253.81
303.13	1190.81
303.36	1137.81
303.59	1085.81
303.82	1121.81
304.051	1278.81
304.281	1373.81
304.511	1342.81
304.741	1169.81
304.971	1237.81
305.201	1331.81
305.431	1215.81
305.661	1085.81
305.891	1113.81
306.121	1116.81
306.352	994.81
306.582	891.81
306.812	863.81
307.042	884.81
307.272	812.81
307.502	833.81
307.731	878.81
307.961	924.81
308.191	877.81
308.421	798.81
308.651	817.81
308.881	787.81
309.111	791.81
309.341	847.81
309.571	917.81
309.8	947.81
310.03	986.81
310.26	1039.81
310.49	992.81
310.72	903.81
310.949	849.81
311.179	893.81
311.409	972.81
311.639	1130.81
311.868	1417.81
312.098	1855.81
312.328	2004.81
312.557	1928.81
312.787	1908.81
313.017	1689.81
313.246	1863.81
313.476	2012.81
313.706	1644.81
313.935	1357.81
314.165	1065.81
314.394	951.81
314.624	1006.81
314.853	1027.81
315.083	1069.81
315.312	1043.81
315.542	1019.81
315.771	967.81
316.001	879.81
316.23	845.81
316.46	872.81
316.689	897.81
316.919	918.81
317.148	930.81
317.377	895.81
317.607	895.81
317.836	947.81
318.065	1123.81
318.295	1257.81
318.524	1193.81
318.753	1004.81
318.983	966.81
319.212	938.81
319.441	1063.81
319.67	1158.81
319.9	1245.81
320.129	1181.81
320.358	1014.81
320.587	949.81
320.816	1039.81
321.046	1202.81
321.275	1376.81
321.504	1401.81
321.733	1322.81
321.962	1289.81
322.191	1221.81
322.42	1142.81
322.649	1170.81
322.878	1255.81
323.108	1243.81
323.337	1141.81
323.566	1131.81
323.795	1057.81
324.024	1052.81
324.253	1047.81
324.482	983.81
324.71	1117.81
324.939	1267.81
325.168	1163.81
325.397	977.81
325.626	914.81
325.855	941.81
326.084	934.81
326.313	877.81
326.542	862.81
326.77	905.81
326.999	937.81
327.228	969.81
327.457	1022.81
327.686	1032.81
327.914	899.81
328.143	847.81
328.372	846.81
328.6	865.81
328.829	917.81
329.058	912.81
329.287	907.81
329.515	938.81
329.744	909.81
329.972	837.81
330.201	794.81
330.43	867.81
330.658	960.81
330.887	1092.81
331.115	1111.81
331.344	1028.81
331.572	988.81
331.801	910.81
332.03	882.81
332.258	909.81
332.486	1007.81
332.715	1011.81
332.943	933.81
333.172	890.81
333.4	942.81
333.629	1037.81
333.857	1159.81
334.085	1159.81
334.314	1151.81
334.542	1079.81
334.771	976.81
334.999	971.81
335.227	940.81
335.455	956.81
335.684	1035.81
335.912	1222.81
336.14	1342.81
336.369	1298.81
336.597	1247.81
336.825	1408.81
337.053	1545.81
337.281	1246.81
337.51	1013.81
337.738	990.81
337.966	1079.81
338.194	1189.81
338.422	1119.81
338.65	956.81
338.878	887.81
339.106	943.81
339.334	1067.81
339.562	1132.81
339.79	1015.81
340.018	995.81
340.246	1074.81
340.474	1251.81
340.702	1306.81
340.93	1371.81
341.158	1343.81
341.386	1139.81
341.614	1158.81
341.842	1182.81
342.07	1232.81
342.298	1414.81
342.526	1444.81
342.754	1201.81
342.981	1135.81
343.209	1078.81
343.437	1177.81
343.665	1213.81
343.893	1216.81
344.12	1403.81
344.348	1643.81
344.576	1451.81
344.804	1227.81
345.031	1065.81
345.259	1013.81
345.487	1027.81
345.714	1067.81
345.942	1128.81
346.17	1218.81
346.397	1172.81
346.625	997.81
346.853	1033.81
347.08	958.81
347.308	1021.81
347.535	1175.81
347.763	1185.81
347.99	1026.81
348.218	941.81
348.445	996.81
348.673	1027.81
348.9	1007.81
349.128	1093.81
349.355	1124.81
349.583	1083.81
349.81	1066.81
350.037	975.81
350.265	862.81
350.492	808.81
350.72	833.81
350.947	870.81
351.174	893.81
351.402	993.81
351.629	1019.81
351.856	960.81
352.083	913.81
352.311	1046.81
352.538	1114.81
352.765	1193.81
352.992	1091.81
353.22	988.81
353.447	1046.81
353.674	970.81
353.901	1000.81
354.128	1003.81
354.355	1055.81
354.583	1026.81
354.81	998.81
355.037	1040.81
355.264	1030.81
355.491	1127.81
355.718	1229.81
355.945	1205.81
356.172	1099.81
356.399	1153.81
356.626	1395.81
356.853	1726.81
357.08	1797.81
357.307	1881.81
357.534	1442.81
357.761	1464.81
357.988	1831.81
358.215	2165.81
358.441	2017.81
358.668	1661.81
358.895	1565.81
359.122	1255.81
359.349	1226.81
359.576	1403.81
359.802	1111.81
360.029	985.81
360.256	1097.81
360.483	1320.81
360.709	1669.81
360.936	1740.81
361.163	1517.81
361.39	1166.81
361.616	1094.81
361.843	1274.81
362.07	1615.81
362.296	1457.81
362.523	1086.81
362.749	984.81
362.976	1012.81
363.203	1295.81
363.429	1390.81
363.656	1119.81
363.882	1025.81
364.109	1020.81
364.335	1026.81
364.562	1011.81
364.788	1180.81
365.015	1366.81
365.241	1222.81
365.468	984.81
365.694	875.81
365.92	818.81
366.147	821.81
366.373	807.81
366.599	813.81
366.826	859.81
367.052	837.81
367.278	850.81
367.505	831.81
367.731	934.81
367.957	1057.81
368.184	1070.81
368.41	1043.81
368.636	1043.81
368.862	1078.81
369.089	1046.81
369.315	950.81
369.541	935.81
369.767	917.81
369.993	874.81
370.219	891.81
370.445	927.81
370.672	1051.81
370.898	1158.81
371.124	1124.81
371.35	991.81
371.576	887.81
371.802	1009.81
372.028	1209.81
372.254	1394.81
372.48	1209.81
372.706	1063.81
372.932	1107.81
373.158	1166.81
373.384	1429.81
373.61	1905.81
373.835	1958.81
374.061	1471.81
374.287	1181.81
374.513	1422.81
374.739	1739.81
374.965	1783.81
375.191	1755.81
375.416	1201.81
375.642	1065.81
375.868	1222.81
376.094	1422.81
376.319	1198.81
376.545	1371.81
376.771	1431.81
376.997	1222.81
377.222	915.81
377.448	782.81
377.674	789.81
377.899	780.81
378.125	789.81
378.35	758.81
378.576	797.81
378.802	911.81
379.027	924.81
379.253	910.81
379.478	958.81
379.704	1106.81
379.929	1128.81
380.155	1107.81
380.38	972.81
380.606	1041.81
380.831	1160.81
381.057	1043.81
381.282	1035.81
381.507	1211.81
381.733	1502.81
381.958	1620.81
382.184	1683.81
382.409	1793.81
382.634	1769.81
382.86	1813.81
383.085	1468.81
383.31	1202.81
383.535	1251.81
383.761	1258.81
383.986	1239.81
384.211	1493.81
384.436	1419.81
384.662	1075.81
384.887	1031.81
385.112	1070.81
385.337	1092.81
385.562	1025.81
385.787	1129.81
386.013	1272.81
386.238	1293.81
386.463	1063.81
386.688	1018.81
386.913	1002.81
387.138	918.81
387.363	1006.81
387.588	1040.81
387.813	1027.81
388.038	1158.81
388.263	1022.81
388.488	996.81
388.713	1183.81
388.938	1306.81
389.163	1070.81
389.387	935.81
389.612	927.81
389.837	972.81
390.062	1021.81
390.287	1020.81
390.512	1028.81
390.736	974.81
390.961	934.81
391.186	891.81
391.411	843.81
391.636	862.81
391.86	947.81
392.085	1047.81
392.31	1037.81
392.534	991.81
392.759	967.81
392.984	1038.81
393.208	988.81
393.433	886.81
393.658	836.81
393.882	811.81
394.107	791.81
394.331	813.81
394.556	821.81
394.78	827.81
395.005	883.81
395.229	892.81
395.454	902.81
395.678	891.81
395.903	939.81
396.127	892.81
396.352	899.81
396.576	998.81
396.801	1021.81
397.025	1157.81
397.249	1182.81
397.474	964.81
397.698	913.81
397.922	1011.81
398.147	927.81
398.371	969.81
398.595	993.81
398.82	971.81
399.044	961.81
399.268	1024.81
399.492	1058.81
399.717	1083.81
399.941	1105.81
400.165	1071.81
400.389	1073.81
400.613	1082.81
400.837	1079.81
401.062	930.81
401.286	928.81
401.51	920.81
401.734	899.81
401.958	937.81
402.182	911.81
402.406	933.81
402.63	950.81
402.854	955.81
403.078	1087.81
403.302	1330.81
403.526	1358.81
403.75	1254.81
403.974	1063.81
404.198	1137.81
404.422	1297.81
404.645	1502.81
404.869	1713.81
405.093	1193.81
405.317	1013.81
405.541	996.81
405.765	1002.81
405.988	1041.81
406.212	1120.81
406.436	1335.81
406.66	1498.81
406.883	1147.81
407.107	1197.81
407.331	1409.81
407.555	1368.81
407.778	1116.81
408.002	1086.81
408.226	1067.81
408.449	1077.81
408.673	1061.81
408.896	965.81
409.12	967.81
409.344	948.81
409.567	902.81
409.791	914.81
410.014	894.81
410.238	926.81
410.461	916.81
410.685	924.81
410.908	941.81
411.132	967.81
411.355	955.81
411.578	971.81
411.802	982.81
412.025	1021.81
412.249	1005.81
412.472	980.81
412.695	989.81
412.919	983.81
413.142	984.81
413.365	1101.81
413.589	1090.81
413.812	993.81
414.035	930.81
414.258	940.81
414.482	1058.81
414.705	1107.81
414.928	942.81
415.151	911.81
415.374	884.81
415.597	956.81
415.821	938.81
416.044	911.81
416.267	906.81
416.49	894.81
416.713	883.81
416.936	867.81
417.159	869.81
417.382	919.81
417.605	899.81
417.828	920.81
418.051	939.81
418.274	945.81
418.497	967.81
418.72	963.81
418.943	987.81
419.166	1045.81
419.389	1049.81
419.611	1043.81
419.834	1057.81
420.057	1187.81
420.28	1149.81
420.503	1065.81
420.726	922.81
420.948	901.81
421.171	907.81
421.394	892.81
421.617	864.81
421.839	881.81
422.062	927.81
422.285	941.81
422.507	959.81
422.73	965.81
422.953	999.81
423.175	949.81
423.398	1006.81
423.621	1020.81
423.843	1098.81
424.066	1035.81
424.288	964.81
424.511	971.81
424.733	962.81
424.956	1001.81
425.178	1104.81
425.401	1271.81
425.623	1442.81
425.846	1169.81
426.068	1015.81
426.291	1135.81
426.513	1055.81
426.735	982.81
426.958	1025.81
427.18	1185.81
427.402	1557.81
427.625	1538.81
427.847	1232.81
428.069	944.81
428.292	940.81
428.514	935.81
428.736	890.81
428.958	961.81
429.181	1159.81
429.403	1015.81
429.625	916.81
429.847	905.81
430.069	933.81
430.292	939.81
430.514	882.81
430.736	977.81
430.958	1255.81
431.18	1139.81
431.402	862.81
431.624	837.81
431.846	821.81
432.068	818.81
432.29	840.81
432.512	972.81
432.734	1269.81
432.956	1191.81
433.178	902.81
433.4	858.81
433.622	855.81
433.844	897.81
434.066	981.81
434.287	934.81
434.509	885.81
434.731	955.81
434.953	887.81
435.175	911.81
435.397	1075.81
435.618	935.81
435.84	840.81
436.062	846.81
436.284	866.81
436.505	794.81
436.727	807.81
436.949	853.81
437.17	846.81
437.392	868.81
437.614	865.81
437.835	845.81
438.057	883.81
438.278	1021.81
438.5	1437.81
438.721	1449.81
438.943	962.81
439.165	825.81
439.386	819.81
439.608	813.81
439.829	827.81
440.05	847.81
440.272	890.81
440.493	1025.81
440.715	1274.81
440.936	1015.81
441.158	874.81
441.379	878.81
441.6	1010.81
441.822	1082.81
442.043	914.81
442.264	918.81
442.486	909.81
442.707	917.81
442.928	903.81
443.149	898.81
443.371	929.81
443.592	934.81
443.813	950.81
444.034	945.81
444.255	925.81
444.476	956.81
444.698	939.81
444.919	951.81
445.14	1089.81
445.361	1037.81
445.582	992.81
445.803	981.81
446.024	964.81
446.245	976.81
446.466	932.81
446.687	909.81
446.908	933.81
447.129	850.81
447.35	799.81
447.571	822.81
447.792	817.81
448.013	806.81
448.234	780.81
448.455	810.81
448.675	828.81
448.896	826.81
449.117	813.81
449.338	832.81
449.559	837.81
449.779	886.81
450	889.81
450.221	870.81
450.442	833.81
450.662	824.81
450.883	821.81
451.104	850.81
451.324	818.81
451.545	821.81
451.766	804.81
451.986	814.81
452.207	791.81
452.428	789.81
452.648	786.81
452.869	840.81
453.089	875.81
453.31	856.81
453.53	771.81
453.751	771.81
453.971	760.81
454.192	777.81
454.412	810.81
454.633	795.81
454.853	781.81
455.073	747.81
455.294	767.81
455.514	777.81
455.734	794.81
455.955	848.81
456.175	855.81
456.395	747.81
456.616	731.81
456.836	711.81
457.056	725.81
457.276	695.81
457.497	754.81
457.717	726.81
457.937	718.81
458.157	710.81
458.377	732.81
458.598	764.81
458.818	800.81
459.038	814.81
459.258	861.81
459.478	860.81
459.698	940.81
459.918	957.81
460.138	902.81
460.358	920.81
460.578	893.81
460.798	907.81
461.018	897.81
461.238	882.81
461.458	862.81
461.678	901.81
461.898	942.81
462.118	972.81
462.338	966.81
462.558	994.81
462.777	1025.81
462.997	1037.81
463.217	1018.81
463.437	1031.81
463.657	1054.81
463.876	1002.81
464.096	978.81
464.316	1009.81
464.536	1027.81
464.755	1035.81
464.975	1022.81
465.195	1001.81
465.414	1009.81
465.634	989.81
465.854	931.81
466.073	892.81
466.293	877.81
466.512	953.81
466.732	1034.81
466.951	1093.81
467.171	935.81
467.391	915.81
467.61	884.81
467.829	956.81
468.049	963.81
468.268	890.81
468.488	878.81
468.707	937.81
468.927	1095.81
469.146	1168.81
469.365	1079.81
469.585	994.81
469.804	1023.81
470.023	1124.81
470.243	1011.81
470.462	968.81
470.681	967.81
470.901	942.81
471.12	984.81
471.339	1010.81
471.558	960.81
471.777	965.81
471.997	1030.81
472.216	1131.81
472.435	1093.81
472.654	1002.81
472.873	1006.81
473.092	1013.81
473.311	1069.81
473.53	967.81
473.749	968.81
473.968	1035.81
474.187	1033.81
474.406	942.81
474.625	942.81
474.844	981.81
475.063	1043.81
475.282	1061.81
475.501	1105.81
475.72	1152.81
475.939	1124.81
476.158	1131.81
476.377	1277.81
476.596	1506.81
476.814	1535.81
477.033	1319.81
477.252	1076.81
477.471	1021.81
477.69	1047.81
477.908	1142.81
478.127	1143.81
478.346	1086.81
478.564	1187.81
478.783	1111.81
479.002	1142.81
479.22	1317.81
479.439	1427.81
479.658	1283.81
479.876	1181.81
480.095	1226.81
480.313	1247.81
480.532	1126.81
480.751	1133.81
480.969	1147.81
481.188	1325.81
481.406	1337.81
481.624	1236.81
481.843	1168.81
482.061	1102.81
482.28	1219.81
482.498	1507.81
482.717	1414.81
482.935	1202.81
483.153	1173.81
483.372	1115.81
483.59	1093.81
483.808	1066.81
484.027	1051.81
484.245	1047.81
484.463	1010.81
484.681	1025.81
484.9	1148.81
485.118	1227.81
485.336	1147.81
485.554	1087.81
485.772	1113.81
485.99	1201.81
486.209	1279.81
486.427	1257.81
486.645	1209.81
486.863	1292.81
487.081	1241.81
487.299	1417.81
487.517	1399.81
487.735	1254.81
487.953	1291.81
488.171	1317.81
488.389	1197.81
488.607	1132.81
488.825	1196.81
489.043	1293.81
489.261	1541.81
489.479	1606.81
489.696	1301.81
489.914	1198.81
490.132	1131.81
490.35	1134.81
490.568	1152.81
490.786	1123.81
491.003	1190.81
491.221	1208.81
491.439	1135.81
491.657	1167.81
491.874	1260.81
492.092	1547.81
492.31	1861.81
492.527	1857.81
492.745	1588.81
492.963	1373.81
493.18	1310.81
493.398	1325.81
