Data from NickelSpatula.Lamp.E5.5.P2_HRD10591_11-51-20-561.txt Node
Date: Tue Jul 23 11:51:20 EDT 2019
User: cochatt
Spectrometer: HR+D1059
Trigger mode: 1
Integration Time (sec): 1.000000E-1
Scans to average: 1
Electric dark correction enabled: true
Nonlinearity correction enabled: false
Boxcar width: 0
XAxis mode: Wavelengths
Number of Pixels in Spectrum: 2048
>>>>>Begin Spectral Data<<<<<
223.165	-23.88
223.4	-23.88
223.635	-23.88
223.869	-18.88
224.104	-4.88
224.338	-17.88
224.573	-14.88
224.808	-8.88
225.042	-5.88
225.277	-1.88
225.511	-0.88
225.746	7.12
225.98	10.12
226.215	7.12
226.449	10.12
226.683	15.12
226.918	19.12
227.152	29.12
227.387	30.12
227.621	30.12
227.856	37.12
228.09	46.12
228.324	49.12
228.559	52.12
228.793	57.12
229.027	74.12
229.262	88.12
229.496	84.12
229.73	69.12
229.964	77.12
230.199	93.12
230.433	97.12
230.667	94.12
230.901	93.12
231.136	93.12
231.37	91.12
231.604	111.12
231.838	98.12
232.072	100.12
232.306	92.12
232.541	93.12
232.775	109.12
233.009	91.12
233.243	115.12
233.477	120.12
233.711	123.12
233.945	118.12
234.179	116.12
234.413	124.12
234.647	120.12
234.881	143.12
235.115	145.12
235.349	126.12
235.583	119.12
235.817	120.12
236.051	120.12
236.285	130.12
236.519	137.12
236.753	132.12
236.987	131.12
237.221	125.12
237.455	112.12
237.689	143.12
237.922	143.12
238.156	134.12
238.39	129.12
238.624	180.12
238.858	167.12
239.091	134.12
239.325	141.12
239.559	147.12
239.793	137.12
240.027	172.12
240.26	157.12
240.494	147.12
240.728	156.12
240.961	178.12
241.195	179.12
241.429	153.12
241.662	147.12
241.896	151.12
242.13	147.12
242.363	131.12
242.597	120.12
242.83	153.12
243.064	145.12
243.298	155.12
243.531	166.12
243.765	155.12
243.998	157.12
244.232	176.12
244.465	162.12
244.699	156.12
244.932	181.12
245.166	165.12
245.399	153.12
245.633	154.12
245.866	140.12
246.099	164.12
246.333	189.12
246.566	197.12
246.8	189.12
247.033	193.12
247.266	174.12
247.5	172.12
247.733	181.12
247.966	167.12
248.2	175.12
248.433	184.12
248.666	188.12
248.899	183.12
249.133	196.12
249.366	215.12
249.599	231.12
249.832	227.12
250.066	205.12
250.299	185.12
250.532	206.12
250.765	190.12
250.998	163.12
251.231	171.12
251.465	184.12
251.698	187.12
251.931	184.12
252.164	195.12
252.397	205.12
252.63	232.12
252.863	253.12
253.096	255.12
253.329	251.12
253.562	236.12
253.795	256.12
254.028	303.12
254.261	280.12
254.494	262.12
254.727	263.12
254.96	240.12
255.193	247.12
255.426	258.12
255.659	199.12
255.892	198.12
256.124	204.12
256.357	233.12
256.59	271.12
256.823	259.12
257.056	216.12
257.289	210.12
257.521	226.12
257.754	266.12
257.987	294.12
258.22	242.12
258.452	220.12
258.685	262.12
258.918	270.12
259.151	285.12
259.383	269.12
259.616	327.12
259.849	329.12
260.081	367.12
260.314	398.12
260.547	296.12
260.779	324.12
261.012	348.12
261.244	337.12
261.477	360.12
261.71	337.12
261.942	283.12
262.175	276.12
262.407	267.12
262.64	273.12
262.872	304.12
263.105	337.12
263.337	376.12
263.57	351.12
263.802	251.12
264.035	207.12
264.267	226.12
264.499	195.12
264.732	184.12
264.964	180.12
265.197	182.12
265.429	190.12
265.661	197.12
265.894	219.12
266.126	224.12
266.358	223.12
266.591	274.12
266.823	328.12
267.055	296.12
267.287	275.12
267.52	288.12
267.752	302.12
267.984	310.12
268.216	296.12
268.448	258.12
268.681	239.12
268.913	274.12
269.145	284.12
269.377	301.12
269.609	271.12
269.841	283.12
270.073	301.12
270.306	280.12
270.538	303.12
270.77	296.12
271.002	309.12
271.234	319.12
271.466	320.12
271.698	304.12
271.93	306.12
272.162	290.12
272.394	294.12
272.626	303.12
272.858	281.12
273.09	313.12
273.322	272.12
273.553	248.12
273.785	278.12
274.017	375.12
274.249	503.12
274.481	473.12
274.713	537.12
274.945	578.12
275.176	581.12
275.408	548.12
275.64	493.12
275.872	527.12
276.104	445.12
276.335	377.12
276.567	376.12
276.799	387.12
277.031	412.12
277.262	323.12
277.494	249.12
277.726	253.12
277.957	283.12
278.189	300.12
278.421	307.12
278.652	300.12
278.884	291.12
279.115	271.12
279.347	264.12
279.579	259.12
279.81	258.12
280.042	273.12
280.273	272.12
280.505	246.12
280.736	248.12
280.968	226.12
281.199	237.12
281.431	275.12
281.662	281.12
281.894	267.12
282.125	260.12
282.356	275.12
282.588	284.12
282.819	269.12
283.051	275.12
283.282	327.12
283.513	388.12
283.745	441.12
283.976	416.12
284.207	405.12
284.439	410.12
284.67	391.12
284.901	364.12
285.132	370.12
285.364	401.12
285.595	369.12
285.826	392.12
286.057	388.12
286.288	390.12
286.52	390.12
286.751	412.12
286.982	407.12
287.213	372.12
287.444	364.12
287.675	380.12
287.906	356.12
288.138	335.12
288.369	289.12
288.6	285.12
288.831	291.12
289.062	315.12
289.293	345.12
289.524	336.12
289.755	317.12
289.986	336.12
290.217	302.12
290.448	243.12
290.679	222.12
290.91	209.12
291.141	210.12
291.371	227.12
291.602	207.12
291.833	212.12
292.064	241.12
292.295	264.12
292.526	305.12
292.757	301.12
292.987	318.12
293.218	318.12
293.449	358.12
293.68	368.12
293.91	347.12
294.141	367.12
294.372	335.12
294.603	305.12
294.833	333.12
295.064	383.12
295.295	368.12
295.525	279.12
295.756	247.12
295.987	223.12
296.217	230.12
296.448	238.12
296.679	239.12
296.909	260.12
297.14	259.12
297.37	292.12
297.601	297.12
297.831	248.12
298.062	272.12
298.292	293.12
298.523	311.12
298.753	358.12
298.984	320.12
299.214	268.12
299.445	249.12
299.675	235.12
299.905	247.12
300.136	227.12
300.366	245.12
300.597	259.12
300.827	231.12
301.057	216.12
301.288	233.12
301.518	235.12
301.748	275.12
301.979	289.12
302.209	307.12
302.439	318.12
302.669	281.12
302.9	267.12
303.13	258.12
303.36	261.12
303.59	252.12
303.82	256.12
304.051	258.12
304.281	291.12
304.511	292.12
304.741	260.12
304.971	261.12
305.201	288.12
305.431	262.12
305.661	247.12
305.891	228.12
306.121	236.12
306.352	227.12
306.582	207.12
306.812	187.12
307.042	209.12
307.272	200.12
307.502	198.12
307.731	191.12
307.961	221.12
308.191	202.12
308.421	185.12
308.651	190.12
308.881	203.12
309.111	179.12
309.341	205.12
309.571	205.12
309.8	219.12
310.03	219.12
310.26	232.12
310.49	216.12
310.72	213.12
310.949	208.12
311.179	201.12
311.409	212.12
311.639	256.12
311.868	280.12
312.098	359.12
312.328	395.12
312.557	352.12
312.787	365.12
313.017	347.12
313.246	371.12
313.476	399.12
313.706	344.12
313.935	267.12
314.165	229.12
314.394	217.12
314.624	216.12
314.853	221.12
315.083	227.12
315.312	208.12
315.542	226.12
315.771	204.12
316.001	197.12
316.23	179.12
316.46	184.12
316.689	185.12
316.919	198.12
317.148	199.12
317.377	200.12
317.607	200.12
317.836	203.12
318.065	219.12
318.295	254.12
318.524	239.12
318.753	207.12
318.983	217.12
319.212	206.12
319.441	196.12
319.67	243.12
319.9	253.12
320.129	233.12
320.358	221.12
320.587	216.12
320.816	213.12
321.046	236.12
321.275	260.12
321.504	258.12
321.733	234.12
321.962	262.12
322.191	227.12
322.42	229.12
322.649	204.12
322.878	243.12
323.108	233.12
323.337	228.12
323.566	240.12
323.795	243.12
324.024	226.12
324.253	225.12
324.482	208.12
324.71	239.12
324.939	245.12
325.168	240.12
325.397	214.12
325.626	210.12
325.855	213.12
326.084	228.12
326.313	208.12
326.542	208.12
326.77	201.12
326.999	208.12
327.228	214.12
327.457	214.12
327.686	230.12
327.914	221.12
328.143	207.12
328.372	187.12
328.6	197.12
328.829	198.12
329.058	184.12
329.287	206.12
329.515	198.12
329.744	208.12
329.972	208.12
330.201	191.12
330.43	199.12
330.658	213.12
330.887	223.12
331.115	231.12
331.344	213.12
331.572	251.12
331.801	225.12
332.03	207.12
332.258	220.12
332.486	219.12
332.715	227.12
332.943	213.12
333.172	236.12
333.4	238.12
333.629	241.12
333.857	254.12
334.085	244.12
334.314	249.12
334.542	225.12
334.771	215.12
334.999	233.12
335.227	211.12
335.455	223.12
335.684	245.12
335.912	257.12
336.14	277.12
336.369	257.12
336.597	258.12
336.825	273.12
337.053	319.12
337.281	275.12
337.51	224.12
337.738	231.12
337.966	238.12
338.194	255.12
338.422	241.12
338.65	212.12
338.878	214.12
339.106	205.12
339.334	235.12
339.562	222.12
339.79	225.12
340.018	197.12
340.246	239.12
340.474	276.12
340.702	251.12
340.93	241.12
341.158	270.12
341.386	254.12
341.614	213.12
341.842	230.12
342.07	240.12
342.298	271.12
342.526	261.12
342.754	242.12
342.981	213.12
343.209	226.12
343.437	237.12
343.665	274.12
343.893	267.12
344.12	287.12
344.348	339.12
344.576	295.12
344.804	271.12
345.031	232.12
345.259	194.12
345.487	204.12
345.714	235.12
345.942	232.12
346.17	256.12
346.397	239.12
346.625	215.12
346.853	210.12
347.08	207.12
347.308	232.12
347.535	229.12
347.763	252.12
347.99	220.12
348.218	230.12
348.445	205.12
348.673	227.12
348.9	210.12
349.128	232.12
349.355	232.12
349.583	239.12
349.81	226.12
350.037	216.12
350.265	214.12
350.492	187.12
350.72	189.12
350.947	185.12
351.174	189.12
351.402	206.12
351.629	208.12
351.856	198.12
352.083	217.12
352.311	207.12
352.538	225.12
352.765	237.12
352.992	211.12
353.22	215.12
353.447	210.12
353.674	205.12
353.901	220.12
354.128	216.12
354.355	199.12
354.583	227.12
354.81	223.12
355.037	237.12
355.264	229.12
355.491	209.12
355.718	238.12
355.945	232.12
356.172	216.12
356.399	227.12
356.626	272.12
356.853	309.12
357.08	325.12
357.307	333.12
357.534	276.12
357.761	301.12
357.988	353.12
358.215	382.12
358.441	369.12
358.668	310.12
358.895	283.12
359.122	257.12
359.349	260.12
359.576	284.12
359.802	255.12
360.029	210.12
360.256	244.12
360.483	275.12
360.709	320.12
360.936	322.12
361.163	300.12
361.39	237.12
361.616	215.12
361.843	239.12
362.07	283.12
362.296	261.12
362.523	232.12
362.749	214.12
362.976	219.12
363.203	261.12
363.429	279.12
363.656	236.12
363.882	215.12
364.109	203.12
364.335	210.12
364.562	206.12
364.788	233.12
365.015	269.12
365.241	230.12
365.468	211.12
365.694	206.12
365.92	196.12
366.147	194.12
366.373	184.12
366.599	185.12
366.826	205.12
367.052	192.12
367.278	182.12
367.505	197.12
367.731	199.12
367.957	220.12
368.184	224.12
368.41	240.12
368.636	236.12
368.862	238.12
369.089	224.12
369.315	222.12
369.541	210.12
369.767	212.12
369.993	211.12
370.219	202.12
370.445	199.12
370.672	229.12
370.898	230.12
371.124	242.12
371.35	215.12
371.576	199.12
371.802	202.12
372.028	256.12
372.254	291.12
372.48	251.12
372.706	238.12
372.932	228.12
373.158	228.12
373.384	286.12
373.61	339.12
373.835	349.12
374.061	291.12
374.287	245.12
374.513	276.12
374.739	322.12
374.965	352.12
375.191	337.12
375.416	246.12
375.642	232.12
375.868	237.12
376.094	271.12
376.319	241.12
376.545	267.12
376.771	281.12
376.997	251.12
377.222	199.12
377.448	190.12
377.674	184.12
377.899	188.12
378.125	169.12
378.35	190.12
378.576	185.12
378.802	190.12
379.027	211.12
379.253	211.12
379.478	221.12
379.704	241.12
379.929	224.12
380.155	243.12
380.38	227.12
380.606	223.12
380.831	241.12
381.057	225.12
381.282	213.12
381.507	232.12
381.733	284.12
381.958	317.12
382.184	309.12
382.409	339.12
382.634	341.12
382.86	353.12
383.085	285.12
383.31	241.12
383.535	277.12
383.761	287.12
383.986	256.12
384.211	303.12
384.436	284.12
384.662	231.12
384.887	233.12
385.112	248.12
385.337	242.12
385.562	230.12
385.787	239.12
386.013	273.12
386.238	287.12
386.463	223.12
386.688	217.12
386.913	214.12
387.138	210.12
387.363	235.12
387.588	236.12
387.813	230.12
388.038	251.12
388.263	227.12
388.488	215.12
388.713	248.12
388.938	269.12
389.163	220.12
389.387	203.12
389.612	219.12
389.837	220.12
390.062	230.12
390.287	226.12
390.512	221.12
390.736	206.12
390.961	208.12
391.186	223.12
391.411	209.12
391.636	206.12
391.86	220.12
392.085	231.12
392.31	225.12
392.534	219.12
392.759	234.12
392.984	228.12
393.208	237.12
393.433	209.12
393.658	211.12
393.882	207.12
394.107	204.12
394.331	209.12
394.556	201.12
394.78	203.12
395.005	209.12
395.229	213.12
395.454	209.12
395.678	208.12
395.903	225.12
396.127	225.12
396.352	212.12
396.576	223.12
396.801	233.12
397.025	227.12
397.249	252.12
397.474	233.12
397.698	229.12
397.922	261.12
398.147	236.12
398.371	216.12
398.595	226.12
398.82	232.12
399.044	225.12
399.268	264.12
399.492	272.12
399.717	294.12
399.941	281.12
400.165	260.12
400.389	259.12
400.613	249.12
400.837	250.12
401.062	220.12
401.286	238.12
401.51	231.12
401.734	223.12
401.958	230.12
402.182	226.12
402.406	232.12
402.63	227.12
402.854	240.12
403.078	267.12
403.302	331.12
403.526	359.12
403.75	317.12
403.974	273.12
404.198	293.12
404.422	317.12
404.645	320.12
404.869	359.12
405.093	292.12
405.317	247.12
405.541	264.12
405.765	253.12
405.988	242.12
406.212	257.12
406.436	287.12
406.66	299.12
406.883	261.12
407.107	289.12
407.331	313.12
407.555	319.12
407.778	285.12
408.002	270.12
408.226	271.12
408.449	240.12
408.673	258.12
408.896	231.12
409.12	233.12
409.344	236.12
409.567	239.12
409.791	243.12
410.014	241.12
410.238	253.12
410.461	223.12
410.685	221.12
410.908	228.12
411.132	241.12
411.355	230.12
411.578	223.12
411.802	231.12
412.025	246.12
412.249	255.12
412.472	232.12
412.695	244.12
412.919	239.12
413.142	251.12
413.365	242.12
413.589	265.12
413.812	242.12
414.035	224.12
414.258	227.12
414.482	256.12
414.705	264.12
414.928	240.12
415.151	237.12
415.374	225.12
415.597	231.12
415.821	225.12
416.044	240.12
416.267	232.12
416.49	214.12
416.713	225.12
416.936	209.12
417.159	229.12
417.382	213.12
417.605	217.12
417.828	231.12
418.051	236.12
418.274	237.12
418.497	245.12
418.72	239.12
418.943	243.12
419.166	249.12
419.389	252.12
419.611	243.12
419.834	243.12
420.057	254.12
420.28	243.12
420.503	253.12
420.726	215.12
420.948	231.12
421.171	225.12
421.394	214.12
421.617	217.12
421.839	220.12
422.062	237.12
422.285	231.12
422.507	229.12
422.73	246.12
422.953	239.12
423.175	251.12
423.398	248.12
423.621	265.12
423.843	249.12
424.066	242.12
424.288	233.12
424.511	243.12
424.733	248.12
424.956	246.12
425.178	267.12
425.401	288.12
425.623	342.12
425.846	299.12
426.068	245.12
426.291	272.12
426.513	242.12
426.735	224.12
426.958	245.12
427.18	273.12
427.402	313.12
427.625	335.12
427.847	303.12
428.069	224.12
428.292	237.12
428.514	229.12
428.736	203.12
428.958	232.12
429.181	283.12
429.403	275.12
429.625	244.12
429.847	209.12
430.069	221.12
430.292	223.12
430.514	222.12
430.736	236.12
430.958	261.12
431.18	249.12
431.402	224.12
431.624	212.12
431.846	208.12
432.068	207.12
432.29	244.12
432.512	231.12
432.734	238.12
432.956	262.12
433.178	230.12
433.4	225.12
433.622	206.12
433.844	226.12
434.066	237.12
434.287	232.12
434.509	222.12
434.731	233.12
434.953	233.12
435.175	241.12
435.397	256.12
435.618	244.12
435.84	215.12
436.062	216.12
436.284	216.12
436.505	214.12
436.727	209.12
436.949	195.12
437.17	210.12
437.392	221.12
437.614	227.12
437.835	217.12
438.057	230.12
438.278	231.12
438.5	281.12
438.721	299.12
438.943	222.12
439.165	205.12
439.386	198.12
439.608	192.12
439.829	220.12
440.05	216.12
440.272	227.12
440.493	251.12
440.715	273.12
440.936	216.12
441.158	203.12
441.379	212.12
441.6	252.12
441.822	262.12
442.043	241.12
442.264	225.12
442.486	232.12
442.707	227.12
442.928	222.12
443.149	225.12
443.371	229.12
443.592	257.12
443.813	259.12
444.034	235.12
444.255	237.12
444.476	239.12
444.698	233.12
444.919	257.12
445.14	338.12
445.361	288.12
445.582	240.12
445.803	241.12
446.024	245.12
446.245	237.12
446.466	238.12
446.687	215.12
446.908	217.12
447.129	223.12
447.35	219.12
447.571	211.12
447.792	197.12
448.013	225.12
448.234	201.12
448.455	203.12
448.675	200.12
448.896	212.12
449.117	206.12
449.338	215.12
449.559	210.12
449.779	219.12
450	220.12
450.221	222.12
450.442	203.12
450.662	207.12
450.883	209.12
451.104	203.12
451.324	214.12
451.545	231.12
451.766	221.12
451.986	213.12
452.207	206.12
452.428	216.12
452.648	218.12
452.869	221.12
453.089	236.12
453.31	216.12
453.53	204.12
453.751	199.12
453.971	194.12
454.192	206.12
454.412	219.12
454.633	194.12
454.853	197.12
455.073	192.12
455.294	195.12
455.514	198.12
455.734	200.12
455.955	215.12
456.175	216.12
456.395	208.12
456.616	186.12
456.836	187.12
457.056	208.12
457.276	200.12
457.497	187.12
457.717	177.12
457.937	196.12
458.157	191.12
458.377	196.12
458.598	205.12
458.818	187.12
459.038	228.12
459.258	219.12
459.478	228.12
459.698	231.12
459.918	241.12
460.138	231.12
460.358	222.12
460.578	230.12
460.798	225.12
461.018	235.12
461.238	219.12
461.458	235.12
461.678	247.12
461.898	253.12
462.118	249.12
462.338	264.12
462.558	243.12
462.777	257.12
462.997	286.12
463.217	304.12
463.437	288.12
463.657	287.12
463.876	283.12
464.096	258.12
464.316	271.12
464.536	269.12
464.755	258.12
464.975	274.12
465.195	265.12
465.414	263.12
465.634	217.12
465.854	249.12
466.073	225.12
466.293	209.12
466.512	242.12
466.732	245.12
466.951	255.12
467.171	242.12
467.391	221.12
467.61	226.12
467.829	219.12
468.049	240.12
468.268	213.12
468.488	225.12
468.707	226.12
468.927	237.12
469.146	269.12
469.365	254.12
469.585	229.12
469.804	255.12
470.023	277.12
470.243	240.12
470.462	225.12
470.681	241.12
470.901	239.12
471.12	240.12
471.339	235.12
471.558	216.12
471.777	220.12
471.997	231.12
472.216	258.12
472.435	264.12
472.654	249.12
472.873	237.12
473.092	253.12
473.311	257.12
473.53	237.12
473.749	235.12
473.968	245.12
474.187	236.12
474.406	236.12
474.625	221.12
474.844	241.12
475.063	248.12
475.282	240.12
475.501	247.12
475.72	281.12
475.939	258.12
476.158	262.12
476.377	311.12
476.596	316.12
476.814	323.12
477.033	286.12
477.252	259.12
477.471	239.12
477.69	243.12
477.908	247.12
478.127	273.12
478.346	242.12
478.564	267.12
478.783	255.12
479.002	265.12
479.22	314.12
479.439	336.12
479.658	299.12
479.876	272.12
480.095	292.12
480.313	300.12
480.532	287.12
480.751	287.12
480.969	264.12
481.188	310.12
481.406	300.12
481.624	270.12
481.843	270.12
482.061	253.12
482.28	264.12
482.498	312.12
482.717	330.12
482.935	289.12
483.153	256.12
483.372	275.12
483.59	237.12
483.808	253.12
484.027	248.12
484.245	244.12
484.463	251.12
484.681	251.12
484.9	264.12
485.118	266.12
485.336	263.12
485.554	256.12
485.772	255.12
485.99	273.12
486.209	299.12
486.427	284.12
486.645	287.12
486.863	292.12
487.081	275.12
487.299	309.12
487.517	289.12
487.735	280.12
487.953	277.12
488.171	279.12
488.389	283.12
488.607	246.12
488.825	261.12
489.043	293.12
489.261	296.12
489.479	312.12
489.696	291.12
489.914	281.12
490.132	276.12
490.35	241.12
490.568	258.12
490.786	262.12
491.003	260.12
491.221	249.12
491.439	237.12
491.657	261.12
491.874	278.12
492.092	302.12
492.31	364.12
492.527	338.12
492.745	328.12
492.963	279.12
493.18	265.12
493.398	289.12
493.615	303.12
493.833	263.12
494.05	277.12
494.268	277.12
494.485	280.12
494.703	253.12
494.92	281.12
495.138	279.12
495.355	292.12
495.573	287.12
495.79	303.12
496.008	359.12
496.225	325.12
496.442	284.12
496.66	286.12
496.877	315.12
497.094	293.12
497.312	293.12
497.529	305.12
497.746	307.12
497.963	305.12
498.181	335.12
498.398	342.12
498.615	353.12
498.832	374.12
499.049	375.12
499.267	381.12
499.484	389.12
499.701	409.12
499.918	445.12
500.135	486.12
500.352	523.12
500.569	552.12
500.786	537.12
501.003	525.12
501.22	488.12
501.437	420.12
501.654	390.12
501.871	362.12
502.088	367.12
502.305	346.12
502.522	343.12
