Data from NickelSpatula.Lamp.E10.P2_HRD10591_11-59-52-524.txt Node
Date: Tue Jul 23 11:59:52 EDT 2019
User: cochatt
Spectrometer: HR+D1059
Trigger mode: 1
Integration Time (sec): 1.000000E-1
Scans to average: 1
Electric dark correction enabled: true
Nonlinearity correction enabled: false
Boxcar width: 0
XAxis mode: Wavelengths
Number of Pixels in Spectrum: 2048
>>>>>Begin Spectral Data<<<<<
223.165	-19.25
223.4	-19.25
223.635	-19.25
223.869	-28.25
224.104	-11.25
224.338	-20.25
224.573	-17.25
224.808	-5.25
225.042	-10.25
225.277	-7.25
225.511	-9.25
225.746	-0.25
225.98	8.75
226.215	18.75
226.449	10.75
226.683	20.75
226.918	36.75
227.152	32.75
227.387	25.75
227.621	34.75
227.856	31.75
228.09	51.75
228.324	59.75
228.559	61.75
228.793	70.75
229.027	148.75
229.262	154.75
229.496	181.75
229.73	169.75
229.964	191.75
230.199	215.75
230.433	215.75
230.667	205.75
230.901	208.75
231.136	198.75
231.37	213.75
231.604	214.75
231.838	247.75
232.072	242.75
232.306	248.75
232.541	269.75
232.775	231.75
233.009	265.75
233.243	318.75
233.477	330.75
233.711	362.75
233.945	350.75
234.179	323.75
234.413	364.75
234.647	390.75
234.881	455.75
235.115	437.75
235.349	414.75
235.583	366.75
235.817	351.75
236.051	369.75
236.285	422.75
236.519	471.75
236.753	454.75
236.987	434.75
237.221	394.75
237.455	443.75
237.689	422.75
237.922	481.75
238.156	492.75
238.39	572.75
238.624	671.75
238.858	600.75
239.091	538.75
239.325	521.75
239.559	504.75
239.793	572.75
240.027	654.75
240.26	618.75
240.494	618.75
240.728	600.75
240.961	707.75
241.195	661.75
241.429	648.75
241.662	628.75
241.896	526.75
242.13	479.75
242.363	475.75
242.597	483.75
242.83	547.75
243.064	557.75
243.298	599.75
243.531	638.75
243.765	652.75
243.998	627.75
244.232	601.75
244.465	615.75
244.699	594.75
244.932	652.75
245.166	641.75
245.399	560.75
245.633	564.75
245.866	581.75
246.099	618.75
246.333	729.75
246.566	804.75
246.8	794.75
247.033	761.75
247.266	689.75
247.5	689.75
247.733	700.75
247.966	681.75
248.2	701.75
248.433	793.75
248.666	890.75
248.899	883.75
249.133	886.75
249.366	1016.75
249.599	1089.75
249.832	950.75
250.066	848.75
250.299	868.75
250.532	848.75
250.765	825.75
250.998	742.75
251.231	734.75
251.465	812.75
251.698	869.75
251.931	816.75
252.164	864.75
252.397	929.75
252.63	1112.75
252.863	1192.75
253.096	1259.75
253.329	1194.75
253.562	1160.75
253.795	1265.75
254.028	1372.75
254.261	1428.75
254.494	1261.75
254.727	1184.75
254.96	1144.75
255.193	1212.75
255.426	1170.75
255.659	906.75
255.892	815.75
256.124	892.75
256.357	1042.75
256.59	1246.75
256.823	1153.75
257.056	993.75
257.289	941.75
257.521	998.75
257.754	1143.75
257.987	1316.75
258.22	1113.75
258.452	1024.75
258.685	1186.75
258.918	1339.75
259.151	1292.75
259.383	1327.75
259.616	1510.75
259.849	1574.75
260.081	1727.75
260.314	1914.75
260.547	1519.75
260.779	1493.75
261.012	1760.75
261.244	1660.75
261.477	1664.75
261.71	1560.75
261.942	1367.75
262.175	1309.75
262.407	1231.75
262.64	1307.75
262.872	1561.75
263.105	1682.75
263.337	1774.75
263.57	1569.75
263.802	1050.75
264.035	917.75
264.267	886.75
264.499	805.75
264.732	711.75
264.964	733.75
265.197	752.75
265.429	807.75
265.661	820.75
265.894	872.75
266.126	917.75
266.358	1032.75
266.591	1313.75
266.823	1502.75
267.055	1438.75
267.287	1266.75
267.52	1274.75
267.752	1349.75
267.984	1476.75
268.216	1388.75
268.448	1168.75
268.681	1114.75
268.913	1224.75
269.145	1314.75
269.377	1311.75
269.609	1320.75
269.841	1235.75
270.073	1359.75
270.306	1394.75
270.538	1408.75
270.77	1413.75
271.002	1453.75
271.234	1512.75
271.466	1556.75
271.698	1486.75
271.93	1496.75
272.162	1488.75
272.394	1474.75
272.626	1418.75
272.858	1488.75
273.09	1553.75
273.322	1336.75
273.553	1320.75
273.785	1550.75
274.017	2036.75
274.249	2516.75
274.481	2605.75
274.713	2842.75
274.945	3240.75
275.176	3324.75
275.408	2937.75
275.64	2661.75
275.872	2719.75
276.104	2261.75
276.335	1974.75
276.567	1991.75
276.799	2062.75
277.031	2127.75
277.262	1649.75
277.494	1269.75
277.726	1214.75
277.957	1390.75
278.189	1525.75
278.421	1527.75
278.652	1417.75
278.884	1381.75
279.115	1328.75
279.347	1205.75
279.579	1231.75
279.81	1236.75
280.042	1226.75
280.273	1282.75
280.505	1167.75
280.736	1030.75
280.968	1028.75
281.199	1123.75
281.431	1229.75
281.662	1252.75
281.894	1165.75
282.125	1286.75
282.356	1377.75
282.588	1450.75
282.819	1274.75
283.051	1391.75
283.282	1764.75
283.513	1996.75
283.745	2207.75
283.976	2202.75
284.207	2050.75
284.439	2121.75
284.67	2061.75
284.901	1857.75
285.132	1947.75
285.364	2062.75
285.595	1920.75
285.826	2088.75
286.057	2060.75
286.288	1968.75
286.52	2048.75
286.751	2175.75
286.982	2167.75
287.213	1843.75
287.444	1776.75
287.675	1895.75
287.906	1833.75
288.138	1588.75
288.369	1394.75
288.6	1316.75
288.831	1378.75
289.062	1569.75
289.293	1721.75
289.524	1646.75
289.755	1620.75
289.986	1700.75
290.217	1456.75
290.448	1121.75
290.679	961.75
290.91	916.75
291.141	942.75
291.371	992.75
291.602	1021.75
291.833	998.75
292.064	1117.75
292.295	1234.75
292.526	1439.75
292.757	1467.75
292.987	1609.75
293.218	1597.75
293.449	1592.75
293.68	1738.75
293.91	1635.75
294.141	1660.75
294.372	1532.75
294.603	1447.75
294.833	1625.75
295.064	1858.75
295.295	1764.75
295.525	1344.75
295.756	1152.75
295.987	999.75
296.217	1042.75
296.448	1064.75
296.679	1172.75
296.909	1253.75
297.14	1389.75
297.37	1508.75
297.601	1410.75
297.831	1186.75
298.062	1298.75
298.292	1472.75
298.523	1646.75
298.753	1867.75
298.984	1652.75
299.214	1282.75
299.445	1104.75
299.675	1068.75
299.905	1090.75
300.136	1110.75
300.366	1240.75
300.597	1189.75
300.827	1076.75
301.057	992.75
301.288	1075.75
301.518	1129.75
301.748	1304.75
301.979	1361.75
302.209	1519.75
302.439	1495.75
302.669	1289.75
302.9	1257.75
303.13	1192.75
303.36	1143.75
303.59	1101.75
303.82	1157.75
304.051	1302.75
304.281	1408.75
304.511	1336.75
304.741	1176.75
304.971	1233.75
305.201	1326.75
305.431	1246.75
305.661	1122.75
305.891	1116.75
306.121	1135.75
306.352	958.75
306.582	894.75
306.812	892.75
307.042	901.75
307.272	796.75
307.502	840.75
307.731	918.75
307.961	940.75
308.191	895.75
308.421	848.75
308.651	853.75
308.881	768.75
309.111	782.75
309.341	833.75
309.571	908.75
309.8	946.75
310.03	940.75
310.26	1039.75
310.49	1017.75
310.72	900.75
310.949	859.75
311.179	882.75
311.409	956.75
311.639	1097.75
311.868	1385.75
312.098	1844.75
312.328	2016.75
312.557	1903.75
312.787	1925.75
313.017	1736.75
313.246	1841.75
313.476	2032.75
313.706	1660.75
313.935	1316.75
314.165	1061.75
314.394	967.75
314.624	1006.75
314.853	1021.75
315.083	1078.75
315.312	1012.75
315.542	1022.75
315.771	971.75
316.001	878.75
316.23	847.75
316.46	846.75
316.689	868.75
316.919	916.75
317.148	916.75
317.377	898.75
317.607	899.75
317.836	972.75
318.065	1140.75
318.295	1278.75
318.524	1176.75
318.753	1004.75
318.983	934.75
319.212	962.75
319.441	1055.75
319.67	1145.75
319.9	1253.75
320.129	1177.75
320.358	1022.75
320.587	955.75
320.816	1050.75
321.046	1223.75
321.275	1366.75
321.504	1426.75
321.733	1357.75
321.962	1285.75
322.191	1198.75
322.42	1133.75
322.649	1180.75
322.878	1280.75
323.108	1254.75
323.337	1162.75
323.566	1112.75
323.795	1082.75
324.024	1061.75
324.253	1009.75
324.482	988.75
324.71	1110.75
324.939	1245.75
325.168	1185.75
325.397	964.75
325.626	954.75
325.855	946.75
326.084	925.75
326.313	918.75
326.542	860.75
326.77	916.75
326.999	956.75
327.228	1006.75
327.457	1040.75
327.686	1037.75
327.914	909.75
328.143	848.75
328.372	840.75
328.6	871.75
328.829	888.75
329.058	914.75
329.287	930.75
329.515	949.75
329.744	910.75
329.972	862.75
330.201	816.75
330.43	836.75
330.658	968.75
330.887	1110.75
331.115	1083.75
331.344	998.75
331.572	972.75
331.801	922.75
332.03	883.75
332.258	889.75
332.486	1002.75
332.715	1013.75
332.943	918.75
333.172	919.75
333.4	965.75
333.629	1048.75
333.857	1114.75
334.085	1138.75
334.314	1150.75
334.542	1082.75
334.771	991.75
334.999	964.75
335.227	974.75
335.455	978.75
335.684	1077.75
335.912	1208.75
336.14	1353.75
336.369	1273.75
336.597	1245.75
336.825	1394.75
337.053	1600.75
337.281	1267.75
337.51	993.75
337.738	995.75
337.966	1072.75
338.194	1209.75
338.422	1154.75
338.65	1010.75
338.878	908.75
339.106	978.75
339.334	1050.75
339.562	1130.75
339.79	1026.75
340.018	995.75
340.246	1064.75
340.474	1230.75
340.702	1292.75
340.93	1404.75
341.158	1347.75
341.386	1156.75
341.614	1169.75
341.842	1156.75
342.07	1164.75
342.298	1338.75
342.526	1435.75
342.754	1230.75
342.981	1170.75
343.209	1101.75
343.437	1159.75
343.665	1218.75
343.893	1241.75
344.12	1422.75
344.348	1672.75
344.576	1489.75
344.804	1232.75
345.031	1071.75
345.259	1007.75
345.487	1032.75
345.714	1122.75
345.942	1153.75
346.17	1259.75
346.397	1163.75
346.625	1028.75
346.853	1013.75
347.08	939.75
347.308	1011.75
347.535	1140.75
347.763	1186.75
347.99	1039.75
348.218	972.75
348.445	994.75
348.673	998.75
348.9	1019.75
349.128	1089.75
349.355	1129.75
349.583	1104.75
349.81	1040.75
350.037	965.75
350.265	847.75
350.492	822.75
350.72	804.75
350.947	847.75
351.174	886.75
351.402	983.75
351.629	1033.75
351.856	988.75
352.083	924.75
352.311	1004.75
352.538	1154.75
352.765	1199.75
352.992	1088.75
353.22	994.75
353.447	1041.75
353.674	1004.75
353.901	1028.75
354.128	1044.75
354.355	1077.75
354.583	1035.75
354.81	1009.75
355.037	1053.75
355.264	1026.75
355.491	1116.75
355.718	1240.75
355.945	1190.75
356.172	1157.75
356.399	1144.75
356.626	1396.75
356.853	1712.75
357.08	1840.75
357.307	1878.75
357.534	1427.75
357.761	1474.75
357.988	1852.75
358.215	2195.75
358.441	2067.75
358.668	1745.75
358.895	1610.75
359.122	1314.75
359.349	1242.75
359.576	1392.75
359.802	1156.75
360.029	983.75
360.256	1083.75
360.483	1346.75
360.709	1745.75
360.936	1759.75
361.163	1547.75
361.39	1198.75
361.616	1096.75
361.843	1268.75
362.07	1646.75
362.296	1455.75
362.523	1125.75
362.749	996.75
362.976	990.75
363.203	1234.75
363.429	1414.75
363.656	1117.75
363.882	1036.75
364.109	1040.75
364.335	1012.75
364.562	1032.75
364.788	1190.75
365.015	1400.75
365.241	1252.75
365.468	992.75
365.694	861.75
365.92	826.75
366.147	838.75
366.373	818.75
366.599	799.75
366.826	825.75
367.052	849.75
367.278	869.75
367.505	848.75
367.731	945.75
367.957	1070.75
368.184	1104.75
368.41	1068.75
368.636	1061.75
368.862	1132.75
369.089	1080.75
369.315	934.75
369.541	929.75
369.767	919.75
369.993	855.75
370.219	898.75
370.445	946.75
370.672	1093.75
370.898	1160.75
371.124	1154.75
371.35	1004.75
371.576	931.75
371.802	1015.75
372.028	1219.75
372.254	1396.75
372.48	1235.75
372.706	1104.75
372.932	1206.75
373.158	1180.75
373.384	1458.75
373.61	1996.75
373.835	1998.75
374.061	1458.75
374.287	1217.75
374.513	1454.75
374.739	1768.75
374.965	1820.75
375.191	1798.75
375.416	1256.75
375.642	1071.75
375.868	1275.75
376.094	1443.75
376.319	1176.75
376.545	1352.75
376.771	1434.75
376.997	1234.75
377.222	901.75
377.448	770.75
377.674	761.75
377.899	734.75
378.125	742.75
378.35	764.75
378.576	819.75
378.802	908.75
379.027	972.75
379.253	930.75
379.478	975.75
379.704	1084.75
379.929	1154.75
380.155	1150.75
380.38	985.75
380.606	1044.75
380.831	1163.75
381.057	1084.75
381.282	982.75
381.507	1259.75
381.733	1570.75
381.958	1636.75
382.184	1744.75
382.409	1835.75
382.634	1786.75
382.86	1824.75
383.085	1502.75
383.31	1184.75
383.535	1302.75
383.761	1293.75
383.986	1226.75
384.211	1542.75
384.436	1445.75
384.662	1088.75
384.887	1021.75
385.112	1065.75
385.337	1099.75
385.562	1042.75
385.787	1136.75
386.013	1305.75
386.238	1328.75
386.463	1075.75
386.688	1034.75
386.913	1001.75
387.138	931.75
387.363	1006.75
387.588	1043.75
387.813	1039.75
388.038	1148.75
388.263	1024.75
388.488	982.75
388.713	1173.75
388.938	1279.75
389.163	1088.75
389.387	921.75
389.612	962.75
389.837	968.75
390.062	984.75
390.287	1047.75
390.512	1058.75
390.736	961.75
390.961	922.75
391.186	868.75
391.411	868.75
391.636	871.75
391.86	933.75
392.085	1060.75
392.31	1033.75
392.534	977.75
392.759	957.75
392.984	1017.75
393.208	1040.75
393.433	901.75
393.658	841.75
393.882	798.75
394.107	780.75
394.331	809.75
394.556	801.75
394.78	806.75
395.005	839.75
395.229	887.75
395.454	920.75
395.678	941.75
395.903	950.75
396.127	912.75
396.352	922.75
396.576	999.75
396.801	1036.75
397.025	1144.75
397.249	1182.75
397.474	969.75
397.698	929.75
397.922	984.75
398.147	942.75
398.371	946.75
398.595	1026.75
398.82	965.75
399.044	964.75
399.268	1049.75
399.492	1068.75
399.717	1080.75
399.941	1142.75
400.165	1061.75
400.389	1038.75
400.613	1096.75
400.837	1059.75
401.062	962.75
401.286	938.75
401.51	928.75
401.734	928.75
401.958	919.75
402.182	909.75
402.406	900.75
402.63	959.75
402.854	964.75
403.078	1092.75
403.302	1365.75
403.526	1372.75
403.75	1230.75
403.974	1057.75
404.198	1114.75
404.422	1266.75
404.645	1479.75
404.869	1662.75
405.093	1227.75
405.317	1045.75
405.541	1032.75
405.765	1011.75
405.988	1044.75
406.212	1135.75
406.436	1347.75
406.66	1465.75
406.883	1198.75
407.107	1251.75
407.331	1427.75
407.555	1319.75
407.778	1133.75
408.002	1104.75
408.226	1087.75
408.449	1089.75
408.673	1051.75
408.896	951.75
409.12	932.75
409.344	933.75
409.567	907.75
409.791	908.75
410.014	933.75
410.238	900.75
410.461	936.75
410.685	904.75
410.908	918.75
411.132	971.75
411.355	961.75
411.578	936.75
411.802	954.75
412.025	1023.75
412.249	1021.75
412.472	964.75
412.695	951.75
412.919	977.75
413.142	1005.75
413.365	1066.75
413.589	1097.75
413.812	964.75
414.035	914.75
414.258	958.75
414.482	1115.75
414.705	1109.75
414.928	940.75
415.151	903.75
415.374	920.75
415.597	942.75
415.821	962.75
416.044	896.75
416.267	896.75
416.49	880.75
416.713	852.75
416.936	865.75
417.159	869.75
417.382	867.75
417.605	941.75
417.828	932.75
418.051	937.75
418.274	979.75
418.497	950.75
418.72	969.75
418.943	996.75
419.166	1035.75
419.389	1073.75
419.611	1031.75
419.834	1042.75
420.057	1155.75
420.28	1166.75
420.503	1058.75
420.726	919.75
420.948	896.75
421.171	926.75
421.394	901.75
421.617	860.75
421.839	894.75
422.062	971.75
422.285	958.75
422.507	960.75
422.73	988.75
422.953	966.75
423.175	959.75
423.398	972.75
423.621	1032.75
423.843	1087.75
424.066	966.75
424.288	990.75
424.511	926.75
424.733	943.75
424.956	1016.75
425.178	1142.75
425.401	1315.75
425.623	1447.75
425.846	1223.75
426.068	1036.75
426.291	1187.75
426.513	1056.75
426.735	977.75
426.958	995.75
427.18	1189.75
427.402	1592.75
427.625	1553.75
427.847	1261.75
428.069	935.75
428.292	904.75
428.514	933.75
428.736	889.75
428.958	976.75
429.181	1157.75
429.403	1026.75
429.625	922.75
429.847	881.75
430.069	942.75
430.292	944.75
430.514	865.75
430.736	1000.75
430.958	1257.75
431.18	1150.75
431.402	886.75
431.624	832.75
431.846	857.75
432.068	810.75
432.29	849.75
432.512	948.75
432.734	1254.75
432.956	1167.75
433.178	883.75
433.4	869.75
433.622	893.75
433.844	888.75
434.066	996.75
434.287	932.75
434.509	907.75
434.731	959.75
434.953	914.75
435.175	958.75
435.397	1056.75
435.618	942.75
435.84	844.75
436.062	844.75
436.284	831.75
436.505	798.75
436.727	807.75
436.949	837.75
437.17	896.75
437.392	867.75
437.614	860.75
437.835	832.75
438.057	849.75
438.278	1004.75
438.5	1483.75
438.721	1483.75
438.943	980.75
439.165	842.75
439.386	804.75
439.608	805.75
439.829	803.75
440.05	797.75
440.272	859.75
440.493	1059.75
440.715	1318.75
440.936	1028.75
441.158	880.75
441.379	892.75
441.6	1012.75
441.822	1062.75
442.043	903.75
442.264	887.75
442.486	879.75
442.707	879.75
442.928	883.75
443.149	953.75
443.371	932.75
443.592	929.75
443.813	962.75
444.034	912.75
444.255	920.75
444.476	948.75
444.698	931.75
444.919	956.75
445.14	1044.75
445.361	1041.75
445.582	968.75
445.803	952.75
446.024	981.75
446.245	958.75
446.466	940.75
446.687	886.75
446.908	927.75
447.129	858.75
447.35	849.75
447.571	802.75
447.792	798.75
448.013	788.75
448.234	812.75
448.455	798.75
448.675	788.75
448.896	817.75
449.117	829.75
449.338	813.75
449.559	846.75
449.779	889.75
450	896.75
450.221	865.75
450.442	843.75
450.662	823.75
450.883	824.75
451.104	832.75
451.324	808.75
451.545	833.75
451.766	813.75
451.986	801.75
452.207	796.75
452.428	804.75
452.648	785.75
452.869	842.75
453.089	872.75
453.31	845.75
453.53	770.75
453.751	745.75
453.971	775.75
454.192	807.75
454.412	825.75
454.633	789.75
454.853	789.75
455.073	737.75
455.294	755.75
455.514	760.75
455.734	779.75
455.955	831.75
456.175	837.75
456.395	749.75
456.616	722.75
456.836	729.75
457.056	713.75
457.276	705.75
457.497	719.75
457.717	735.75
457.937	701.75
458.157	753.75
458.377	730.75
458.598	741.75
458.818	784.75
459.038	831.75
459.258	862.75
459.478	860.75
459.698	898.75
459.918	904.75
460.138	913.75
460.358	950.75
460.578	878.75
460.798	900.75
461.018	928.75
461.238	850.75
461.458	874.75
461.678	897.75
461.898	964.75
462.118	951.75
462.338	957.75
462.558	957.75
462.777	1048.75
462.997	1055.75
463.217	1007.75
463.437	1041.75
463.657	1045.75
463.876	996.75
464.096	1004.75
464.316	991.75
464.536	997.75
464.755	1071.75
464.975	1044.75
465.195	969.75
465.414	1002.75
465.634	977.75
465.854	976.75
466.073	884.75
466.293	888.75
466.512	981.75
466.732	1036.75
466.951	1079.75
467.171	979.75
467.391	877.75
467.61	914.75
467.829	937.75
468.049	958.75
468.268	886.75
468.488	913.75
468.707	957.75
468.927	1096.75
469.146	1175.75
469.365	1053.75
469.585	976.75
469.804	1016.75
470.023	1151.75
470.243	970.75
470.462	949.75
470.681	920.75
470.901	931.75
471.12	992.75
471.339	990.75
471.558	951.75
471.777	961.75
471.997	1053.75
472.216	1156.75
472.435	1096.75
472.654	1022.75
472.873	968.75
473.092	1039.75
473.311	1053.75
473.53	978.75
473.749	945.75
473.968	1034.75
474.187	1023.75
474.406	960.75
474.625	941.75
474.844	998.75
475.063	1056.75
475.282	1073.75
475.501	1094.75
475.72	1150.75
475.939	1142.75
476.158	1133.75
476.377	1288.75
476.596	1486.75
476.814	1568.75
477.033	1247.75
477.252	1087.75
477.471	1017.75
477.69	1040.75
477.908	1150.75
478.127	1184.75
478.346	1048.75
478.564	1192.75
478.783	1118.75
479.002	1136.75
479.22	1311.75
479.439	1434.75
479.658	1271.75
479.876	1147.75
480.095	1218.75
480.313	1274.75
480.532	1187.75
480.751	1109.75
480.969	1144.75
481.188	1300.75
481.406	1350.75
481.624	1280.75
481.843	1161.75
482.061	1094.75
482.28	1228.75
482.498	1527.75
482.717	1432.75
482.935	1220.75
483.153	1156.75
483.372	1100.75
483.59	1078.75
483.808	1077.75
484.027	1031.75
484.245	1027.75
484.463	1024.75
484.681	1034.75
484.9	1122.75
485.118	1231.75
485.336	1140.75
485.554	1082.75
485.772	1130.75
485.99	1190.75
486.209	1267.75
486.427	1256.75
486.645	1200.75
486.863	1288.75
487.081	1260.75
487.299	1406.75
487.517	1412.75
487.735	1263.75
487.953	1235.75
488.171	1308.75
488.389	1205.75
488.607	1135.75
488.825	1207.75
489.043	1295.75
489.261	1511.75
489.479	1658.75
489.696	1353.75
489.914	1211.75
490.132	1139.75
490.35	1148.75
490.568	1178.75
490.786	1110.75
491.003	1148.75
491.221	1199.75
491.439	1182.75
491.657	1186.75
491.874	1260.75
492.092	1550.75
492.31	1909.75
492.527	1824.75
492.745	1540.75
492.963	1358.75
493.18	1340.75
493.398	1369.75
