Data from NickelSpatula.Lamp.E5.5.P2_HRD10591_11-53-34-548.txt Node
Date: Tue Jul 23 11:53:34 EDT 2019
User: cochatt
Spectrometer: HR+D1059
Trigger mode: 1
Integration Time (sec): 1.000000E-1
Scans to average: 1
Electric dark correction enabled: true
Nonlinearity correction enabled: false
Boxcar width: 0
XAxis mode: Wavelengths
Number of Pixels in Spectrum: 2048
>>>>>Begin Spectral Data<<<<<
223.165	-1.62
223.4	-1.62
223.635	-1.62
223.869	-13.62
224.104	-13.62
224.338	-16.62
224.573	-27.62
224.808	-22.62
225.042	-16.62
225.277	1.38
225.511	-2.62
225.746	-2.62
225.98	16.38
226.215	3.38
226.449	17.38
226.683	27.38
226.918	28.38
227.152	23.38
227.387	31.38
227.621	35.38
227.856	46.38
228.09	51.38
228.324	48.38
228.559	56.38
228.793	57.38
229.027	74.38
229.262	70.38
229.496	75.38
229.73	86.38
229.964	92.38
230.199	90.38
230.433	108.38
230.667	76.38
230.901	100.38
231.136	110.38
231.37	98.38
231.604	99.38
231.838	110.38
232.072	105.38
232.306	116.38
232.541	113.38
232.775	101.38
233.009	103.38
233.243	119.38
233.477	102.38
233.711	113.38
233.945	102.38
234.179	110.38
234.413	129.38
234.647	121.38
234.881	141.38
235.115	133.38
235.349	120.38
235.583	107.38
235.817	116.38
236.051	117.38
236.285	128.38
236.519	137.38
236.753	131.38
236.987	145.38
237.221	119.38
237.455	143.38
237.689	131.38
237.922	143.38
238.156	148.38
238.39	157.38
238.624	158.38
238.858	148.38
239.091	145.38
239.325	145.38
239.559	146.38
239.793	154.38
240.027	185.38
240.26	162.38
240.494	155.38
240.728	149.38
240.961	182.38
241.195	170.38
241.429	162.38
241.662	156.38
241.896	141.38
242.13	133.38
242.363	139.38
242.597	125.38
242.83	157.38
243.064	165.38
243.298	170.38
243.531	166.38
243.765	172.38
243.998	155.38
244.232	175.38
244.465	175.38
244.699	149.38
244.932	157.38
245.166	163.38
245.399	140.38
245.633	143.38
245.866	165.38
246.099	165.38
246.333	182.38
246.566	192.38
246.8	173.38
247.033	179.38
247.266	180.38
247.5	170.38
247.733	174.38
247.966	190.38
248.2	182.38
248.433	170.38
248.666	203.38
248.899	201.38
249.133	215.38
249.366	240.38
249.599	225.38
249.832	209.38
250.066	215.38
250.299	208.38
250.532	182.38
250.765	182.38
250.998	183.38
251.231	165.38
251.465	181.38
251.698	196.38
251.931	197.38
252.164	203.38
252.397	216.38
252.63	237.38
252.863	260.38
253.096	268.38
253.329	243.38
253.562	273.38
253.795	259.38
254.028	309.38
254.261	313.38
254.494	273.38
254.727	258.38
254.96	260.38
255.193	279.38
255.426	249.38
255.659	205.38
255.892	186.38
256.124	217.38
256.357	236.38
256.59	282.38
256.823	259.38
257.056	224.38
257.289	210.38
257.521	216.38
257.754	266.38
257.987	317.38
258.22	283.38
258.452	249.38
258.685	269.38
258.918	294.38
259.151	278.38
259.383	310.38
259.616	341.38
259.849	350.38
260.081	374.38
260.314	411.38
260.547	327.38
260.779	345.38
261.012	367.38
261.244	341.38
261.477	371.38
261.71	325.38
261.942	303.38
262.175	301.38
262.407	279.38
262.64	273.38
262.872	308.38
263.105	368.38
263.337	372.38
263.57	342.38
263.802	241.38
264.035	229.38
264.267	220.38
264.499	179.38
264.732	167.38
264.964	175.38
265.197	195.38
265.429	212.38
265.661	188.38
265.894	208.38
266.126	220.38
266.358	237.38
266.591	292.38
266.823	324.38
267.055	310.38
267.287	295.38
267.52	280.38
267.752	307.38
267.984	337.38
268.216	305.38
268.448	268.38
268.681	276.38
268.913	276.38
269.145	301.38
269.377	275.38
269.609	292.38
269.841	276.38
270.073	298.38
270.306	335.38
270.538	318.38
270.77	317.38
271.002	339.38
271.234	323.38
271.466	340.38
271.698	330.38
271.93	315.38
272.162	302.38
272.394	320.38
272.626	299.38
272.858	320.38
273.09	322.38
273.322	286.38
273.553	277.38
273.785	308.38
274.017	386.38
274.249	464.38
274.481	478.38
274.713	540.38
274.945	626.38
275.176	639.38
275.408	573.38
275.64	525.38
275.872	527.38
276.104	480.38
276.335	402.38
276.567	409.38
276.799	422.38
277.031	439.38
277.262	341.38
277.494	262.38
277.726	262.38
277.957	268.38
278.189	314.38
278.421	304.38
278.652	320.38
278.884	301.38
279.115	282.38
279.347	273.38
279.579	258.38
279.81	282.38
280.042	275.38
280.273	291.38
280.505	260.38
280.736	253.38
280.968	241.38
281.199	260.38
281.431	286.38
281.662	260.38
281.894	278.38
282.125	267.38
282.356	296.38
282.588	305.38
282.819	287.38
283.051	292.38
283.282	347.38
283.513	397.38
283.745	454.38
283.976	450.38
284.207	391.38
284.439	430.38
284.67	408.38
284.901	365.38
285.132	393.38
285.364	428.38
285.595	381.38
285.826	409.38
286.057	430.38
286.288	392.38
286.52	407.38
286.751	452.38
286.982	431.38
287.213	400.38
287.444	361.38
287.675	393.38
287.906	406.38
288.138	341.38
288.369	297.38
288.6	285.38
288.831	325.38
289.062	344.38
289.293	373.38
289.524	363.38
289.755	353.38
289.986	345.38
290.217	324.38
290.448	263.38
290.679	232.38
290.91	212.38
291.141	211.38
291.371	223.38
291.602	221.38
291.833	231.38
292.064	252.38
292.295	281.38
292.526	297.38
292.757	312.38
292.987	340.38
293.218	358.38
293.449	356.38
293.68	376.38
293.91	367.38
294.141	372.38
294.372	358.38
294.603	313.38
294.833	346.38
295.064	389.38
295.295	395.38
295.525	319.38
295.756	274.38
295.987	235.38
296.217	230.38
296.448	247.38
296.679	237.38
296.909	286.38
297.14	293.38
297.37	313.38
297.601	289.38
297.831	266.38
298.062	280.38
298.292	292.38
298.523	337.38
298.753	377.38
298.984	318.38
299.214	304.38
299.445	258.38
299.675	261.38
299.905	244.38
300.136	253.38
300.366	250.38
300.597	221.38
300.827	229.38
301.057	213.38
301.288	227.38
301.518	251.38
301.748	263.38
301.979	295.38
302.209	317.38
302.439	305.38
302.669	295.38
302.9	261.38
303.13	250.38
303.36	261.38
303.59	240.38
303.82	274.38
304.051	274.38
304.281	292.38
304.511	280.38
304.741	251.38
304.971	257.38
305.201	281.38
305.431	276.38
305.661	263.38
305.891	227.38
306.121	228.38
306.352	219.38
306.582	206.38
306.812	187.38
307.042	212.38
307.272	191.38
307.502	199.38
307.731	200.38
307.961	226.38
308.191	200.38
308.421	190.38
308.651	176.38
308.881	195.38
309.111	181.38
309.341	194.38
309.571	207.38
309.8	222.38
310.03	215.38
310.26	228.38
310.49	203.38
310.72	193.38
310.949	208.38
311.179	222.38
311.409	198.38
311.639	231.38
311.868	280.38
312.098	379.38
312.328	401.38
312.557	393.38
312.787	377.38
313.017	343.38
313.246	354.38
313.476	428.38
313.706	341.38
313.935	285.38
314.165	243.38
314.394	218.38
314.624	222.38
314.853	229.38
315.083	242.38
315.312	229.38
315.542	224.38
315.771	226.38
316.001	192.38
316.23	206.38
316.46	181.38
316.689	201.38
316.919	193.38
317.148	192.38
317.377	206.38
317.607	210.38
317.836	220.38
318.065	244.38
318.295	257.38
318.524	263.38
318.753	213.38
318.983	206.38
319.212	212.38
319.441	222.38
319.67	237.38
319.9	269.38
320.129	262.38
320.358	218.38
320.587	217.38
320.816	226.38
321.046	252.38
321.275	271.38
321.504	274.38
321.733	267.38
321.962	251.38
322.191	254.38
322.42	236.38
322.649	229.38
322.878	256.38
323.108	249.38
323.337	227.38
323.566	237.38
323.795	235.38
324.024	234.38
324.253	216.38
324.482	213.38
324.71	230.38
324.939	268.38
325.168	253.38
325.397	226.38
325.626	215.38
325.855	214.38
326.084	219.38
326.313	209.38
326.542	210.38
326.77	208.38
326.999	224.38
327.228	214.38
327.457	235.38
327.686	239.38
327.914	206.38
328.143	190.38
328.372	184.38
328.6	185.38
328.829	198.38
329.058	205.38
329.287	209.38
329.515	208.38
329.744	193.38
329.972	201.38
330.201	188.38
330.43	207.38
330.658	221.38
330.887	231.38
331.115	222.38
331.344	211.38
331.572	217.38
331.801	194.38
332.03	220.38
332.258	209.38
332.486	226.38
332.715	234.38
332.943	206.38
333.172	208.38
333.4	215.38
333.629	220.38
333.857	264.38
334.085	252.38
334.314	259.38
334.542	251.38
334.771	236.38
334.999	219.38
335.227	226.38
335.455	219.38
335.684	241.38
335.912	263.38
336.14	302.38
336.369	291.38
336.597	276.38
336.825	311.38
337.053	326.38
337.281	287.38
337.51	209.38
337.738	217.38
337.966	223.38
338.194	258.38
338.422	233.38
338.65	208.38
338.878	208.38
339.106	202.38
339.334	234.38
339.562	234.38
339.79	240.38
340.018	221.38
340.246	241.38
340.474	238.38
340.702	268.38
340.93	277.38
341.158	275.38
341.386	235.38
341.614	226.38
341.842	227.38
342.07	258.38
342.298	310.38
342.526	278.38
342.754	255.38
342.981	234.38
343.209	226.38
343.437	247.38
343.665	262.38
343.893	262.38
344.12	319.38
344.348	371.38
344.576	309.38
344.804	257.38
345.031	234.38
345.259	219.38
345.487	209.38
345.714	229.38
345.942	271.38
346.17	277.38
346.397	257.38
346.625	237.38
346.853	228.38
347.08	227.38
347.308	219.38
347.535	251.38
347.763	284.38
347.99	236.38
348.218	224.38
348.445	225.38
348.673	220.38
348.9	224.38
349.128	239.38
349.355	235.38
349.583	242.38
349.81	235.38
350.037	200.38
350.265	202.38
350.492	195.38
350.72	178.38
350.947	196.38
351.174	209.38
351.402	217.38
351.629	208.38
351.856	196.38
352.083	197.38
352.311	220.38
352.538	239.38
352.765	253.38
352.992	250.38
353.22	218.38
353.447	223.38
353.674	203.38
353.901	212.38
354.128	211.38
354.355	205.38
354.583	215.38
354.81	223.38
355.037	235.38
355.264	222.38
355.491	232.38
355.718	251.38
355.945	243.38
356.172	234.38
356.399	226.38
356.626	269.38
356.853	337.38
357.08	351.38
357.307	368.38
357.534	305.38
357.761	295.38
357.988	366.38
358.215	435.38
358.441	375.38
358.668	354.38
358.895	294.38
359.122	256.38
359.349	297.38
359.576	302.38
359.802	256.38
360.029	222.38
360.256	241.38
360.483	277.38
360.709	350.38
360.936	348.38
361.163	316.38
361.39	224.38
361.616	226.38
361.843	252.38
362.07	317.38
362.296	267.38
362.523	242.38
362.749	214.38
362.976	216.38
363.203	247.38
363.429	267.38
363.656	234.38
363.882	217.38
364.109	228.38
364.335	230.38
364.562	233.38
364.788	234.38
365.015	274.38
365.241	261.38
365.468	228.38
365.694	189.38
365.92	188.38
366.147	208.38
366.373	192.38
366.599	194.38
366.826	192.38
367.052	203.38
367.278	201.38
367.505	206.38
367.731	208.38
367.957	213.38
368.184	233.38
368.41	201.38
368.636	230.38
368.862	226.38
369.089	227.38
369.315	198.38
369.541	210.38
369.767	210.38
369.993	196.38
370.219	216.38
370.445	213.38
370.672	233.38
370.898	259.38
371.124	244.38
371.35	237.38
371.576	216.38
371.802	225.38
372.028	255.38
372.254	285.38
372.48	275.38
372.706	266.38
372.932	250.38
373.158	236.38
373.384	279.38
373.61	363.38
373.835	350.38
374.061	283.38
374.287	262.38
374.513	315.38
374.739	346.38
374.965	359.38
375.191	359.38
375.416	267.38
375.642	234.38
375.868	255.38
376.094	291.38
376.319	254.38
376.545	273.38
376.771	293.38
376.997	258.38
377.222	215.38
377.448	192.38
377.674	185.38
377.899	196.38
378.125	169.38
378.35	186.38
378.576	207.38
378.802	186.38
379.027	216.38
379.253	215.38
379.478	209.38
379.704	250.38
379.929	237.38
380.155	252.38
380.38	213.38
380.606	226.38
380.831	262.38
381.057	239.38
381.282	218.38
381.507	261.38
381.733	307.38
381.958	320.38
382.184	333.38
382.409	354.38
382.634	366.38
382.86	368.38
383.085	312.38
383.31	267.38
383.535	276.38
383.761	283.38
383.986	273.38
384.211	316.38
384.436	309.38
384.662	246.38
384.887	256.38
385.112	251.38
385.337	267.38
385.562	228.38
385.787	267.38
386.013	285.38
386.238	279.38
386.463	254.38
386.688	247.38
386.913	234.38
387.138	219.38
387.363	227.38
387.588	231.38
387.813	227.38
388.038	262.38
388.263	244.38
388.488	234.38
388.713	265.38
388.938	284.38
389.163	223.38
389.387	221.38
389.612	209.38
389.837	223.38
390.062	205.38
390.287	235.38
390.512	229.38
390.736	225.38
390.961	214.38
391.186	207.38
391.411	214.38
391.636	215.38
391.86	242.38
392.085	254.38
392.31	245.38
392.534	229.38
392.759	230.38
392.984	240.38
393.208	241.38
393.433	220.38
393.658	198.38
393.882	197.38
394.107	202.38
394.331	191.38
394.556	213.38
394.78	205.38
395.005	207.38
395.229	204.38
395.454	200.38
395.678	204.38
395.903	229.38
396.127	194.38
396.352	209.38
396.576	233.38
396.801	226.38
397.025	246.38
397.249	267.38
397.474	228.38
397.698	223.38
397.922	220.38
398.147	214.38
398.371	215.38
398.595	237.38
398.82	218.38
399.044	217.38
399.268	236.38
399.492	279.38
399.717	297.38
399.941	280.38
400.165	255.38
400.389	237.38
400.613	256.38
400.837	249.38
401.062	211.38
401.286	221.38
401.51	209.38
401.734	210.38
401.958	222.38
402.182	230.38
402.406	220.38
402.63	234.38
402.854	257.38
403.078	290.38
403.302	365.38
403.526	379.38
403.75	320.38
403.974	289.38
404.198	281.38
404.422	315.38
404.645	330.38
404.869	350.38
405.093	282.38
405.317	252.38
405.541	256.38
405.765	240.38
405.988	256.38
406.212	269.38
406.436	308.38
406.66	318.38
406.883	291.38
407.107	273.38
407.331	310.38
407.555	305.38
407.778	288.38
408.002	257.38
408.226	273.38
408.449	250.38
408.673	247.38
408.896	241.38
409.12	234.38
409.344	231.38
409.567	238.38
409.791	237.38
410.014	222.38
410.238	223.38
410.461	208.38
410.685	230.38
410.908	229.38
411.132	253.38
411.355	240.38
411.578	235.38
411.802	244.38
412.025	219.38
412.249	229.38
412.472	240.38
412.695	225.38
412.919	226.38
413.142	231.38
413.365	266.38
413.589	251.38
413.812	251.38
414.035	233.38
414.258	250.38
414.482	253.38
414.705	278.38
414.928	236.38
415.151	230.38
415.374	236.38
415.597	222.38
415.821	222.38
416.044	217.38
416.267	236.38
416.49	218.38
416.713	230.38
416.936	240.38
417.159	230.38
417.382	212.38
417.605	235.38
417.828	224.38
418.051	222.38
418.274	215.38
418.497	228.38
418.72	236.38
418.943	233.38
419.166	236.38
419.389	240.38
419.611	234.38
419.834	248.38
420.057	265.38
420.28	249.38
420.503	240.38
420.726	237.38
420.948	221.38
421.171	219.38
421.394	221.38
421.617	208.38
421.839	218.38
422.062	214.38
422.285	229.38
422.507	230.38
422.73	215.38
422.953	246.38
423.175	232.38
423.398	252.38
423.621	267.38
423.843	273.38
424.066	260.38
424.288	215.38
424.511	212.38
424.733	215.38
424.956	242.38
425.178	263.38
425.401	294.38
425.623	332.38
425.846	283.38
426.068	245.38
426.291	261.38
426.513	245.38
426.735	234.38
426.958	251.38
427.18	266.38
427.402	342.38
427.625	360.38
427.847	305.38
428.069	233.38
428.292	227.38
428.514	236.38
428.736	223.38
428.958	263.38
429.181	299.38
429.403	255.38
429.625	216.38
429.847	210.38
430.069	224.38
430.292	193.38
430.514	222.38
430.736	228.38
430.958	262.38
431.18	240.38
431.402	226.38
431.624	206.38
431.846	213.38
432.068	214.38
432.29	199.38
432.512	233.38
432.734	260.38
432.956	263.38
433.178	222.38
433.4	207.38
433.622	221.38
433.844	225.38
434.066	227.38
434.287	237.38
434.509	229.38
434.731	254.38
434.953	235.38
435.175	254.38
435.397	268.38
435.618	251.38
435.84	220.38
436.062	215.38
436.284	221.38
436.505	216.38
436.727	213.38
436.949	187.38
437.17	209.38
437.392	221.38
437.614	199.38
437.835	217.38
438.057	235.38
438.278	234.38
438.5	290.38
438.721	317.38
438.943	219.38
439.165	217.38
439.386	210.38
439.608	213.38
439.829	195.38
440.05	215.38
440.272	219.38
440.493	256.38
440.715	279.38
440.936	253.38
441.158	221.38
441.379	218.38
441.6	239.38
441.822	257.38
442.043	236.38
442.264	226.38
442.486	226.38
442.707	231.38
442.928	215.38
443.149	245.38
443.371	246.38
443.592	252.38
443.813	244.38
444.034	244.38
444.255	249.38
444.476	245.38
444.698	238.38
444.919	261.38
445.14	352.38
445.361	285.38
445.582	243.38
445.803	249.38
446.024	242.38
446.245	245.38
446.466	221.38
446.687	207.38
446.908	214.38
447.129	207.38
447.35	224.38
447.571	220.38
447.792	204.38
448.013	200.38
448.234	203.38
448.455	195.38
448.675	204.38
448.896	202.38
449.117	203.38
449.338	204.38
449.559	218.38
449.779	212.38
450	225.38
450.221	207.38
450.442	207.38
450.662	214.38
450.883	203.38
451.104	196.38
451.324	212.38
451.545	214.38
451.766	227.38
451.986	199.38
452.207	212.38
452.428	208.38
452.648	224.38
452.869	215.38
453.089	230.38
453.31	227.38
453.53	205.38
453.751	209.38
453.971	210.38
454.192	206.38
454.412	186.38
454.633	197.38
454.853	195.38
455.073	198.38
455.294	188.38
455.514	191.38
455.734	217.38
455.955	203.38
456.175	208.38
456.395	167.38
456.616	194.38
456.836	191.38
457.056	186.38
457.276	173.38
457.497	182.38
457.717	197.38
457.937	202.38
458.157	175.38
458.377	198.38
458.598	180.38
458.818	212.38
459.038	204.38
459.258	214.38
459.478	222.38
459.698	222.38
459.918	214.38
460.138	239.38
460.358	230.38
460.578	211.38
460.798	230.38
461.018	234.38
461.238	220.38
461.458	233.38
461.678	237.38
461.898	249.38
462.118	238.38
462.338	233.38
462.558	251.38
462.777	260.38
462.997	293.38
463.217	294.38
463.437	283.38
463.657	255.38
463.876	268.38
464.096	261.38
464.316	257.38
464.536	254.38
464.755	267.38
464.975	277.38
465.195	255.38
465.414	247.38
465.634	230.38
465.854	238.38
466.073	235.38
466.293	216.38
466.512	235.38
466.732	249.38
466.951	231.38
467.171	249.38
467.391	220.38
467.61	222.38
467.829	233.38
468.049	226.38
468.268	217.38
468.488	206.38
468.707	249.38
468.927	251.38
469.146	277.38
469.365	245.38
469.585	234.38
469.804	252.38
470.023	261.38
470.243	254.38
470.462	233.38
470.681	228.38
470.901	235.38
471.12	233.38
471.339	246.38
471.558	217.38
471.777	205.38
471.997	236.38
472.216	272.38
472.435	262.38
472.654	253.38
472.873	221.38
473.092	246.38
473.311	259.38
473.53	243.38
473.749	231.38
473.968	234.38
474.187	223.38
474.406	225.38
474.625	222.38
474.844	239.38
475.063	237.38
475.282	251.38
475.501	265.38
475.72	278.38
475.939	265.38
476.158	269.38
476.377	298.38
476.596	344.38
476.814	353.38
477.033	297.38
477.252	259.38
477.471	246.38
477.69	245.38
477.908	255.38
478.127	274.38
478.346	251.38
478.564	291.38
478.783	259.38
479.002	269.38
479.22	306.38
479.439	310.38
479.658	294.38
479.876	276.38
480.095	291.38
480.313	298.38
480.532	274.38
480.751	251.38
480.969	264.38
481.188	280.38
481.406	287.38
481.624	290.38
481.843	250.38
482.061	254.38
482.28	291.38
482.498	357.38
482.717	318.38
482.935	280.38
483.153	257.38
483.372	259.38
483.59	258.38
483.808	256.38
484.027	274.38
484.245	253.38
484.463	253.38
484.681	258.38
484.9	255.38
485.118	277.38
485.336	265.38
485.554	249.38
485.772	251.38
485.99	274.38
486.209	300.38
486.427	305.38
486.645	293.38
486.863	302.38
487.081	274.38
487.299	320.38
487.517	301.38
487.735	283.38
487.953	269.38
488.171	298.38
488.389	280.38
488.607	271.38
488.825	273.38
489.043	294.38
489.261	314.38
489.479	319.38
489.696	300.38
489.914	258.38
490.132	254.38
490.35	267.38
490.568	265.38
490.786	273.38
491.003	276.38
491.221	256.38
491.439	224.38
491.657	251.38
491.874	255.38
492.092	316.38
492.31	380.38
492.527	373.38
492.745	327.38
492.963	299.38
493.18	283.38
493.398	285.38
493.615	294.38
493.833	281.38
494.05	297.38
494.268	281.38
494.485	301.38
494.703	265.38
494.92	254.38
495.138	256.38
495.355	260.38
495.573	276.38
495.79	294.38
496.008	377.38
496.225	329.38
496.442	292.38
496.66	287.38
496.877	320.38
497.094	301.38
497.312	272.38
497.529	281.38
497.746	302.38
497.963	301.38
498.181	334.38
498.398	358.38
498.615	360.38
498.832	369.38
499.049	388.38
499.267	358.38
499.484	368.38
499.701	400.38
499.918	420.38
500.135	493.38
500.352	503.38
500.569	531.38
500.786	539.38
501.003	502.38
501.22	457.38
501.437	418.38
501.654	392.38
501.871	370.38
502.088	370.38
502.305	341.38
502.522	341.38
