Data from NickelSpatula.Lamp.E10.P2_HRD10591_11-58-23-528.txt Node
Date: Tue Jul 23 11:58:23 EDT 2019
User: cochatt
Spectrometer: HR+D1059
Trigger mode: 1
Integration Time (sec): 1.000000E-1
Scans to average: 1
Electric dark correction enabled: true
Nonlinearity correction enabled: false
Boxcar width: 0
XAxis mode: Wavelengths
Number of Pixels in Spectrum: 2048
>>>>>Begin Spectral Data<<<<<
223.165	0.25
223.4	0.25
223.635	0.25
223.869	-18.75
224.104	-10.75
224.338	-7.75
224.573	-7.75
224.808	2.25
225.042	-1.75
225.277	-16.75
225.511	-16.75
225.746	4.25
225.98	3.25
226.215	5.25
226.449	4.25
226.683	7.25
226.918	28.25
227.152	25.25
227.387	34.25
227.621	39.25
227.856	42.25
228.09	42.25
228.324	47.25
228.559	49.25
228.793	86.25
229.027	138.25
229.262	156.25
229.496	164.25
229.73	159.25
229.964	190.25
230.199	204.25
230.433	203.25
230.667	212.25
230.901	211.25
231.136	195.25
231.37	223.25
231.604	255.25
231.838	248.25
232.072	270.25
232.306	240.25
232.541	257.25
232.775	250.25
233.009	287.25
233.243	311.25
233.477	312.25
233.711	352.25
233.945	352.25
234.179	342.25
234.413	378.25
234.647	390.25
234.881	460.25
235.115	432.25
235.349	405.25
235.583	358.25
235.817	356.25
236.051	378.25
236.285	420.25
236.519	468.25
236.753	430.25
236.987	405.25
237.221	428.25
237.455	408.25
237.689	432.25
237.922	469.25
238.156	469.25
238.39	541.25
238.624	684.25
238.858	619.25
239.091	495.25
239.325	518.25
239.559	478.25
239.793	543.25
240.027	672.25
240.26	599.25
240.494	585.25
240.728	598.25
240.961	706.25
241.195	637.25
241.429	633.25
241.662	615.25
241.896	539.25
242.13	501.25
242.363	442.25
242.597	471.25
242.83	524.25
243.064	546.25
243.298	583.25
243.531	634.25
243.765	618.25
243.998	634.25
244.232	602.25
244.465	596.25
244.699	596.25
244.932	648.25
245.166	621.25
245.399	556.25
245.633	547.25
245.866	579.25
246.099	630.25
246.333	708.25
246.566	781.25
246.8	754.25
247.033	740.25
247.266	700.25
247.5	697.25
247.733	697.25
247.966	677.25
248.2	682.25
248.433	778.25
248.666	842.25
248.899	879.25
249.133	882.25
249.366	979.25
249.599	1079.25
249.832	950.25
250.066	814.25
250.299	827.25
250.532	809.25
250.765	823.25
250.998	738.25
251.231	726.25
251.465	775.25
251.698	832.25
251.931	822.25
252.164	850.25
252.397	953.25
252.63	1045.25
252.863	1156.25
253.096	1222.25
253.329	1159.25
253.562	1112.25
253.795	1262.25
254.028	1366.25
254.261	1382.25
254.494	1233.25
254.727	1127.25
254.96	1121.25
255.193	1251.25
255.426	1138.25
255.659	868.25
255.892	794.25
256.124	860.25
256.357	1042.25
256.59	1199.25
256.823	1150.25
257.056	965.25
257.289	908.25
257.521	989.25
257.754	1138.25
257.987	1282.25
258.22	1122.25
258.452	998.25
258.685	1130.25
258.918	1290.25
259.151	1243.25
259.383	1288.25
259.616	1511.25
259.849	1534.25
260.081	1690.25
260.314	1874.25
260.547	1464.25
260.779	1482.25
261.012	1726.25
261.244	1603.25
261.477	1641.25
261.71	1534.25
261.942	1326.25
262.175	1305.25
262.407	1226.25
262.64	1280.25
262.872	1496.25
263.105	1652.25
263.337	1696.25
263.57	1538.25
263.802	1027.25
264.035	904.25
264.267	853.25
264.499	767.25
264.732	710.25
264.964	672.25
265.197	699.25
265.429	760.25
265.661	798.25
265.894	830.25
266.126	925.25
266.358	1028.25
266.591	1253.25
266.823	1494.25
267.055	1390.25
267.287	1271.25
267.52	1258.25
267.752	1296.25
267.984	1417.25
268.216	1353.25
268.448	1168.25
268.681	1094.25
268.913	1182.25
269.145	1268.25
269.377	1289.25
269.609	1319.25
269.841	1195.25
270.073	1302.25
270.306	1347.25
270.538	1382.25
270.77	1418.25
271.002	1409.25
271.234	1471.25
271.466	1496.25
271.698	1487.25
271.93	1420.25
272.162	1460.25
272.394	1395.25
272.626	1407.25
272.858	1475.25
273.09	1472.25
273.322	1319.25
273.553	1263.25
273.785	1512.25
274.017	1981.25
274.249	2427.25
274.481	2512.25
274.713	2790.25
274.945	3219.25
275.176	3294.25
275.408	2895.25
275.64	2640.25
275.872	2630.25
276.104	2205.25
276.335	1897.25
276.567	1891.25
276.799	1946.25
277.031	2039.25
277.262	1606.25
277.494	1202.25
277.726	1180.25
277.957	1311.25
278.189	1516.25
278.421	1460.25
278.652	1414.25
278.884	1379.25
279.115	1254.25
279.347	1182.25
279.579	1195.25
279.81	1203.25
280.042	1200.25
280.273	1223.25
280.505	1147.25
280.736	995.25
280.968	1007.25
281.199	1091.25
281.431	1237.25
281.662	1229.25
281.894	1170.25
282.125	1212.25
282.356	1324.25
282.588	1395.25
282.819	1252.25
283.051	1361.25
283.282	1647.25
283.513	1964.25
283.745	2199.25
283.976	2132.25
284.207	1992.25
284.439	2112.25
284.67	1997.25
284.901	1789.25
285.132	1940.25
285.364	1987.25
285.595	1892.25
285.826	1991.25
286.057	2020.25
286.288	1957.25
286.52	1959.25
286.751	2081.25
286.982	2081.25
287.213	1805.25
287.444	1735.25
287.675	1848.25
287.906	1825.25
288.138	1544.25
288.369	1350.25
288.6	1314.25
288.831	1363.25
289.062	1572.25
289.293	1676.25
289.524	1595.25
289.755	1556.25
289.986	1619.25
290.217	1425.25
290.448	1106.25
290.679	958.25
290.91	921.25
291.141	935.25
291.371	970.25
291.602	959.25
291.833	986.25
292.064	1048.25
292.295	1202.25
292.526	1347.25
292.757	1418.25
292.987	1552.25
293.218	1559.25
293.449	1593.25
293.68	1676.25
293.91	1611.25
294.141	1623.25
294.372	1492.25
294.603	1420.25
294.833	1573.25
295.064	1819.25
295.295	1752.25
295.525	1319.25
295.756	1162.25
295.987	1006.25
296.217	1013.25
296.448	1047.25
296.679	1117.25
296.909	1232.25
297.14	1322.25
297.37	1421.25
297.601	1385.25
297.831	1178.25
298.062	1264.25
298.292	1450.25
298.523	1574.25
298.753	1774.25
298.984	1544.25
299.214	1251.25
299.445	1080.25
299.675	1044.25
299.905	1028.25
300.136	1082.25
300.366	1196.25
300.597	1168.25
300.827	1042.25
301.057	1031.25
301.288	1032.25
301.518	1109.25
301.748	1230.25
301.979	1318.25
302.209	1460.25
302.439	1416.25
302.669	1279.25
302.9	1248.25
303.13	1143.25
303.36	1076.25
303.59	1042.25
303.82	1122.25
304.051	1221.25
304.281	1356.25
304.511	1289.25
304.741	1129.25
304.971	1187.25
305.201	1284.25
305.431	1204.25
305.661	1074.25
305.891	1086.25
306.121	1095.25
306.352	958.25
306.582	880.25
306.812	834.25
307.042	845.25
307.272	820.25
307.502	827.25
307.731	865.25
307.961	920.25
308.191	840.25
308.421	809.25
308.651	800.25
308.881	759.25
309.111	768.25
309.341	825.25
309.571	904.25
309.8	919.25
310.03	933.25
310.26	980.25
310.49	957.25
310.72	856.25
310.949	874.25
311.179	902.25
311.409	944.25
311.639	1067.25
311.868	1380.25
312.098	1771.25
312.328	1928.25
312.557	1838.25
312.787	1886.25
313.017	1666.25
313.246	1784.25
313.476	1972.25
313.706	1604.25
313.935	1270.25
314.165	1056.25
314.394	957.25
314.624	958.25
314.853	1004.25
315.083	1053.25
315.312	1000.25
315.542	1020.25
315.771	938.25
316.001	848.25
316.23	830.25
316.46	820.25
316.689	872.25
316.919	858.25
317.148	881.25
317.377	885.25
317.607	851.25
317.836	958.25
318.065	1093.25
318.295	1243.25
318.524	1161.25
318.753	966.25
318.983	918.25
319.212	911.25
319.441	995.25
319.67	1112.25
319.9	1195.25
320.129	1092.25
320.358	976.25
320.587	943.25
320.816	1020.25
321.046	1183.25
321.275	1324.25
321.504	1313.25
321.733	1259.25
321.962	1220.25
322.191	1170.25
322.42	1086.25
322.649	1130.25
322.878	1216.25
323.108	1185.25
323.337	1086.25
323.566	1067.25
323.795	1027.25
324.024	1052.25
324.253	1022.25
324.482	959.25
324.71	1083.25
324.939	1223.25
325.168	1108.25
325.397	928.25
325.626	899.25
325.855	890.25
326.084	924.25
326.313	879.25
326.542	838.25
326.77	884.25
326.999	894.25
327.228	952.25
327.457	1020.25
327.686	1018.25
327.914	868.25
328.143	844.25
328.372	850.25
328.6	840.25
328.829	892.25
329.058	920.25
329.287	888.25
329.515	885.25
329.744	897.25
329.972	860.25
330.201	822.25
330.43	826.25
330.658	916.25
330.887	1070.25
331.115	1039.25
331.344	966.25
331.572	964.25
331.801	895.25
332.03	834.25
332.258	859.25
332.486	946.25
332.715	998.25
332.943	885.25
333.172	920.25
333.4	942.25
333.629	1029.25
333.857	1144.25
334.085	1128.25
334.314	1109.25
334.542	1044.25
334.771	966.25
334.999	965.25
335.227	940.25
335.455	946.25
335.684	1015.25
335.912	1202.25
336.14	1338.25
336.369	1280.25
336.597	1198.25
336.825	1386.25
337.053	1510.25
337.281	1226.25
337.51	979.25
337.738	993.25
337.966	1063.25
338.194	1177.25
338.422	1131.25
338.65	987.25
338.878	863.25
339.106	918.25
339.334	1006.25
339.562	1087.25
339.79	981.25
340.018	977.25
340.246	1040.25
340.474	1187.25
340.702	1267.25
340.93	1344.25
341.158	1310.25
341.386	1112.25
341.614	1110.25
341.842	1108.25
342.07	1152.25
342.298	1346.25
342.526	1366.25
342.754	1162.25
342.981	1062.25
343.209	1053.25
343.437	1138.25
343.665	1229.25
343.893	1195.25
344.12	1406.25
344.348	1594.25
344.576	1418.25
344.804	1168.25
345.031	1067.25
345.259	999.25
345.487	992.25
345.714	1025.25
345.942	1094.25
346.17	1216.25
346.397	1104.25
346.625	1002.25
346.853	963.25
347.08	967.25
347.308	1015.25
347.535	1131.25
347.763	1159.25
347.99	968.25
348.218	912.25
348.445	975.25
348.673	988.25
348.9	966.25
349.128	1054.25
349.355	1098.25
349.583	1036.25
349.81	1011.25
350.037	934.25
350.265	840.25
350.492	776.25
350.72	792.25
350.947	854.25
351.174	894.25
351.402	929.25
351.629	994.25
351.856	958.25
352.083	878.25
352.311	981.25
352.538	1060.25
352.765	1181.25
352.992	1011.25
353.22	966.25
353.447	966.25
353.674	974.25
353.901	960.25
354.128	983.25
354.355	1004.25
354.583	981.25
354.81	971.25
355.037	1003.25
355.264	980.25
355.491	1100.25
355.718	1186.25
355.945	1140.25
356.172	1120.25
356.399	1095.25
356.626	1350.25
356.853	1678.25
357.08	1733.25
357.307	1751.25
357.534	1364.25
357.761	1410.25
357.988	1782.25
358.215	2128.25
358.441	1991.25
358.668	1636.25
358.895	1495.25
359.122	1214.25
359.349	1222.25
359.576	1349.25
359.802	1091.25
360.029	942.25
360.256	1019.25
360.483	1313.25
360.709	1612.25
360.936	1712.25
361.163	1485.25
361.39	1150.25
361.616	1080.25
361.843	1249.25
362.07	1540.25
362.296	1384.25
362.523	1070.25
362.749	942.25
362.976	986.25
363.203	1233.25
363.429	1368.25
363.656	1104.25
363.882	1021.25
364.109	1008.25
364.335	1002.25
364.562	991.25
364.788	1116.25
365.015	1319.25
365.241	1164.25
365.468	953.25
365.694	846.25
365.92	838.25
366.147	773.25
366.373	782.25
366.599	782.25
366.826	783.25
367.052	824.25
367.278	841.25
367.505	805.25
367.731	891.25
367.957	1032.25
368.184	1032.25
368.41	1027.25
368.636	1009.25
368.862	1042.25
369.089	999.25
369.315	920.25
369.541	889.25
369.767	891.25
369.993	860.25
370.219	877.25
370.445	912.25
370.672	1037.25
370.898	1100.25
371.124	1118.25
371.35	955.25
371.576	874.25
371.802	987.25
372.028	1170.25
372.254	1336.25
372.48	1178.25
372.706	1050.25
372.932	1081.25
373.158	1146.25
373.384	1393.25
373.61	1850.25
373.835	1881.25
374.061	1368.25
374.287	1153.25
374.513	1369.25
374.739	1687.25
374.965	1759.25
375.191	1714.25
375.416	1172.25
375.642	1041.25
375.868	1207.25
376.094	1368.25
376.319	1182.25
376.545	1283.25
376.771	1379.25
376.997	1151.25
377.222	884.25
377.448	770.25
377.674	738.25
377.899	736.25
378.125	715.25
378.35	724.25
378.576	788.25
378.802	863.25
379.027	933.25
379.253	900.25
379.478	942.25
379.704	1060.25
379.929	1091.25
380.155	1101.25
380.38	976.25
380.606	992.25
380.831	1092.25
381.057	1022.25
381.282	953.25
381.507	1152.25
381.733	1436.25
381.958	1540.25
382.184	1700.25
382.409	1719.25
382.634	1702.25
382.86	1758.25
383.085	1472.25
383.31	1142.25
383.535	1220.25
383.761	1258.25
383.986	1187.25
384.211	1420.25
384.436	1387.25
384.662	1062.25
384.887	998.25
385.112	1020.25
385.337	1004.25
385.562	976.25
385.787	1122.25
386.013	1232.25
386.238	1275.25
386.463	1040.25
386.688	971.25
386.913	950.25
387.138	905.25
387.363	956.25
387.588	959.25
387.813	989.25
388.038	1098.25
388.263	967.25
388.488	962.25
388.713	1111.25
388.938	1235.25
389.163	1040.25
389.387	902.25
389.612	932.25
389.837	966.25
390.062	963.25
390.287	999.25
390.512	1035.25
390.736	949.25
390.961	880.25
391.186	839.25
391.411	812.25
391.636	848.25
391.86	927.25
392.085	1003.25
392.31	1013.25
392.534	964.25
392.759	925.25
392.984	990.25
393.208	969.25
393.433	869.25
393.658	826.25
393.882	795.25
394.107	785.25
394.331	807.25
394.556	827.25
394.78	812.25
395.005	834.25
395.229	882.25
395.454	892.25
395.678	886.25
395.903	898.25
396.127	849.25
396.352	875.25
396.576	974.25
396.801	1001.25
397.025	1122.25
397.249	1155.25
397.474	942.25
397.698	912.25
397.922	962.25
398.147	902.25
398.371	895.25
398.595	956.25
398.82	950.25
399.044	937.25
399.268	1015.25
399.492	1054.25
399.717	1083.25
399.941	1091.25
400.165	1077.25
400.389	1049.25
400.613	1036.25
400.837	1032.25
401.062	928.25
401.286	924.25
401.51	880.25
401.734	916.25
401.958	896.25
402.182	913.25
402.406	900.25
402.63	919.25
402.854	910.25
403.078	1057.25
403.302	1298.25
403.526	1310.25
403.75	1186.25
403.974	1068.25
404.198	1086.25
404.422	1223.25
404.645	1468.25
404.869	1612.25
405.093	1178.25
405.317	1001.25
405.541	980.25
405.765	1024.25
405.988	1031.25
406.212	1080.25
406.436	1292.25
406.66	1450.25
406.883	1153.25
407.107	1183.25
407.331	1372.25
407.555	1295.25
407.778	1118.25
408.002	1051.25
408.226	1034.25
408.449	1066.25
408.673	999.25
408.896	954.25
409.12	925.25
409.344	912.25
409.567	884.25
409.791	900.25
410.014	923.25
410.238	888.25
410.461	907.25
410.685	915.25
410.908	901.25
411.132	956.25
411.355	942.25
411.578	951.25
411.802	945.25
412.025	991.25
412.249	1012.25
412.472	953.25
412.695	947.25
412.919	977.25
413.142	962.25
413.365	1075.25
413.589	1062.25
413.812	957.25
414.035	904.25
414.258	921.25
414.482	1042.25
414.705	1072.25
414.928	916.25
415.151	907.25
415.374	880.25
415.597	923.25
415.821	918.25
416.044	884.25
416.267	887.25
416.49	879.25
416.713	838.25
416.936	867.25
417.159	880.25
417.382	924.25
417.605	915.25
417.828	894.25
418.051	924.25
418.274	952.25
418.497	911.25
418.72	938.25
418.943	955.25
419.166	971.25
419.389	1043.25
419.611	1024.25
419.834	1031.25
420.057	1138.25
420.28	1134.25
420.503	1017.25
420.726	914.25
420.948	880.25
421.171	883.25
421.394	865.25
421.617	848.25
421.839	878.25
422.062	920.25
422.285	931.25
422.507	902.25
422.73	930.25
422.953	960.25
423.175	924.25
423.398	936.25
423.621	1016.25
423.843	1076.25
424.066	1002.25
424.288	932.25
424.511	905.25
424.733	905.25
424.956	972.25
425.178	1084.25
425.401	1238.25
425.623	1426.25
425.846	1152.25
426.068	1018.25
426.291	1116.25
426.513	1038.25
426.735	963.25
426.958	958.25
427.18	1192.25
427.402	1514.25
427.625	1456.25
427.847	1206.25
428.069	928.25
428.292	886.25
428.514	920.25
428.736	836.25
428.958	942.25
429.181	1138.25
429.403	990.25
429.625	932.25
429.847	882.25
430.069	898.25
430.292	928.25
430.514	862.25
430.736	943.25
430.958	1209.25
431.18	1082.25
431.402	859.25
431.624	793.25
431.846	804.25
432.068	813.25
432.29	836.25
432.512	900.25
432.734	1213.25
432.956	1138.25
433.178	848.25
433.4	826.25
433.622	846.25
433.844	906.25
434.066	939.25
434.287	914.25
434.509	911.25
434.731	940.25
434.953	866.25
435.175	916.25
435.397	1022.25
435.618	890.25
435.84	822.25
436.062	829.25
436.284	815.25
436.505	796.25
436.727	794.25
436.949	802.25
437.17	833.25
437.392	857.25
437.614	843.25
437.835	826.25
438.057	841.25
438.278	965.25
438.5	1426.25
438.721	1402.25
438.943	926.25
439.165	848.25
439.386	784.25
439.608	803.25
439.829	807.25
440.05	798.25
440.272	857.25
440.493	1002.25
440.715	1260.25
440.936	985.25
441.158	835.25
441.379	883.25
441.6	975.25
441.822	1027.25
442.043	892.25
442.264	875.25
442.486	875.25
442.707	878.25
442.928	879.25
443.149	888.25
443.371	889.25
443.592	947.25
443.813	928.25
444.034	906.25
444.255	908.25
444.476	950.25
444.698	907.25
444.919	960.25
445.14	1065.25
445.361	1010.25
445.582	969.25
445.803	904.25
446.024	935.25
446.245	938.25
446.466	889.25
446.687	890.25
446.908	894.25
447.129	850.25
447.35	823.25
447.571	840.25
447.792	804.25
448.013	799.25
448.234	774.25
448.455	799.25
448.675	826.25
448.896	818.25
449.117	790.25
449.338	809.25
449.559	833.25
449.779	866.25
450	845.25
450.221	818.25
450.442	842.25
450.662	804.25
450.883	797.25
451.104	801.25
451.324	789.25
451.545	819.25
451.766	801.25
451.986	775.25
452.207	748.25
452.428	768.25
452.648	782.25
452.869	853.25
453.089	857.25
453.31	818.25
453.53	728.25
453.751	774.25
453.971	749.25
454.192	758.25
454.412	784.25
454.633	788.25
454.853	744.25
455.073	759.25
455.294	747.25
455.514	737.25
455.734	788.25
455.955	814.25
456.175	834.25
456.395	755.25
456.616	743.25
456.836	710.25
457.056	712.25
457.276	704.25
457.497	712.25
457.717	738.25
457.937	699.25
458.157	708.25
458.377	741.25
458.598	769.25
458.818	775.25
459.038	815.25
459.258	844.25
459.478	864.25
459.698	892.25
459.918	903.25
460.138	843.25
460.358	859.25
460.578	867.25
460.798	893.25
461.018	880.25
461.238	858.25
461.458	870.25
461.678	928.25
461.898	917.25
462.118	928.25
462.338	940.25
462.558	980.25
462.777	1017.25
462.997	1000.25
463.217	993.25
463.437	1048.25
463.657	999.25
463.876	950.25
464.096	969.25
464.316	972.25
464.536	967.25
464.755	1030.25
464.975	1020.25
465.195	978.25
465.414	988.25
465.634	969.25
465.854	938.25
466.073	892.25
466.293	845.25
466.512	930.25
466.732	1010.25
466.951	1064.25
467.171	927.25
467.391	890.25
467.61	898.25
467.829	909.25
468.049	967.25
468.268	875.25
468.488	878.25
468.707	955.25
468.927	1063.25
469.146	1182.25
469.365	1039.25
469.585	985.25
469.804	1036.25
470.023	1138.25
470.243	982.25
470.462	931.25
470.681	924.25
470.901	922.25
471.12	992.25
471.339	983.25
471.558	917.25
471.777	917.25
471.997	1002.25
472.216	1128.25
472.435	1090.25
472.654	958.25
472.873	944.25
473.092	1042.25
473.311	1074.25
473.53	967.25
473.749	949.25
473.968	1006.25
474.187	965.25
474.406	946.25
474.625	926.25
474.844	996.25
475.063	1007.25
475.282	1020.25
475.501	1109.25
475.72	1142.25
475.939	1093.25
476.158	1115.25
476.377	1289.25
476.596	1422.25
476.814	1514.25
477.033	1237.25
477.252	1065.25
477.471	973.25
477.69	1034.25
477.908	1145.25
478.127	1158.25
478.346	1047.25
478.564	1162.25
478.783	1099.25
479.002	1126.25
479.22	1289.25
479.439	1415.25
479.658	1220.25
479.876	1134.25
480.095	1186.25
480.313	1257.25
480.532	1143.25
480.751	1094.25
480.969	1154.25
481.188	1267.25
481.406	1320.25
481.624	1243.25
481.843	1155.25
482.061	1054.25
482.28	1200.25
482.498	1458.25
482.717	1418.25
482.935	1163.25
483.153	1146.25
483.372	1062.25
483.59	1074.25
483.808	1052.25
484.027	1028.25
484.245	1029.25
484.463	990.25
484.681	1026.25
484.9	1104.25
485.118	1202.25
485.336	1096.25
485.554	1077.25
485.772	1097.25
485.99	1167.25
486.209	1230.25
486.427	1210.25
486.645	1218.25
486.863	1228.25
487.081	1235.25
487.299	1354.25
487.517	1348.25
487.735	1210.25
487.953	1247.25
488.171	1256.25
488.389	1191.25
488.607	1093.25
488.825	1173.25
489.043	1244.25
489.261	1448.25
489.479	1536.25
489.696	1303.25
489.914	1183.25
490.132	1099.25
490.35	1123.25
490.568	1136.25
490.786	1096.25
491.003	1128.25
491.221	1155.25
491.439	1134.25
491.657	1145.25
491.874	1273.25
492.092	1492.25
492.31	1765.25
492.527	1769.25
492.745	1510.25
492.963	1369.25
493.18	1301.25
493.398	1314.25
493.615	1318.25
493.833	1254.25
494.05	1247.25
494.268	1253.25
