Data from NickelSpatula.Lamp.E5.5.P2_HRD10591_11-51-45-559.txt Node
Date: Tue Jul 23 11:51:45 EDT 2019
User: cochatt
Spectrometer: HR+D1059
Trigger mode: 1
Integration Time (sec): 1.000000E-1
Scans to average: 1
Electric dark correction enabled: true
Nonlinearity correction enabled: false
Boxcar width: 0
XAxis mode: Wavelengths
Number of Pixels in Spectrum: 2048
>>>>>Begin Spectral Data<<<<<
223.165	-17.06
223.4	-17.06
223.635	-17.06
223.869	-19.06
224.104	-19.06
224.338	-32.06
224.573	-18.06
224.808	-16.06
225.042	-4.06
225.277	-2.06
225.511	1.94
225.746	3.94
225.98	11.94
226.215	16.94
226.449	17.94
226.683	15.94
226.918	29.94
227.152	28.94
227.387	38.94
227.621	38.94
227.856	50.94
228.09	53.94
228.324	51.94
228.559	53.94
228.793	63.94
229.027	65.94
229.262	93.94
229.496	70.94
229.73	76.94
229.964	73.94
230.199	95.94
230.433	95.94
230.667	98.94
230.901	96.94
231.136	107.94
231.37	89.94
231.604	97.94
231.838	104.94
232.072	117.94
232.306	113.94
232.541	94.94
232.775	107.94
233.009	113.94
233.243	114.94
233.477	115.94
233.711	124.94
233.945	123.94
234.179	107.94
234.413	133.94
234.647	129.94
234.881	151.94
235.115	137.94
235.349	114.94
235.583	111.94
235.817	123.94
236.051	127.94
236.285	133.94
236.519	139.94
236.753	138.94
236.987	135.94
237.221	119.94
237.455	131.94
237.689	121.94
237.922	144.94
238.156	124.94
238.39	158.94
238.624	171.94
238.858	149.94
239.091	152.94
239.325	137.94
239.559	141.94
239.793	149.94
240.027	184.94
240.26	166.94
240.494	171.94
240.728	178.94
240.961	172.94
241.195	165.94
241.429	169.94
241.662	152.94
241.896	151.94
242.13	144.94
242.363	147.94
242.597	141.94
242.83	151.94
243.064	150.94
243.298	172.94
243.531	147.94
243.765	173.94
243.998	150.94
244.232	161.94
244.465	157.94
244.699	153.94
244.932	161.94
245.166	156.94
245.399	155.94
245.633	158.94
245.866	154.94
246.099	175.94
246.333	178.94
246.566	198.94
246.8	179.94
247.033	194.94
247.266	191.94
247.5	184.94
247.733	179.94
247.966	159.94
248.2	163.94
248.433	184.94
248.666	204.94
248.899	200.94
249.133	195.94
249.366	220.94
249.599	219.94
249.832	215.94
250.066	195.94
250.299	202.94
250.532	193.94
250.765	187.94
250.998	199.94
251.231	182.94
251.465	182.94
251.698	215.94
251.931	191.94
252.164	197.94
252.397	199.94
252.63	228.94
252.863	238.94
253.096	263.94
253.329	251.94
253.562	247.94
253.795	260.94
254.028	292.94
254.261	303.94
254.494	255.94
254.727	265.94
254.96	247.94
255.193	267.94
255.426	246.94
255.659	228.94
255.892	203.94
256.124	209.94
256.357	248.94
256.59	249.94
256.823	245.94
257.056	221.94
257.289	218.94
257.521	222.94
257.754	261.94
257.987	290.94
258.22	247.94
258.452	228.94
258.685	259.94
258.918	290.94
259.151	267.94
259.383	280.94
259.616	311.94
259.849	335.94
260.081	339.94
260.314	375.94
260.547	315.94
260.779	319.94
261.012	356.94
261.244	327.94
261.477	343.94
261.71	323.94
261.942	287.94
262.175	291.94
262.407	245.94
262.64	271.94
262.872	324.94
263.105	345.94
263.337	335.94
263.57	305.94
263.802	240.94
264.035	240.94
264.267	219.94
264.499	185.94
264.732	197.94
264.964	177.94
265.197	176.94
265.429	186.94
265.661	199.94
265.894	217.94
266.126	232.94
266.358	215.94
266.591	285.94
266.823	311.94
267.055	301.94
267.287	275.94
267.52	286.94
267.752	315.94
267.984	309.94
268.216	314.94
268.448	272.94
268.681	252.94
268.913	266.94
269.145	304.94
269.377	301.94
269.609	302.94
269.841	272.94
270.073	297.94
270.306	317.94
270.538	291.94
270.77	302.94
271.002	319.94
271.234	308.94
271.466	316.94
271.698	313.94
271.93	318.94
272.162	289.94
272.394	315.94
272.626	291.94
272.858	288.94
273.09	309.94
273.322	282.94
273.553	258.94
273.785	313.94
274.017	372.94
274.249	468.94
274.481	449.94
274.713	515.94
274.945	567.94
275.176	596.94
275.408	525.94
275.64	497.94
275.872	482.94
276.104	440.94
276.335	383.94
276.567	371.94
276.799	391.94
277.031	408.94
277.262	335.94
277.494	265.94
277.726	263.94
277.957	293.94
278.189	309.94
278.421	320.94
278.652	297.94
278.884	307.94
279.115	267.94
279.347	280.94
279.579	280.94
279.81	278.94
280.042	264.94
280.273	294.94
280.505	270.94
280.736	243.94
280.968	239.94
281.199	239.94
281.431	285.94
281.662	269.94
281.894	290.94
282.125	285.94
282.356	296.94
282.588	328.94
282.819	275.94
283.051	283.94
283.282	351.94
283.513	400.94
283.745	445.94
283.976	443.94
284.207	407.94
284.439	416.94
284.67	404.94
284.901	356.94
285.132	382.94
285.364	405.94
285.595	378.94
285.826	419.94
286.057	425.94
286.288	397.94
286.52	383.94
286.751	421.94
286.982	418.94
287.213	365.94
287.444	366.94
287.675	374.94
287.906	378.94
288.138	339.94
288.369	301.94
288.6	306.94
288.831	289.94
289.062	349.94
289.293	346.94
289.524	337.94
289.755	337.94
289.986	341.94
290.217	310.94
290.448	255.94
290.679	242.94
290.91	230.94
291.141	227.94
291.371	231.94
291.602	225.94
291.833	213.94
292.064	246.94
292.295	269.94
292.526	315.94
292.757	320.94
292.987	339.94
293.218	328.94
293.449	347.94
293.68	363.94
293.91	352.94
294.141	361.94
294.372	337.94
294.603	310.94
294.833	331.94
295.064	379.94
295.295	380.94
295.525	302.94
295.756	254.94
295.987	240.94
296.217	227.94
296.448	245.94
296.679	226.94
296.909	262.94
297.14	284.94
297.37	295.94
297.601	301.94
297.831	257.94
298.062	284.94
298.292	300.94
298.523	315.94
298.753	354.94
298.984	342.94
299.214	302.94
299.445	269.94
299.675	257.94
299.905	227.94
300.136	239.94
300.366	261.94
300.597	256.94
300.827	236.94
301.057	225.94
301.288	242.94
301.518	239.94
301.748	276.94
301.979	289.94
302.209	308.94
302.439	318.94
302.669	291.94
302.9	277.94
303.13	268.94
303.36	256.94
303.59	265.94
303.82	265.94
304.051	276.94
304.281	311.94
304.511	305.94
304.741	271.94
304.971	266.94
305.201	286.94
305.431	279.94
305.661	236.94
305.891	226.94
306.121	253.94
306.352	224.94
306.582	212.94
306.812	200.94
307.042	202.94
307.272	196.94
307.502	191.94
307.731	184.94
307.961	217.94
308.191	218.94
308.421	204.94
308.651	203.94
308.881	188.94
309.111	213.94
309.341	190.94
309.571	223.94
309.8	211.94
310.03	217.94
310.26	236.94
310.49	233.94
310.72	217.94
310.949	228.94
311.179	219.94
311.409	226.94
311.639	239.94
311.868	307.94
312.098	373.94
312.328	396.94
312.557	380.94
312.787	381.94
313.017	327.94
313.246	359.94
313.476	384.94
313.706	348.94
313.935	279.94
314.165	239.94
314.394	223.94
314.624	229.94
314.853	236.94
315.083	243.94
315.312	228.94
315.542	229.94
315.771	214.94
316.001	207.94
316.23	196.94
316.46	191.94
316.689	211.94
316.919	205.94
317.148	204.94
317.377	217.94
317.607	193.94
317.836	229.94
318.065	255.94
318.295	284.94
318.524	253.94
318.753	240.94
318.983	230.94
319.212	212.94
319.441	231.94
319.67	240.94
319.9	271.94
320.129	258.94
320.358	217.94
320.587	208.94
320.816	224.94
321.046	223.94
321.275	261.94
321.504	275.94
321.733	271.94
321.962	255.94
322.191	238.94
322.42	223.94
322.649	235.94
322.878	271.94
323.108	253.94
323.337	240.94
323.566	240.94
323.795	235.94
324.024	247.94
324.253	232.94
324.482	231.94
324.71	252.94
324.939	269.94
325.168	241.94
325.397	203.94
325.626	216.94
325.855	207.94
326.084	229.94
326.313	234.94
326.542	210.94
326.77	215.94
326.999	215.94
327.228	229.94
327.457	229.94
327.686	249.94
327.914	218.94
328.143	191.94
328.372	201.94
328.6	205.94
328.829	221.94
329.058	219.94
329.287	221.94
329.515	219.94
329.744	208.94
329.972	223.94
330.201	206.94
330.43	215.94
330.658	225.94
330.887	255.94
331.115	247.94
331.344	232.94
331.572	227.94
331.801	209.94
332.03	208.94
332.258	217.94
332.486	220.94
332.715	230.94
332.943	215.94
333.172	249.94
333.4	229.94
333.629	244.94
333.857	270.94
334.085	262.94
334.314	272.94
334.542	259.94
334.771	260.94
334.999	236.94
335.227	238.94
335.455	228.94
335.684	227.94
335.912	255.94
336.14	275.94
336.369	287.94
336.597	262.94
336.825	284.94
337.053	312.94
337.281	272.94
337.51	236.94
337.738	237.94
337.966	247.94
338.194	261.94
338.422	259.94
338.65	228.94
338.878	214.94
339.106	211.94
339.334	251.94
339.562	241.94
339.79	211.94
340.018	228.94
340.246	204.94
340.474	253.94
340.702	279.94
340.93	269.94
341.158	281.94
341.386	253.94
341.614	228.94
341.842	235.94
342.07	255.94
342.298	280.94
342.526	287.94
342.754	269.94
342.981	240.94
343.209	228.94
343.437	247.94
343.665	279.94
343.893	284.94
344.12	312.94
344.348	359.94
344.576	321.94
344.804	274.94
345.031	238.94
345.259	212.94
345.487	248.94
345.714	237.94
345.942	239.94
346.17	283.94
346.397	262.94
346.625	232.94
346.853	230.94
347.08	224.94
347.308	246.94
347.535	268.94
347.763	282.94
347.99	240.94
348.218	225.94
348.445	231.94
348.673	247.94
348.9	218.94
349.128	238.94
349.355	239.94
349.583	245.94
349.81	239.94
350.037	221.94
350.265	203.94
350.492	213.94
350.72	198.94
350.947	206.94
351.174	197.94
351.402	199.94
351.629	217.94
351.856	204.94
352.083	218.94
352.311	224.94
352.538	249.94
352.765	269.94
352.992	239.94
353.22	226.94
353.447	227.94
353.674	219.94
353.901	228.94
354.128	238.94
354.355	220.94
354.583	244.94
354.81	243.94
355.037	244.94
355.264	241.94
355.491	234.94
355.718	251.94
355.945	267.94
356.172	255.94
356.399	253.94
356.626	296.94
356.853	340.94
357.08	356.94
357.307	375.94
357.534	292.94
357.761	313.94
357.988	354.94
358.215	423.94
358.441	390.94
358.668	334.94
358.895	312.94
359.122	271.94
359.349	277.94
359.576	308.94
359.802	255.94
360.029	229.94
360.256	238.94
360.483	287.94
360.709	346.94
360.936	340.94
361.163	305.94
361.39	257.94
361.616	252.94
361.843	274.94
362.07	315.94
362.296	294.94
362.523	232.94
362.749	220.94
362.976	228.94
363.203	260.94
363.429	304.94
363.656	242.94
363.882	241.94
364.109	244.94
364.335	250.94
364.562	220.94
364.788	229.94
365.015	279.94
365.241	277.94
365.468	227.94
365.694	222.94
365.92	204.94
366.147	203.94
366.373	181.94
366.599	196.94
366.826	200.94
367.052	207.94
367.278	200.94
367.505	193.94
367.731	223.94
367.957	225.94
368.184	224.94
368.41	228.94
368.636	230.94
368.862	236.94
369.089	239.94
369.315	204.94
369.541	200.94
369.767	221.94
369.993	198.94
370.219	209.94
370.445	216.94
370.672	233.94
370.898	246.94
371.124	261.94
371.35	230.94
371.576	221.94
371.802	231.94
372.028	269.94
372.254	299.94
372.48	258.94
372.706	245.94
372.932	260.94
373.158	257.94
373.384	286.94
373.61	389.94
373.835	391.94
374.061	305.94
374.287	258.94
374.513	296.94
374.739	359.94
374.965	363.94
375.191	346.94
375.416	275.94
375.642	243.94
375.868	275.94
376.094	295.94
376.319	286.94
376.545	276.94
376.771	301.94
376.997	263.94
377.222	214.94
377.448	203.94
377.674	192.94
377.899	183.94
378.125	197.94
378.35	188.94
378.576	183.94
378.802	206.94
379.027	208.94
379.253	221.94
379.478	239.94
379.704	259.94
379.929	258.94
380.155	271.94
380.38	226.94
380.606	228.94
380.831	262.94
381.057	255.94
381.282	220.94
381.507	251.94
381.733	303.94
381.958	326.94
382.184	353.94
382.409	366.94
382.634	348.94
382.86	363.94
383.085	311.94
383.31	255.94
383.535	299.94
383.761	262.94
383.986	264.94
384.211	304.94
384.436	313.94
384.662	261.94
384.887	252.94
385.112	258.94
385.337	254.94
385.562	243.94
385.787	265.94
386.013	289.94
386.238	296.94
386.463	246.94
386.688	247.94
386.913	225.94
387.138	223.94
387.363	243.94
387.588	247.94
387.813	248.94
388.038	262.94
388.263	248.94
388.488	252.94
388.713	271.94
388.938	287.94
389.163	228.94
389.387	222.94
389.612	226.94
389.837	242.94
390.062	255.94
390.287	242.94
390.512	244.94
390.736	231.94
390.961	227.94
391.186	227.94
391.411	228.94
391.636	232.94
391.86	230.94
392.085	261.94
392.31	260.94
392.534	239.94
392.759	248.94
392.984	251.94
393.208	262.94
393.433	243.94
393.658	197.94
393.882	198.94
394.107	213.94
394.331	214.94
394.556	228.94
394.78	204.94
395.005	221.94
395.229	221.94
395.454	215.94
395.678	232.94
395.903	210.94
396.127	207.94
396.352	214.94
396.576	241.94
396.801	235.94
397.025	278.94
397.249	258.94
397.474	232.94
397.698	231.94
397.922	242.94
398.147	247.94
398.371	228.94
398.595	229.94
398.82	231.94
399.044	248.94
399.268	277.94
399.492	288.94
399.717	291.94
399.941	299.94
400.165	263.94
400.389	251.94
400.613	271.94
400.837	259.94
401.062	221.94
401.286	235.94
401.51	211.94
401.734	223.94
401.958	237.94
402.182	256.94
402.406	243.94
402.63	255.94
402.854	265.94
403.078	278.94
403.302	386.94
403.526	401.94
403.75	345.94
403.974	286.94
404.198	286.94
404.422	317.94
404.645	331.94
404.869	375.94
405.093	303.94
405.317	277.94
405.541	244.94
405.765	259.94
405.988	267.94
406.212	284.94
406.436	295.94
406.66	352.94
406.883	264.94
407.107	274.94
407.331	311.94
407.555	311.94
407.778	285.94
408.002	292.94
408.226	299.94
408.449	272.94
408.673	275.94
408.896	232.94
409.12	230.94
409.344	241.94
409.567	249.94
409.791	256.94
410.014	240.94
410.238	252.94
410.461	239.94
410.685	246.94
410.908	235.94
411.132	223.94
411.355	238.94
411.578	244.94
411.802	226.94
412.025	240.94
412.249	246.94
412.472	246.94
412.695	244.94
412.919	237.94
413.142	253.94
413.365	258.94
413.589	264.94
413.812	239.94
414.035	235.94
414.258	245.94
414.482	261.94
414.705	263.94
414.928	239.94
415.151	228.94
415.374	227.94
415.597	254.94
415.821	230.94
416.044	236.94
416.267	253.94
416.49	240.94
416.713	218.94
416.936	225.94
417.159	225.94
417.382	236.94
417.605	233.94
417.828	241.94
418.051	243.94
418.274	240.94
418.497	243.94
418.72	249.94
418.943	253.94
419.166	252.94
419.389	253.94
419.611	272.94
419.834	255.94
420.057	268.94
420.28	275.94
420.503	271.94
420.726	238.94
420.948	245.94
421.171	233.94
421.394	226.94
421.617	226.94
421.839	221.94
422.062	243.94
422.285	244.94
422.507	230.94
422.73	245.94
422.953	242.94
423.175	261.94
423.398	253.94
423.621	262.94
423.843	258.94
424.066	237.94
424.288	237.94
424.511	219.94
424.733	238.94
424.956	253.94
425.178	270.94
425.401	291.94
425.623	355.94
425.846	311.94
426.068	259.94
426.291	286.94
426.513	253.94
426.735	248.94
426.958	253.94
427.18	275.94
427.402	355.94
427.625	364.94
427.847	303.94
428.069	251.94
428.292	242.94
428.514	232.94
428.736	251.94
428.958	267.94
429.181	299.94
429.403	274.94
429.625	233.94
429.847	226.94
430.069	205.94
430.292	250.94
430.514	219.94
430.736	222.94
430.958	280.94
431.18	268.94
431.402	240.94
431.624	226.94
431.846	222.94
432.068	218.94
432.29	228.94
432.512	259.94
432.734	280.94
432.956	275.94
433.178	229.94
433.4	222.94
433.622	199.94
433.844	240.94
434.066	251.94
434.287	252.94
434.509	240.94
434.731	259.94
434.953	239.94
435.175	256.94
435.397	277.94
435.618	236.94
435.84	233.94
436.062	221.94
436.284	229.94
436.505	224.94
436.727	220.94
436.949	224.94
437.17	229.94
437.392	229.94
437.614	217.94
437.835	225.94
438.057	231.94
438.278	241.94
438.5	319.94
438.721	318.94
438.943	251.94
439.165	213.94
439.386	222.94
439.608	197.94
439.829	225.94
440.05	208.94
440.272	215.94
440.493	253.94
440.715	294.94
440.936	259.94
441.158	240.94
441.379	245.94
441.6	254.94
441.822	277.94
442.043	239.94
442.264	224.94
442.486	220.94
442.707	235.94
442.928	248.94
443.149	251.94
443.371	256.94
443.592	237.94
443.813	243.94
444.034	230.94
444.255	247.94
444.476	251.94
444.698	254.94
444.919	273.94
445.14	357.94
445.361	293.94
445.582	261.94
445.803	256.94
446.024	240.94
446.245	232.94
446.466	251.94
446.687	247.94
446.908	250.94
447.129	219.94
447.35	226.94
447.571	228.94
447.792	206.94
448.013	222.94
448.234	215.94
448.455	210.94
448.675	201.94
448.896	224.94
449.117	214.94
449.338	204.94
449.559	213.94
449.779	226.94
450	233.94
450.221	228.94
450.442	218.94
450.662	224.94
450.883	227.94
451.104	222.94
451.324	235.94
451.545	226.94
451.766	207.94
451.986	222.94
452.207	214.94
452.428	217.94
452.648	201.94
452.869	225.94
453.089	221.94
453.31	220.94
453.53	211.94
453.751	218.94
453.971	216.94
454.192	221.94
454.412	210.94
454.633	214.94
454.853	200.94
455.073	204.94
455.294	205.94
455.514	191.94
455.734	201.94
455.955	218.94
456.175	209.94
456.395	206.94
456.616	209.94
456.836	180.94
457.056	190.94
457.276	206.94
457.497	197.94
457.717	178.94
457.937	191.94
458.157	193.94
458.377	204.94
458.598	182.94
458.818	195.94
459.038	214.94
459.258	223.94
459.478	222.94
459.698	252.94
459.918	246.94
460.138	238.94
460.358	254.94
460.578	257.94
460.798	232.94
461.018	231.94
461.238	226.94
461.458	240.94
461.678	239.94
461.898	260.94
462.118	259.94
462.338	239.94
462.558	280.94
462.777	269.94
462.997	292.94
463.217	288.94
463.437	295.94
463.657	285.94
463.876	277.94
464.096	273.94
464.316	270.94
464.536	278.94
464.755	272.94
464.975	285.94
465.195	263.94
465.414	260.94
465.634	263.94
465.854	260.94
466.073	234.94
466.293	228.94
466.512	245.94
466.732	259.94
466.951	263.94
467.171	250.94
467.391	249.94
467.61	248.94
467.829	225.94
468.049	241.94
468.268	232.94
468.488	230.94
468.707	235.94
468.927	247.94
469.146	271.94
469.365	255.94
469.585	249.94
469.804	240.94
470.023	264.94
470.243	251.94
470.462	238.94
470.681	252.94
470.901	249.94
471.12	242.94
471.339	237.94
471.558	229.94
471.777	239.94
471.997	248.94
472.216	277.94
472.435	268.94
472.654	242.94
472.873	247.94
473.092	248.94
473.311	264.94
473.53	230.94
473.749	239.94
473.968	239.94
474.187	228.94
474.406	233.94
474.625	241.94
474.844	247.94
475.063	251.94
475.282	251.94
475.501	262.94
475.72	300.94
475.939	271.94
476.158	265.94
476.377	311.94
476.596	331.94
476.814	327.94
477.033	291.94
477.252	271.94
477.471	243.94
477.69	253.94
477.908	270.94
478.127	288.94
478.346	276.94
478.564	306.94
478.783	278.94
479.002	280.94
479.22	296.94
479.439	329.94
479.658	296.94
479.876	259.94
480.095	309.94
480.313	306.94
480.532	296.94
480.751	271.94
480.969	281.94
481.188	301.94
481.406	317.94
481.624	303.94
481.843	269.94
482.061	269.94
482.28	285.94
482.498	332.94
482.717	324.94
482.935	296.94
483.153	272.94
483.372	244.94
483.59	280.94
483.808	262.94
484.027	268.94
484.245	235.94
484.463	258.94
484.681	233.94
484.9	273.94
485.118	276.94
485.336	267.94
485.554	249.94
485.772	253.94
485.99	293.94
486.209	293.94
486.427	290.94
486.645	288.94
486.863	304.94
487.081	308.94
487.299	313.94
487.517	306.94
487.735	271.94
487.953	287.94
488.171	281.94
488.389	270.94
488.607	260.94
488.825	273.94
489.043	283.94
489.261	319.94
489.479	350.94
489.696	307.94
489.914	278.94
490.132	262.94
490.35	268.94
490.568	277.94
490.786	270.94
491.003	258.94
491.221	282.94
491.439	255.94
491.657	264.94
491.874	294.94
492.092	333.94
492.31	393.94
492.527	350.94
492.745	334.94
492.963	294.94
493.18	294.94
493.398	289.94
493.615	309.94
493.833	296.94
494.05	289.94
494.268	306.94
494.485	293.94
494.703	281.94
494.92	307.94
495.138	274.94
495.355	281.94
495.573	288.94
495.79	327.94
496.008	365.94
496.225	329.94
496.442	303.94
496.66	291.94
496.877	332.94
497.094	313.94
497.312	292.94
497.529	321.94
497.746	307.94
497.963	304.94
498.181	340.94
498.398	329.94
498.615	386.94
498.832	380.94
499.049	404.94
499.267	394.94
499.484	399.94
499.701	415.94
499.918	462.94
500.135	475.94
500.352	533.94
500.569	550.94
500.786	572.94
501.003	538.94
501.22	484.94
501.437	429.94
501.654	400.94
501.871	370.94
502.088	407.94
502.305	360.94
502.522	369.94
