Data from NickelSpatula_HRD10591_16-33-34-126.txt Node
Date: Mon Jul 22 16:33:34 EDT 2019
User: cochatt
Spectrometer: HR+D1059
Trigger mode: 1
Integration Time (sec): 1.000000E-1
Scans to average: 1
Electric dark correction enabled: true
Nonlinearity correction enabled: false
Boxcar width: 0
XAxis mode: Wavelengths
Number of Pixels in Spectrum: 2048
>>>>>Begin Spectral Data<<<<<
223.165	-19.88
223.4	-19.88
223.635	-19.88
223.869	-26.88
224.104	-21.88
224.338	-8.88
224.573	-17.88
224.808	1.12
225.042	-4.88
225.277	-16.88
225.511	4.12
225.746	12.12
225.98	5.12
226.215	22.12
226.449	5.12
226.683	15.12
226.918	23.12
227.152	29.12
227.387	33.12
227.621	51.12
227.856	53.12
228.09	53.12
228.324	56.12
228.559	57.12
228.793	54.12
229.027	84.12
229.262	67.12
229.496	86.12
229.73	78.12
229.964	97.12
230.199	91.12
230.433	93.12
230.667	90.12
230.901	92.12
231.136	92.12
231.37	90.12
231.604	111.12
231.838	110.12
232.072	117.12
232.306	109.12
232.541	107.12
232.775	101.12
233.009	94.12
233.243	120.12
233.477	106.12
233.711	115.12
233.945	103.12
234.179	117.12
234.413	104.12
234.647	102.12
234.881	128.12
235.115	123.12
235.349	115.12
235.583	127.12
235.817	102.12
236.051	114.12
236.285	113.12
236.519	127.12
236.753	137.12
236.987	126.12
237.221	117.12
237.455	120.12
237.689	113.12
237.922	115.12
238.156	114.12
238.39	132.12
238.624	156.12
238.858	150.12
239.091	128.12
239.325	126.12
239.559	133.12
239.793	131.12
240.027	157.12
240.26	153.12
240.494	140.12
240.728	134.12
240.961	162.12
241.195	149.12
241.429	154.12
241.662	148.12
241.896	137.12
242.13	131.12
242.363	128.12
242.597	130.12
242.83	136.12
243.064	142.12
243.298	151.12
243.531	159.12
243.765	161.12
243.998	149.12
244.232	143.12
244.465	157.12
244.699	159.12
244.932	171.12
245.166	149.12
245.399	152.12
245.633	149.12
245.866	144.12
246.099	145.12
246.333	159.12
246.566	165.12
246.8	173.12
247.033	175.12
247.266	171.12
247.5	153.12
247.733	159.12
247.966	164.12
248.2	172.12
248.433	181.12
248.666	189.12
248.899	179.12
249.133	185.12
249.366	198.12
249.599	194.12
249.832	195.12
250.066	181.12
250.299	177.12
250.532	176.12
250.765	177.12
250.998	178.12
251.231	164.12
251.465	185.12
251.698	174.12
251.931	186.12
252.164	191.12
252.397	202.12
252.63	209.12
252.863	230.12
253.096	225.12
253.329	223.12
253.562	229.12
253.795	255.12
254.028	265.12
254.261	279.12
254.494	245.12
254.727	230.12
254.96	229.12
255.193	233.12
255.426	243.12
255.659	186.12
255.892	177.12
256.124	197.12
256.357	210.12
256.59	241.12
256.823	234.12
257.056	213.12
257.289	211.12
257.521	193.12
257.754	218.12
257.987	256.12
258.22	241.12
258.452	213.12
258.685	219.12
258.918	253.12
259.151	240.12
259.383	258.12
259.616	291.12
259.849	296.12
260.081	315.12
260.314	315.12
260.547	284.12
260.779	296.12
261.012	341.12
261.244	305.12
261.477	299.12
261.71	284.12
261.942	262.12
262.175	257.12
262.407	263.12
262.64	249.12
262.872	283.12
263.105	297.12
263.337	307.12
263.57	303.12
263.802	218.12
264.035	193.12
264.267	195.12
264.499	173.12
264.732	153.12
264.964	173.12
265.197	165.12
265.429	177.12
265.661	182.12
265.894	181.12
266.126	206.12
266.358	211.12
266.591	246.12
266.823	285.12
267.055	287.12
267.287	269.12
267.52	259.12
267.752	265.12
267.984	271.12
268.216	283.12
268.448	238.12
268.681	232.12
268.913	235.12
269.145	257.12
269.377	253.12
269.609	272.12
269.841	245.12
270.073	281.12
270.306	295.12
270.538	278.12
270.77	284.12
271.002	278.12
271.234	288.12
271.466	313.12
271.698	279.12
271.93	272.12
272.162	262.12
272.394	270.12
272.626	261.12
272.858	271.12
273.09	275.12
273.322	228.12
273.553	219.12
273.785	271.12
274.017	342.12
274.249	403.12
274.481	401.12
274.713	443.12
274.945	492.12
275.176	534.12
275.408	481.12
275.64	445.12
275.872	437.12
276.104	390.12
276.335	334.12
276.567	347.12
276.799	354.12
277.031	370.12
277.262	307.12
277.494	240.12
277.726	232.12
277.957	234.12
278.189	271.12
278.421	277.12
278.652	265.12
278.884	238.12
279.115	249.12
279.347	230.12
279.579	237.12
279.81	251.12
280.042	241.12
280.273	247.12
280.505	230.12
280.736	198.12
280.968	221.12
281.199	219.12
281.431	252.12
281.662	241.12
281.894	211.12
282.125	245.12
282.356	263.12
282.588	288.12
282.819	242.12
283.051	274.12
283.282	310.12
283.513	335.12
283.745	387.12
283.976	381.12
284.207	366.12
284.439	367.12
284.67	356.12
284.901	306.12
285.132	341.12
285.364	355.12
285.595	334.12
285.826	347.12
286.057	353.12
286.288	348.12
286.52	362.12
286.751	382.12
286.982	381.12
287.213	344.12
287.444	335.12
287.675	355.12
287.906	342.12
288.138	300.12
288.369	277.12
288.6	250.12
288.831	256.12
289.062	311.12
289.293	335.12
289.524	301.12
289.755	310.12
289.986	322.12
290.217	295.12
290.448	215.12
290.679	203.12
290.91	201.12
291.141	203.12
291.371	200.12
291.602	203.12
291.833	207.12
292.064	227.12
292.295	234.12
292.526	260.12
292.757	264.12
292.987	286.12
293.218	298.12
293.449	301.12
293.68	330.12
293.91	320.12
294.141	315.12
294.372	300.12
294.603	279.12
294.833	298.12
295.064	343.12
295.295	342.12
295.525	279.12
295.756	230.12
295.987	209.12
296.217	187.12
296.448	198.12
296.679	224.12
296.909	229.12
297.14	253.12
297.37	278.12
297.601	281.12
297.831	232.12
298.062	235.12
298.292	278.12
298.523	280.12
298.753	314.12
298.984	289.12
299.214	265.12
299.445	206.12
299.675	196.12
299.905	214.12
300.136	206.12
300.366	231.12
300.597	231.12
300.827	223.12
301.057	211.12
301.288	199.12
301.518	218.12
301.748	236.12
301.979	244.12
302.209	264.12
302.439	265.12
302.669	227.12
302.9	248.12
303.13	238.12
303.36	222.12
303.59	219.12
303.82	217.12
304.051	244.12
304.281	246.12
304.511	264.12
304.741	214.12
304.971	236.12
305.201	254.12
305.431	252.12
305.661	218.12
305.891	216.12
306.121	211.12
306.352	196.12
306.582	189.12
306.812	171.12
307.042	190.12
307.272	168.12
307.502	177.12
307.731	191.12
307.961	201.12
308.191	182.12
308.421	189.12
308.651	183.12
308.881	180.12
309.111	179.12
309.341	154.12
309.571	190.12
309.8	212.12
310.03	189.12
310.26	190.12
310.49	181.12
310.72	166.12
310.949	185.12
311.179	187.12
311.409	188.12
311.639	203.12
311.868	251.12
312.098	322.12
312.328	345.12
312.557	326.12
312.787	342.12
313.017	307.12
313.246	324.12
313.476	353.12
313.706	307.12
313.935	265.12
314.165	204.12
314.394	204.12
314.624	200.12
314.853	206.12
315.083	197.12
315.312	193.12
315.542	210.12
315.771	211.12
316.001	185.12
316.23	158.12
316.46	181.12
316.689	171.12
316.919	173.12
317.148	183.12
317.377	174.12
317.607	183.12
317.836	201.12
318.065	219.12
318.295	268.12
318.524	232.12
318.753	195.12
318.983	194.12
319.212	195.12
319.441	201.12
319.67	210.12
319.9	211.12
320.129	226.12
320.358	198.12
320.587	189.12
320.816	206.12
321.046	216.12
321.275	241.12
321.504	236.12
321.733	252.12
321.962	224.12
322.191	214.12
322.42	201.12
322.649	207.12
322.878	221.12
323.108	220.12
323.337	210.12
323.566	221.12
323.795	218.12
324.024	206.12
324.253	208.12
324.482	203.12
324.71	211.12
324.939	226.12
325.168	216.12
325.397	194.12
325.626	188.12
325.855	193.12
326.084	187.12
326.313	188.12
326.542	172.12
326.77	185.12
326.999	179.12
327.228	175.12
327.457	173.12
327.686	203.12
327.914	182.12
328.143	163.12
328.372	182.12
328.6	193.12
328.829	197.12
329.058	184.12
329.287	178.12
329.515	172.12
329.744	172.12
329.972	176.12
330.201	170.12
330.43	169.12
330.658	212.12
330.887	224.12
331.115	202.12
331.344	196.12
331.572	191.12
331.801	192.12
332.03	190.12
332.258	185.12
332.486	185.12
332.715	205.12
332.943	189.12
333.172	193.12
333.4	202.12
333.629	194.12
333.857	229.12
334.085	224.12
334.314	226.12
334.542	231.12
334.771	211.12
334.999	213.12
335.227	191.12
335.455	201.12
335.684	214.12
335.912	233.12
336.14	247.12
336.369	245.12
336.597	233.12
336.825	255.12
337.053	270.12
337.281	253.12
337.51	199.12
337.738	199.12
337.966	210.12
338.194	230.12
338.422	226.12
338.65	207.12
338.878	184.12
339.106	187.12
339.334	212.12
339.562	209.12
339.79	200.12
340.018	204.12
340.246	189.12
340.474	222.12
340.702	223.12
340.93	247.12
341.158	223.12
341.386	226.12
341.614	202.12
341.842	210.12
342.07	220.12
342.298	252.12
342.526	270.12
342.754	221.12
342.981	198.12
343.209	209.12
343.437	224.12
343.665	220.12
343.893	225.12
344.12	261.12
344.348	283.12
344.576	261.12
344.804	224.12
345.031	190.12
345.259	205.12
345.487	212.12
345.714	196.12
345.942	237.12
346.17	239.12
346.397	232.12
346.625	215.12
346.853	181.12
347.08	198.12
347.308	189.12
347.535	227.12
347.763	222.12
347.99	190.12
348.218	204.12
348.445	207.12
348.673	213.12
348.9	199.12
349.128	210.12
349.355	191.12
349.583	210.12
349.81	196.12
350.037	197.12
350.265	190.12
350.492	168.12
350.72	162.12
350.947	185.12
351.174	179.12
351.402	192.12
351.629	195.12
351.856	184.12
352.083	187.12
352.311	174.12
352.538	203.12
352.765	223.12
352.992	213.12
353.22	201.12
353.447	201.12
353.674	192.12
353.901	185.12
354.128	179.12
354.355	192.12
354.583	192.12
354.81	203.12
355.037	219.12
355.264	224.12
355.491	208.12
355.718	231.12
355.945	207.12
356.172	213.12
356.399	186.12
356.626	232.12
356.853	284.12
357.08	284.12
357.307	294.12
357.534	231.12
357.761	229.12
357.988	293.12
358.215	322.12
358.441	309.12
358.668	305.12
358.895	265.12
359.122	220.12
359.349	214.12
359.576	251.12
359.802	206.12
360.029	177.12
360.256	193.12
360.483	215.12
360.709	271.12
360.936	290.12
361.163	250.12
361.39	199.12
361.616	191.12
361.843	204.12
362.07	265.12
362.296	250.12
362.523	205.12
362.749	181.12
362.976	186.12
363.203	209.12
363.429	211.12
363.656	195.12
363.882	182.12
364.109	198.12
364.335	207.12
364.562	185.12
364.788	194.12
365.015	233.12
365.241	215.12
365.468	181.12
365.694	186.12
365.92	155.12
366.147	167.12
366.373	154.12
366.599	177.12
366.826	169.12
367.052	177.12
367.278	177.12
367.505	168.12
367.731	170.12
367.957	198.12
368.184	188.12
368.41	187.12
368.636	179.12
368.862	191.12
369.089	216.12
369.315	194.12
369.541	182.12
369.767	184.12
369.993	169.12
370.219	174.12
370.445	191.12
370.672	175.12
370.898	196.12
371.124	202.12
371.35	182.12
371.576	167.12
371.802	184.12
372.028	200.12
372.254	213.12
372.48	206.12
372.706	189.12
372.932	226.12
373.158	203.12
373.384	227.12
373.61	292.12
373.835	315.12
374.061	252.12
374.287	226.12
374.513	263.12
374.739	276.12
374.965	288.12
375.191	287.12
375.416	219.12
375.642	196.12
375.868	217.12
376.094	237.12
376.319	205.12
376.545	211.12
376.771	231.12
376.997	207.12
377.222	183.12
377.448	150.12
377.674	167.12
377.899	156.12
378.125	153.12
378.35	170.12
378.576	153.12
378.802	177.12
379.027	199.12
379.253	183.12
379.478	179.12
379.704	210.12
379.929	213.12
380.155	210.12
380.38	191.12
380.606	186.12
380.831	245.12
381.057	189.12
381.282	197.12
381.507	211.12
381.733	246.12
381.958	249.12
382.184	257.12
382.409	277.12
382.634	286.12
382.86	292.12
383.085	245.12
383.31	217.12
383.535	235.12
383.761	237.12
383.986	221.12
384.211	274.12
384.436	245.12
384.662	213.12
384.887	205.12
385.112	199.12
385.337	214.12
385.562	213.12
385.787	234.12
386.013	249.12
386.238	241.12
386.463	203.12
386.688	216.12
386.913	201.12
387.138	198.12
387.363	206.12
387.588	217.12
387.813	215.12
388.038	225.12
388.263	212.12
388.488	189.12
388.713	223.12
388.938	232.12
389.163	193.12
389.387	187.12
389.612	192.12
389.837	192.12
390.062	182.12
390.287	204.12
390.512	210.12
390.736	191.12
390.961	187.12
391.186	173.12
391.411	181.12
391.636	183.12
391.86	210.12
392.085	215.12
392.31	214.12
392.534	204.12
392.759	203.12
392.984	203.12
393.208	217.12
393.433	200.12
393.658	205.12
393.882	175.12
394.107	166.12
394.331	180.12
394.556	171.12
394.78	183.12
395.005	183.12
395.229	179.12
395.454	170.12
395.678	189.12
395.903	182.12
396.127	194.12
396.352	199.12
396.576	203.12
396.801	227.12
397.025	231.12
397.249	230.12
397.474	203.12
397.698	190.12
397.922	199.12
398.147	177.12
398.371	187.12
398.595	195.12
398.82	202.12
399.044	206.12
399.268	215.12
399.492	207.12
399.717	236.12
399.941	241.12
400.165	241.12
400.389	218.12
400.613	219.12
400.837	198.12
401.062	182.12
401.286	189.12
401.51	197.12
401.734	183.12
401.958	185.12
402.182	210.12
402.406	182.12
402.63	193.12
402.854	209.12
403.078	231.12
403.302	278.12
403.526	267.12
403.75	257.12
403.974	216.12
404.198	224.12
404.422	244.12
404.645	270.12
404.869	288.12
405.093	226.12
405.317	218.12
405.541	212.12
405.765	203.12
405.988	211.12
406.212	216.12
406.436	243.12
406.66	254.12
406.883	205.12
407.107	230.12
407.331	265.12
407.555	260.12
407.778	245.12
408.002	233.12
408.226	208.12
408.449	236.12
408.673	233.12
408.896	206.12
409.12	198.12
409.344	214.12
409.567	213.12
409.791	197.12
410.014	185.12
410.238	191.12
410.461	197.12
410.685	206.12
410.908	206.12
411.132	204.12
411.355	210.12
411.578	211.12
411.802	194.12
412.025	201.12
412.249	213.12
412.472	199.12
412.695	195.12
412.919	210.12
413.142	207.12
413.365	226.12
413.589	199.12
413.812	207.12
414.035	198.12
414.258	198.12
414.482	201.12
414.705	224.12
414.928	195.12
415.151	194.12
415.374	207.12
415.597	192.12
415.821	203.12
416.044	191.12
416.267	190.12
416.49	173.12
416.713	193.12
416.936	186.12
417.159	190.12
417.382	189.12
417.605	205.12
417.828	197.12
418.051	195.12
418.274	200.12
418.497	196.12
418.72	206.12
418.943	195.12
419.166	225.12
419.389	224.12
419.611	208.12
419.834	210.12
420.057	223.12
420.28	226.12
420.503	214.12
420.726	198.12
420.948	180.12
421.171	202.12
421.394	180.12
421.617	170.12
421.839	175.12
422.062	189.12
422.285	195.12
422.507	207.12
422.73	187.12
422.953	207.12
423.175	194.12
423.398	202.12
423.621	194.12
423.843	228.12
424.066	204.12
424.288	188.12
424.511	190.12
424.733	202.12
424.956	202.12
425.178	226.12
425.401	236.12
425.623	254.12
425.846	237.12
426.068	204.12
426.291	241.12
426.513	198.12
426.735	182.12
426.958	210.12
427.18	214.12
427.402	272.12
427.625	274.12
427.847	251.12
428.069	211.12
428.292	199.12
428.514	183.12
428.736	194.12
428.958	211.12
429.181	243.12
429.403	188.12
429.625	195.12
429.847	182.12
430.069	215.12
430.292	193.12
430.514	187.12
430.736	187.12
430.958	220.12
431.18	234.12
431.402	191.12
431.624	175.12
431.846	169.12
432.068	183.12
432.29	186.12
432.512	207.12
432.734	226.12
432.956	226.12
433.178	181.12
433.4	177.12
433.622	180.12
433.844	188.12
434.066	208.12
434.287	197.12
434.509	187.12
434.731	209.12
434.953	210.12
435.175	200.12
435.397	224.12
435.618	200.12
435.84	180.12
436.062	189.12
436.284	193.12
436.505	175.12
436.727	175.12
436.949	175.12
437.17	188.12
437.392	183.12
437.614	184.12
437.835	198.12
438.057	197.12
438.278	195.12
438.5	252.12
438.721	243.12
438.943	184.12
439.165	172.12
439.386	181.12
439.608	163.12
439.829	167.12
440.05	178.12
440.272	191.12
440.493	199.12
440.715	241.12
440.936	205.12
441.158	183.12
441.379	191.12
441.6	199.12
441.822	205.12
442.043	190.12
442.264	200.12
442.486	194.12
442.707	194.12
442.928	188.12
443.149	180.12
443.371	194.12
443.592	208.12
443.813	196.12
444.034	189.12
444.255	189.12
444.476	206.12
444.698	205.12
444.919	206.12
445.14	332.12
445.361	264.12
445.582	219.12
445.803	219.12
446.024	211.12
446.245	218.12
446.466	197.12
446.687	183.12
446.908	194.12
447.129	186.12
447.35	174.12
447.571	197.12
447.792	185.12
448.013	173.12
448.234	170.12
448.455	171.12
448.675	175.12
448.896	165.12
449.117	186.12
449.338	186.12
449.559	177.12
449.779	197.12
450	178.12
450.221	187.12
450.442	185.12
450.662	189.12
450.883	182.12
451.104	187.12
451.324	159.12
451.545	149.12
451.766	167.12
451.986	170.12
452.207	187.12
452.428	175.12
452.648	164.12
452.869	189.12
453.089	186.12
453.31	194.12
453.53	156.12
453.751	181.12
453.971	190.12
454.192	157.12
454.412	181.12
454.633	178.12
454.853	177.12
455.073	160.12
455.294	187.12
455.514	165.12
455.734	170.12
455.955	185.12
456.175	183.12
456.395	167.12
456.616	151.12
456.836	165.12
457.056	167.12
457.276	174.12
457.497	166.12
457.717	163.12
457.937	170.12
458.157	158.12
458.377	165.12
458.598	164.12
458.818	169.12
459.038	163.12
459.258	190.12
459.478	185.12
459.698	191.12
459.918	220.12
460.138	208.12
460.358	194.12
460.578	197.12
460.798	186.12
461.018	192.12
461.238	198.12
461.458	185.12
461.678	190.12
461.898	201.12
462.118	207.12
462.338	204.12
462.558	215.12
462.777	215.12
462.997	223.12
463.217	232.12
463.437	235.12
463.657	239.12
463.876	210.12
464.096	220.12
464.316	218.12
464.536	203.12
464.755	225.12
464.975	236.12
465.195	227.12
465.414	225.12
465.634	192.12
465.854	201.12
466.073	181.12
466.293	186.12
466.512	207.12
466.732	206.12
466.951	195.12
467.171	183.12
467.391	195.12
467.61	181.12
467.829	188.12
468.049	214.12
468.268	193.12
468.488	187.12
468.707	186.12
468.927	207.12
469.146	212.12
469.365	209.12
469.585	182.12
469.804	179.12
470.023	197.12
470.243	175.12
470.462	189.12
470.681	188.12
470.901	197.12
471.12	193.12
471.339	218.12
471.558	188.12
471.777	197.12
471.997	211.12
472.216	206.12
472.435	214.12
472.654	210.12
472.873	186.12
473.092	194.12
473.311	203.12
473.53	210.12
473.749	197.12
473.968	193.12
474.187	207.12
474.406	212.12
474.625	187.12
474.844	206.12
475.063	196.12
475.282	199.12
475.501	218.12
475.72	245.12
475.939	226.12
476.158	199.12
476.377	254.12
476.596	266.12
476.814	268.12
477.033	251.12
477.252	202.12
477.471	208.12
477.69	198.12
477.908	198.12
478.127	202.12
478.346	222.12
478.564	237.12
478.783	221.12
479.002	218.12
479.22	250.12
479.439	265.12
479.658	238.12
479.876	225.12
480.095	226.12
480.313	233.12
480.532	226.12
480.751	213.12
480.969	227.12
481.188	226.12
481.406	255.12
481.624	228.12
481.843	206.12
482.061	185.12
482.28	238.12
482.498	284.12
482.717	288.12
482.935	236.12
483.153	211.12
483.372	195.12
483.59	208.12
483.808	213.12
484.027	210.12
484.245	193.12
484.463	174.12
484.681	199.12
484.9	220.12
485.118	234.12
485.336	222.12
485.554	215.12
485.772	230.12
485.99	232.12
486.209	234.12
486.427	246.12
486.645	234.12
486.863	233.12
487.081	241.12
487.299	265.12
487.517	243.12
487.735	214.12
487.953	231.12
488.171	230.12
488.389	223.12
488.607	215.12
488.825	228.12
489.043	243.12
489.261	283.12
489.479	297.12
489.696	248.12
489.914	210.12
490.132	216.12
490.35	219.12
490.568	217.12
490.786	221.12
491.003	216.12
491.221	224.12
491.439	212.12
491.657	205.12
491.874	229.12
492.092	264.12
492.31	316.12
492.527	289.12
492.745	268.12
492.963	238.12
493.18	239.12
493.398	256.12
493.615	244.12
493.833	244.12
494.05	226.12
494.268	239.12
494.485	243.12
494.703	225.12
494.92	226.12
495.138	238.12
495.355	227.12
495.573	238.12
495.79	262.12
496.008	326.12
496.225	280.12
496.442	259.12
496.66	257.12
496.877	277.12
497.094	245.12
497.312	237.12
497.529	253.12
497.746	257.12
497.963	262.12
498.181	285.12
498.398	305.12
498.615	322.12
498.832	316.12
499.049	321.12
499.267	303.12
499.484	302.12
499.701	329.12
499.918	346.12
500.135	398.12
500.352	389.12
500.569	407.12
500.786	414.12
501.003	428.12
501.22	366.12
501.437	357.12
501.654	332.12
501.871	329.12
502.088	300.12
502.305	297.12
502.522	295.12
502.739	281.12
