Data from NickelSpatula_HRD10591_16-35-24-126.txt Node
Date: Mon Jul 22 16:35:24 EDT 2019
User: cochatt
Spectrometer: HR+D1059
Trigger mode: 1
Integration Time (sec): 1.000000E-1
Scans to average: 1
Electric dark correction enabled: true
Nonlinearity correction enabled: false
Boxcar width: 0
XAxis mode: Wavelengths
Number of Pixels in Spectrum: 2048
>>>>>Begin Spectral Data<<<<<
223.165	-28.31
223.4	-28.31
223.635	-28.31
223.869	-14.31
224.104	-23.31
224.338	-20.31
224.573	-6.31
224.808	0.69
225.042	-15.31
225.277	1.69
225.511	-0.31
225.746	0.69
225.98	10.69
226.215	10.69
226.449	15.69
226.683	8.69
226.918	36.69
227.152	22.69
227.387	26.69
227.621	32.69
227.856	41.69
228.09	50.69
228.324	61.69
228.559	46.69
228.793	46.69
229.027	75.69
229.262	88.69
229.496	91.69
229.73	87.69
229.964	85.69
230.199	91.69
230.433	98.69
230.667	88.69
230.901	97.69
231.136	94.69
231.37	103.69
231.604	109.69
231.838	102.69
232.072	111.69
232.306	108.69
232.541	111.69
232.775	116.69
233.009	96.69
233.243	119.69
233.477	114.69
233.711	107.69
233.945	132.69
234.179	124.69
234.413	131.69
234.647	141.69
234.881	144.69
235.115	139.69
235.349	146.69
235.583	134.69
235.817	132.69
236.051	120.69
236.285	128.69
236.519	133.69
236.753	139.69
236.987	130.69
237.221	149.69
237.455	139.69
237.689	143.69
237.922	139.69
238.156	144.69
238.39	158.69
238.624	175.69
238.858	168.69
239.091	160.69
239.325	162.69
239.559	148.69
239.793	159.69
240.027	179.69
240.26	174.69
240.494	178.69
240.728	158.69
240.961	190.69
241.195	185.69
241.429	178.69
241.662	201.69
241.896	159.69
242.13	147.69
242.363	133.69
242.597	147.69
242.83	166.69
243.064	163.69
243.298	171.69
243.531	184.69
243.765	176.69
243.998	167.69
244.232	171.69
244.465	159.69
244.699	162.69
244.932	186.69
245.166	175.69
245.399	174.69
245.633	168.69
245.866	161.69
246.099	172.69
246.333	187.69
246.566	196.69
246.8	215.69
247.033	207.69
247.266	197.69
247.5	194.69
247.733	168.69
247.966	190.69
248.2	199.69
248.433	188.69
248.666	239.69
248.899	216.69
249.133	214.69
249.366	235.69
249.599	247.69
249.832	247.69
250.066	207.69
250.299	222.69
250.532	196.69
250.765	202.69
250.998	200.69
251.231	194.69
251.465	225.69
251.698	215.69
251.931	207.69
252.164	205.69
252.397	245.69
252.63	268.69
252.863	272.69
253.096	292.69
253.329	272.69
253.562	266.69
253.795	310.69
254.028	326.69
254.261	354.69
254.494	292.69
254.727	281.69
254.96	278.69
255.193	289.69
255.426	286.69
255.659	245.69
255.892	216.69
256.124	213.69
256.357	248.69
256.59	295.69
256.823	289.69
257.056	255.69
257.289	225.69
257.521	241.69
257.754	279.69
257.987	290.69
258.22	282.69
258.452	266.69
258.685	271.69
258.918	285.69
259.151	315.69
259.383	320.69
259.616	360.69
259.849	355.69
260.081	371.69
260.314	389.69
260.547	346.69
260.779	344.69
261.012	388.69
261.244	354.69
261.477	378.69
261.71	340.69
261.942	308.69
262.175	305.69
262.407	296.69
262.64	308.69
262.872	352.69
263.105	360.69
263.337	391.69
263.57	351.69
263.802	242.69
264.035	219.69
264.267	236.69
264.499	204.69
264.732	197.69
264.964	190.69
265.197	175.69
265.429	200.69
265.661	202.69
265.894	231.69
266.126	212.69
266.358	261.69
266.591	294.69
266.823	345.69
267.055	336.69
267.287	287.69
267.52	304.69
267.752	303.69
267.984	340.69
268.216	342.69
268.448	275.69
268.681	266.69
268.913	304.69
269.145	302.69
269.377	317.69
269.609	313.69
269.841	304.69
270.073	306.69
270.306	306.69
270.538	346.69
270.77	325.69
271.002	330.69
271.234	362.69
271.466	353.69
271.698	340.69
271.93	326.69
272.162	313.69
272.394	338.69
272.626	321.69
272.858	353.69
273.09	337.69
273.322	295.69
273.553	280.69
273.785	332.69
274.017	407.69
274.249	510.69
274.481	509.69
274.713	585.69
274.945	622.69
275.176	640.69
275.408	583.69
275.64	559.69
275.872	552.69
276.104	490.69
276.335	435.69
276.567	415.69
276.799	450.69
277.031	450.69
277.262	383.69
277.494	309.69
277.726	283.69
277.957	297.69
278.189	343.69
278.421	336.69
278.652	342.69
278.884	322.69
279.115	306.69
279.347	286.69
279.579	296.69
279.81	274.69
280.042	281.69
280.273	306.69
280.505	273.69
280.736	248.69
280.968	227.69
281.199	257.69
281.431	282.69
281.662	274.69
281.894	262.69
282.125	303.69
282.356	311.69
282.588	337.69
282.819	292.69
283.051	325.69
283.282	374.69
283.513	418.69
283.745	473.69
283.976	478.69
284.207	433.69
284.439	452.69
284.67	428.69
284.901	404.69
285.132	425.69
285.364	444.69
285.595	393.69
285.826	426.69
286.057	452.69
286.288	436.69
286.52	427.69
286.751	441.69
286.982	444.69
287.213	395.69
287.444	397.69
287.675	398.69
287.906	418.69
288.138	329.69
288.369	318.69
288.6	284.69
288.831	294.69
289.062	342.69
289.293	383.69
289.524	355.69
289.755	366.69
289.986	350.69
290.217	312.69
290.448	262.69
290.679	233.69
290.91	221.69
291.141	221.69
291.371	229.69
291.602	230.69
291.833	213.69
292.064	254.69
292.295	276.69
292.526	326.69
292.757	324.69
292.987	344.69
293.218	354.69
293.449	372.69
293.68	382.69
293.91	343.69
294.141	383.69
294.372	338.69
294.603	314.69
294.833	340.69
295.064	395.69
295.295	386.69
295.525	302.69
295.756	263.69
295.987	245.69
296.217	244.69
296.448	242.69
296.679	249.69
296.909	277.69
297.14	291.69
297.37	330.69
297.601	315.69
297.831	246.69
298.062	288.69
298.292	323.69
298.523	357.69
298.753	373.69
298.984	364.69
299.214	291.69
299.445	246.69
299.675	226.69
299.905	247.69
300.136	238.69
300.366	256.69
300.597	249.69
300.827	238.69
301.057	206.69
301.288	225.69
301.518	259.69
301.748	291.69
301.979	294.69
302.209	291.69
302.439	324.69
302.669	273.69
302.9	269.69
303.13	272.69
303.36	259.69
303.59	266.69
303.82	248.69
304.051	287.69
304.281	280.69
304.511	307.69
304.741	279.69
304.971	286.69
305.201	293.69
305.431	254.69
305.661	250.69
305.891	253.69
306.121	242.69
306.352	224.69
306.582	188.69
306.812	194.69
307.042	208.69
307.272	200.69
307.502	174.69
307.731	202.69
307.961	218.69
308.191	201.69
308.421	198.69
308.651	178.69
308.881	180.69
309.111	175.69
309.341	192.69
309.571	200.69
309.8	196.69
310.03	210.69
310.26	215.69
310.49	223.69
310.72	207.69
310.949	185.69
311.179	203.69
311.409	208.69
311.639	227.69
311.868	279.69
312.098	384.69
312.328	414.69
312.557	374.69
312.787	407.69
313.017	347.69
313.246	372.69
313.476	399.69
313.706	359.69
313.935	268.69
314.165	238.69
314.394	202.69
314.624	212.69
314.853	227.69
315.083	229.69
315.312	250.69
315.542	227.69
315.771	213.69
316.001	193.69
316.23	170.69
316.46	203.69
316.689	178.69
316.919	192.69
317.148	196.69
317.377	205.69
317.607	204.69
317.836	200.69
318.065	232.69
318.295	265.69
318.524	246.69
318.753	218.69
318.983	196.69
319.212	209.69
319.441	215.69
319.67	247.69
319.9	264.69
320.129	236.69
320.358	195.69
320.587	202.69
320.816	209.69
321.046	249.69
321.275	277.69
321.504	286.69
321.733	276.69
321.962	273.69
322.191	247.69
322.42	251.69
322.649	245.69
322.878	249.69
323.108	285.69
323.337	241.69
323.566	233.69
323.795	220.69
324.024	226.69
324.253	219.69
324.482	203.69
324.71	243.69
324.939	245.69
325.168	251.69
325.397	215.69
325.626	204.69
325.855	193.69
326.084	194.69
326.313	195.69
326.542	176.69
326.77	211.69
326.999	197.69
327.228	207.69
327.457	224.69
327.686	215.69
327.914	194.69
328.143	185.69
328.372	177.69
328.6	176.69
328.829	182.69
329.058	193.69
329.287	178.69
329.515	179.69
329.744	200.69
329.972	188.69
330.201	182.69
330.43	189.69
330.658	204.69
330.887	228.69
331.115	222.69
331.344	210.69
331.572	213.69
331.801	200.69
332.03	191.69
332.258	202.69
332.486	200.69
332.715	199.69
332.943	199.69
333.172	194.69
333.4	197.69
333.629	195.69
333.857	229.69
334.085	230.69
334.314	225.69
334.542	219.69
334.771	208.69
334.999	204.69
335.227	185.69
335.455	201.69
335.684	222.69
335.912	242.69
336.14	256.69
336.369	242.69
336.597	247.69
336.825	268.69
337.053	346.69
337.281	274.69
337.51	214.69
337.738	217.69
337.966	230.69
338.194	251.69
338.422	223.69
338.65	190.69
338.878	190.69
339.106	183.69
339.334	230.69
339.562	232.69
339.79	219.69
340.018	203.69
340.246	214.69
340.474	238.69
340.702	256.69
340.93	275.69
341.158	268.69
341.386	235.69
341.614	217.69
341.842	224.69
342.07	247.69
342.298	284.69
342.526	291.69
342.754	242.69
342.981	220.69
343.209	220.69
343.437	250.69
343.665	227.69
343.893	262.69
344.12	285.69
344.348	331.69
344.576	307.69
344.804	265.69
345.031	221.69
345.259	226.69
345.487	235.69
345.714	218.69
345.942	217.69
346.17	245.69
346.397	249.69
346.625	185.69
346.853	210.69
347.08	197.69
347.308	224.69
347.535	244.69
347.763	252.69
347.99	206.69
348.218	182.69
348.445	211.69
348.673	208.69
348.9	220.69
349.128	232.69
349.355	238.69
349.583	202.69
349.81	211.69
350.037	208.69
350.265	185.69
350.492	164.69
350.72	162.69
350.947	177.69
351.174	178.69
351.402	188.69
351.629	216.69
351.856	198.69
352.083	197.69
352.311	201.69
352.538	220.69
352.765	248.69
352.992	218.69
353.22	226.69
353.447	239.69
353.674	220.69
353.901	204.69
354.128	220.69
354.355	236.69
354.583	221.69
354.81	225.69
355.037	225.69
355.264	233.69
355.491	229.69
355.718	254.69
355.945	240.69
356.172	250.69
356.399	227.69
356.626	278.69
356.853	338.69
357.08	342.69
357.307	381.69
357.534	299.69
357.761	322.69
357.988	377.69
358.215	428.69
358.441	394.69
358.668	348.69
358.895	314.69
359.122	257.69
359.349	270.69
359.576	268.69
359.802	232.69
360.029	226.69
360.256	230.69
360.483	263.69
360.709	326.69
360.936	372.69
361.163	322.69
361.39	246.69
361.616	223.69
361.843	256.69
362.07	302.69
362.296	281.69
362.523	234.69
362.749	200.69
362.976	211.69
363.203	274.69
363.429	278.69
363.656	231.69
363.882	211.69
364.109	242.69
364.335	222.69
364.562	206.69
364.788	231.69
365.015	267.69
365.241	246.69
365.468	228.69
365.694	190.69
365.92	171.69
366.147	178.69
366.373	171.69
366.599	175.69
366.826	181.69
367.052	183.69
367.278	181.69
367.505	166.69
367.731	200.69
367.957	206.69
368.184	228.69
368.41	211.69
368.636	209.69
368.862	219.69
369.089	219.69
369.315	202.69
369.541	191.69
369.767	169.69
369.993	194.69
370.219	183.69
370.445	200.69
370.672	193.69
370.898	223.69
371.124	220.69
371.35	198.69
371.576	187.69
371.802	212.69
372.028	248.69
372.254	273.69
372.48	247.69
372.706	220.69
372.932	224.69
373.158	242.69
373.384	272.69
373.61	340.69
373.835	371.69
374.061	267.69
374.287	242.69
374.513	279.69
374.739	327.69
374.965	340.69
375.191	333.69
375.416	239.69
375.642	209.69
375.868	249.69
376.094	281.69
376.319	243.69
376.545	257.69
376.771	274.69
376.997	250.69
377.222	186.69
377.448	160.69
377.674	163.69
377.899	170.69
378.125	170.69
378.35	188.69
378.576	183.69
378.802	198.69
379.027	218.69
379.253	195.69
379.478	208.69
379.704	223.69
379.929	247.69
380.155	220.69
380.38	204.69
380.606	228.69
380.831	247.69
381.057	228.69
381.282	233.69
381.507	242.69
381.733	290.69
381.958	325.69
382.184	318.69
382.409	354.69
382.634	340.69
382.86	332.69
383.085	316.69
383.31	248.69
383.535	256.69
383.761	252.69
383.986	252.69
384.211	294.69
384.436	298.69
384.662	244.69
384.887	207.69
385.112	220.69
385.337	214.69
385.562	221.69
385.787	238.69
386.013	268.69
386.238	260.69
386.463	219.69
386.688	208.69
386.913	206.69
387.138	209.69
387.363	218.69
387.588	204.69
387.813	215.69
388.038	225.69
388.263	212.69
388.488	186.69
388.713	246.69
388.938	262.69
389.163	212.69
389.387	188.69
389.612	204.69
389.837	190.69
390.062	198.69
390.287	202.69
390.512	202.69
390.736	215.69
390.961	196.69
391.186	190.69
391.411	181.69
391.636	186.69
391.86	203.69
392.085	215.69
392.31	219.69
392.534	196.69
392.759	210.69
392.984	204.69
393.208	217.69
393.433	183.69
393.658	148.69
393.882	165.69
394.107	182.69
394.331	163.69
394.556	169.69
394.78	152.69
395.005	177.69
395.229	194.69
395.454	169.69
395.678	195.69
395.903	183.69
396.127	188.69
396.352	196.69
396.576	225.69
396.801	225.69
397.025	233.69
397.249	261.69
397.474	195.69
397.698	203.69
397.922	210.69
398.147	199.69
398.371	200.69
398.595	194.69
398.82	203.69
399.044	193.69
399.268	218.69
399.492	219.69
399.717	217.69
399.941	225.69
400.165	200.69
400.389	191.69
400.613	228.69
400.837	215.69
401.062	190.69
401.286	186.69
401.51	175.69
401.734	186.69
401.958	178.69
402.182	203.69
402.406	194.69
402.63	188.69
402.854	196.69
403.078	251.69
403.302	316.69
403.526	311.69
403.75	266.69
403.974	244.69
404.198	233.69
404.422	267.69
404.645	291.69
404.869	323.69
405.093	252.69
405.317	212.69
405.541	217.69
405.765	218.69
405.988	219.69
406.212	235.69
406.436	279.69
406.66	289.69
406.883	227.69
407.107	239.69
407.331	277.69
407.555	252.69
407.778	224.69
408.002	223.69
408.226	226.69
408.449	224.69
408.673	206.69
408.896	189.69
409.12	186.69
409.344	178.69
409.567	201.69
409.791	190.69
410.014	184.69
410.238	193.69
410.461	185.69
410.685	185.69
410.908	212.69
411.132	208.69
411.355	196.69
411.578	192.69
411.802	192.69
412.025	204.69
412.249	198.69
412.472	194.69
412.695	196.69
412.919	188.69
413.142	196.69
413.365	224.69
413.589	225.69
413.812	218.69
414.035	195.69
414.258	193.69
414.482	214.69
414.705	218.69
414.928	195.69
415.151	188.69
415.374	204.69
415.597	200.69
415.821	209.69
416.044	192.69
416.267	189.69
416.49	183.69
416.713	172.69
416.936	184.69
417.159	185.69
417.382	199.69
417.605	186.69
417.828	190.69
418.051	192.69
418.274	201.69
418.497	190.69
418.72	195.69
418.943	195.69
419.166	214.69
419.389	223.69
419.611	199.69
419.834	218.69
420.057	222.69
420.28	226.69
420.503	219.69
420.726	172.69
420.948	178.69
421.171	194.69
421.394	191.69
421.617	193.69
421.839	191.69
422.062	198.69
422.285	207.69
422.507	210.69
422.73	197.69
422.953	204.69
423.175	185.69
423.398	177.69
423.621	216.69
423.843	245.69
424.066	206.69
424.288	199.69
424.511	179.69
424.733	186.69
424.956	216.69
425.178	227.69
425.401	265.69
425.623	287.69
425.846	258.69
426.068	217.69
426.291	243.69
426.513	219.69
426.735	203.69
426.958	212.69
427.18	250.69
427.402	326.69
427.625	308.69
427.847	268.69
428.069	184.69
428.292	194.69
428.514	211.69
428.736	186.69
428.958	208.69
429.181	233.69
429.403	216.69
429.625	183.69
429.847	199.69
430.069	188.69
430.292	197.69
430.514	179.69
430.736	214.69
430.958	236.69
431.18	227.69
431.402	198.69
431.624	190.69
431.846	187.69
432.068	167.69
432.29	165.69
432.512	183.69
432.734	264.69
432.956	239.69
433.178	190.69
433.4	178.69
433.622	203.69
433.844	199.69
434.066	203.69
434.287	194.69
434.509	186.69
434.731	206.69
434.953	183.69
435.175	194.69
435.397	242.69
435.618	194.69
435.84	176.69
436.062	172.69
436.284	180.69
436.505	194.69
436.727	156.69
436.949	164.69
437.17	193.69
437.392	189.69
437.614	185.69
437.835	172.69
438.057	168.69
438.278	227.69
438.5	288.69
438.721	286.69
438.943	225.69
439.165	192.69
439.386	180.69
439.608	156.69
439.829	170.69
440.05	181.69
440.272	194.69
440.493	208.69
440.715	283.69
440.936	226.69
441.158	196.69
441.379	184.69
441.6	205.69
441.822	220.69
442.043	192.69
442.264	188.69
442.486	202.69
442.707	169.69
442.928	192.69
443.149	184.69
443.371	184.69
443.592	191.69
443.813	209.69
444.034	197.69
444.255	183.69
444.476	196.69
444.698	192.69
444.919	193.69
445.14	324.69
445.361	272.69
445.582	209.69
445.803	204.69
446.024	222.69
446.245	218.69
446.466	222.69
446.687	204.69
446.908	194.69
447.129	179.69
447.35	187.69
447.571	168.69
447.792	189.69
448.013	164.69
448.234	165.69
448.455	164.69
448.675	169.69
448.896	177.69
449.117	186.69
449.338	170.69
449.559	184.69
449.779	186.69
450	193.69
450.221	181.69
450.442	182.69
450.662	177.69
450.883	175.69
451.104	162.69
451.324	176.69
451.545	190.69
451.766	167.69
451.986	179.69
452.207	179.69
452.428	162.69
452.648	168.69
452.869	188.69
453.089	191.69
453.31	188.69
453.53	162.69
453.751	167.69
453.971	184.69
454.192	164.69
454.412	192.69
454.633	171.69
454.853	168.69
455.073	153.69
455.294	173.69
455.514	180.69
455.734	163.69
455.955	183.69
456.175	180.69
456.395	175.69
456.616	165.69
456.836	178.69
457.056	166.69
457.276	161.69
457.497	179.69
457.717	165.69
457.937	167.69
458.157	161.69
458.377	141.69
458.598	162.69
458.818	154.69
459.038	176.69
459.258	182.69
459.478	190.69
459.698	183.69
459.918	217.69
460.138	207.69
460.358	207.69
460.578	194.69
460.798	190.69
461.018	192.69
461.238	202.69
461.458	186.69
461.678	198.69
461.898	202.69
462.118	190.69
462.338	195.69
462.558	196.69
462.777	210.69
462.997	220.69
463.217	193.69
463.437	224.69
463.657	205.69
463.876	194.69
464.096	202.69
464.316	207.69
464.536	218.69
464.755	226.69
464.975	228.69
465.195	219.69
465.414	208.69
465.634	207.69
465.854	211.69
466.073	187.69
466.293	191.69
466.512	191.69
466.732	231.69
466.951	231.69
467.171	197.69
467.391	195.69
467.61	177.69
467.829	218.69
468.049	189.69
468.268	182.69
468.488	203.69
468.707	202.69
468.927	219.69
469.146	243.69
469.365	221.69
469.585	192.69
469.804	219.69
470.023	228.69
470.243	202.69
470.462	210.69
470.681	214.69
470.901	196.69
471.12	238.69
471.339	215.69
471.558	216.69
471.777	191.69
471.997	211.69
472.216	242.69
472.435	236.69
472.654	214.69
472.873	231.69
473.092	222.69
473.311	226.69
473.53	182.69
473.749	218.69
473.968	209.69
474.187	214.69
474.406	213.69
474.625	196.69
474.844	204.69
475.063	218.69
475.282	227.69
475.501	247.69
475.72	276.69
475.939	261.69
476.158	243.69
476.377	297.69
476.596	313.69
476.814	311.69
477.033	287.69
477.252	221.69
477.471	209.69
477.69	223.69
477.908	229.69
478.127	226.69
478.346	215.69
478.564	260.69
478.783	255.69
479.002	242.69
479.22	250.69
479.439	267.69
479.658	244.69
479.876	215.69
480.095	243.69
480.313	270.69
480.532	255.69
480.751	234.69
480.969	233.69
481.188	251.69
481.406	264.69
481.624	244.69
481.843	214.69
482.061	221.69
482.28	276.69
482.498	322.69
482.717	319.69
482.935	261.69
483.153	244.69
483.372	224.69
483.59	227.69
483.808	203.69
484.027	218.69
484.245	209.69
484.463	202.69
484.681	210.69
484.9	219.69
485.118	249.69
485.336	229.69
485.554	199.69
485.772	214.69
485.99	235.69
486.209	256.69
486.427	266.69
486.645	238.69
486.863	266.69
487.081	261.69
487.299	281.69
487.517	283.69
487.735	257.69
487.953	262.69
488.171	272.69
488.389	223.69
488.607	222.69
488.825	245.69
489.043	276.69
489.261	304.69
489.479	334.69
489.696	267.69
489.914	230.69
490.132	232.69
490.35	217.69
490.568	242.69
490.786	219.69
491.003	230.69
491.221	223.69
491.439	226.69
491.657	219.69
491.874	255.69
492.092	294.69
492.31	378.69
492.527	365.69
492.745	311.69
492.963	270.69
493.18	269.69
493.398	262.69
493.615	262.69
493.833	259.69
494.05	260.69
494.268	247.69
494.485	232.69
494.703	225.69
494.92	239.69
495.138	246.69
495.355	252.69
495.573	263.69
495.79	263.69
496.008	385.69
496.225	299.69
496.442	251.69
496.66	275.69
496.877	285.69
497.094	286.69
497.312	260.69
497.529	263.69
497.746	268.69
497.963	258.69
498.181	305.69
498.398	306.69
498.615	312.69
498.832	339.69
499.049	329.69
499.267	311.69
499.484	297.69
499.701	313.69
499.918	338.69
500.135	378.69
500.352	372.69
500.569	397.69
500.786	414.69
501.003	394.69
501.22	353.69
501.437	333.69
501.654	316.69
501.871	322.69
502.088	323.69
502.305	279.69
502.522	284.69
502.739	282.69
