Data from NickelSpatula_HRD10591_16-35-11-125.txt Node
Date: Mon Jul 22 16:35:11 EDT 2019
User: cochatt
Spectrometer: HR+D1059
Trigger mode: 1
Integration Time (sec): 1.000000E-1
Scans to average: 1
Electric dark correction enabled: true
Nonlinearity correction enabled: false
Boxcar width: 0
XAxis mode: Wavelengths
Number of Pixels in Spectrum: 2048
>>>>>Begin Spectral Data<<<<<
223.165	-10.88
223.4	-10.88
223.635	-10.88
223.869	-10.88
224.104	-23.88
224.338	-9.88
224.573	-23.88
224.808	-4.88
225.042	-20.88
225.277	2.12
225.511	2.12
225.746	-2.88
225.98	11.12
226.215	5.12
226.449	19.12
226.683	8.12
226.918	26.12
227.152	34.12
227.387	28.12
227.621	33.12
227.856	49.12
228.09	32.12
228.324	55.12
228.559	53.12
228.793	67.12
229.027	73.12
229.262	76.12
229.496	85.12
229.73	81.12
229.964	86.12
230.199	93.12
230.433	86.12
230.667	98.12
230.901	89.12
231.136	78.12
231.37	94.12
231.604	114.12
231.838	113.12
232.072	104.12
232.306	106.12
232.541	102.12
232.775	114.12
233.009	115.12
233.243	78.12
233.477	115.12
233.711	107.12
233.945	120.12
234.179	121.12
234.413	122.12
234.647	134.12
234.881	138.12
235.115	134.12
235.349	126.12
235.583	125.12
235.817	125.12
236.051	122.12
236.285	138.12
236.519	136.12
236.753	128.12
236.987	151.12
237.221	124.12
237.455	147.12
237.689	144.12
237.922	149.12
238.156	145.12
238.39	163.12
238.624	166.12
238.858	169.12
239.091	157.12
239.325	160.12
239.559	152.12
239.793	140.12
240.027	180.12
240.26	150.12
240.494	159.12
240.728	157.12
240.961	194.12
241.195	176.12
241.429	175.12
241.662	181.12
241.896	158.12
242.13	141.12
242.363	138.12
242.597	148.12
242.83	163.12
243.064	155.12
243.298	175.12
243.531	181.12
243.765	168.12
243.998	175.12
244.232	156.12
244.465	178.12
244.699	175.12
244.932	186.12
245.166	179.12
245.399	166.12
245.633	150.12
245.866	169.12
246.099	178.12
246.333	185.12
246.566	199.12
246.8	215.12
247.033	218.12
247.266	195.12
247.5	171.12
247.733	189.12
247.966	183.12
248.2	186.12
248.433	185.12
248.666	200.12
248.899	206.12
249.133	226.12
249.366	237.12
249.599	261.12
249.832	238.12
250.066	203.12
250.299	216.12
250.532	208.12
250.765	215.12
250.998	193.12
251.231	187.12
251.465	201.12
251.698	220.12
251.931	218.12
252.164	224.12
252.397	240.12
252.63	262.12
252.863	279.12
253.096	286.12
253.329	272.12
253.562	276.12
253.795	305.12
254.028	315.12
254.261	325.12
254.494	264.12
254.727	267.12
254.96	282.12
255.193	281.12
255.426	285.12
255.659	225.12
255.892	205.12
256.124	228.12
256.357	261.12
256.59	286.12
256.823	290.12
257.056	230.12
257.289	232.12
257.521	244.12
257.754	277.12
257.987	291.12
258.22	273.12
258.452	223.12
258.685	273.12
258.918	304.12
259.151	283.12
259.383	324.12
259.616	343.12
259.849	334.12
260.081	342.12
260.314	402.12
260.547	329.12
260.779	326.12
261.012	405.12
261.244	354.12
261.477	373.12
261.71	358.12
261.942	309.12
262.175	287.12
262.407	285.12
262.64	312.12
262.872	361.12
263.105	361.12
263.337	368.12
263.57	365.12
263.802	259.12
264.035	239.12
264.267	225.12
264.499	204.12
264.732	173.12
264.964	176.12
265.197	183.12
265.429	198.12
265.661	197.12
265.894	204.12
266.126	228.12
266.358	254.12
266.591	290.12
266.823	334.12
267.055	342.12
267.287	291.12
267.52	291.12
267.752	297.12
267.984	310.12
268.216	297.12
268.448	268.12
268.681	253.12
268.913	296.12
269.145	288.12
269.377	292.12
269.609	309.12
269.841	299.12
270.073	299.12
270.306	328.12
270.538	324.12
270.77	315.12
271.002	313.12
271.234	331.12
271.466	350.12
271.698	331.12
271.93	327.12
272.162	327.12
272.394	315.12
272.626	306.12
272.858	317.12
273.09	342.12
273.322	292.12
273.553	290.12
273.785	309.12
274.017	404.12
274.249	500.12
274.481	528.12
274.713	569.12
274.945	627.12
275.176	637.12
275.408	582.12
275.64	539.12
275.872	537.12
276.104	471.12
276.335	416.12
276.567	426.12
276.799	418.12
277.031	443.12
277.262	365.12
277.494	261.12
277.726	264.12
277.957	307.12
278.189	341.12
278.421	327.12
278.652	322.12
278.884	303.12
279.115	271.12
279.347	273.12
279.579	273.12
279.81	266.12
280.042	275.12
280.273	276.12
280.505	271.12
280.736	212.12
280.968	218.12
281.199	245.12
281.431	289.12
281.662	274.12
281.894	264.12
282.125	288.12
282.356	287.12
282.588	317.12
282.819	278.12
283.051	297.12
283.282	352.12
283.513	385.12
283.745	434.12
283.976	445.12
284.207	418.12
284.439	448.12
284.67	449.12
284.901	376.12
285.132	396.12
285.364	433.12
285.595	386.12
285.826	442.12
286.057	419.12
286.288	415.12
286.52	419.12
286.751	448.12
286.982	456.12
287.213	393.12
287.444	378.12
287.675	425.12
287.906	407.12
288.138	335.12
288.369	315.12
288.6	274.12
288.831	299.12
289.062	339.12
289.293	377.12
289.524	351.12
289.755	365.12
289.986	359.12
290.217	322.12
290.448	275.12
290.679	227.12
290.91	208.12
291.141	202.12
291.371	213.12
291.602	216.12
291.833	217.12
292.064	232.12
292.295	277.12
292.526	294.12
292.757	315.12
292.987	328.12
293.218	332.12
293.449	337.12
293.68	372.12
293.91	344.12
294.141	359.12
294.372	343.12
294.603	306.12
294.833	334.12
295.064	376.12
295.295	375.12
295.525	279.12
295.756	250.12
295.987	213.12
296.217	221.12
296.448	206.12
296.679	227.12
296.909	251.12
297.14	282.12
297.37	299.12
297.601	283.12
297.831	241.12
298.062	277.12
298.292	317.12
298.523	324.12
298.753	377.12
298.984	323.12
299.214	269.12
299.445	234.12
299.675	205.12
299.905	218.12
300.136	239.12
300.366	248.12
300.597	254.12
300.827	209.12
301.057	211.12
301.288	220.12
301.518	237.12
301.748	246.12
301.979	264.12
302.209	284.12
302.439	267.12
302.669	269.12
302.9	265.12
303.13	288.12
303.36	239.12
303.59	229.12
303.82	217.12
304.051	253.12
304.281	266.12
304.511	282.12
304.741	245.12
304.971	253.12
305.201	262.12
305.431	263.12
305.661	238.12
305.891	222.12
306.121	219.12
306.352	213.12
306.582	197.12
306.812	204.12
307.042	180.12
307.272	175.12
307.502	193.12
307.731	201.12
307.961	196.12
308.191	189.12
308.421	178.12
308.651	178.12
308.881	172.12
309.111	168.12
309.341	177.12
309.571	179.12
309.8	196.12
310.03	188.12
310.26	203.12
310.49	200.12
310.72	191.12
310.949	185.12
311.179	185.12
311.409	207.12
311.639	249.12
311.868	289.12
312.098	359.12
312.328	391.12
312.557	385.12
312.787	390.12
313.017	353.12
313.246	360.12
313.476	390.12
313.706	323.12
313.935	249.12
314.165	219.12
314.394	211.12
314.624	204.12
314.853	226.12
315.083	228.12
315.312	215.12
315.542	231.12
315.771	198.12
316.001	207.12
316.23	177.12
316.46	176.12
316.689	190.12
316.919	203.12
317.148	186.12
317.377	185.12
317.607	182.12
317.836	192.12
318.065	229.12
318.295	263.12
318.524	246.12
318.753	219.12
318.983	198.12
319.212	189.12
319.441	203.12
319.67	232.12
319.9	241.12
320.129	222.12
320.358	204.12
320.587	207.12
320.816	218.12
321.046	247.12
321.275	260.12
321.504	268.12
321.733	267.12
321.962	242.12
322.191	221.12
322.42	217.12
322.649	220.12
322.878	232.12
323.108	255.12
323.337	242.12
323.566	217.12
323.795	217.12
324.024	222.12
324.253	210.12
324.482	223.12
324.71	214.12
324.939	248.12
325.168	211.12
325.397	211.12
325.626	182.12
325.855	193.12
326.084	206.12
326.313	195.12
326.542	178.12
326.77	193.12
326.999	195.12
327.228	181.12
327.457	218.12
327.686	199.12
327.914	203.12
328.143	173.12
328.372	167.12
328.6	183.12
328.829	188.12
329.058	200.12
329.287	182.12
329.515	199.12
329.744	183.12
329.972	161.12
330.201	166.12
330.43	188.12
330.658	191.12
330.887	197.12
331.115	208.12
331.344	206.12
331.572	206.12
331.801	197.12
332.03	163.12
332.258	178.12
332.486	195.12
332.715	198.12
332.943	199.12
333.172	191.12
333.4	203.12
333.629	217.12
333.857	213.12
334.085	219.12
334.314	223.12
334.542	223.12
334.771	195.12
334.999	211.12
335.227	197.12
335.455	189.12
335.684	201.12
335.912	237.12
336.14	251.12
336.369	261.12
336.597	265.12
336.825	247.12
337.053	288.12
337.281	242.12
337.51	219.12
337.738	197.12
337.966	202.12
338.194	242.12
338.422	210.12
338.65	206.12
338.878	183.12
339.106	193.12
339.334	216.12
339.562	222.12
339.79	206.12
340.018	188.12
340.246	210.12
340.474	233.12
340.702	249.12
340.93	259.12
341.158	250.12
341.386	221.12
341.614	197.12
341.842	222.12
342.07	226.12
342.298	271.12
342.526	287.12
342.754	227.12
342.981	221.12
343.209	195.12
343.437	232.12
343.665	231.12
343.893	236.12
344.12	269.12
344.348	304.12
344.576	290.12
344.804	233.12
345.031	209.12
345.259	195.12
345.487	191.12
345.714	202.12
345.942	224.12
346.17	241.12
346.397	235.12
346.625	205.12
346.853	181.12
347.08	196.12
347.308	206.12
347.535	223.12
347.763	231.12
347.99	192.12
348.218	196.12
348.445	225.12
348.673	209.12
348.9	197.12
349.128	220.12
349.355	220.12
349.583	208.12
349.81	192.12
350.037	190.12
350.265	157.12
350.492	168.12
350.72	162.12
350.947	184.12
351.174	183.12
351.402	173.12
351.629	184.12
351.856	201.12
352.083	187.12
352.311	205.12
352.538	202.12
352.765	222.12
352.992	214.12
353.22	210.12
353.447	220.12
353.674	200.12
353.901	186.12
354.128	195.12
354.355	206.12
354.583	205.12
354.81	208.12
355.037	221.12
355.264	224.12
355.491	225.12
355.718	228.12
355.945	220.12
356.172	208.12
356.399	217.12
356.626	234.12
356.853	312.12
357.08	328.12
357.307	339.12
357.534	274.12
357.761	248.12
357.988	325.12
358.215	381.12
358.441	344.12
358.668	301.12
358.895	283.12
359.122	234.12
359.349	233.12
359.576	261.12
359.802	220.12
360.029	185.12
360.256	207.12
360.483	244.12
360.709	301.12
360.936	311.12
361.163	292.12
361.39	219.12
361.616	206.12
361.843	237.12
362.07	265.12
362.296	266.12
362.523	218.12
362.749	183.12
362.976	207.12
363.203	249.12
363.429	259.12
363.656	234.12
363.882	204.12
364.109	183.12
364.335	211.12
364.562	187.12
364.788	212.12
365.015	253.12
365.241	239.12
365.468	191.12
365.694	166.12
365.92	191.12
366.147	179.12
366.373	169.12
366.599	174.12
366.826	169.12
367.052	173.12
367.278	164.12
367.505	164.12
367.731	169.12
367.957	216.12
368.184	200.12
368.41	214.12
368.636	209.12
368.862	208.12
369.089	199.12
369.315	169.12
369.541	176.12
369.767	180.12
369.993	164.12
370.219	183.12
370.445	185.12
370.672	200.12
370.898	202.12
371.124	219.12
371.35	206.12
371.576	196.12
371.802	194.12
372.028	215.12
372.254	237.12
372.48	206.12
372.706	192.12
372.932	227.12
373.158	222.12
373.384	238.12
373.61	322.12
373.835	333.12
374.061	242.12
374.287	224.12
374.513	261.12
374.739	289.12
374.965	291.12
375.191	289.12
375.416	225.12
375.642	187.12
375.868	231.12
376.094	258.12
376.319	219.12
376.545	245.12
376.771	259.12
376.997	228.12
377.222	177.12
377.448	159.12
377.674	166.12
377.899	153.12
378.125	159.12
378.35	170.12
378.576	163.12
378.802	183.12
379.027	201.12
379.253	183.12
379.478	197.12
379.704	216.12
379.929	214.12
380.155	217.12
380.38	193.12
380.606	192.12
380.831	218.12
381.057	199.12
381.282	207.12
381.507	218.12
381.733	275.12
381.958	270.12
382.184	288.12
382.409	299.12
382.634	307.12
382.86	326.12
383.085	269.12
383.31	231.12
383.535	239.12
383.761	229.12
383.986	225.12
384.211	270.12
384.436	247.12
384.662	217.12
384.887	203.12
385.112	208.12
385.337	210.12
385.562	193.12
385.787	225.12
386.013	234.12
386.238	232.12
386.463	223.12
386.688	204.12
386.913	194.12
387.138	190.12
387.363	191.12
387.588	194.12
387.813	207.12
388.038	211.12
388.263	194.12
388.488	198.12
388.713	206.12
388.938	227.12
389.163	209.12
389.387	194.12
389.612	171.12
389.837	184.12
390.062	185.12
390.287	184.12
390.512	191.12
390.736	174.12
390.961	181.12
391.186	169.12
391.411	159.12
391.636	186.12
391.86	182.12
392.085	213.12
392.31	216.12
392.534	184.12
392.759	193.12
392.984	202.12
393.208	200.12
393.433	183.12
393.658	167.12
393.882	156.12
394.107	160.12
394.331	157.12
394.556	154.12
394.78	161.12
395.005	168.12
395.229	171.12
395.454	189.12
395.678	181.12
395.903	184.12
396.127	182.12
396.352	184.12
396.576	199.12
396.801	213.12
397.025	228.12
397.249	224.12
397.474	183.12
397.698	191.12
397.922	216.12
398.147	179.12
398.371	186.12
398.595	201.12
398.82	189.12
399.044	199.12
399.268	206.12
399.492	203.12
399.717	222.12
399.941	227.12
400.165	219.12
400.389	200.12
400.613	199.12
400.837	210.12
401.062	212.12
401.286	195.12
401.51	174.12
401.734	193.12
401.958	200.12
402.182	181.12
402.406	196.12
402.63	177.12
402.854	189.12
403.078	218.12
403.302	281.12
403.526	285.12
403.75	267.12
403.974	222.12
404.198	240.12
404.422	255.12
404.645	280.12
404.869	285.12
405.093	233.12
405.317	196.12
405.541	200.12
405.765	203.12
405.988	211.12
406.212	218.12
406.436	257.12
406.66	290.12
406.883	230.12
407.107	223.12
407.331	255.12
407.555	238.12
407.778	218.12
408.002	223.12
408.226	217.12
408.449	232.12
408.673	196.12
408.896	200.12
409.12	184.12
409.344	190.12
409.567	187.12
409.791	164.12
410.014	181.12
410.238	183.12
410.461	177.12
410.685	190.12
410.908	168.12
411.132	208.12
411.355	194.12
411.578	197.12
411.802	198.12
412.025	211.12
412.249	200.12
412.472	202.12
412.695	197.12
412.919	211.12
413.142	203.12
413.365	217.12
413.589	204.12
413.812	189.12
414.035	207.12
414.258	194.12
414.482	203.12
414.705	216.12
414.928	193.12
415.151	166.12
415.374	178.12
415.597	190.12
415.821	208.12
416.044	200.12
416.267	177.12
416.49	181.12
416.713	176.12
416.936	190.12
417.159	169.12
417.382	187.12
417.605	201.12
417.828	193.12
418.051	192.12
418.274	200.12
418.497	189.12
418.72	199.12
418.943	207.12
419.166	209.12
419.389	202.12
419.611	207.12
419.834	204.12
420.057	232.12
420.28	211.12
420.503	199.12
420.726	187.12
420.948	167.12
421.171	182.12
421.394	180.12
421.617	173.12
421.839	194.12
422.062	191.12
422.285	186.12
422.507	194.12
422.73	192.12
422.953	202.12
423.175	207.12
423.398	188.12
423.621	226.12
423.843	231.12
424.066	192.12
424.288	200.12
424.511	193.12
424.733	196.12
424.956	214.12
425.178	223.12
425.401	262.12
425.623	273.12
425.846	232.12
426.068	206.12
426.291	242.12
426.513	215.12
426.735	192.12
426.958	212.12
427.18	230.12
427.402	306.12
427.625	287.12
427.847	247.12
428.069	198.12
428.292	201.12
428.514	197.12
428.736	177.12
428.958	195.12
429.181	218.12
429.403	203.12
429.625	192.12
429.847	181.12
430.069	189.12
430.292	187.12
430.514	181.12
430.736	185.12
430.958	249.12
431.18	214.12
431.402	181.12
431.624	164.12
431.846	161.12
432.068	155.12
432.29	169.12
432.512	189.12
432.734	250.12
432.956	227.12
433.178	192.12
433.4	184.12
433.622	203.12
433.844	190.12
434.066	210.12
434.287	209.12
434.509	195.12
434.731	186.12
434.953	199.12
435.175	223.12
435.397	241.12
435.618	204.12
435.84	180.12
436.062	177.12
436.284	190.12
436.505	184.12
436.727	171.12
436.949	178.12
437.17	182.12
437.392	186.12
437.614	187.12
437.835	167.12
438.057	171.12
438.278	196.12
438.5	263.12
438.721	273.12
438.943	208.12
439.165	168.12
439.386	164.12
439.608	186.12
439.829	158.12
440.05	158.12
440.272	184.12
440.493	203.12
440.715	244.12
440.936	198.12
441.158	171.12
441.379	193.12
441.6	206.12
441.822	202.12
442.043	198.12
442.264	185.12
442.486	193.12
442.707	182.12
442.928	198.12
443.149	192.12
443.371	182.12
443.592	193.12
443.813	201.12
444.034	206.12
444.255	195.12
444.476	195.12
444.698	206.12
444.919	193.12
445.14	326.12
445.361	269.12
445.582	212.12
445.803	187.12
446.024	191.12
446.245	195.12
446.466	203.12
446.687	180.12
446.908	180.12
447.129	178.12
447.35	182.12
447.571	161.12
447.792	162.12
448.013	165.12
448.234	162.12
448.455	170.12
448.675	171.12
448.896	171.12
449.117	182.12
449.338	173.12
449.559	179.12
449.779	197.12
450	207.12
450.221	170.12
450.442	170.12
450.662	150.12
450.883	170.12
451.104	181.12
451.324	169.12
451.545	161.12
451.766	194.12
451.986	160.12
452.207	165.12
452.428	175.12
452.648	167.12
452.869	177.12
453.089	184.12
453.31	179.12
453.53	167.12
453.751	178.12
453.971	181.12
454.192	171.12
454.412	173.12
454.633	165.12
454.853	171.12
455.073	160.12
455.294	169.12
455.514	164.12
455.734	176.12
455.955	175.12
456.175	198.12
456.395	182.12
456.616	162.12
456.836	139.12
457.056	166.12
457.276	168.12
457.497	160.12
457.717	166.12
457.937	174.12
458.157	153.12
458.377	165.12
458.598	170.12
458.818	153.12
459.038	184.12
459.258	190.12
459.478	185.12
459.698	183.12
459.918	192.12
460.138	215.12
460.358	209.12
460.578	183.12
460.798	181.12
461.018	192.12
461.238	178.12
461.458	179.12
461.678	194.12
461.898	195.12
462.118	193.12
462.338	208.12
462.558	177.12
462.777	214.12
462.997	217.12
463.217	212.12
463.437	240.12
463.657	207.12
463.876	201.12
464.096	215.12
464.316	197.12
464.536	209.12
464.755	224.12
464.975	209.12
465.195	216.12
465.414	214.12
465.634	213.12
465.854	200.12
466.073	186.12
466.293	191.12
466.512	194.12
466.732	218.12
466.951	214.12
467.171	199.12
467.391	182.12
467.61	187.12
467.829	191.12
468.049	203.12
468.268	171.12
468.488	188.12
468.707	205.12
468.927	226.12
469.146	240.12
469.365	220.12
469.585	199.12
469.804	201.12
470.023	229.12
470.243	205.12
470.462	210.12
470.681	203.12
470.901	196.12
471.12	205.12
471.339	211.12
471.558	201.12
471.777	198.12
471.997	216.12
472.216	249.12
472.435	228.12
472.654	218.12
472.873	197.12
473.092	203.12
473.311	213.12
473.53	190.12
473.749	200.12
473.968	217.12
474.187	198.12
474.406	210.12
474.625	207.12
474.844	194.12
475.063	211.12
475.282	219.12
475.501	223.12
475.72	261.12
475.939	236.12
476.158	227.12
476.377	257.12
476.596	287.12
476.814	304.12
477.033	258.12
477.252	213.12
477.471	200.12
477.69	227.12
477.908	222.12
478.127	244.12
478.346	216.12
478.564	255.12
478.783	225.12
479.002	215.12
479.22	269.12
479.439	268.12
479.658	241.12
479.876	240.12
480.095	250.12
480.313	256.12
480.532	227.12
480.751	211.12
480.969	222.12
481.188	249.12
481.406	273.12
481.624	257.12
481.843	224.12
482.061	229.12
482.28	237.12
482.498	309.12
482.717	298.12
482.935	238.12
483.153	245.12
483.372	226.12
483.59	221.12
483.808	199.12
484.027	206.12
484.245	203.12
484.463	207.12
484.681	207.12
484.9	203.12
485.118	220.12
485.336	219.12
485.554	211.12
485.772	241.12
485.99	227.12
486.209	230.12
486.427	234.12
486.645	234.12
486.863	263.12
487.081	241.12
487.299	286.12
487.517	258.12
487.735	249.12
487.953	236.12
488.171	255.12
488.389	243.12
488.607	211.12
488.825	232.12
489.043	258.12
489.261	298.12
489.479	327.12
489.696	253.12
489.914	259.12
490.132	225.12
490.35	208.12
490.568	219.12
490.786	218.12
491.003	222.12
491.221	222.12
491.439	218.12
491.657	207.12
491.874	230.12
492.092	288.12
492.31	346.12
492.527	339.12
492.745	304.12
492.963	257.12
493.18	253.12
493.398	248.12
493.615	275.12
493.833	243.12
494.05	261.12
494.268	239.12
494.485	235.12
494.703	248.12
494.92	244.12
495.138	225.12
495.355	234.12
495.573	243.12
495.79	251.12
496.008	354.12
496.225	294.12
496.442	278.12
496.66	265.12
496.877	303.12
497.094	266.12
497.312	257.12
497.529	250.12
497.746	253.12
497.963	268.12
498.181	296.12
498.398	319.12
498.615	313.12
498.832	323.12
499.049	332.12
499.267	310.12
499.484	287.12
499.701	325.12
499.918	330.12
500.135	372.12
500.352	372.12
500.569	387.12
500.786	418.12
501.003	394.12
501.22	365.12
501.437	341.12
501.654	318.12
501.871	298.12
502.088	309.12
502.305	265.12
502.522	292.12
502.739	302.12
