Data from NickelSpatula.Lamp.E5.5.P2_HRD10591_11-51-43-559.txt Node
Date: Tue Jul 23 11:51:43 EDT 2019
User: cochatt
Spectrometer: HR+D1059
Trigger mode: 1
Integration Time (sec): 1.000000E-1
Scans to average: 1
Electric dark correction enabled: true
Nonlinearity correction enabled: false
Boxcar width: 0
XAxis mode: Wavelengths
Number of Pixels in Spectrum: 2048
>>>>>Begin Spectral Data<<<<<
223.165	-18.69
223.4	-18.69
223.635	-18.69
223.869	-11.69
224.104	-19.69
224.338	-17.69
224.573	-4.69
224.808	-13.69
225.042	-8.69
225.277	-12.69
225.511	18.31
225.746	2.31
225.98	7.31
226.215	8.31
226.449	7.31
226.683	26.31
226.918	14.31
227.152	23.31
227.387	34.31
227.621	31.31
227.856	35.31
228.09	48.31
228.324	51.31
228.559	47.31
228.793	53.31
229.027	67.31
229.262	76.31
229.496	80.31
229.73	69.31
229.964	86.31
230.199	98.31
230.433	87.31
230.667	85.31
230.901	105.31
231.136	83.31
231.37	112.31
231.604	112.31
231.838	87.31
232.072	98.31
232.306	106.31
232.541	108.31
232.775	97.31
233.009	97.31
233.243	102.31
233.477	129.31
233.711	123.31
233.945	113.31
234.179	116.31
234.413	99.31
234.647	129.31
234.881	151.31
235.115	151.31
235.349	117.31
235.583	127.31
235.817	116.31
236.051	119.31
236.285	138.31
236.519	130.31
236.753	163.31
236.987	135.31
237.221	126.31
237.455	132.31
237.689	133.31
237.922	153.31
238.156	149.31
238.39	164.31
238.624	172.31
238.858	150.31
239.091	148.31
239.325	141.31
239.559	140.31
239.793	153.31
240.027	171.31
240.26	171.31
240.494	153.31
240.728	161.31
240.961	197.31
241.195	173.31
241.429	160.31
241.662	180.31
241.896	133.31
242.13	147.31
242.363	133.31
242.597	151.31
242.83	168.31
243.064	142.31
243.298	168.31
243.531	183.31
243.765	183.31
243.998	161.31
244.232	172.31
244.465	143.31
244.699	173.31
244.932	179.31
245.166	166.31
245.399	159.31
245.633	147.31
245.866	149.31
246.099	160.31
246.333	180.31
246.566	175.31
246.8	203.31
247.033	165.31
247.266	183.31
247.5	179.31
247.733	166.31
247.966	189.31
248.2	162.31
248.433	183.31
248.666	210.31
248.899	212.31
249.133	202.31
249.366	233.31
249.599	244.31
249.832	220.31
250.066	194.31
250.299	200.31
250.532	211.31
250.765	198.31
250.998	175.31
251.231	178.31
251.465	206.31
251.698	216.31
251.931	203.31
252.164	210.31
252.397	206.31
252.63	240.31
252.863	257.31
253.096	271.31
253.329	275.31
253.562	245.31
253.795	288.31
254.028	315.31
254.261	313.31
254.494	273.31
254.727	264.31
254.96	256.31
255.193	275.31
255.426	265.31
255.659	205.31
255.892	200.31
256.124	224.31
256.357	255.31
256.59	273.31
256.823	266.31
257.056	228.31
257.289	218.31
257.521	235.31
257.754	273.31
257.987	316.31
258.22	272.31
258.452	227.31
258.685	279.31
258.918	314.31
259.151	303.31
259.383	316.31
259.616	331.31
259.849	356.31
260.081	354.31
260.314	407.31
260.547	329.31
260.779	346.31
261.012	381.31
261.244	353.31
261.477	381.31
261.71	331.31
261.942	311.31
262.175	295.31
262.407	291.31
262.64	291.31
262.872	333.31
263.105	361.31
263.337	387.31
263.57	354.31
263.802	251.31
264.035	227.31
264.267	217.31
264.499	211.31
264.732	179.31
264.964	185.31
265.197	189.31
265.429	195.31
265.661	200.31
265.894	217.31
266.126	217.31
266.358	240.31
266.591	289.31
266.823	322.31
267.055	317.31
267.287	303.31
267.52	292.31
267.752	296.31
267.984	329.31
268.216	323.31
268.448	271.31
268.681	283.31
268.913	286.31
269.145	296.31
269.377	319.31
269.609	303.31
269.841	276.31
270.073	297.31
270.306	316.31
270.538	333.31
270.77	317.31
271.002	326.31
271.234	330.31
271.466	341.31
271.698	294.31
271.93	319.31
272.162	307.31
272.394	324.31
272.626	303.31
272.858	311.31
273.09	328.31
273.322	282.31
273.553	294.31
273.785	294.31
274.017	412.31
274.249	475.31
274.481	485.31
274.713	532.31
274.945	612.31
275.176	647.31
275.408	566.31
275.64	531.31
275.872	542.31
276.104	477.31
276.335	415.31
276.567	404.31
276.799	415.31
277.031	429.31
277.262	344.31
277.494	281.31
277.726	264.31
277.957	302.31
278.189	331.31
278.421	344.31
278.652	301.31
278.884	313.31
279.115	268.31
279.347	280.31
279.579	287.31
279.81	320.31
280.042	293.31
280.273	281.31
280.505	268.31
280.736	245.31
280.968	236.31
281.199	263.31
281.431	301.31
281.662	289.31
281.894	290.31
282.125	289.31
282.356	312.31
282.588	294.31
282.819	271.31
283.051	281.31
283.282	359.31
283.513	406.31
283.745	472.31
283.976	454.31
284.207	437.31
284.439	418.31
284.67	434.31
284.901	377.31
285.132	418.31
285.364	445.31
285.595	403.31
285.826	418.31
286.057	421.31
286.288	404.31
286.52	438.31
286.751	454.31
286.982	450.31
287.213	376.31
287.444	393.31
287.675	400.31
287.906	397.31
288.138	350.31
288.369	333.31
288.6	300.31
288.831	333.31
289.062	367.31
289.293	398.31
289.524	368.31
289.755	363.31
289.986	354.31
290.217	320.31
290.448	256.31
290.679	218.31
290.91	220.31
291.141	216.31
291.371	249.31
291.602	245.31
291.833	238.31
292.064	261.31
292.295	263.31
292.526	305.31
292.757	343.31
292.987	333.31
293.218	351.31
293.449	374.31
293.68	376.31
293.91	363.31
294.141	391.31
294.372	353.31
294.603	331.31
294.833	350.31
295.064	406.31
295.295	414.31
295.525	312.31
295.756	277.31
295.987	248.31
296.217	245.31
296.448	245.31
296.679	275.31
296.909	276.31
297.14	294.31
297.37	305.31
297.601	291.31
297.831	279.31
298.062	291.31
298.292	322.31
298.523	353.31
298.753	377.31
298.984	345.31
299.214	282.31
299.445	265.31
299.675	248.31
299.905	237.31
300.136	221.31
300.366	255.31
300.597	270.31
300.827	227.31
301.057	240.31
301.288	263.31
301.518	240.31
301.748	283.31
301.979	310.31
302.209	321.31
302.439	331.31
302.669	302.31
302.9	294.31
303.13	273.31
303.36	257.31
303.59	241.31
303.82	272.31
304.051	296.31
304.281	303.31
304.511	311.31
304.741	284.31
304.971	285.31
305.201	297.31
305.431	292.31
305.661	245.31
305.891	233.31
306.121	235.31
306.352	220.31
306.582	205.31
306.812	209.31
307.042	227.31
307.272	231.31
307.502	210.31
307.731	214.31
307.961	226.31
308.191	188.31
308.421	201.31
308.651	205.31
308.881	205.31
309.111	209.31
309.341	205.31
309.571	216.31
309.8	210.31
310.03	228.31
310.26	236.31
310.49	231.31
310.72	212.31
310.949	200.31
311.179	218.31
311.409	217.31
311.639	251.31
311.868	309.31
312.098	351.31
312.328	419.31
312.557	383.31
312.787	399.31
313.017	365.31
313.246	371.31
313.476	436.31
313.706	361.31
313.935	285.31
314.165	248.31
314.394	231.31
314.624	243.31
314.853	245.31
315.083	246.31
315.312	239.31
315.542	239.31
315.771	222.31
316.001	202.31
316.23	208.31
316.46	216.31
316.689	213.31
316.919	206.31
317.148	224.31
317.377	214.31
317.607	203.31
317.836	221.31
318.065	241.31
318.295	271.31
318.524	260.31
318.753	216.31
318.983	212.31
319.212	206.31
319.441	223.31
319.67	251.31
319.9	257.31
320.129	264.31
320.358	238.31
320.587	222.31
320.816	237.31
321.046	261.31
321.275	279.31
321.504	272.31
321.733	278.31
321.962	282.31
322.191	253.31
322.42	253.31
322.649	242.31
322.878	262.31
323.108	270.31
323.337	268.31
323.566	240.31
323.795	252.31
324.024	254.31
324.253	239.31
324.482	229.31
324.71	226.31
324.939	271.31
325.168	247.31
325.397	219.31
325.626	209.31
325.855	217.31
326.084	208.31
326.313	212.31
326.542	191.31
326.77	208.31
326.999	226.31
327.228	228.31
327.457	230.31
327.686	253.31
327.914	220.31
328.143	222.31
328.372	208.31
328.6	204.31
328.829	214.31
329.058	228.31
329.287	216.31
329.515	223.31
329.744	216.31
329.972	209.31
330.201	215.31
330.43	211.31
330.658	210.31
330.887	248.31
331.115	249.31
331.344	241.31
331.572	219.31
331.801	227.31
332.03	206.31
332.258	209.31
332.486	222.31
332.715	236.31
332.943	227.31
333.172	232.31
333.4	231.31
333.629	263.31
333.857	271.31
334.085	250.31
334.314	267.31
334.542	278.31
334.771	230.31
334.999	238.31
335.227	241.31
335.455	228.31
335.684	229.31
335.912	275.31
336.14	289.31
336.369	289.31
336.597	281.31
336.825	300.31
337.053	341.31
337.281	300.31
337.51	244.31
337.738	229.31
337.966	263.31
338.194	267.31
338.422	245.31
338.65	213.31
338.878	216.31
339.106	200.31
339.334	232.31
339.562	230.31
339.79	238.31
340.018	226.31
340.246	236.31
340.474	264.31
340.702	269.31
340.93	288.31
341.158	292.31
341.386	251.31
341.614	244.31
341.842	239.31
342.07	239.31
342.298	291.31
342.526	290.31
342.754	254.31
342.981	232.31
343.209	241.31
343.437	258.31
343.665	268.31
343.893	273.31
344.12	320.31
344.348	377.31
344.576	327.31
344.804	287.31
345.031	240.31
345.259	239.31
345.487	212.31
345.714	241.31
345.942	256.31
346.17	278.31
346.397	277.31
346.625	219.31
346.853	224.31
347.08	221.31
347.308	247.31
347.535	267.31
347.763	278.31
347.99	260.31
348.218	224.31
348.445	230.31
348.673	252.31
348.9	232.31
349.128	235.31
349.355	241.31
349.583	249.31
349.81	242.31
350.037	211.31
350.265	199.31
350.492	199.31
350.72	190.31
350.947	200.31
351.174	208.31
351.402	237.31
351.629	234.31
351.856	222.31
352.083	200.31
352.311	219.31
352.538	241.31
352.765	253.31
352.992	241.31
353.22	242.31
353.447	228.31
353.674	219.31
353.901	215.31
354.128	227.31
354.355	240.31
354.583	226.31
354.81	238.31
355.037	246.31
355.264	242.31
355.491	246.31
355.718	260.31
355.945	270.31
356.172	251.31
356.399	265.31
356.626	314.31
356.853	344.31
357.08	369.31
357.307	387.31
357.534	290.31
357.761	320.31
357.988	385.31
358.215	425.31
358.441	385.31
358.668	333.31
358.895	326.31
359.122	281.31
359.349	289.31
359.576	321.31
359.802	258.31
360.029	228.31
360.256	261.31
360.483	309.31
360.709	365.31
360.936	351.31
361.163	304.31
361.39	242.31
361.616	230.31
361.843	271.31
362.07	315.31
362.296	291.31
362.523	239.31
362.749	215.31
362.976	222.31
363.203	275.31
363.429	288.31
363.656	237.31
363.882	231.31
364.109	218.31
364.335	237.31
364.562	231.31
364.788	243.31
365.015	275.31
365.241	263.31
365.468	237.31
365.694	220.31
365.92	225.31
366.147	204.31
366.373	202.31
366.599	193.31
366.826	189.31
367.052	207.31
367.278	204.31
367.505	177.31
367.731	217.31
367.957	234.31
368.184	224.31
368.41	219.31
368.636	230.31
368.862	252.31
369.089	235.31
369.315	223.31
369.541	224.31
369.767	224.31
369.993	210.31
370.219	204.31
370.445	214.31
370.672	238.31
370.898	253.31
371.124	247.31
371.35	219.31
371.576	224.31
371.802	211.31
372.028	259.31
372.254	309.31
372.48	273.31
372.706	237.31
372.932	249.31
373.158	253.31
373.384	308.31
373.61	394.31
373.835	397.31
374.061	292.31
374.287	270.31
374.513	299.31
374.739	349.31
374.965	370.31
375.191	364.31
375.416	268.31
375.642	243.31
375.868	287.31
376.094	290.31
376.319	278.31
376.545	271.31
376.771	309.31
376.997	278.31
377.222	223.31
377.448	180.31
377.674	198.31
377.899	197.31
378.125	218.31
378.35	204.31
378.576	200.31
378.802	213.31
379.027	228.31
379.253	231.31
379.478	235.31
379.704	239.31
379.929	263.31
380.155	263.31
380.38	214.31
380.606	244.31
380.831	277.31
381.057	253.31
381.282	236.31
381.507	256.31
381.733	326.31
381.958	338.31
382.184	341.31
382.409	361.31
382.634	350.31
382.86	381.31
383.085	314.31
383.31	279.31
383.535	290.31
383.761	297.31
383.986	266.31
384.211	320.31
384.436	313.31
384.662	265.31
384.887	239.31
385.112	244.31
385.337	272.31
385.562	236.31
385.787	291.31
386.013	292.31
386.238	305.31
386.463	253.31
386.688	239.31
386.913	243.31
387.138	235.31
387.363	246.31
387.588	233.31
387.813	253.31
388.038	255.31
388.263	225.31
388.488	248.31
388.713	264.31
388.938	294.31
389.163	239.31
389.387	227.31
389.612	222.31
389.837	248.31
390.062	246.31
390.287	252.31
390.512	235.31
390.736	216.31
390.961	219.31
391.186	217.31
391.411	218.31
391.636	209.31
391.86	251.31
392.085	265.31
392.31	253.31
392.534	242.31
392.759	255.31
392.984	244.31
393.208	261.31
393.433	217.31
393.658	206.31
393.882	199.31
394.107	205.31
394.331	209.31
394.556	195.31
394.78	202.31
395.005	216.31
395.229	229.31
395.454	225.31
395.678	229.31
395.903	241.31
396.127	223.31
396.352	228.31
396.576	237.31
396.801	251.31
397.025	261.31
397.249	289.31
397.474	250.31
397.698	242.31
397.922	245.31
398.147	227.31
398.371	230.31
398.595	262.31
398.82	241.31
399.044	222.31
399.268	265.31
399.492	270.31
399.717	285.31
399.941	293.31
400.165	287.31
400.389	248.31
400.613	252.31
400.837	260.31
401.062	225.31
401.286	249.31
401.51	238.31
401.734	235.31
401.958	236.31
402.182	234.31
402.406	253.31
402.63	248.31
402.854	278.31
403.078	308.31
403.302	391.31
403.526	399.31
403.75	352.31
403.974	295.31
404.198	292.31
404.422	307.31
404.645	342.31
404.869	363.31
405.093	313.31
405.317	259.31
405.541	263.31
405.765	269.31
405.988	257.31
406.212	269.31
406.436	292.31
406.66	323.31
406.883	296.31
407.107	296.31
407.331	319.31
407.555	339.31
407.778	305.31
408.002	277.31
408.226	277.31
408.449	273.31
408.673	257.31
408.896	239.31
409.12	264.31
409.344	261.31
409.567	256.31
409.791	226.31
410.014	247.31
410.238	243.31
410.461	227.31
410.685	237.31
410.908	243.31
411.132	232.31
411.355	226.31
411.578	244.31
411.802	243.31
412.025	237.31
412.249	259.31
412.472	256.31
412.695	249.31
412.919	221.31
413.142	251.31
413.365	261.31
413.589	279.31
413.812	258.31
414.035	245.31
414.258	242.31
414.482	247.31
414.705	277.31
414.928	251.31
415.151	244.31
415.374	247.31
415.597	235.31
415.821	228.31
416.044	237.31
416.267	243.31
416.49	230.31
416.713	209.31
416.936	222.31
417.159	215.31
417.382	243.31
417.605	239.31
417.828	240.31
418.051	243.31
418.274	239.31
418.497	238.31
418.72	244.31
418.943	252.31
419.166	258.31
419.389	263.31
419.611	259.31
419.834	241.31
420.057	257.31
420.28	264.31
420.503	255.31
420.726	237.31
420.948	230.31
421.171	238.31
421.394	227.31
421.617	239.31
421.839	239.31
422.062	242.31
422.285	221.31
422.507	245.31
422.73	239.31
422.953	251.31
423.175	251.31
423.398	243.31
423.621	252.31
423.843	274.31
424.066	279.31
424.288	255.31
424.511	237.31
424.733	230.31
424.956	269.31
425.178	294.31
425.401	315.31
425.623	363.31
425.846	313.31
426.068	255.31
426.291	276.31
426.513	258.31
426.735	238.31
426.958	268.31
427.18	280.31
427.402	348.31
427.625	360.31
427.847	300.31
428.069	240.31
428.292	250.31
428.514	239.31
428.736	249.31
428.958	255.31
429.181	337.31
429.403	263.31
429.625	243.31
429.847	220.31
430.069	227.31
430.292	248.31
430.514	226.31
430.736	237.31
430.958	288.31
431.18	266.31
431.402	210.31
431.624	220.31
431.846	225.31
432.068	214.31
432.29	224.31
432.512	225.31
432.734	288.31
432.956	263.31
433.178	234.31
433.4	230.31
433.622	231.31
433.844	231.31
434.066	237.31
434.287	242.31
434.509	263.31
434.731	256.31
434.953	240.31
435.175	259.31
435.397	305.31
435.618	230.31
435.84	226.31
436.062	223.31
436.284	216.31
436.505	197.31
436.727	201.31
436.949	215.31
437.17	225.31
437.392	231.31
437.614	219.31
437.835	209.31
438.057	211.31
438.278	239.31
438.5	321.31
438.721	321.31
438.943	266.31
439.165	223.31
439.386	203.31
439.608	213.31
439.829	208.31
440.05	199.31
440.272	221.31
440.493	243.31
440.715	272.31
440.936	255.31
441.158	233.31
441.379	221.31
441.6	257.31
441.822	256.31
442.043	245.31
442.264	233.31
442.486	230.31
442.707	239.31
442.928	244.31
443.149	233.31
443.371	228.31
443.592	251.31
443.813	245.31
444.034	247.31
444.255	243.31
444.476	232.31
444.698	263.31
444.919	251.31
445.14	352.31
445.361	299.31
445.582	253.31
445.803	222.31
446.024	252.31
446.245	251.31
446.466	249.31
446.687	244.31
446.908	236.31
447.129	233.31
447.35	232.31
447.571	222.31
447.792	204.31
448.013	209.31
448.234	201.31
448.455	211.31
448.675	221.31
448.896	208.31
449.117	222.31
449.338	205.31
449.559	206.31
449.779	222.31
450	237.31
450.221	221.31
450.442	237.31
450.662	221.31
450.883	219.31
451.104	227.31
451.324	221.31
451.545	210.31
451.766	219.31
451.986	215.31
452.207	226.31
452.428	213.31
452.648	230.31
452.869	229.31
453.089	235.31
453.31	231.31
453.53	205.31
453.751	229.31
453.971	210.31
454.192	222.31
454.412	204.31
454.633	216.31
454.853	219.31
455.073	223.31
455.294	218.31
455.514	201.31
455.734	202.31
455.955	216.31
456.175	224.31
456.395	216.31
456.616	176.31
456.836	191.31
457.056	202.31
457.276	192.31
457.497	200.31
457.717	211.31
457.937	206.31
458.157	187.31
458.377	190.31
458.598	188.31
458.818	213.31
459.038	235.31
459.258	241.31
459.478	209.31
459.698	243.31
459.918	250.31
460.138	219.31
460.358	239.31
460.578	247.31
460.798	251.31
461.018	247.31
461.238	231.31
461.458	249.31
461.678	267.31
461.898	247.31
462.118	222.31
462.338	254.31
462.558	269.31
462.777	277.31
462.997	292.31
463.217	285.31
463.437	293.31
463.657	276.31
463.876	255.31
464.096	289.31
464.316	269.31
464.536	280.31
464.755	271.31
464.975	291.31
465.195	292.31
465.414	272.31
465.634	259.31
465.854	237.31
466.073	230.31
466.293	233.31
466.512	225.31
466.732	237.31
466.951	231.31
467.171	244.31
467.391	231.31
467.61	213.31
467.829	223.31
468.049	231.31
468.268	221.31
468.488	215.31
468.707	224.31
468.927	261.31
469.146	283.31
469.365	247.31
469.585	226.31
469.804	265.31
470.023	263.31
470.243	265.31
470.462	231.31
470.681	245.31
470.901	241.31
471.12	246.31
471.339	236.31
471.558	232.31
471.777	254.31
471.997	256.31
472.216	270.31
472.435	276.31
472.654	242.31
472.873	240.31
473.092	252.31
473.311	262.31
473.53	249.31
473.749	228.31
473.968	247.31
474.187	257.31
474.406	257.31
474.625	245.31
474.844	259.31
475.063	249.31
475.282	260.31
475.501	280.31
475.72	291.31
475.939	256.31
476.158	284.31
476.377	308.31
476.596	329.31
476.814	364.31
477.033	305.31
477.252	273.31
477.471	250.31
477.69	242.31
477.908	277.31
478.127	286.31
478.346	279.31
478.564	310.31
478.783	295.31
479.002	286.31
479.22	319.31
479.439	312.31
479.658	306.31
479.876	277.31
480.095	303.31
480.313	305.31
480.532	291.31
480.751	268.31
480.969	295.31
481.188	306.31
481.406	297.31
481.624	310.31
481.843	281.31
482.061	273.31
482.28	296.31
482.498	342.31
482.717	328.31
482.935	284.31
483.153	273.31
483.372	267.31
483.59	249.31
483.808	255.31
484.027	266.31
484.245	269.31
484.463	251.31
484.681	261.31
484.9	278.31
485.118	265.31
485.336	289.31
485.554	262.31
485.772	296.31
485.99	271.31
486.209	301.31
486.427	307.31
486.645	287.31
486.863	321.31
487.081	307.31
487.299	324.31
487.517	313.31
487.735	280.31
487.953	281.31
488.171	291.31
488.389	301.31
488.607	268.31
488.825	267.31
489.043	288.31
489.261	332.31
489.479	341.31
489.696	296.31
489.914	259.31
490.132	272.31
490.35	267.31
490.568	276.31
490.786	263.31
491.003	264.31
491.221	287.31
491.439	261.31
491.657	284.31
491.874	292.31
492.092	318.31
492.31	368.31
492.527	373.31
492.745	364.31
492.963	317.31
493.18	287.31
493.398	313.31
493.615	291.31
493.833	292.31
494.05	295.31
494.268	293.31
494.485	294.31
494.703	273.31
494.92	303.31
495.138	290.31
495.355	279.31
495.573	287.31
495.79	292.31
496.008	374.31
496.225	335.31
496.442	295.31
496.66	311.31
496.877	333.31
497.094	304.31
497.312	300.31
497.529	295.31
497.746	307.31
497.963	315.31
498.181	347.31
498.398	371.31
498.615	357.31
498.832	386.31
499.049	375.31
499.267	379.31
499.484	391.31
499.701	414.31
499.918	452.31
500.135	504.31
500.352	538.31
500.569	551.31
500.786	559.31
501.003	555.31
501.22	499.31
501.437	438.31
501.654	417.31
501.871	395.31
502.088	396.31
502.305	369.31
502.522	349.31
