Data from NickelSpatula.Lamp.E5.5.P2_HRD10591_11-51-32-560.txt Node
Date: Tue Jul 23 11:51:32 EDT 2019
User: cochatt
Spectrometer: HR+D1059
Trigger mode: 1
Integration Time (sec): 1.000000E-1
Scans to average: 1
Electric dark correction enabled: true
Nonlinearity correction enabled: false
Boxcar width: 0
XAxis mode: Wavelengths
Number of Pixels in Spectrum: 2048
>>>>>Begin Spectral Data<<<<<
223.165	-25.94
223.4	-25.94
223.635	-25.94
223.869	-15.94
224.104	1.06
224.338	-20.94
224.573	-5.94
224.808	-16.94
225.042	-8.94
225.277	-6.94
225.511	3.06
225.746	-3.94
225.98	11.06
226.215	9.06
226.449	10.06
226.683	21.06
226.918	34.06
227.152	16.06
227.387	24.06
227.621	25.06
227.856	49.06
228.09	42.06
228.324	50.06
228.559	58.06
228.793	78.06
229.027	81.06
229.262	66.06
229.496	81.06
229.73	86.06
229.964	93.06
230.199	101.06
230.433	95.06
230.667	95.06
230.901	90.06
231.136	92.06
231.37	100.06
231.604	109.06
231.838	105.06
232.072	109.06
232.306	115.06
232.541	116.06
232.775	106.06
233.009	109.06
233.243	120.06
233.477	123.06
233.711	134.06
233.945	136.06
234.179	107.06
234.413	127.06
234.647	115.06
234.881	150.06
235.115	133.06
235.349	130.06
235.583	131.06
235.817	115.06
236.051	118.06
236.285	143.06
236.519	142.06
236.753	130.06
236.987	123.06
237.221	132.06
237.455	132.06
237.689	144.06
237.922	143.06
238.156	134.06
238.39	144.06
238.624	175.06
238.858	176.06
239.091	151.06
239.325	149.06
239.559	139.06
239.793	139.06
240.027	169.06
240.26	152.06
240.494	167.06
240.728	157.06
240.961	187.06
241.195	159.06
241.429	161.06
241.662	159.06
241.896	151.06
242.13	150.06
242.363	135.06
242.597	135.06
242.83	154.06
243.064	153.06
243.298	163.06
243.531	154.06
243.765	163.06
243.998	175.06
244.232	173.06
244.465	157.06
244.699	160.06
244.932	162.06
245.166	180.06
245.399	137.06
245.633	146.06
245.866	147.06
246.099	146.06
246.333	182.06
246.566	203.06
246.8	196.06
247.033	182.06
247.266	162.06
247.5	161.06
247.733	155.06
247.966	175.06
248.2	178.06
248.433	195.06
248.666	184.06
248.899	184.06
249.133	206.06
249.366	231.06
249.599	221.06
249.832	216.06
250.066	199.06
250.299	198.06
250.532	185.06
250.765	187.06
250.998	190.06
251.231	179.06
251.465	187.06
251.698	194.06
251.931	183.06
252.164	205.06
252.397	212.06
252.63	228.06
252.863	253.06
253.096	273.06
253.329	258.06
253.562	248.06
253.795	253.06
254.028	292.06
254.261	306.06
254.494	253.06
254.727	221.06
254.96	227.06
255.193	262.06
255.426	253.06
255.659	202.06
255.892	187.06
256.124	198.06
256.357	231.06
256.59	255.06
256.823	258.06
257.056	239.06
257.289	203.06
257.521	225.06
257.754	263.06
257.987	309.06
258.22	230.06
258.452	216.06
258.685	272.06
258.918	273.06
259.151	270.06
259.383	278.06
259.616	318.06
259.849	329.06
260.081	341.06
260.314	385.06
260.547	319.06
260.779	343.06
261.012	385.06
261.244	330.06
261.477	344.06
261.71	339.06
261.942	283.06
262.175	290.06
262.407	238.06
262.64	265.06
262.872	324.06
263.105	341.06
263.337	337.06
263.57	310.06
263.802	232.06
264.035	214.06
264.267	227.06
264.499	183.06
264.732	174.06
264.964	159.06
265.197	190.06
265.429	202.06
265.661	209.06
265.894	207.06
266.126	216.06
266.358	238.06
266.591	271.06
266.823	325.06
267.055	323.06
267.287	283.06
267.52	281.06
267.752	290.06
267.984	326.06
268.216	278.06
268.448	258.06
268.681	247.06
268.913	287.06
269.145	281.06
269.377	287.06
269.609	278.06
269.841	278.06
270.073	286.06
270.306	295.06
270.538	307.06
270.77	314.06
271.002	310.06
271.234	304.06
271.466	315.06
271.698	298.06
271.93	293.06
272.162	305.06
272.394	295.06
272.626	292.06
272.858	301.06
273.09	304.06
273.322	259.06
273.553	263.06
273.785	292.06
274.017	366.06
274.249	450.06
274.481	474.06
274.713	509.06
274.945	579.06
275.176	584.06
275.408	513.06
275.64	481.06
275.872	503.06
276.104	425.06
276.335	375.06
276.567	371.06
276.799	384.06
277.031	410.06
277.262	342.06
277.494	287.06
277.726	271.06
277.957	279.06
278.189	313.06
278.421	313.06
278.652	297.06
278.884	274.06
279.115	276.06
279.347	273.06
279.579	281.06
279.81	287.06
280.042	267.06
280.273	291.06
280.505	262.06
280.736	255.06
280.968	227.06
281.199	241.06
281.431	297.06
281.662	253.06
281.894	256.06
282.125	273.06
282.356	284.06
282.588	303.06
282.819	269.06
283.051	278.06
283.282	334.06
283.513	389.06
283.745	433.06
283.976	400.06
284.207	391.06
284.439	419.06
284.67	392.06
284.901	347.06
285.132	401.06
285.364	409.06
285.595	373.06
285.826	388.06
286.057	409.06
286.288	383.06
286.52	399.06
286.751	402.06
286.982	411.06
287.213	353.06
287.444	368.06
287.675	375.06
287.906	381.06
288.138	319.06
288.369	299.06
288.6	286.06
288.831	312.06
289.062	319.06
289.293	339.06
289.524	321.06
289.755	328.06
289.986	339.06
290.217	306.06
290.448	257.06
290.679	218.06
290.91	213.06
291.141	225.06
291.371	227.06
291.602	222.06
291.833	214.06
292.064	234.06
292.295	273.06
292.526	295.06
292.757	310.06
292.987	321.06
293.218	315.06
293.449	331.06
293.68	368.06
293.91	330.06
294.141	343.06
294.372	334.06
294.603	312.06
294.833	320.06
295.064	389.06
295.295	366.06
295.525	295.06
295.756	268.06
295.987	243.06
296.217	223.06
296.448	241.06
296.679	228.06
296.909	267.06
297.14	285.06
297.37	303.06
297.601	274.06
297.831	258.06
298.062	285.06
298.292	308.06
298.523	332.06
298.753	358.06
298.984	330.06
299.214	286.06
299.445	239.06
299.675	238.06
299.905	238.06
300.136	253.06
300.366	253.06
300.597	255.06
300.827	236.06
301.057	240.06
301.288	255.06
301.518	233.06
301.748	284.06
301.979	288.06
302.209	298.06
302.439	301.06
302.669	270.06
302.9	250.06
303.13	274.06
303.36	255.06
303.59	240.06
303.82	258.06
304.051	274.06
304.281	294.06
304.511	294.06
304.741	264.06
304.971	271.06
305.201	280.06
305.431	270.06
305.661	245.06
305.891	255.06
306.121	224.06
306.352	196.06
306.582	198.06
306.812	210.06
307.042	211.06
307.272	192.06
307.502	189.06
307.731	202.06
307.961	221.06
308.191	214.06
308.421	202.06
308.651	193.06
308.881	186.06
309.111	192.06
309.341	194.06
309.571	204.06
309.8	221.06
310.03	209.06
310.26	237.06
310.49	221.06
310.72	201.06
310.949	219.06
311.179	196.06
311.409	225.06
311.639	249.06
311.868	271.06
312.098	369.06
312.328	395.06
312.557	359.06
312.787	363.06
313.017	327.06
313.246	358.06
313.476	368.06
313.706	344.06
313.935	268.06
314.165	248.06
314.394	212.06
314.624	217.06
314.853	234.06
315.083	249.06
315.312	230.06
315.542	223.06
315.771	226.06
316.001	203.06
316.23	206.06
316.46	223.06
316.689	224.06
316.919	187.06
317.148	206.06
317.377	197.06
317.607	217.06
317.836	198.06
318.065	234.06
318.295	270.06
318.524	231.06
318.753	225.06
318.983	209.06
319.212	218.06
319.441	209.06
319.67	225.06
319.9	243.06
320.129	242.06
320.358	218.06
320.587	211.06
320.816	222.06
321.046	251.06
321.275	278.06
321.504	276.06
321.733	272.06
321.962	265.06
322.191	249.06
322.42	222.06
322.649	249.06
322.878	251.06
323.108	258.06
323.337	243.06
323.566	244.06
323.795	237.06
324.024	235.06
324.253	208.06
324.482	217.06
324.71	224.06
324.939	269.06
325.168	248.06
325.397	216.06
325.626	210.06
325.855	204.06
326.084	210.06
326.313	202.06
326.542	190.06
326.77	227.06
326.999	223.06
327.228	216.06
327.457	219.06
327.686	238.06
327.914	205.06
328.143	206.06
328.372	202.06
328.6	207.06
328.829	223.06
329.058	202.06
329.287	207.06
329.515	206.06
329.744	207.06
329.972	207.06
330.201	206.06
330.43	196.06
330.658	217.06
330.887	214.06
331.115	237.06
331.344	223.06
331.572	237.06
331.801	228.06
332.03	200.06
332.258	210.06
332.486	222.06
332.715	226.06
332.943	218.06
333.172	219.06
333.4	237.06
333.629	238.06
333.857	249.06
334.085	266.06
334.314	249.06
334.542	235.06
334.771	241.06
334.999	213.06
335.227	212.06
335.455	235.06
335.684	226.06
335.912	254.06
336.14	268.06
336.369	275.06
336.597	263.06
336.825	292.06
337.053	326.06
337.281	263.06
337.51	215.06
337.738	215.06
337.966	266.06
338.194	243.06
338.422	253.06
338.65	226.06
338.878	207.06
339.106	205.06
339.334	227.06
339.562	229.06
339.79	219.06
340.018	241.06
340.246	225.06
340.474	261.06
340.702	261.06
340.93	292.06
341.158	276.06
341.386	245.06
341.614	244.06
341.842	257.06
342.07	243.06
342.298	293.06
342.526	294.06
342.754	278.06
342.981	241.06
343.209	253.06
343.437	264.06
343.665	272.06
343.893	255.06
344.12	307.06
344.348	343.06
344.576	320.06
344.804	270.06
345.031	239.06
345.259	222.06
345.487	240.06
345.714	227.06
345.942	241.06
346.17	273.06
346.397	271.06
346.625	232.06
346.853	218.06
347.08	213.06
347.308	240.06
347.535	256.06
347.763	266.06
347.99	233.06
348.218	245.06
348.445	235.06
348.673	230.06
348.9	246.06
349.128	243.06
349.355	248.06
349.583	233.06
349.81	233.06
350.037	196.06
350.265	209.06
350.492	194.06
350.72	206.06
350.947	185.06
351.174	230.06
351.402	229.06
351.629	206.06
351.856	203.06
352.083	205.06
352.311	228.06
352.538	237.06
352.765	259.06
352.992	233.06
353.22	224.06
353.447	227.06
353.674	223.06
353.901	214.06
354.128	209.06
354.355	224.06
354.583	232.06
354.81	241.06
355.037	242.06
355.264	223.06
355.491	233.06
355.718	238.06
355.945	251.06
356.172	252.06
356.399	235.06
356.626	271.06
356.853	328.06
357.08	339.06
357.307	358.06
357.534	287.06
357.761	285.06
357.988	363.06
358.215	416.06
358.441	369.06
358.668	329.06
358.895	297.06
359.122	283.06
359.349	278.06
359.576	316.06
359.802	275.06
360.029	231.06
360.256	238.06
360.483	279.06
360.709	343.06
360.936	356.06
361.163	300.06
361.39	263.06
361.616	243.06
361.843	251.06
362.07	318.06
362.296	289.06
362.523	232.06
362.749	215.06
362.976	244.06
363.203	259.06
363.429	289.06
363.656	247.06
363.882	235.06
364.109	239.06
364.335	229.06
364.562	218.06
364.788	228.06
365.015	259.06
365.241	265.06
365.468	212.06
365.694	195.06
365.92	196.06
366.147	175.06
366.373	197.06
366.599	194.06
366.826	202.06
367.052	208.06
367.278	209.06
367.505	189.06
367.731	198.06
367.957	229.06
368.184	243.06
368.41	231.06
368.636	222.06
368.862	247.06
369.089	232.06
369.315	220.06
369.541	210.06
369.767	212.06
369.993	198.06
370.219	208.06
370.445	224.06
370.672	245.06
370.898	253.06
371.124	257.06
371.35	233.06
371.576	225.06
371.802	211.06
372.028	245.06
372.254	288.06
372.48	254.06
372.706	228.06
372.932	258.06
373.158	251.06
373.384	284.06
373.61	337.06
373.835	389.06
374.061	292.06
374.287	261.06
374.513	292.06
374.739	331.06
374.965	356.06
375.191	348.06
375.416	268.06
375.642	259.06
375.868	265.06
376.094	276.06
376.319	278.06
376.545	281.06
376.771	280.06
376.997	263.06
377.222	217.06
377.448	197.06
377.674	196.06
377.899	203.06
378.125	179.06
378.35	191.06
378.576	205.06
378.802	198.06
379.027	212.06
379.253	228.06
379.478	231.06
379.704	244.06
379.929	235.06
380.155	244.06
380.38	216.06
380.606	245.06
380.831	255.06
381.057	260.06
381.282	233.06
381.507	253.06
381.733	309.06
381.958	308.06
382.184	340.06
382.409	347.06
382.634	364.06
382.86	335.06
383.085	317.06
383.31	266.06
383.535	280.06
383.761	274.06
383.986	246.06
384.211	325.06
384.436	299.06
384.662	262.06
384.887	263.06
385.112	246.06
385.337	262.06
385.562	258.06
385.787	277.06
386.013	265.06
386.238	286.06
386.463	266.06
386.688	234.06
386.913	238.06
387.138	209.06
387.363	224.06
387.588	247.06
387.813	238.06
388.038	251.06
388.263	235.06
388.488	234.06
388.713	250.06
388.938	262.06
389.163	240.06
389.387	225.06
389.612	216.06
389.837	214.06
390.062	241.06
390.287	226.06
390.512	233.06
390.736	218.06
390.961	212.06
391.186	214.06
391.411	217.06
391.636	206.06
391.86	233.06
392.085	266.06
392.31	259.06
392.534	242.06
392.759	220.06
392.984	247.06
393.208	245.06
393.433	225.06
393.658	202.06
393.882	193.06
394.107	203.06
394.331	207.06
394.556	193.06
394.78	200.06
395.005	214.06
395.229	227.06
395.454	212.06
395.678	214.06
395.903	239.06
396.127	212.06
396.352	203.06
396.576	244.06
396.801	226.06
397.025	240.06
397.249	277.06
397.474	225.06
397.698	212.06
397.922	229.06
398.147	241.06
398.371	233.06
398.595	235.06
398.82	226.06
399.044	238.06
399.268	263.06
399.492	280.06
399.717	299.06
399.941	294.06
400.165	260.06
400.389	257.06
400.613	248.06
400.837	247.06
401.062	219.06
401.286	235.06
401.51	227.06
401.734	239.06
401.958	224.06
402.182	242.06
402.406	223.06
402.63	237.06
402.854	253.06
403.078	287.06
403.302	355.06
403.526	367.06
403.75	339.06
403.974	283.06
404.198	277.06
404.422	302.06
404.645	314.06
404.869	359.06
405.093	290.06
405.317	255.06
405.541	248.06
405.765	267.06
405.988	232.06
406.212	266.06
406.436	273.06
406.66	319.06
406.883	301.06
407.107	289.06
407.331	329.06
407.555	316.06
407.778	280.06
408.002	274.06
408.226	275.06
408.449	261.06
408.673	273.06
408.896	254.06
409.12	243.06
409.344	260.06
409.567	247.06
409.791	246.06
410.014	241.06
410.238	245.06
410.461	251.06
410.685	225.06
410.908	241.06
411.132	260.06
411.355	246.06
411.578	232.06
411.802	253.06
412.025	245.06
412.249	261.06
412.472	232.06
412.695	245.06
412.919	248.06
413.142	254.06
413.365	272.06
413.589	258.06
413.812	243.06
414.035	242.06
414.258	239.06
414.482	266.06
414.705	249.06
414.928	248.06
415.151	230.06
415.374	228.06
415.597	223.06
415.821	240.06
416.044	241.06
416.267	235.06
416.49	227.06
416.713	212.06
416.936	224.06
417.159	233.06
417.382	242.06
417.605	229.06
417.828	237.06
418.051	238.06
418.274	239.06
418.497	231.06
418.72	251.06
418.943	251.06
419.166	254.06
419.389	250.06
419.611	260.06
419.834	261.06
420.057	247.06
420.28	260.06
420.503	252.06
420.726	242.06
420.948	226.06
421.171	236.06
421.394	226.06
421.617	214.06
421.839	228.06
422.062	227.06
422.285	232.06
422.507	250.06
422.73	253.06
422.953	236.06
423.175	258.06
423.398	251.06
423.621	253.06
423.843	275.06
424.066	254.06
424.288	237.06
424.511	239.06
424.733	237.06
424.956	259.06
425.178	280.06
425.401	301.06
425.623	344.06
425.846	294.06
426.068	243.06
426.291	274.06
426.513	244.06
426.735	239.06
426.958	233.06
427.18	263.06
427.402	339.06
427.625	355.06
427.847	307.06
428.069	237.06
428.292	226.06
428.514	225.06
428.736	230.06
428.958	253.06
429.181	301.06
429.403	254.06
429.625	223.06
429.847	219.06
430.069	216.06
430.292	213.06
430.514	218.06
430.736	231.06
430.958	271.06
431.18	265.06
431.402	216.06
431.624	199.06
431.846	216.06
432.068	221.06
432.29	234.06
432.512	257.06
432.734	290.06
432.956	259.06
433.178	213.06
433.4	224.06
433.622	220.06
433.844	235.06
434.066	238.06
434.287	263.06
434.509	250.06
434.731	278.06
434.953	253.06
435.175	249.06
435.397	280.06
435.618	235.06
435.84	217.06
436.062	216.06
436.284	208.06
436.505	227.06
436.727	213.06
436.949	213.06
437.17	204.06
437.392	233.06
437.614	218.06
437.835	229.06
438.057	218.06
438.278	242.06
438.5	305.06
438.721	331.06
438.943	241.06
439.165	221.06
439.386	206.06
439.608	200.06
439.829	202.06
440.05	226.06
440.272	233.06
440.493	252.06
440.715	286.06
440.936	255.06
441.158	224.06
441.379	225.06
441.6	232.06
441.822	262.06
442.043	235.06
442.264	242.06
442.486	253.06
442.707	225.06
442.928	238.06
443.149	234.06
443.371	250.06
443.592	226.06
443.813	253.06
444.034	226.06
444.255	251.06
444.476	263.06
444.698	251.06
444.919	279.06
445.14	336.06
445.361	284.06
445.582	259.06
445.803	244.06
446.024	230.06
446.245	233.06
446.466	248.06
446.687	234.06
446.908	241.06
447.129	220.06
447.35	221.06
447.571	229.06
447.792	210.06
448.013	201.06
448.234	224.06
448.455	212.06
448.675	217.06
448.896	200.06
449.117	203.06
449.338	209.06
449.559	207.06
449.779	217.06
450	216.06
450.221	226.06
450.442	242.06
450.662	215.06
450.883	209.06
451.104	223.06
451.324	221.06
451.545	218.06
451.766	224.06
451.986	224.06
452.207	204.06
452.428	210.06
452.648	237.06
452.869	217.06
453.089	216.06
453.31	229.06
453.53	186.06
453.751	203.06
453.971	222.06
454.192	219.06
454.412	202.06
454.633	208.06
454.853	208.06
455.073	198.06
455.294	195.06
455.514	198.06
455.734	202.06
455.955	195.06
456.175	212.06
456.395	209.06
456.616	181.06
456.836	197.06
457.056	186.06
457.276	207.06
457.497	206.06
457.717	192.06
457.937	186.06
458.157	216.06
458.377	185.06
458.598	190.06
458.818	207.06
459.038	209.06
459.258	221.06
459.478	219.06
459.698	233.06
459.918	231.06
460.138	223.06
460.358	241.06
460.578	237.06
460.798	232.06
461.018	257.06
461.238	229.06
461.458	235.06
461.678	248.06
461.898	260.06
462.118	247.06
462.338	255.06
462.558	266.06
462.777	278.06
462.997	278.06
463.217	285.06
463.437	287.06
463.657	284.06
463.876	274.06
464.096	281.06
464.316	258.06
464.536	298.06
464.755	287.06
464.975	262.06
465.195	253.06
465.414	267.06
465.634	243.06
465.854	237.06
466.073	219.06
466.293	225.06
466.512	237.06
466.732	234.06
466.951	250.06
467.171	225.06
467.391	224.06
467.61	228.06
467.829	213.06
468.049	248.06
468.268	215.06
468.488	216.06
468.707	210.06
468.927	270.06
469.146	270.06
469.365	248.06
469.585	238.06
469.804	249.06
470.023	261.06
470.243	250.06
470.462	226.06
470.681	248.06
470.901	233.06
471.12	247.06
471.339	254.06
471.558	231.06
471.777	230.06
471.997	253.06
472.216	254.06
472.435	285.06
472.654	249.06
472.873	243.06
473.092	241.06
473.311	246.06
473.53	257.06
473.749	218.06
473.968	253.06
474.187	235.06
474.406	227.06
474.625	234.06
474.844	231.06
475.063	239.06
475.282	241.06
475.501	267.06
475.72	277.06
475.939	264.06
476.158	264.06
476.377	283.06
476.596	341.06
476.814	346.06
477.033	289.06
477.252	240.06
477.471	244.06
477.69	243.06
477.908	270.06
478.127	281.06
478.346	275.06
478.564	276.06
478.783	275.06
479.002	259.06
479.22	299.06
479.439	340.06
479.658	295.06
479.876	260.06
480.095	283.06
480.313	279.06
480.532	275.06
480.751	266.06
480.969	263.06
481.188	294.06
481.406	313.06
481.624	295.06
481.843	289.06
482.061	277.06
482.28	287.06
482.498	330.06
482.717	341.06
482.935	287.06
483.153	261.06
483.372	262.06
483.59	267.06
483.808	271.06
484.027	268.06
484.245	251.06
484.463	253.06
484.681	243.06
484.9	261.06
485.118	286.06
485.336	258.06
485.554	265.06
485.772	259.06
485.99	282.06
486.209	287.06
486.427	289.06
486.645	280.06
486.863	289.06
487.081	292.06
487.299	302.06
487.517	302.06
487.735	276.06
487.953	293.06
488.171	289.06
488.389	275.06
488.607	273.06
488.825	277.06
489.043	306.06
489.261	331.06
489.479	339.06
489.696	295.06
489.914	264.06
490.132	259.06
490.35	271.06
490.568	262.06
490.786	276.06
491.003	279.06
491.221	270.06
491.439	267.06
491.657	269.06
491.874	271.06
492.092	310.06
492.31	357.06
492.527	350.06
492.745	324.06
492.963	298.06
493.18	298.06
493.398	304.06
493.615	289.06
493.833	279.06
494.05	274.06
494.268	298.06
494.485	285.06
494.703	279.06
494.92	279.06
495.138	288.06
495.355	281.06
495.573	303.06
495.79	295.06
496.008	348.06
496.225	325.06
496.442	288.06
496.66	310.06
496.877	312.06
497.094	296.06
497.312	297.06
497.529	292.06
497.746	308.06
497.963	292.06
498.181	316.06
498.398	344.06
498.615	369.06
498.832	364.06
499.049	390.06
499.267	377.06
499.484	368.06
499.701	402.06
499.918	470.06
500.135	488.06
500.352	518.06
500.569	544.06
500.786	560.06
501.003	542.06
501.22	484.06
501.437	432.06
501.654	410.06
501.871	370.06
502.088	384.06
502.305	350.06
502.522	350.06
