Data from NickelSpatula_HRD10591_16-34-14-126.txt Node
Date: Mon Jul 22 16:34:14 EDT 2019
User: cochatt
Spectrometer: HR+D1059
Trigger mode: 1
Integration Time (sec): 1.000000E-1
Scans to average: 1
Electric dark correction enabled: true
Nonlinearity correction enabled: false
Boxcar width: 0
XAxis mode: Wavelengths
Number of Pixels in Spectrum: 2048
>>>>>Begin Spectral Data<<<<<
223.165	-29.31
223.4	-29.31
223.635	-29.31
223.869	-13.31
224.104	-15.31
224.338	-8.31
224.573	-16.31
224.808	-13.31
225.042	-11.31
225.277	-1.31
225.511	-0.31
225.746	6.69
225.98	2.69
226.215	5.69
226.449	4.69
226.683	34.69
226.918	22.69
227.152	31.69
227.387	28.69
227.621	40.69
227.856	33.69
228.09	45.69
228.324	41.69
228.559	46.69
228.793	43.69
229.027	75.69
229.262	71.69
229.496	72.69
229.73	88.69
229.964	95.69
230.199	89.69
230.433	99.69
230.667	89.69
230.901	83.69
231.136	97.69
231.37	95.69
231.604	95.69
231.838	105.69
232.072	95.69
232.306	110.69
232.541	114.69
232.775	99.69
233.009	102.69
233.243	97.69
233.477	112.69
233.711	114.69
233.945	111.69
234.179	113.69
234.413	122.69
234.647	122.69
234.881	140.69
235.115	117.69
235.349	115.69
235.583	105.69
235.817	114.69
236.051	121.69
236.285	122.69
236.519	130.69
236.753	130.69
236.987	141.69
237.221	120.69
237.455	119.69
237.689	115.69
237.922	134.69
238.156	140.69
238.39	153.69
238.624	167.69
238.858	130.69
239.091	126.69
239.325	140.69
239.559	108.69
239.793	144.69
240.027	163.69
240.26	145.69
240.494	151.69
240.728	132.69
240.961	158.69
241.195	158.69
241.429	147.69
241.662	147.69
241.896	134.69
242.13	140.69
242.363	129.69
242.597	141.69
242.83	146.69
243.064	129.69
243.298	145.69
243.531	156.69
243.765	163.69
243.998	146.69
244.232	156.69
244.465	171.69
244.699	155.69
244.932	160.69
245.166	144.69
245.399	137.69
245.633	133.69
245.866	153.69
246.099	156.69
246.333	165.69
246.566	186.69
246.8	180.69
247.033	167.69
247.266	154.69
247.5	152.69
247.733	176.69
247.966	166.69
248.2	165.69
248.433	179.69
248.666	194.69
248.899	194.69
249.133	187.69
249.366	220.69
249.599	226.69
249.832	214.69
250.066	191.69
250.299	198.69
250.532	192.69
250.765	178.69
250.998	171.69
251.231	174.69
251.465	192.69
251.698	200.69
251.931	186.69
252.164	172.69
252.397	209.69
252.63	223.69
252.863	230.69
253.096	281.69
253.329	253.69
253.562	233.69
253.795	252.69
254.028	292.69
254.261	282.69
254.494	280.69
254.727	232.69
254.96	231.69
255.193	258.69
255.426	240.69
255.659	199.69
255.892	183.69
256.124	203.69
256.357	219.69
256.59	238.69
256.823	249.69
257.056	225.69
257.289	210.69
257.521	217.69
257.754	232.69
257.987	258.69
258.22	264.69
258.452	192.69
258.685	254.69
258.918	256.69
259.151	256.69
259.383	252.69
259.616	313.69
259.849	314.69
260.081	332.69
260.314	383.69
260.547	322.69
260.779	316.69
261.012	349.69
261.244	320.69
261.477	336.69
261.71	303.69
261.942	262.69
262.175	263.69
262.407	254.69
262.64	247.69
262.872	295.69
263.105	303.69
263.337	352.69
263.57	308.69
263.802	217.69
264.035	218.69
264.267	195.69
264.499	192.69
264.732	181.69
264.964	169.69
265.197	174.69
265.429	184.69
265.661	203.69
265.894	222.69
266.126	227.69
266.358	231.69
266.591	255.69
266.823	320.69
267.055	280.69
267.287	251.69
267.52	278.69
267.752	285.69
267.984	322.69
268.216	315.69
268.448	251.69
268.681	234.69
268.913	273.69
269.145	279.69
269.377	283.69
269.609	298.69
269.841	265.69
270.073	272.69
270.306	298.69
270.538	293.69
270.77	296.69
271.002	292.69
271.234	314.69
271.466	326.69
271.698	282.69
271.93	299.69
272.162	294.69
272.394	297.69
272.626	287.69
272.858	292.69
273.09	300.69
273.322	255.69
273.553	242.69
273.785	276.69
274.017	350.69
274.249	425.69
274.481	437.69
274.713	454.69
274.945	551.69
275.176	565.69
275.408	518.69
275.64	466.69
275.872	470.69
276.104	427.69
276.335	380.69
276.567	363.69
276.799	388.69
277.031	402.69
277.262	320.69
277.494	257.69
277.726	263.69
277.957	266.69
278.189	273.69
278.421	293.69
278.652	306.69
278.884	290.69
279.115	258.69
279.347	261.69
279.579	250.69
279.81	243.69
280.042	255.69
280.273	256.69
280.505	266.69
280.736	219.69
280.968	214.69
281.199	240.69
281.431	267.69
281.662	256.69
281.894	249.69
282.125	275.69
282.356	280.69
282.588	279.69
282.819	274.69
283.051	282.69
283.282	317.69
283.513	356.69
283.745	392.69
283.976	397.69
284.207	378.69
284.439	376.69
284.67	379.69
284.901	333.69
285.132	359.69
285.364	387.69
285.595	358.69
285.826	377.69
286.057	377.69
286.288	366.69
286.52	376.69
286.751	372.69
286.982	394.69
287.213	348.69
287.444	321.69
287.675	350.69
287.906	347.69
288.138	327.69
288.369	299.69
288.6	285.69
288.831	282.69
289.062	312.69
289.293	357.69
289.524	308.69
289.755	318.69
289.986	313.69
290.217	299.69
290.448	222.69
290.679	219.69
290.91	211.69
291.141	203.69
291.371	216.69
291.602	212.69
291.833	221.69
292.064	221.69
292.295	264.69
292.526	277.69
292.757	290.69
292.987	314.69
293.218	323.69
293.449	333.69
293.68	339.69
293.91	332.69
294.141	339.69
294.372	295.69
294.603	296.69
294.833	303.69
295.064	375.69
295.295	339.69
295.525	278.69
295.756	235.69
295.987	211.69
296.217	200.69
296.448	209.69
296.679	211.69
296.909	242.69
297.14	245.69
297.37	274.69
297.601	256.69
297.831	226.69
298.062	239.69
298.292	268.69
298.523	296.69
298.753	321.69
298.984	307.69
299.214	256.69
299.445	217.69
299.675	217.69
299.905	212.69
300.136	224.69
300.366	224.69
300.597	239.69
300.827	215.69
301.057	200.69
301.288	210.69
301.518	207.69
301.748	238.69
301.979	260.69
302.209	261.69
302.439	264.69
302.669	246.69
302.9	254.69
303.13	238.69
303.36	256.69
303.59	223.69
303.82	227.69
304.051	251.69
304.281	272.69
304.511	265.69
304.741	227.69
304.971	232.69
305.201	240.69
305.431	247.69
305.661	230.69
305.891	223.69
306.121	225.69
306.352	199.69
306.582	182.69
306.812	178.69
307.042	187.69
307.272	170.69
307.502	187.69
307.731	178.69
307.961	208.69
308.191	192.69
308.421	150.69
308.651	181.69
308.881	160.69
309.111	172.69
309.341	190.69
309.571	184.69
309.8	200.69
310.03	204.69
310.26	208.69
310.49	202.69
310.72	176.69
310.949	188.69
311.179	186.69
311.409	208.69
311.639	211.69
311.868	259.69
312.098	329.69
312.328	367.69
312.557	350.69
312.787	359.69
313.017	306.69
313.246	320.69
313.476	372.69
313.706	310.69
313.935	250.69
314.165	224.69
314.394	202.69
314.624	199.69
314.853	209.69
315.083	224.69
315.312	215.69
315.542	209.69
315.771	188.69
316.001	175.69
316.23	188.69
316.46	180.69
316.689	202.69
316.919	193.69
317.148	182.69
317.377	177.69
317.607	184.69
317.836	178.69
318.065	208.69
318.295	249.69
318.524	242.69
318.753	196.69
318.983	191.69
319.212	190.69
319.441	203.69
319.67	212.69
319.9	217.69
320.129	218.69
320.358	197.69
320.587	197.69
320.816	190.69
321.046	215.69
321.275	231.69
321.504	241.69
321.733	230.69
321.962	221.69
322.191	234.69
322.42	216.69
322.649	204.69
322.878	211.69
323.108	229.69
323.337	234.69
323.566	207.69
323.795	204.69
324.024	212.69
324.253	194.69
324.482	200.69
324.71	211.69
324.939	218.69
325.168	214.69
325.397	203.69
325.626	188.69
325.855	179.69
326.084	161.69
326.313	182.69
326.542	175.69
326.77	190.69
326.999	185.69
327.228	199.69
327.457	203.69
327.686	195.69
327.914	187.69
328.143	189.69
328.372	183.69
328.6	168.69
328.829	180.69
329.058	174.69
329.287	188.69
329.515	195.69
329.744	186.69
329.972	180.69
330.201	174.69
330.43	183.69
330.658	171.69
330.887	212.69
331.115	204.69
331.344	215.69
331.572	198.69
331.801	184.69
332.03	179.69
332.258	188.69
332.486	206.69
332.715	190.69
332.943	218.69
333.172	192.69
333.4	191.69
333.629	210.69
333.857	218.69
334.085	219.69
334.314	232.69
334.542	207.69
334.771	207.69
334.999	200.69
335.227	188.69
335.455	197.69
335.684	208.69
335.912	232.69
336.14	256.69
336.369	240.69
336.597	238.69
336.825	249.69
337.053	277.69
337.281	242.69
337.51	193.69
337.738	192.69
337.966	197.69
338.194	211.69
338.422	218.69
338.65	188.69
338.878	184.69
339.106	186.69
339.334	203.69
339.562	226.69
339.79	214.69
340.018	199.69
340.246	194.69
340.474	228.69
340.702	233.69
340.93	235.69
341.158	247.69
341.386	211.69
341.614	210.69
341.842	225.69
342.07	231.69
342.298	237.69
342.526	258.69
342.754	228.69
342.981	226.69
343.209	212.69
343.437	216.69
343.665	259.69
343.893	235.69
344.12	267.69
344.348	313.69
344.576	280.69
344.804	233.69
345.031	222.69
345.259	196.69
345.487	196.69
345.714	231.69
345.942	210.69
346.17	227.69
346.397	226.69
346.625	180.69
346.853	187.69
347.08	210.69
347.308	202.69
347.535	219.69
347.763	212.69
347.99	199.69
348.218	193.69
348.445	191.69
348.673	188.69
348.9	195.69
349.128	207.69
349.355	221.69
349.583	203.69
349.81	201.69
350.037	188.69
350.265	177.69
350.492	158.69
350.72	152.69
350.947	180.69
351.174	178.69
351.402	188.69
351.629	182.69
351.856	186.69
352.083	182.69
352.311	195.69
352.538	191.69
352.765	213.69
352.992	199.69
353.22	206.69
353.447	200.69
353.674	192.69
353.901	182.69
354.128	198.69
354.355	191.69
354.583	190.69
354.81	193.69
355.037	217.69
355.264	189.69
355.491	206.69
355.718	211.69
355.945	217.69
356.172	207.69
356.399	203.69
356.626	225.69
356.853	278.69
357.08	298.69
357.307	304.69
357.534	258.69
357.761	242.69
357.988	286.69
358.215	340.69
358.441	326.69
358.668	278.69
358.895	266.69
359.122	223.69
359.349	223.69
359.576	258.69
359.802	215.69
360.029	165.69
360.256	194.69
360.483	236.69
360.709	282.69
360.936	303.69
361.163	258.69
361.39	208.69
361.616	200.69
361.843	215.69
362.07	253.69
362.296	257.69
362.523	198.69
362.749	188.69
362.976	189.69
363.203	221.69
363.429	233.69
363.656	202.69
363.882	197.69
364.109	194.69
364.335	191.69
364.562	180.69
364.788	187.69
365.015	236.69
365.241	226.69
365.468	193.69
365.694	178.69
365.92	167.69
366.147	170.69
366.373	161.69
366.599	167.69
366.826	168.69
367.052	186.69
367.278	164.69
367.505	171.69
367.731	167.69
367.957	211.69
368.184	207.69
368.41	201.69
368.636	191.69
368.862	214.69
369.089	203.69
369.315	178.69
369.541	172.69
369.767	186.69
369.993	182.69
370.219	181.69
370.445	180.69
370.672	197.69
370.898	205.69
371.124	205.69
371.35	187.69
371.576	190.69
371.802	190.69
372.028	214.69
372.254	218.69
372.48	208.69
372.706	188.69
372.932	203.69
373.158	217.69
373.384	229.69
373.61	293.69
373.835	295.69
374.061	240.69
374.287	218.69
374.513	252.69
374.739	271.69
374.965	291.69
375.191	271.69
375.416	217.69
375.642	192.69
375.868	197.69
376.094	238.69
376.319	210.69
376.545	220.69
376.771	239.69
376.997	201.69
377.222	171.69
377.448	163.69
377.674	166.69
377.899	162.69
378.125	173.69
378.35	153.69
378.576	163.69
378.802	174.69
379.027	187.69
379.253	204.69
379.478	190.69
379.704	206.69
379.929	215.69
380.155	227.69
380.38	193.69
380.606	192.69
380.831	229.69
381.057	220.69
381.282	185.69
381.507	207.69
381.733	238.69
381.958	263.69
382.184	265.69
382.409	290.69
382.634	290.69
382.86	283.69
383.085	282.69
383.31	209.69
383.535	235.69
383.761	228.69
383.986	224.69
384.211	272.69
384.436	258.69
384.662	202.69
384.887	209.69
385.112	203.69
385.337	199.69
385.562	209.69
385.787	206.69
386.013	242.69
386.238	240.69
386.463	224.69
386.688	200.69
386.913	187.69
387.138	190.69
387.363	191.69
387.588	198.69
387.813	186.69
388.038	222.69
388.263	206.69
388.488	190.69
388.713	210.69
388.938	229.69
389.163	213.69
389.387	202.69
389.612	198.69
389.837	203.69
390.062	209.69
390.287	204.69
390.512	212.69
390.736	187.69
390.961	183.69
391.186	185.69
391.411	200.69
391.636	182.69
391.86	184.69
392.085	198.69
392.31	213.69
392.534	209.69
392.759	201.69
392.984	216.69
393.208	208.69
393.433	170.69
393.658	169.69
393.882	175.69
394.107	169.69
394.331	162.69
394.556	175.69
394.78	175.69
395.005	179.69
395.229	168.69
395.454	190.69
395.678	178.69
395.903	183.69
396.127	190.69
396.352	182.69
396.576	201.69
396.801	216.69
397.025	219.69
397.249	236.69
397.474	210.69
397.698	198.69
397.922	219.69
398.147	199.69
398.371	216.69
398.595	222.69
398.82	193.69
399.044	194.69
399.268	189.69
399.492	227.69
399.717	229.69
399.941	231.69
400.165	224.69
400.389	218.69
400.613	227.69
400.837	220.69
401.062	204.69
401.286	190.69
401.51	194.69
401.734	182.69
401.958	189.69
402.182	199.69
402.406	190.69
402.63	204.69
402.854	208.69
403.078	220.69
403.302	258.69
403.526	289.69
403.75	262.69
403.974	227.69
404.198	235.69
404.422	258.69
404.645	276.69
404.869	288.69
405.093	221.69
405.317	205.69
405.541	217.69
405.765	228.69
405.988	224.69
406.212	230.69
406.436	240.69
406.66	264.69
406.883	223.69
407.107	222.69
407.331	260.69
407.555	268.69
407.778	228.69
408.002	219.69
408.226	224.69
408.449	227.69
408.673	236.69
408.896	202.69
409.12	192.69
409.344	203.69
409.567	196.69
409.791	206.69
410.014	213.69
410.238	207.69
410.461	192.69
410.685	196.69
410.908	188.69
411.132	176.69
411.355	208.69
411.578	184.69
411.802	192.69
412.025	209.69
412.249	202.69
412.472	202.69
412.695	209.69
412.919	212.69
413.142	195.69
413.365	220.69
413.589	239.69
413.812	192.69
414.035	204.69
414.258	208.69
414.482	215.69
414.705	202.69
414.928	194.69
415.151	187.69
415.374	191.69
415.597	195.69
415.821	196.69
416.044	187.69
416.267	194.69
416.49	196.69
416.713	184.69
416.936	175.69
417.159	207.69
417.382	193.69
417.605	187.69
417.828	190.69
418.051	202.69
418.274	187.69
418.497	198.69
418.72	193.69
418.943	207.69
419.166	224.69
419.389	206.69
419.611	219.69
419.834	224.69
420.057	217.69
420.28	231.69
420.503	212.69
420.726	186.69
420.948	177.69
421.171	186.69
421.394	202.69
421.617	184.69
421.839	186.69
422.062	197.69
422.285	184.69
422.507	200.69
422.73	195.69
422.953	197.69
423.175	215.69
423.398	214.69
423.621	222.69
423.843	241.69
424.066	213.69
424.288	180.69
424.511	214.69
424.733	182.69
424.956	205.69
425.178	210.69
425.401	236.69
425.623	288.69
425.846	238.69
426.068	207.69
426.291	227.69
426.513	210.69
426.735	197.69
426.958	187.69
427.18	229.69
427.402	272.69
427.625	270.69
427.847	237.69
428.069	202.69
428.292	188.69
428.514	195.69
428.736	198.69
428.958	194.69
429.181	224.69
429.403	212.69
429.625	175.69
429.847	185.69
430.069	181.69
430.292	196.69
430.514	194.69
430.736	212.69
430.958	230.69
431.18	210.69
431.402	186.69
431.624	186.69
431.846	184.69
432.068	203.69
432.29	197.69
432.512	190.69
432.734	233.69
432.956	221.69
433.178	176.69
433.4	191.69
433.622	184.69
433.844	203.69
434.066	218.69
434.287	198.69
434.509	198.69
434.731	204.69
434.953	199.69
435.175	203.69
435.397	222.69
435.618	209.69
435.84	180.69
436.062	178.69
436.284	183.69
436.505	175.69
436.727	171.69
436.949	184.69
437.17	184.69
437.392	174.69
437.614	182.69
437.835	183.69
438.057	174.69
438.278	195.69
438.5	243.69
438.721	253.69
438.943	193.69
439.165	185.69
439.386	152.69
439.608	185.69
439.829	178.69
440.05	174.69
440.272	193.69
440.493	222.69
440.715	225.69
440.936	220.69
441.158	183.69
441.379	191.69
441.6	191.69
441.822	214.69
442.043	200.69
442.264	198.69
442.486	204.69
442.707	182.69
442.928	218.69
443.149	206.69
443.371	177.69
443.592	213.69
443.813	211.69
444.034	199.69
444.255	193.69
444.476	209.69
444.698	219.69
444.919	215.69
445.14	316.69
445.361	263.69
445.582	221.69
445.803	203.69
446.024	214.69
446.245	205.69
446.466	195.69
446.687	208.69
446.908	195.69
447.129	182.69
447.35	180.69
447.571	179.69
447.792	189.69
448.013	178.69
448.234	168.69
448.455	166.69
448.675	181.69
448.896	186.69
449.117	166.69
449.338	180.69
449.559	186.69
449.779	190.69
450	194.69
450.221	182.69
450.442	179.69
450.662	184.69
450.883	182.69
451.104	167.69
451.324	186.69
451.545	174.69
451.766	170.69
451.986	174.69
452.207	159.69
452.428	171.69
452.648	165.69
452.869	180.69
453.089	174.69
453.31	185.69
453.53	181.69
453.751	167.69
453.971	171.69
454.192	167.69
454.412	161.69
454.633	178.69
454.853	152.69
455.073	163.69
455.294	174.69
455.514	169.69
455.734	174.69
455.955	173.69
456.175	167.69
456.395	162.69
456.616	159.69
456.836	152.69
457.056	149.69
457.276	158.69
457.497	154.69
457.717	178.69
457.937	175.69
458.157	169.69
458.377	174.69
458.598	165.69
458.818	161.69
459.038	167.69
459.258	188.69
459.478	168.69
459.698	186.69
459.918	197.69
460.138	197.69
460.358	200.69
460.578	198.69
460.798	200.69
461.018	202.69
461.238	194.69
461.458	192.69
461.678	189.69
461.898	190.69
462.118	195.69
462.338	212.69
462.558	217.69
462.777	211.69
462.997	223.69
463.217	229.69
463.437	229.69
463.657	218.69
463.876	206.69
464.096	219.69
464.316	202.69
464.536	222.69
464.755	226.69
464.975	229.69
465.195	210.69
465.414	223.69
465.634	211.69
465.854	213.69
466.073	183.69
466.293	199.69
466.512	202.69
466.732	201.69
466.951	201.69
467.171	194.69
467.391	181.69
467.61	168.69
467.829	203.69
468.049	204.69
468.268	184.69
468.488	191.69
468.707	189.69
468.927	200.69
469.146	233.69
469.365	216.69
469.585	211.69
469.804	208.69
470.023	215.69
470.243	217.69
470.462	201.69
470.681	202.69
470.901	199.69
471.12	217.69
471.339	190.69
471.558	190.69
471.777	190.69
471.997	204.69
472.216	232.69
472.435	206.69
472.654	216.69
472.873	197.69
473.092	192.69
473.311	200.69
473.53	184.69
473.749	196.69
473.968	200.69
474.187	200.69
474.406	201.69
474.625	195.69
474.844	211.69
475.063	229.69
475.282	209.69
475.501	247.69
475.72	260.69
475.939	231.69
476.158	228.69
476.377	235.69
476.596	292.69
476.814	288.69
477.033	265.69
477.252	218.69
477.471	205.69
477.69	204.69
477.908	222.69
478.127	233.69
478.346	214.69
478.564	256.69
478.783	254.69
479.002	226.69
479.22	231.69
479.439	272.69
479.658	265.69
479.876	226.69
480.095	247.69
480.313	259.69
480.532	239.69
480.751	217.69
480.969	231.69
481.188	269.69
481.406	254.69
481.624	233.69
481.843	226.69
482.061	217.69
482.28	235.69
482.498	292.69
482.717	294.69
482.935	234.69
483.153	226.69
483.372	199.69
483.59	204.69
483.808	205.69
484.027	211.69
484.245	195.69
484.463	210.69
484.681	210.69
484.9	235.69
485.118	217.69
485.336	213.69
485.554	223.69
485.772	222.69
485.99	227.69
486.209	247.69
486.427	232.69
486.645	234.69
486.863	254.69
487.081	234.69
487.299	250.69
487.517	232.69
487.735	235.69
487.953	244.69
488.171	233.69
488.389	219.69
488.607	215.69
488.825	221.69
489.043	258.69
489.261	271.69
489.479	295.69
489.696	262.69
489.914	221.69
490.132	227.69
490.35	211.69
490.568	234.69
490.786	211.69
491.003	209.69
491.221	220.69
491.439	212.69
491.657	227.69
491.874	238.69
492.092	267.69
492.31	348.69
492.527	306.69
492.745	288.69
492.963	246.69
493.18	244.69
493.398	239.69
493.615	240.69
493.833	227.69
494.05	241.69
494.268	266.69
494.485	244.69
494.703	225.69
494.92	229.69
495.138	231.69
495.355	245.69
495.573	246.69
495.79	261.69
496.008	324.69
496.225	289.69
496.442	256.69
496.66	260.69
496.877	260.69
497.094	267.69
497.312	248.69
497.529	251.69
497.746	251.69
497.963	255.69
498.181	276.69
498.398	308.69
498.615	334.69
498.832	337.69
499.049	324.69
499.267	306.69
499.484	322.69
499.701	336.69
499.918	336.69
500.135	373.69
500.352	393.69
500.569	425.69
500.786	434.69
501.003	446.69
501.22	368.69
501.437	346.69
501.654	334.69
501.871	335.69
502.088	325.69
502.305	290.69
502.522	303.69
502.739	292.69
