Data from NickelSpatula_HRD10591_16-36-13-126.txt Node
Date: Mon Jul 22 16:36:13 EDT 2019
User: cochatt
Spectrometer: HR+D1059
Trigger mode: 1
Integration Time (sec): 1.000000E-1
Scans to average: 1
Electric dark correction enabled: true
Nonlinearity correction enabled: false
Boxcar width: 0
XAxis mode: Wavelengths
Number of Pixels in Spectrum: 2048
>>>>>Begin Spectral Data<<<<<
223.165	-26.38
223.4	-26.38
223.635	-26.38
223.869	-15.38
224.104	-27.38
224.338	-13.38
224.573	-18.38
224.808	-26.38
225.042	-1.38
225.277	2.62
225.511	-6.38
225.746	-2.38
225.98	12.62
226.215	18.62
226.449	28.62
226.683	20.62
226.918	25.62
227.152	28.62
227.387	25.62
227.621	44.62
227.856	44.62
228.09	63.62
228.324	48.62
228.559	44.62
228.793	54.62
229.027	65.62
229.262	74.62
229.496	86.62
229.73	77.62
229.964	70.62
230.199	87.62
230.433	82.62
230.667	91.62
230.901	91.62
231.136	86.62
231.37	81.62
231.604	97.62
231.838	78.62
232.072	87.62
232.306	81.62
232.541	99.62
232.775	97.62
233.009	101.62
233.243	95.62
233.477	103.62
233.711	109.62
233.945	102.62
234.179	110.62
234.413	104.62
234.647	98.62
234.881	99.62
235.115	104.62
235.349	94.62
235.583	101.62
235.817	92.62
236.051	106.62
236.285	106.62
236.519	103.62
236.753	91.62
236.987	100.62
237.221	103.62
237.455	122.62
237.689	98.62
237.922	117.62
238.156	120.62
238.39	114.62
238.624	118.62
238.858	124.62
239.091	102.62
239.325	120.62
239.559	114.62
239.793	107.62
240.027	116.62
240.26	122.62
240.494	105.62
240.728	124.62
240.961	128.62
241.195	114.62
241.429	129.62
241.662	101.62
241.896	98.62
242.13	106.62
242.363	105.62
242.597	115.62
242.83	122.62
243.064	122.62
243.298	125.62
243.531	114.62
243.765	108.62
243.998	105.62
244.232	124.62
244.465	107.62
244.699	119.62
244.932	118.62
245.166	124.62
245.399	100.62
245.633	118.62
245.866	122.62
246.099	106.62
246.333	128.62
246.566	135.62
246.8	118.62
247.033	134.62
247.266	123.62
247.5	112.62
247.733	134.62
247.966	131.62
248.2	108.62
248.433	128.62
248.666	131.62
248.899	121.62
249.133	131.62
249.366	132.62
249.599	133.62
249.832	148.62
250.066	133.62
250.299	123.62
250.532	139.62
250.765	135.62
250.998	119.62
251.231	128.62
251.465	123.62
251.698	128.62
251.931	118.62
252.164	133.62
252.397	135.62
252.63	154.62
252.863	166.62
253.096	165.62
253.329	139.62
253.562	158.62
253.795	149.62
254.028	171.62
254.261	178.62
254.494	166.62
254.727	153.62
254.96	163.62
255.193	151.62
255.426	157.62
255.659	144.62
255.892	148.62
256.124	142.62
256.357	140.62
256.59	154.62
256.823	159.62
257.056	150.62
257.289	156.62
257.521	154.62
257.754	164.62
257.987	173.62
258.22	155.62
258.452	141.62
258.685	168.62
258.918	161.62
259.151	168.62
259.383	176.62
259.616	195.62
259.849	198.62
260.081	187.62
260.314	203.62
260.547	181.62
260.779	168.62
261.012	193.62
261.244	194.62
261.477	198.62
261.71	181.62
261.942	162.62
262.175	153.62
262.407	178.62
262.64	144.62
262.872	172.62
263.105	193.62
263.337	202.62
263.57	186.62
263.802	156.62
264.035	139.62
264.267	151.62
264.499	128.62
264.732	117.62
264.964	124.62
265.197	132.62
265.429	148.62
265.661	140.62
265.894	137.62
266.126	169.62
266.358	162.62
266.591	166.62
266.823	195.62
267.055	174.62
267.287	173.62
267.52	188.62
267.752	172.62
267.984	172.62
268.216	166.62
268.448	169.62
268.681	163.62
268.913	164.62
269.145	173.62
269.377	181.62
269.609	170.62
269.841	173.62
270.073	180.62
270.306	177.62
270.538	178.62
270.77	198.62
271.002	184.62
271.234	189.62
271.466	197.62
271.698	192.62
271.93	182.62
272.162	179.62
272.394	171.62
272.626	186.62
272.858	185.62
273.09	189.62
273.322	164.62
273.553	157.62
273.785	163.62
274.017	213.62
274.249	239.62
274.481	228.62
274.713	271.62
274.945	293.62
275.176	304.62
275.408	278.62
275.64	270.62
275.872	257.62
276.104	231.62
276.335	199.62
276.567	200.62
276.799	233.62
277.031	228.62
277.262	192.62
277.494	164.62
277.726	160.62
277.957	168.62
278.189	179.62
278.421	169.62
278.652	188.62
278.884	171.62
279.115	155.62
279.347	157.62
279.579	158.62
279.81	169.62
280.042	174.62
280.273	162.62
280.505	161.62
280.736	169.62
280.968	151.62
281.199	173.62
281.431	179.62
281.662	171.62
281.894	171.62
282.125	169.62
282.356	174.62
282.588	170.62
282.819	148.62
283.051	184.62
283.282	196.62
283.513	232.62
283.745	236.62
283.976	221.62
284.207	226.62
284.439	236.62
284.67	215.62
284.901	204.62
285.132	215.62
285.364	214.62
285.595	206.62
285.826	234.62
286.057	231.62
286.288	214.62
286.52	226.62
286.751	229.62
286.982	244.62
287.213	214.62
287.444	205.62
287.675	198.62
287.906	225.62
288.138	197.62
288.369	182.62
288.6	166.62
288.831	179.62
289.062	181.62
289.293	201.62
289.524	208.62
289.755	184.62
289.986	198.62
290.217	205.62
290.448	153.62
290.679	142.62
290.91	148.62
291.141	128.62
291.371	157.62
291.602	139.62
291.833	146.62
292.064	165.62
292.295	185.62
292.526	202.62
292.757	179.62
292.987	185.62
293.218	193.62
293.449	189.62
293.68	225.62
293.91	208.62
294.141	206.62
294.372	209.62
294.603	189.62
294.833	210.62
295.064	224.62
295.295	205.62
295.525	169.62
295.756	168.62
295.987	151.62
296.217	159.62
296.448	147.62
296.679	138.62
296.909	165.62
297.14	155.62
297.37	185.62
297.601	173.62
297.831	158.62
298.062	169.62
298.292	191.62
298.523	182.62
298.753	200.62
298.984	185.62
299.214	157.62
299.445	148.62
299.675	134.62
299.905	139.62
300.136	154.62
300.366	152.62
300.597	137.62
300.827	139.62
301.057	143.62
301.288	143.62
301.518	151.62
301.748	151.62
301.979	161.62
302.209	167.62
302.439	165.62
302.669	139.62
302.9	162.62
303.13	156.62
303.36	150.62
303.59	149.62
303.82	171.62
304.051	160.62
304.281	171.62
304.511	163.62
304.741	173.62
304.971	150.62
305.201	167.62
305.431	154.62
305.661	129.62
305.891	145.62
306.121	156.62
306.352	137.62
306.582	132.62
306.812	140.62
307.042	122.62
307.272	136.62
307.502	132.62
307.731	133.62
307.961	135.62
308.191	131.62
308.421	122.62
308.651	130.62
308.881	136.62
309.111	119.62
309.341	130.62
309.571	144.62
309.8	137.62
310.03	130.62
310.26	127.62
310.49	146.62
310.72	129.62
310.949	134.62
311.179	130.62
311.409	118.62
311.639	162.62
311.868	181.62
312.098	219.62
312.328	213.62
312.557	197.62
312.787	203.62
313.017	187.62
313.246	201.62
313.476	207.62
313.706	172.62
313.935	171.62
314.165	139.62
314.394	138.62
314.624	135.62
314.853	136.62
315.083	149.62
315.312	140.62
315.542	155.62
315.771	129.62
316.001	121.62
316.23	128.62
316.46	130.62
316.689	138.62
316.919	123.62
317.148	134.62
317.377	133.62
317.607	133.62
317.836	140.62
318.065	137.62
318.295	149.62
318.524	136.62
318.753	138.62
318.983	134.62
319.212	134.62
319.441	152.62
319.67	132.62
319.9	141.62
320.129	141.62
320.358	146.62
320.587	121.62
320.816	144.62
321.046	164.62
321.275	150.62
321.504	166.62
321.733	147.62
321.962	150.62
322.191	156.62
322.42	147.62
322.649	149.62
322.878	138.62
323.108	144.62
323.337	135.62
323.566	140.62
323.795	144.62
324.024	144.62
324.253	141.62
324.482	132.62
324.71	128.62
324.939	132.62
325.168	138.62
325.397	139.62
325.626	126.62
325.855	121.62
326.084	120.62
326.313	127.62
326.542	128.62
326.77	137.62
326.999	131.62
327.228	136.62
327.457	135.62
327.686	129.62
327.914	129.62
328.143	133.62
328.372	124.62
328.6	130.62
328.829	116.62
329.058	122.62
329.287	125.62
329.515	126.62
329.744	147.62
329.972	114.62
330.201	131.62
330.43	137.62
330.658	132.62
330.887	146.62
331.115	134.62
331.344	137.62
331.572	130.62
331.801	128.62
332.03	132.62
332.258	136.62
332.486	147.62
332.715	146.62
332.943	130.62
333.172	131.62
333.4	138.62
333.629	157.62
333.857	150.62
334.085	149.62
334.314	136.62
334.542	150.62
334.771	122.62
334.999	140.62
335.227	137.62
335.455	139.62
335.684	157.62
335.912	159.62
336.14	160.62
336.369	165.62
336.597	153.62
336.825	160.62
337.053	202.62
337.281	157.62
337.51	149.62
337.738	141.62
337.966	136.62
338.194	142.62
338.422	142.62
338.65	123.62
338.878	121.62
339.106	129.62
339.334	154.62
339.562	135.62
339.79	141.62
340.018	141.62
340.246	141.62
340.474	146.62
340.702	156.62
340.93	162.62
341.158	147.62
341.386	130.62
341.614	126.62
341.842	131.62
342.07	170.62
342.298	166.62
342.526	166.62
342.754	156.62
342.981	131.62
343.209	137.62
343.437	140.62
343.665	153.62
343.893	150.62
344.12	180.62
344.348	173.62
344.576	177.62
344.804	142.62
345.031	150.62
345.259	133.62
345.487	139.62
345.714	137.62
345.942	134.62
346.17	133.62
346.397	152.62
346.625	148.62
346.853	137.62
347.08	142.62
347.308	153.62
347.535	162.62
347.763	147.62
347.99	142.62
348.218	131.62
348.445	141.62
348.673	131.62
348.9	142.62
349.128	149.62
349.355	151.62
349.583	128.62
349.81	139.62
350.037	140.62
350.265	120.62
350.492	131.62
350.72	127.62
350.947	133.62
351.174	138.62
351.402	125.62
351.629	148.62
351.856	142.62
352.083	128.62
352.311	149.62
352.538	156.62
352.765	145.62
352.992	143.62
353.22	144.62
353.447	146.62
353.674	148.62
353.901	137.62
354.128	136.62
354.355	128.62
354.583	145.62
354.81	144.62
355.037	136.62
355.264	135.62
355.491	148.62
355.718	156.62
355.945	136.62
356.172	148.62
356.399	140.62
356.626	157.62
356.853	186.62
357.08	193.62
357.307	208.62
357.534	175.62
357.761	158.62
357.988	194.62
358.215	215.62
358.441	199.62
358.668	182.62
358.895	181.62
359.122	142.62
359.349	154.62
359.576	161.62
359.802	141.62
360.029	130.62
360.256	149.62
360.483	161.62
360.709	180.62
360.936	175.62
361.163	156.62
361.39	152.62
361.616	145.62
361.843	141.62
362.07	158.62
362.296	152.62
362.523	141.62
362.749	132.62
362.976	123.62
363.203	162.62
363.429	156.62
363.656	138.62
363.882	142.62
364.109	143.62
364.335	137.62
364.562	158.62
364.788	152.62
365.015	149.62
365.241	140.62
365.468	147.62
365.694	130.62
365.92	140.62
366.147	128.62
366.373	109.62
366.599	126.62
366.826	124.62
367.052	119.62
367.278	123.62
367.505	124.62
367.731	130.62
367.957	129.62
368.184	133.62
368.41	145.62
368.636	134.62
368.862	123.62
369.089	125.62
369.315	125.62
369.541	129.62
369.767	121.62
369.993	128.62
370.219	123.62
370.445	139.62
370.672	126.62
370.898	152.62
371.124	133.62
371.35	130.62
371.576	128.62
371.802	128.62
372.028	129.62
372.254	146.62
372.48	134.62
372.706	133.62
372.932	145.62
373.158	162.62
373.384	173.62
373.61	190.62
373.835	194.62
374.061	149.62
374.287	149.62
374.513	177.62
374.739	184.62
374.965	171.62
375.191	183.62
375.416	143.62
375.642	136.62
375.868	144.62
376.094	155.62
376.319	148.62
376.545	152.62
376.771	160.62
376.997	137.62
377.222	112.62
377.448	124.62
377.674	128.62
377.899	115.62
378.125	110.62
378.35	123.62
378.576	104.62
378.802	122.62
379.027	127.62
379.253	132.62
379.478	118.62
379.704	155.62
379.929	143.62
380.155	133.62
380.38	141.62
380.606	153.62
380.831	162.62
381.057	149.62
381.282	133.62
381.507	139.62
381.733	168.62
381.958	186.62
382.184	172.62
382.409	166.62
382.634	198.62
382.86	169.62
383.085	180.62
383.31	150.62
383.535	173.62
383.761	160.62
383.986	160.62
384.211	167.62
384.436	150.62
384.662	157.62
384.887	153.62
385.112	140.62
385.337	134.62
385.562	153.62
385.787	160.62
386.013	153.62
386.238	165.62
386.463	149.62
386.688	151.62
386.913	134.62
387.138	140.62
387.363	137.62
387.588	150.62
387.813	134.62
388.038	145.62
388.263	148.62
388.488	148.62
388.713	140.62
388.938	156.62
389.163	145.62
389.387	133.62
389.612	134.62
389.837	139.62
390.062	153.62
390.287	147.62
390.512	132.62
390.736	132.62
390.961	137.62
391.186	147.62
391.411	138.62
391.636	121.62
391.86	145.62
392.085	140.62
392.31	141.62
392.534	136.62
392.759	142.62
392.984	144.62
393.208	136.62
393.433	125.62
393.658	127.62
393.882	117.62
394.107	128.62
394.331	132.62
394.556	136.62
394.78	140.62
395.005	131.62
395.229	125.62
395.454	134.62
395.678	123.62
395.903	137.62
396.127	141.62
396.352	133.62
396.576	141.62
396.801	154.62
397.025	169.62
397.249	145.62
397.474	137.62
397.698	134.62
397.922	154.62
398.147	132.62
398.371	135.62
398.595	140.62
398.82	142.62
399.044	139.62
399.268	152.62
399.492	146.62
399.717	140.62
399.941	136.62
400.165	141.62
400.389	142.62
400.613	147.62
400.837	140.62
401.062	130.62
401.286	147.62
401.51	125.62
401.734	141.62
401.958	136.62
402.182	121.62
402.406	139.62
402.63	147.62
402.854	146.62
403.078	158.62
403.302	181.62
403.526	188.62
403.75	171.62
403.974	142.62
404.198	162.62
404.422	153.62
404.645	158.62
404.869	182.62
405.093	160.62
405.317	159.62
405.541	136.62
405.765	147.62
405.988	150.62
406.212	146.62
406.436	147.62
406.66	181.62
406.883	158.62
407.107	153.62
407.331	155.62
407.555	170.62
407.778	140.62
408.002	156.62
408.226	138.62
408.449	138.62
408.673	149.62
408.896	146.62
409.12	138.62
409.344	140.62
409.567	136.62
409.791	125.62
410.014	134.62
410.238	142.62
410.461	129.62
410.685	132.62
410.908	126.62
411.132	143.62
411.355	132.62
411.578	155.62
411.802	132.62
412.025	127.62
412.249	149.62
412.472	133.62
412.695	141.62
412.919	154.62
413.142	144.62
413.365	136.62
413.589	145.62
413.812	139.62
414.035	127.62
414.258	136.62
414.482	158.62
414.705	139.62
414.928	136.62
415.151	130.62
415.374	137.62
415.597	134.62
415.821	131.62
416.044	133.62
416.267	130.62
416.49	130.62
416.713	129.62
416.936	121.62
417.159	128.62
417.382	130.62
417.605	134.62
417.828	126.62
418.051	137.62
418.274	132.62
418.497	148.62
418.72	142.62
418.943	142.62
419.166	140.62
419.389	136.62
419.611	133.62
419.834	146.62
420.057	153.62
420.28	148.62
420.503	133.62
420.726	147.62
420.948	144.62
421.171	156.62
421.394	129.62
421.617	124.62
421.839	133.62
422.062	133.62
422.285	134.62
422.507	142.62
422.73	128.62
422.953	149.62
423.175	142.62
423.398	135.62
423.621	139.62
423.843	142.62
424.066	137.62
424.288	140.62
424.511	154.62
424.733	125.62
424.956	138.62
425.178	146.62
425.401	164.62
425.623	172.62
425.846	162.62
426.068	158.62
426.291	163.62
426.513	153.62
426.735	138.62
426.958	143.62
427.18	141.62
427.402	180.62
427.625	186.62
427.847	152.62
428.069	140.62
428.292	139.62
428.514	133.62
428.736	147.62
428.958	144.62
429.181	162.62
429.403	134.62
429.625	142.62
429.847	138.62
430.069	152.62
430.292	134.62
430.514	140.62
430.736	131.62
430.958	147.62
431.18	151.62
431.402	118.62
431.624	136.62
431.846	123.62
432.068	123.62
432.29	137.62
432.512	135.62
432.734	157.62
432.956	148.62
433.178	134.62
433.4	129.62
433.622	122.62
433.844	137.62
434.066	130.62
434.287	136.62
434.509	135.62
434.731	143.62
434.953	136.62
435.175	136.62
435.397	146.62
435.618	142.62
435.84	139.62
436.062	127.62
436.284	130.62
436.505	135.62
436.727	123.62
436.949	145.62
437.17	140.62
437.392	125.62
437.614	138.62
437.835	136.62
438.057	131.62
438.278	148.62
438.5	167.62
438.721	178.62
438.943	146.62
439.165	126.62
439.386	126.62
439.608	130.62
439.829	134.62
440.05	134.62
440.272	134.62
440.493	136.62
440.715	166.62
440.936	141.62
441.158	130.62
441.379	133.62
441.6	149.62
441.822	152.62
442.043	134.62
442.264	139.62
442.486	124.62
442.707	137.62
442.928	128.62
443.149	134.62
443.371	137.62
443.592	139.62
443.813	137.62
444.034	137.62
444.255	151.62
444.476	149.62
444.698	149.62
444.919	138.62
445.14	282.62
445.361	200.62
445.582	141.62
445.803	140.62
446.024	166.62
446.245	147.62
446.466	148.62
446.687	132.62
446.908	135.62
447.129	136.62
447.35	136.62
447.571	141.62
447.792	130.62
448.013	122.62
448.234	128.62
448.455	140.62
448.675	113.62
448.896	127.62
449.117	123.62
449.338	129.62
449.559	136.62
449.779	136.62
450	145.62
450.221	133.62
450.442	135.62
450.662	130.62
450.883	134.62
451.104	135.62
451.324	156.62
451.545	132.62
451.766	139.62
451.986	124.62
452.207	130.62
452.428	142.62
452.648	133.62
452.869	122.62
453.089	141.62
453.31	140.62
453.53	130.62
453.751	119.62
453.971	126.62
454.192	143.62
454.412	122.62
454.633	125.62
454.853	110.62
455.073	128.62
455.294	132.62
455.514	128.62
455.734	148.62
455.955	117.62
456.175	129.62
456.395	106.62
456.616	129.62
456.836	126.62
457.056	114.62
457.276	123.62
457.497	120.62
457.717	122.62
457.937	113.62
458.157	116.62
458.377	140.62
458.598	128.62
458.818	134.62
459.038	121.62
459.258	130.62
459.478	128.62
459.698	135.62
459.918	122.62
460.138	135.62
460.358	131.62
460.578	137.62
460.798	134.62
461.018	136.62
461.238	122.62
461.458	132.62
461.678	137.62
461.898	150.62
462.118	129.62
462.338	140.62
462.558	152.62
462.777	142.62
462.997	141.62
463.217	141.62
463.437	142.62
463.657	135.62
463.876	130.62
464.096	126.62
464.316	136.62
464.536	145.62
464.755	145.62
464.975	158.62
465.195	156.62
465.414	154.62
465.634	161.62
465.854	136.62
466.073	132.62
466.293	145.62
466.512	128.62
466.732	148.62
466.951	157.62
467.171	122.62
467.391	130.62
467.61	139.62
467.829	142.62
468.049	137.62
468.268	140.62
468.488	128.62
468.707	140.62
468.927	155.62
469.146	146.62
469.365	141.62
469.585	138.62
469.804	156.62
470.023	151.62
470.243	136.62
470.462	140.62
470.681	138.62
470.901	135.62
471.12	146.62
471.339	124.62
471.558	121.62
471.777	145.62
471.997	173.62
472.216	161.62
472.435	147.62
472.654	138.62
472.873	144.62
473.092	139.62
473.311	130.62
473.53	130.62
473.749	148.62
473.968	150.62
474.187	146.62
474.406	137.62
474.625	123.62
474.844	147.62
475.063	128.62
475.282	157.62
475.501	167.62
475.72	186.62
475.939	149.62
476.158	155.62
476.377	176.62
476.596	190.62
476.814	176.62
477.033	164.62
477.252	142.62
477.471	152.62
477.69	148.62
477.908	155.62
478.127	166.62
478.346	160.62
478.564	181.62
478.783	161.62
479.002	166.62
479.22	170.62
479.439	166.62
479.658	157.62
479.876	161.62
480.095	161.62
480.313	149.62
480.532	140.62
480.751	153.62
480.969	156.62
481.188	165.62
481.406	164.62
481.624	150.62
481.843	155.62
482.061	146.62
482.28	164.62
482.498	184.62
482.717	181.62
482.935	157.62
483.153	153.62
483.372	140.62
483.59	148.62
483.808	140.62
484.027	161.62
484.245	150.62
484.463	154.62
484.681	143.62
484.9	166.62
485.118	164.62
485.336	156.62
485.554	136.62
485.772	150.62
485.99	139.62
486.209	154.62
486.427	157.62
486.645	157.62
486.863	162.62
487.081	160.62
487.299	160.62
487.517	156.62
487.735	149.62
487.953	168.62
488.171	162.62
488.389	157.62
488.607	154.62
488.825	146.62
489.043	161.62
489.261	184.62
489.479	194.62
489.696	160.62
489.914	146.62
490.132	145.62
490.35	157.62
490.568	136.62
490.786	156.62
491.003	134.62
491.221	155.62
491.439	144.62
491.657	139.62
491.874	159.62
492.092	166.62
492.31	202.62
492.527	207.62
492.745	188.62
492.963	164.62
493.18	148.62
493.398	160.62
493.615	167.62
493.833	165.62
494.05	162.62
494.268	170.62
494.485	164.62
494.703	148.62
494.92	154.62
495.138	157.62
495.355	169.62
495.573	168.62
495.79	160.62
496.008	221.62
496.225	197.62
496.442	174.62
496.66	150.62
496.877	171.62
497.094	180.62
497.312	157.62
497.529	166.62
497.746	168.62
497.963	159.62
498.181	174.62
498.398	195.62
498.615	189.62
498.832	196.62
499.049	181.62
499.267	171.62
499.484	186.62
499.701	178.62
499.918	202.62
500.135	209.62
500.352	221.62
500.569	216.62
500.786	233.62
501.003	210.62
501.22	203.62
501.437	183.62
501.654	196.62
501.871	198.62
502.088	189.62
502.305	202.62
502.522	173.62
502.739	180.62
