Data from NickelSpatula.Lamp.E5.5.P2_HRD10591_11-53-37-548.txt Node
Date: Tue Jul 23 11:53:37 EDT 2019
User: cochatt
Spectrometer: HR+D1059
Trigger mode: 1
Integration Time (sec): 1.000000E-1
Scans to average: 1
Electric dark correction enabled: true
Nonlinearity correction enabled: false
Boxcar width: 0
XAxis mode: Wavelengths
Number of Pixels in Spectrum: 2048
>>>>>Begin Spectral Data<<<<<
223.165	-16.25
223.4	-16.25
223.635	-16.25
223.869	-23.25
224.104	-34.25
224.338	-20.25
224.573	-6.25
224.808	-4.25
225.042	-12.25
225.277	3.75
225.511	-12.25
225.746	-2.25
225.98	19.75
226.215	5.75
226.449	20.75
226.683	24.75
226.918	20.75
227.152	35.75
227.387	20.75
227.621	40.75
227.856	33.75
228.09	38.75
228.324	40.75
228.559	44.75
228.793	55.75
229.027	68.75
229.262	65.75
229.496	83.75
229.73	79.75
229.964	102.75
230.199	93.75
230.433	91.75
230.667	96.75
230.901	92.75
231.136	82.75
231.37	98.75
231.604	96.75
231.838	96.75
232.072	100.75
232.306	112.75
232.541	88.75
232.775	98.75
233.009	111.75
233.243	117.75
233.477	110.75
233.711	123.75
233.945	116.75
234.179	108.75
234.413	120.75
234.647	140.75
234.881	135.75
235.115	137.75
235.349	138.75
235.583	119.75
235.817	117.75
236.051	118.75
236.285	145.75
236.519	139.75
236.753	131.75
236.987	133.75
237.221	142.75
237.455	143.75
237.689	140.75
237.922	138.75
238.156	127.75
238.39	153.75
238.624	173.75
238.858	144.75
239.091	127.75
239.325	147.75
239.559	142.75
239.793	143.75
240.027	166.75
240.26	165.75
240.494	161.75
240.728	144.75
240.961	172.75
241.195	166.75
241.429	163.75
241.662	163.75
241.896	130.75
242.13	140.75
242.363	134.75
242.597	147.75
242.83	159.75
243.064	156.75
243.298	166.75
243.531	159.75
243.765	176.75
243.998	169.75
244.232	167.75
244.465	161.75
244.699	158.75
244.932	175.75
245.166	175.75
245.399	137.75
245.633	147.75
245.866	148.75
246.099	146.75
246.333	185.75
246.566	185.75
246.8	191.75
247.033	177.75
247.266	184.75
247.5	163.75
247.733	174.75
247.966	159.75
248.2	148.75
248.433	187.75
248.666	225.75
248.899	189.75
249.133	203.75
249.366	222.75
249.599	241.75
249.832	207.75
250.066	205.75
250.299	199.75
250.532	200.75
250.765	191.75
250.998	192.75
251.231	169.75
251.465	188.75
251.698	198.75
251.931	184.75
252.164	195.75
252.397	216.75
252.63	233.75
252.863	261.75
253.096	261.75
253.329	258.75
253.562	265.75
253.795	277.75
254.028	304.75
254.261	314.75
254.494	275.75
254.727	240.75
254.96	237.75
255.193	260.75
255.426	251.75
255.659	202.75
255.892	201.75
256.124	193.75
256.357	244.75
256.59	263.75
256.823	254.75
257.056	216.75
257.289	223.75
257.521	222.75
257.754	262.75
257.987	292.75
258.22	270.75
258.452	218.75
258.685	249.75
258.918	269.75
259.151	296.75
259.383	289.75
259.616	326.75
259.849	338.75
260.081	353.75
260.314	390.75
260.547	335.75
260.779	310.75
261.012	369.75
261.244	347.75
261.477	335.75
261.71	316.75
261.942	287.75
262.175	277.75
262.407	259.75
262.64	281.75
262.872	316.75
263.105	353.75
263.337	370.75
263.57	361.75
263.802	242.75
264.035	222.75
264.267	203.75
264.499	182.75
264.732	181.75
264.964	165.75
265.197	181.75
265.429	192.75
265.661	198.75
265.894	215.75
266.126	231.75
266.358	235.75
266.591	264.75
266.823	317.75
267.055	319.75
267.287	291.75
267.52	284.75
267.752	292.75
267.984	322.75
268.216	309.75
268.448	252.75
268.681	247.75
268.913	268.75
269.145	269.75
269.377	291.75
269.609	284.75
269.841	286.75
270.073	305.75
270.306	316.75
270.538	322.75
270.77	308.75
271.002	312.75
271.234	325.75
271.466	337.75
271.698	323.75
271.93	297.75
272.162	286.75
272.394	300.75
272.626	310.75
272.858	299.75
273.09	324.75
273.322	288.75
273.553	253.75
273.785	293.75
274.017	397.75
274.249	469.75
274.481	484.75
274.713	531.75
274.945	599.75
275.176	644.75
275.408	557.75
275.64	508.75
275.872	510.75
276.104	437.75
276.335	380.75
276.567	381.75
276.799	405.75
277.031	436.75
277.262	344.75
277.494	276.75
277.726	255.75
277.957	287.75
278.189	326.75
278.421	312.75
278.652	292.75
278.884	285.75
279.115	268.75
279.347	269.75
279.579	260.75
279.81	269.75
280.042	283.75
280.273	301.75
280.505	254.75
280.736	229.75
280.968	240.75
281.199	264.75
281.431	281.75
281.662	270.75
281.894	261.75
282.125	273.75
282.356	291.75
282.588	312.75
282.819	276.75
283.051	292.75
283.282	332.75
283.513	379.75
283.745	437.75
283.976	441.75
284.207	409.75
284.439	424.75
284.67	380.75
284.901	361.75
285.132	403.75
285.364	401.75
285.595	367.75
285.826	398.75
286.057	406.75
286.288	403.75
286.52	392.75
286.751	429.75
286.982	420.75
287.213	360.75
287.444	372.75
287.675	377.75
287.906	388.75
288.138	353.75
288.369	295.75
288.6	280.75
288.831	294.75
289.062	352.75
289.293	367.75
289.524	347.75
289.755	323.75
289.986	352.75
290.217	309.75
290.448	245.75
290.679	222.75
290.91	222.75
291.141	223.75
291.371	222.75
291.602	228.75
291.833	215.75
292.064	233.75
292.295	268.75
292.526	277.75
292.757	304.75
292.987	326.75
293.218	334.75
293.449	343.75
293.68	365.75
293.91	359.75
294.141	359.75
294.372	367.75
294.603	319.75
294.833	328.75
295.064	406.75
295.295	378.75
295.525	283.75
295.756	261.75
295.987	250.75
296.217	222.75
296.448	240.75
296.679	252.75
296.909	259.75
297.14	281.75
297.37	297.75
297.601	293.75
297.831	261.75
298.062	293.75
298.292	308.75
298.523	305.75
298.753	389.75
298.984	329.75
299.214	299.75
299.445	237.75
299.675	240.75
299.905	230.75
300.136	227.75
300.366	261.75
300.597	260.75
300.827	243.75
301.057	233.75
301.288	245.75
301.518	253.75
301.748	273.75
301.979	280.75
302.209	292.75
302.439	310.75
302.669	259.75
302.9	261.75
303.13	269.75
303.36	271.75
303.59	238.75
303.82	233.75
304.051	272.75
304.281	311.75
304.511	274.75
304.741	253.75
304.971	271.75
305.201	312.75
305.431	265.75
305.661	212.75
305.891	231.75
306.121	236.75
306.352	207.75
306.582	214.75
306.812	211.75
307.042	207.75
307.272	197.75
307.502	184.75
307.731	196.75
307.961	220.75
308.191	186.75
308.421	194.75
308.651	191.75
308.881	183.75
309.111	195.75
309.341	198.75
309.571	200.75
309.8	213.75
310.03	214.75
310.26	231.75
310.49	213.75
310.72	196.75
310.949	203.75
311.179	202.75
311.409	219.75
311.639	231.75
311.868	292.75
312.098	365.75
312.328	384.75
312.557	385.75
312.787	373.75
313.017	344.75
313.246	356.75
313.476	407.75
313.706	342.75
313.935	268.75
314.165	227.75
314.394	213.75
314.624	219.75
314.853	240.75
315.083	238.75
315.312	219.75
315.542	229.75
315.771	220.75
316.001	204.75
316.23	189.75
316.46	199.75
316.689	206.75
316.919	205.75
317.148	206.75
317.377	206.75
317.607	213.75
317.836	201.75
318.065	238.75
318.295	275.75
318.524	247.75
318.753	236.75
318.983	215.75
319.212	210.75
319.441	222.75
319.67	232.75
319.9	256.75
320.129	244.75
320.358	224.75
320.587	207.75
320.816	233.75
321.046	252.75
321.275	255.75
321.504	248.75
321.733	255.75
321.962	253.75
322.191	258.75
322.42	239.75
322.649	231.75
322.878	259.75
323.108	275.75
323.337	235.75
323.566	238.75
323.795	238.75
324.024	237.75
324.253	206.75
324.482	235.75
324.71	227.75
324.939	259.75
325.168	257.75
325.397	213.75
325.626	212.75
325.855	209.75
326.084	225.75
326.313	205.75
326.542	191.75
326.77	221.75
326.999	209.75
327.228	211.75
327.457	219.75
327.686	232.75
327.914	214.75
328.143	196.75
328.372	197.75
328.6	208.75
328.829	197.75
329.058	206.75
329.287	194.75
329.515	199.75
329.744	214.75
329.972	201.75
330.201	187.75
330.43	192.75
330.658	197.75
330.887	248.75
331.115	224.75
331.344	229.75
331.572	209.75
331.801	210.75
332.03	195.75
332.258	197.75
332.486	224.75
332.715	227.75
332.943	230.75
333.172	213.75
333.4	198.75
333.629	244.75
333.857	265.75
334.085	230.75
334.314	259.75
334.542	243.75
334.771	227.75
334.999	223.75
335.227	220.75
335.455	225.75
335.684	247.75
335.912	238.75
336.14	273.75
336.369	265.75
336.597	271.75
336.825	291.75
337.053	333.75
337.281	277.75
337.51	224.75
337.738	215.75
337.966	252.75
338.194	247.75
338.422	244.75
338.65	215.75
338.878	200.75
339.106	207.75
339.334	231.75
339.562	260.75
339.79	216.75
340.018	224.75
340.246	217.75
340.474	254.75
340.702	251.75
340.93	287.75
341.158	276.75
341.386	223.75
341.614	251.75
341.842	246.75
342.07	250.75
342.298	257.75
342.526	296.75
342.754	265.75
342.981	222.75
343.209	240.75
343.437	251.75
343.665	249.75
343.893	268.75
344.12	311.75
344.348	349.75
344.576	303.75
344.804	278.75
345.031	212.75
345.259	221.75
345.487	233.75
345.714	248.75
345.942	255.75
346.17	242.75
346.397	253.75
346.625	232.75
346.853	223.75
347.08	210.75
347.308	223.75
347.535	251.75
347.763	262.75
347.99	237.75
348.218	216.75
348.445	225.75
348.673	230.75
348.9	222.75
349.128	236.75
349.355	240.75
349.583	243.75
349.81	246.75
350.037	210.75
350.265	201.75
350.492	200.75
350.72	188.75
350.947	215.75
351.174	199.75
351.402	222.75
351.629	218.75
351.856	223.75
352.083	210.75
352.311	224.75
352.538	208.75
352.765	239.75
352.992	229.75
353.22	226.75
353.447	226.75
353.674	224.75
353.901	229.75
354.128	205.75
354.355	205.75
354.583	227.75
354.81	223.75
355.037	243.75
355.264	225.75
355.491	220.75
355.718	253.75
355.945	246.75
356.172	233.75
356.399	238.75
356.626	278.75
356.853	328.75
357.08	356.75
357.307	358.75
357.534	285.75
357.761	314.75
357.988	368.75
358.215	399.75
358.441	373.75
358.668	325.75
358.895	313.75
359.122	276.75
359.349	251.75
359.576	308.75
359.802	267.75
360.029	214.75
360.256	221.75
360.483	289.75
360.709	339.75
360.936	337.75
361.163	306.75
361.39	244.75
361.616	234.75
361.843	265.75
362.07	310.75
362.296	260.75
362.523	231.75
362.749	220.75
362.976	221.75
363.203	273.75
363.429	285.75
363.656	261.75
363.882	225.75
364.109	221.75
364.335	225.75
364.562	243.75
364.788	237.75
365.015	252.75
365.241	247.75
365.468	215.75
365.694	191.75
365.92	193.75
366.147	201.75
366.373	173.75
366.599	191.75
366.826	187.75
367.052	190.75
367.278	202.75
367.505	191.75
367.731	198.75
367.957	226.75
368.184	255.75
368.41	231.75
368.636	212.75
368.862	249.75
369.089	232.75
369.315	224.75
369.541	218.75
369.767	210.75
369.993	209.75
370.219	188.75
370.445	198.75
370.672	229.75
370.898	250.75
371.124	256.75
371.35	235.75
371.576	208.75
371.802	228.75
372.028	259.75
372.254	294.75
372.48	237.75
372.706	237.75
372.932	235.75
373.158	238.75
373.384	286.75
373.61	375.75
373.835	369.75
374.061	291.75
374.287	263.75
374.513	290.75
374.739	354.75
374.965	353.75
375.191	339.75
375.416	279.75
375.642	241.75
375.868	251.75
376.094	282.75
376.319	254.75
376.545	278.75
376.771	281.75
376.997	252.75
377.222	213.75
377.448	203.75
377.674	185.75
377.899	177.75
378.125	205.75
378.35	203.75
378.576	201.75
378.802	213.75
379.027	202.75
379.253	221.75
379.478	221.75
379.704	252.75
379.929	251.75
380.155	229.75
380.38	219.75
380.606	225.75
380.831	233.75
381.057	226.75
381.282	226.75
381.507	264.75
381.733	279.75
381.958	315.75
382.184	320.75
382.409	347.75
382.634	343.75
382.86	346.75
383.085	296.75
383.31	254.75
383.535	275.75
383.761	283.75
383.986	250.75
384.211	300.75
384.436	296.75
384.662	236.75
384.887	229.75
385.112	237.75
385.337	241.75
385.562	243.75
385.787	236.75
386.013	287.75
386.238	287.75
386.463	228.75
386.688	247.75
386.913	221.75
387.138	221.75
387.363	215.75
387.588	234.75
387.813	244.75
388.038	265.75
388.263	228.75
388.488	240.75
388.713	261.75
388.938	281.75
389.163	240.75
389.387	229.75
389.612	224.75
389.837	208.75
390.062	226.75
390.287	222.75
390.512	250.75
390.736	241.75
390.961	230.75
391.186	215.75
391.411	226.75
391.636	207.75
391.86	227.75
392.085	246.75
392.31	249.75
392.534	239.75
392.759	227.75
392.984	221.75
393.208	248.75
393.433	234.75
393.658	225.75
393.882	215.75
394.107	208.75
394.331	196.75
394.556	207.75
394.78	202.75
395.005	200.75
395.229	220.75
395.454	222.75
395.678	229.75
395.903	227.75
396.127	204.75
396.352	214.75
396.576	248.75
396.801	251.75
397.025	251.75
397.249	253.75
397.474	230.75
397.698	219.75
397.922	234.75
398.147	228.75
398.371	212.75
398.595	244.75
398.82	235.75
399.044	239.75
399.268	250.75
399.492	276.75
399.717	304.75
399.941	304.75
400.165	270.75
400.389	255.75
400.613	264.75
400.837	253.75
401.062	235.75
401.286	233.75
401.51	228.75
401.734	223.75
401.958	231.75
402.182	245.75
402.406	249.75
402.63	254.75
402.854	255.75
403.078	279.75
403.302	353.75
403.526	366.75
403.75	325.75
403.974	299.75
404.198	273.75
404.422	294.75
404.645	323.75
404.869	351.75
405.093	287.75
405.317	264.75
405.541	258.75
405.765	255.75
405.988	250.75
406.212	276.75
406.436	294.75
406.66	311.75
406.883	274.75
407.107	294.75
407.331	321.75
407.555	310.75
407.778	296.75
408.002	283.75
408.226	286.75
408.449	281.75
408.673	243.75
408.896	239.75
409.12	254.75
409.344	245.75
409.567	239.75
409.791	252.75
410.014	239.75
410.238	253.75
410.461	231.75
410.685	254.75
410.908	244.75
411.132	234.75
411.355	230.75
411.578	252.75
411.802	243.75
412.025	237.75
412.249	240.75
412.472	236.75
412.695	239.75
412.919	254.75
413.142	238.75
413.365	262.75
413.589	263.75
413.812	233.75
414.035	233.75
414.258	239.75
414.482	251.75
414.705	263.75
414.928	253.75
415.151	229.75
415.374	212.75
415.597	216.75
415.821	230.75
416.044	238.75
416.267	228.75
416.49	235.75
416.713	225.75
416.936	223.75
417.159	226.75
417.382	228.75
417.605	225.75
417.828	238.75
418.051	221.75
418.274	255.75
418.497	249.75
418.72	238.75
418.943	251.75
419.166	253.75
419.389	261.75
419.611	258.75
419.834	269.75
420.057	272.75
420.28	246.75
420.503	252.75
420.726	234.75
420.948	226.75
421.171	253.75
421.394	243.75
421.617	252.75
421.839	218.75
422.062	226.75
422.285	252.75
422.507	247.75
422.73	229.75
422.953	270.75
423.175	243.75
423.398	231.75
423.621	246.75
423.843	269.75
424.066	259.75
424.288	264.75
424.511	212.75
424.733	251.75
424.956	256.75
425.178	282.75
425.401	287.75
425.623	350.75
425.846	286.75
426.068	239.75
426.291	263.75
426.513	262.75
426.735	242.75
426.958	226.75
427.18	286.75
427.402	328.75
427.625	346.75
427.847	301.75
428.069	232.75
428.292	222.75
428.514	219.75
428.736	214.75
428.958	263.75
429.181	299.75
429.403	255.75
429.625	233.75
429.847	228.75
430.069	239.75
430.292	232.75
430.514	235.75
430.736	224.75
430.958	281.75
431.18	272.75
431.402	211.75
431.624	232.75
431.846	217.75
432.068	212.75
432.29	231.75
432.512	235.75
432.734	259.75
432.956	274.75
433.178	230.75
433.4	235.75
433.622	220.75
433.844	231.75
434.066	244.75
434.287	246.75
434.509	240.75
434.731	252.75
434.953	248.75
435.175	248.75
435.397	277.75
435.618	222.75
435.84	207.75
436.062	222.75
436.284	222.75
436.505	220.75
436.727	210.75
436.949	218.75
437.17	228.75
437.392	213.75
437.614	224.75
437.835	227.75
438.057	213.75
438.278	251.75
438.5	309.75
438.721	309.75
438.943	229.75
439.165	221.75
439.386	210.75
439.608	200.75
439.829	205.75
440.05	217.75
440.272	235.75
440.493	256.75
440.715	279.75
440.936	262.75
441.158	228.75
441.379	235.75
441.6	253.75
441.822	255.75
442.043	248.75
442.264	224.75
442.486	224.75
442.707	234.75
442.928	239.75
443.149	253.75
443.371	236.75
443.592	222.75
443.813	239.75
444.034	243.75
444.255	223.75
444.476	243.75
444.698	263.75
444.919	255.75
445.14	336.75
445.361	310.75
445.582	262.75
445.803	232.75
446.024	252.75
446.245	210.75
446.466	249.75
446.687	223.75
446.908	232.75
447.129	213.75
447.35	225.75
447.571	211.75
447.792	210.75
448.013	199.75
448.234	208.75
448.455	208.75
448.675	212.75
448.896	216.75
449.117	209.75
449.338	213.75
449.559	211.75
449.779	241.75
450	224.75
450.221	225.75
450.442	227.75
450.662	211.75
450.883	215.75
451.104	222.75
451.324	208.75
451.545	218.75
451.766	222.75
451.986	216.75
452.207	199.75
452.428	225.75
452.648	224.75
452.869	205.75
453.089	240.75
453.31	217.75
453.53	205.75
453.751	227.75
453.971	219.75
454.192	201.75
454.412	211.75
454.633	207.75
454.853	210.75
455.073	201.75
455.294	206.75
455.514	187.75
455.734	203.75
455.955	192.75
456.175	203.75
456.395	199.75
456.616	184.75
456.836	188.75
457.056	204.75
457.276	194.75
457.497	178.75
457.717	191.75
457.937	179.75
458.157	213.75
458.377	197.75
458.598	212.75
458.818	203.75
459.038	196.75
459.258	215.75
459.478	229.75
459.698	226.75
459.918	236.75
460.138	229.75
460.358	239.75
460.578	251.75
460.798	235.75
461.018	236.75
461.238	216.75
461.458	231.75
461.678	232.75
461.898	253.75
462.118	247.75
462.338	255.75
462.558	260.75
462.777	261.75
462.997	278.75
463.217	290.75
463.437	296.75
463.657	273.75
463.876	257.75
464.096	257.75
464.316	258.75
464.536	279.75
464.755	288.75
464.975	286.75
465.195	262.75
465.414	261.75
465.634	235.75
465.854	234.75
466.073	232.75
466.293	211.75
466.512	214.75
466.732	258.75
466.951	248.75
467.171	225.75
467.391	225.75
467.61	219.75
467.829	229.75
468.049	223.75
468.268	219.75
468.488	224.75
468.707	236.75
468.927	238.75
469.146	279.75
469.365	242.75
469.585	239.75
469.804	239.75
470.023	268.75
470.243	249.75
470.462	241.75
470.681	238.75
470.901	220.75
471.12	255.75
471.339	260.75
471.558	226.75
471.777	228.75
471.997	233.75
472.216	266.75
472.435	273.75
472.654	248.75
472.873	244.75
473.092	235.75
473.311	264.75
473.53	227.75
473.749	227.75
473.968	249.75
474.187	250.75
474.406	228.75
474.625	223.75
474.844	240.75
475.063	259.75
475.282	233.75
475.501	262.75
475.72	275.75
475.939	253.75
476.158	256.75
476.377	286.75
476.596	337.75
476.814	340.75
477.033	301.75
477.252	252.75
477.471	240.75
477.69	253.75
477.908	265.75
478.127	288.75
478.346	275.75
478.564	279.75
478.783	283.75
479.002	275.75
479.22	315.75
479.439	321.75
479.658	285.75
479.876	286.75
480.095	300.75
480.313	300.75
480.532	285.75
480.751	275.75
480.969	272.75
481.188	306.75
481.406	307.75
481.624	285.75
481.843	265.75
482.061	249.75
482.28	271.75
482.498	351.75
482.717	329.75
482.935	283.75
483.153	286.75
483.372	254.75
483.59	264.75
483.808	268.75
484.027	252.75
484.245	255.75
484.463	257.75
484.681	239.75
484.9	255.75
485.118	278.75
485.336	287.75
485.554	268.75
485.772	278.75
485.99	300.75
486.209	289.75
486.427	304.75
486.645	276.75
486.863	287.75
487.081	282.75
487.299	315.75
487.517	307.75
487.735	286.75
487.953	286.75
488.171	285.75
488.389	271.75
488.607	235.75
488.825	262.75
489.043	295.75
489.261	325.75
489.479	329.75
489.696	304.75
489.914	269.75
490.132	262.75
490.35	273.75
490.568	246.75
490.786	269.75
491.003	282.75
491.221	274.75
491.439	235.75
491.657	262.75
491.874	281.75
492.092	322.75
492.31	363.75
492.527	352.75
492.745	307.75
492.963	281.75
493.18	311.75
493.398	311.75
493.615	304.75
493.833	287.75
494.05	286.75
494.268	275.75
494.485	304.75
494.703	283.75
494.92	277.75
495.138	263.75
495.355	286.75
495.573	278.75
495.79	296.75
496.008	372.75
496.225	331.75
496.442	301.75
496.66	321.75
496.877	320.75
497.094	306.75
497.312	296.75
497.529	316.75
497.746	308.75
497.963	326.75
498.181	348.75
498.398	351.75
498.615	379.75
498.832	360.75
499.049	395.75
499.267	379.75
499.484	397.75
499.701	399.75
499.918	446.75
500.135	500.75
500.352	540.75
500.569	538.75
500.786	557.75
501.003	543.75
501.22	477.75
501.437	437.75
501.654	391.75
501.871	373.75
502.088	365.75
502.305	372.75
502.522	353.75
