Data from NickelSpatula.Lamp.E5.5.P2_HRD10591_11-53-08-551.txt Node
Date: Tue Jul 23 11:53:08 EDT 2019
User: cochatt
Spectrometer: HR+D1059
Trigger mode: 1
Integration Time (sec): 1.000000E-1
Scans to average: 1
Electric dark correction enabled: true
Nonlinearity correction enabled: false
Boxcar width: 0
XAxis mode: Wavelengths
Number of Pixels in Spectrum: 2048
>>>>>Begin Spectral Data<<<<<
223.165	-14.94
223.4	-14.94
223.635	-14.94
223.869	-19.94
224.104	-20.94
224.338	-8.94
224.573	-17.94
224.808	-2.94
225.042	-9.94
225.277	-14.94
225.511	-4.94
225.746	12.06
225.98	2.06
226.215	10.06
226.449	18.06
226.683	12.06
226.918	39.06
227.152	22.06
227.387	24.06
227.621	29.06
227.856	38.06
228.09	52.06
228.324	55.06
228.559	65.06
228.793	58.06
229.027	65.06
229.262	84.06
229.496	76.06
229.73	78.06
229.964	90.06
230.199	107.06
230.433	106.06
230.667	81.06
230.901	96.06
231.136	86.06
231.37	90.06
231.604	91.06
231.838	88.06
232.072	86.06
232.306	100.06
232.541	99.06
232.775	113.06
233.009	114.06
233.243	104.06
233.477	112.06
233.711	114.06
233.945	94.06
234.179	118.06
234.413	111.06
234.647	127.06
234.881	139.06
235.115	132.06
235.349	137.06
235.583	113.06
235.817	136.06
236.051	115.06
236.285	132.06
236.519	131.06
236.753	128.06
236.987	139.06
237.221	138.06
237.455	122.06
237.689	126.06
237.922	130.06
238.156	132.06
238.39	162.06
238.624	153.06
238.858	161.06
239.091	142.06
239.325	136.06
239.559	137.06
239.793	148.06
240.027	166.06
240.26	152.06
240.494	133.06
240.728	168.06
240.961	160.06
241.195	174.06
241.429	169.06
241.662	153.06
241.896	115.06
242.13	146.06
242.363	135.06
242.597	148.06
242.83	159.06
243.064	154.06
243.298	150.06
243.531	174.06
243.765	172.06
243.998	167.06
244.232	167.06
244.465	148.06
244.699	143.06
244.932	162.06
245.166	172.06
245.399	141.06
245.633	150.06
245.866	160.06
246.099	140.06
246.333	165.06
246.566	204.06
246.8	189.06
247.033	189.06
247.266	184.06
247.5	176.06
247.733	166.06
247.966	168.06
248.2	168.06
248.433	191.06
248.666	189.06
248.899	192.06
249.133	192.06
249.366	219.06
249.599	230.06
249.832	221.06
250.066	212.06
250.299	190.06
250.532	189.06
250.765	200.06
250.998	182.06
251.231	177.06
251.465	180.06
251.698	183.06
251.931	180.06
252.164	190.06
252.397	205.06
252.63	242.06
252.863	273.06
253.096	255.06
253.329	258.06
253.562	259.06
253.795	277.06
254.028	303.06
254.261	292.06
254.494	267.06
254.727	249.06
254.96	219.06
255.193	264.06
255.426	248.06
255.659	214.06
255.892	182.06
256.124	191.06
256.357	222.06
256.59	245.06
256.823	246.06
257.056	221.06
257.289	204.06
257.521	213.06
257.754	264.06
257.987	288.06
258.22	263.06
258.452	219.06
258.685	240.06
258.918	263.06
259.151	274.06
259.383	295.06
259.616	322.06
259.849	333.06
260.081	335.06
260.314	388.06
260.547	312.06
260.779	335.06
261.012	349.06
261.244	347.06
261.477	329.06
261.71	303.06
261.942	274.06
262.175	256.06
262.407	271.06
262.64	260.06
262.872	315.06
263.105	319.06
263.337	366.06
263.57	328.06
263.802	247.06
264.035	221.06
264.267	202.06
264.499	198.06
264.732	178.06
264.964	174.06
265.197	183.06
265.429	191.06
265.661	193.06
265.894	211.06
266.126	216.06
266.358	225.06
266.591	277.06
266.823	316.06
267.055	304.06
267.287	263.06
267.52	282.06
267.752	279.06
267.984	300.06
268.216	295.06
268.448	267.06
268.681	254.06
268.913	256.06
269.145	267.06
269.377	288.06
269.609	277.06
269.841	262.06
270.073	264.06
270.306	290.06
270.538	301.06
270.77	292.06
271.002	323.06
271.234	297.06
271.466	322.06
271.698	290.06
271.93	290.06
272.162	299.06
272.394	298.06
272.626	279.06
272.858	294.06
273.09	316.06
273.322	265.06
273.553	265.06
273.785	288.06
274.017	385.06
274.249	454.06
274.481	455.06
274.713	501.06
274.945	580.06
275.176	590.06
275.408	539.06
275.64	500.06
275.872	484.06
276.104	432.06
276.335	369.06
276.567	378.06
276.799	387.06
277.031	412.06
277.262	332.06
277.494	265.06
277.726	254.06
277.957	275.06
278.189	315.06
278.421	294.06
278.652	310.06
278.884	272.06
279.115	257.06
279.347	248.06
279.579	269.06
279.81	274.06
280.042	277.06
280.273	271.06
280.505	247.06
280.736	234.06
280.968	219.06
281.199	258.06
281.431	270.06
281.662	269.06
281.894	253.06
282.125	268.06
282.356	282.06
282.588	293.06
282.819	267.06
283.051	278.06
283.282	338.06
283.513	372.06
283.745	428.06
283.976	426.06
284.207	369.06
284.439	401.06
284.67	411.06
284.901	348.06
285.132	378.06
285.364	386.06
285.595	381.06
285.826	399.06
286.057	393.06
286.288	371.06
286.52	393.06
286.751	413.06
286.982	413.06
287.213	358.06
287.444	357.06
287.675	364.06
287.906	353.06
288.138	307.06
288.369	291.06
288.6	273.06
288.831	293.06
289.062	334.06
289.293	348.06
289.524	325.06
289.755	327.06
289.986	338.06
290.217	332.06
290.448	252.06
290.679	226.06
290.91	208.06
291.141	218.06
291.371	228.06
291.602	207.06
291.833	231.06
292.064	234.06
292.295	264.06
292.526	298.06
292.757	300.06
292.987	323.06
293.218	334.06
293.449	347.06
293.68	350.06
293.91	341.06
294.141	355.06
294.372	329.06
294.603	293.06
294.833	314.06
295.064	386.06
295.295	383.06
295.525	298.06
295.756	240.06
295.987	218.06
296.217	204.06
296.448	243.06
296.679	243.06
296.909	265.06
297.14	264.06
297.37	304.06
297.601	302.06
297.831	251.06
298.062	257.06
298.292	315.06
298.523	306.06
298.753	363.06
298.984	342.06
299.214	274.06
299.445	236.06
299.675	235.06
299.905	206.06
300.136	224.06
300.366	231.06
300.597	237.06
300.827	229.06
301.057	224.06
301.288	241.06
301.518	227.06
301.748	257.06
301.979	277.06
302.209	280.06
302.439	302.06
302.669	273.06
302.9	274.06
303.13	266.06
303.36	238.06
303.59	244.06
303.82	245.06
304.051	258.06
304.281	302.06
304.511	274.06
304.741	229.06
304.971	268.06
305.201	260.06
305.431	255.06
305.661	242.06
305.891	243.06
306.121	231.06
306.352	221.06
306.582	199.06
306.812	176.06
307.042	186.06
307.272	186.06
307.502	195.06
307.731	181.06
307.961	204.06
308.191	205.06
308.421	200.06
308.651	183.06
308.881	182.06
309.111	191.06
309.341	183.06
309.571	207.06
309.8	212.06
310.03	226.06
310.26	225.06
310.49	209.06
310.72	198.06
310.949	192.06
311.179	198.06
311.409	217.06
311.639	231.06
311.868	273.06
312.098	353.06
312.328	385.06
312.557	352.06
312.787	351.06
313.017	333.06
313.246	357.06
313.476	383.06
313.706	327.06
313.935	262.06
314.165	228.06
314.394	213.06
314.624	214.06
314.853	220.06
315.083	231.06
315.312	214.06
315.542	213.06
315.771	199.06
316.001	177.06
316.23	192.06
316.46	188.06
316.689	196.06
316.919	199.06
317.148	212.06
317.377	186.06
317.607	198.06
317.836	205.06
318.065	237.06
318.295	254.06
318.524	243.06
318.753	217.06
318.983	199.06
319.212	209.06
319.441	217.06
319.67	248.06
319.9	249.06
320.129	224.06
320.358	221.06
320.587	204.06
320.816	229.06
321.046	254.06
321.275	249.06
321.504	242.06
321.733	256.06
321.962	239.06
322.191	234.06
322.42	223.06
322.649	242.06
322.878	238.06
323.108	249.06
323.337	237.06
323.566	225.06
323.795	223.06
324.024	221.06
324.253	214.06
324.482	227.06
324.71	234.06
324.939	261.06
325.168	234.06
325.397	213.06
325.626	210.06
325.855	213.06
326.084	219.06
326.313	211.06
326.542	190.06
326.77	213.06
326.999	209.06
327.228	212.06
327.457	211.06
327.686	228.06
327.914	206.06
328.143	184.06
328.372	194.06
328.6	197.06
328.829	204.06
329.058	208.06
329.287	183.06
329.515	221.06
329.744	219.06
329.972	205.06
330.201	196.06
330.43	205.06
330.658	219.06
330.887	234.06
331.115	242.06
331.344	214.06
331.572	229.06
331.801	187.06
332.03	205.06
332.258	198.06
332.486	204.06
332.715	221.06
332.943	236.06
333.172	227.06
333.4	214.06
333.629	246.06
333.857	239.06
334.085	240.06
334.314	255.06
334.542	252.06
334.771	212.06
334.999	217.06
335.227	228.06
335.455	211.06
335.684	239.06
335.912	267.06
336.14	279.06
336.369	265.06
336.597	261.06
336.825	273.06
337.053	311.06
337.281	272.06
337.51	219.06
337.738	228.06
337.966	230.06
338.194	253.06
338.422	226.06
338.65	202.06
338.878	192.06
339.106	210.06
339.334	218.06
339.562	219.06
339.79	226.06
340.018	229.06
340.246	213.06
340.474	239.06
340.702	244.06
340.93	233.06
341.158	274.06
341.386	241.06
341.614	250.06
341.842	241.06
342.07	237.06
342.298	257.06
342.526	261.06
342.754	252.06
342.981	241.06
343.209	236.06
343.437	232.06
343.665	269.06
343.893	260.06
344.12	293.06
344.348	357.06
344.576	324.06
344.804	270.06
345.031	223.06
345.259	207.06
345.487	221.06
345.714	221.06
345.942	239.06
346.17	270.06
346.397	247.06
346.625	242.06
346.853	223.06
347.08	239.06
347.308	224.06
347.535	254.06
347.763	268.06
347.99	227.06
348.218	219.06
348.445	224.06
348.673	220.06
348.9	227.06
349.128	225.06
349.355	235.06
349.583	235.06
349.81	251.06
350.037	220.06
350.265	186.06
350.492	187.06
350.72	203.06
350.947	192.06
351.174	213.06
351.402	222.06
351.629	218.06
351.856	203.06
352.083	200.06
352.311	208.06
352.538	231.06
352.765	254.06
352.992	229.06
353.22	237.06
353.447	213.06
353.674	218.06
353.901	208.06
354.128	205.06
354.355	224.06
354.583	216.06
354.81	235.06
355.037	234.06
355.264	228.06
355.491	229.06
355.718	245.06
355.945	244.06
356.172	244.06
356.399	228.06
356.626	276.06
356.853	332.06
357.08	335.06
357.307	327.06
357.534	268.06
357.761	300.06
357.988	360.06
358.215	411.06
358.441	356.06
358.668	338.06
358.895	303.06
359.122	276.06
359.349	248.06
359.576	304.06
359.802	240.06
360.029	226.06
360.256	217.06
360.483	282.06
360.709	327.06
360.936	339.06
361.163	299.06
361.39	235.06
361.616	215.06
361.843	237.06
362.07	283.06
362.296	277.06
362.523	229.06
362.749	210.06
362.976	206.06
363.203	252.06
363.429	281.06
363.656	230.06
363.882	218.06
364.109	209.06
364.335	212.06
364.562	220.06
364.788	251.06
365.015	283.06
365.241	250.06
365.468	211.06
365.694	178.06
365.92	186.06
366.147	182.06
366.373	193.06
366.599	211.06
366.826	184.06
367.052	187.06
367.278	181.06
367.505	200.06
367.731	204.06
367.957	227.06
368.184	225.06
368.41	228.06
368.636	235.06
368.862	226.06
369.089	213.06
369.315	207.06
369.541	220.06
369.767	217.06
369.993	195.06
370.219	200.06
370.445	211.06
370.672	236.06
370.898	240.06
371.124	243.06
371.35	239.06
371.576	208.06
371.802	220.06
372.028	269.06
372.254	289.06
372.48	237.06
372.706	229.06
372.932	232.06
373.158	238.06
373.384	282.06
373.61	358.06
373.835	356.06
374.061	285.06
374.287	252.06
374.513	313.06
374.739	334.06
374.965	347.06
375.191	341.06
375.416	268.06
375.642	243.06
375.868	275.06
376.094	288.06
376.319	249.06
376.545	251.06
376.771	270.06
376.997	257.06
377.222	207.06
377.448	188.06
377.674	177.06
377.899	185.06
378.125	195.06
378.35	186.06
378.576	188.06
378.802	196.06
379.027	220.06
379.253	212.06
379.478	212.06
379.704	232.06
379.929	241.06
380.155	235.06
380.38	235.06
380.606	225.06
380.831	239.06
381.057	247.06
381.282	214.06
381.507	259.06
381.733	289.06
381.958	314.06
382.184	322.06
382.409	359.06
382.634	340.06
382.86	362.06
383.085	293.06
383.31	238.06
383.535	278.06
383.761	278.06
383.986	250.06
384.211	300.06
384.436	282.06
384.662	240.06
384.887	237.06
385.112	236.06
385.337	242.06
385.562	236.06
385.787	260.06
386.013	286.06
386.238	281.06
386.463	234.06
386.688	245.06
386.913	224.06
387.138	209.06
387.363	228.06
387.588	224.06
387.813	231.06
388.038	239.06
388.263	221.06
388.488	236.06
388.713	263.06
388.938	273.06
389.163	240.06
389.387	214.06
389.612	227.06
389.837	228.06
390.062	238.06
390.287	220.06
390.512	247.06
390.736	223.06
390.961	196.06
391.186	207.06
391.411	200.06
391.636	209.06
391.86	226.06
392.085	235.06
392.31	257.06
392.534	228.06
392.759	221.06
392.984	228.06
393.208	227.06
393.433	211.06
393.658	206.06
393.882	198.06
394.107	209.06
394.331	194.06
394.556	216.06
394.78	180.06
395.005	201.06
395.229	200.06
395.454	214.06
395.678	217.06
395.903	208.06
396.127	231.06
396.352	218.06
396.576	237.06
396.801	223.06
397.025	256.06
397.249	254.06
397.474	222.06
397.698	222.06
397.922	239.06
398.147	223.06
398.371	221.06
398.595	222.06
398.82	213.06
399.044	228.06
399.268	258.06
399.492	279.06
399.717	281.06
399.941	295.06
400.165	255.06
400.389	247.06
400.613	223.06
400.837	243.06
401.062	242.06
401.286	205.06
401.51	214.06
401.734	223.06
401.958	226.06
402.182	227.06
402.406	213.06
402.63	221.06
402.854	252.06
403.078	272.06
403.302	370.06
403.526	366.06
403.75	335.06
403.974	278.06
404.198	278.06
404.422	313.06
404.645	335.06
404.869	348.06
405.093	282.06
405.317	257.06
405.541	247.06
405.765	241.06
405.988	260.06
406.212	260.06
406.436	291.06
406.66	322.06
406.883	272.06
407.107	268.06
407.331	317.06
407.555	308.06
407.778	272.06
408.002	278.06
408.226	272.06
408.449	265.06
408.673	266.06
408.896	229.06
409.12	222.06
409.344	223.06
409.567	241.06
409.791	228.06
410.014	241.06
410.238	244.06
410.461	234.06
410.685	212.06
410.908	220.06
411.132	253.06
411.355	245.06
411.578	236.06
411.802	228.06
412.025	239.06
412.249	250.06
412.472	238.06
412.695	252.06
412.919	237.06
413.142	232.06
413.365	244.06
413.589	252.06
413.812	222.06
414.035	231.06
414.258	232.06
414.482	230.06
414.705	263.06
414.928	227.06
415.151	214.06
415.374	207.06
415.597	218.06
415.821	225.06
416.044	225.06
416.267	226.06
416.49	206.06
416.713	216.06
416.936	219.06
417.159	224.06
417.382	214.06
417.605	222.06
417.828	240.06
418.051	223.06
418.274	238.06
418.497	225.06
418.72	219.06
418.943	235.06
419.166	236.06
419.389	251.06
419.611	254.06
419.834	254.06
420.057	268.06
420.28	268.06
420.503	247.06
420.726	239.06
420.948	215.06
421.171	236.06
421.394	213.06
421.617	223.06
421.839	232.06
422.062	224.06
422.285	219.06
422.507	216.06
422.73	242.06
422.953	230.06
423.175	235.06
423.398	243.06
423.621	256.06
423.843	268.06
424.066	231.06
424.288	244.06
424.511	224.06
424.733	229.06
424.956	244.06
425.178	270.06
425.401	292.06
425.623	357.06
425.846	276.06
426.068	248.06
426.291	266.06
426.513	238.06
426.735	226.06
426.958	239.06
427.18	270.06
427.402	344.06
427.625	356.06
427.847	273.06
428.069	198.06
428.292	211.06
428.514	238.06
428.736	218.06
428.958	247.06
429.181	302.06
429.403	251.06
429.625	224.06
429.847	210.06
430.069	220.06
430.292	203.06
430.514	222.06
430.736	235.06
430.958	270.06
431.18	254.06
431.402	220.06
431.624	207.06
431.846	218.06
432.068	199.06
432.29	223.06
432.512	227.06
432.734	269.06
432.956	254.06
433.178	212.06
433.4	216.06
433.622	223.06
433.844	220.06
434.066	251.06
434.287	235.06
434.509	227.06
434.731	238.06
434.953	240.06
435.175	247.06
435.397	248.06
435.618	219.06
435.84	218.06
436.062	224.06
436.284	226.06
436.505	197.06
436.727	205.06
436.949	217.06
437.17	215.06
437.392	234.06
437.614	212.06
437.835	206.06
438.057	204.06
438.278	224.06
438.5	306.06
438.721	295.06
438.943	244.06
439.165	213.06
439.386	199.06
439.608	200.06
439.829	215.06
440.05	191.06
440.272	207.06
440.493	230.06
440.715	283.06
440.936	230.06
441.158	221.06
441.379	221.06
441.6	248.06
441.822	239.06
442.043	234.06
442.264	230.06
442.486	228.06
442.707	214.06
442.928	220.06
443.149	219.06
443.371	226.06
443.592	235.06
443.813	234.06
444.034	230.06
444.255	230.06
444.476	231.06
444.698	247.06
444.919	238.06
445.14	354.06
445.361	308.06
445.582	261.06
445.803	227.06
446.024	243.06
446.245	237.06
446.466	237.06
446.687	218.06
446.908	208.06
447.129	217.06
447.35	218.06
447.571	200.06
447.792	199.06
448.013	192.06
448.234	181.06
448.455	202.06
448.675	201.06
448.896	205.06
449.117	198.06
449.338	205.06
449.559	206.06
449.779	215.06
450	211.06
450.221	199.06
450.442	219.06
450.662	206.06
450.883	209.06
451.104	222.06
451.324	228.06
451.545	215.06
451.766	200.06
451.986	206.06
452.207	212.06
452.428	204.06
452.648	197.06
452.869	213.06
453.089	226.06
453.31	221.06
453.53	203.06
453.751	197.06
453.971	194.06
454.192	206.06
454.412	211.06
454.633	199.06
454.853	210.06
455.073	202.06
455.294	187.06
455.514	208.06
455.734	202.06
455.955	186.06
456.175	190.06
456.395	198.06
456.616	193.06
456.836	170.06
457.056	194.06
457.276	182.06
457.497	183.06
457.717	192.06
457.937	178.06
458.157	187.06
458.377	180.06
458.598	193.06
458.818	203.06
459.038	200.06
459.258	215.06
459.478	214.06
459.698	221.06
459.918	234.06
460.138	214.06
460.358	267.06
460.578	222.06
460.798	240.06
461.018	239.06
461.238	237.06
461.458	218.06
461.678	222.06
461.898	239.06
462.118	259.06
462.338	239.06
462.558	267.06
462.777	264.06
462.997	277.06
463.217	281.06
463.437	281.06
463.657	269.06
463.876	258.06
464.096	263.06
464.316	238.06
464.536	271.06
464.755	256.06
464.975	277.06
465.195	232.06
465.414	238.06
465.634	223.06
465.854	227.06
466.073	210.06
466.293	224.06
466.512	227.06
466.732	238.06
466.951	247.06
467.171	215.06
467.391	209.06
467.61	223.06
467.829	215.06
468.049	218.06
468.268	211.06
468.488	220.06
468.707	224.06
468.927	235.06
469.146	276.06
469.365	263.06
469.585	239.06
469.804	231.06
470.023	266.06
470.243	242.06
470.462	210.06
470.681	236.06
470.901	231.06
471.12	237.06
471.339	232.06
471.558	218.06
471.777	223.06
471.997	264.06
472.216	262.06
472.435	254.06
472.654	236.06
472.873	239.06
473.092	245.06
473.311	236.06
473.53	214.06
473.749	241.06
473.968	243.06
474.187	227.06
474.406	212.06
474.625	230.06
474.844	224.06
475.063	235.06
475.282	244.06
475.501	262.06
475.72	272.06
475.939	234.06
476.158	276.06
476.377	296.06
476.596	339.06
476.814	332.06
477.033	274.06
477.252	254.06
477.471	223.06
477.69	231.06
477.908	278.06
478.127	290.06
478.346	250.06
478.564	294.06
478.783	267.06
479.002	262.06
479.22	290.06
479.439	328.06
479.658	283.06
479.876	260.06
480.095	297.06
480.313	294.06
480.532	269.06
480.751	269.06
480.969	261.06
481.188	300.06
481.406	309.06
481.624	297.06
481.843	262.06
482.061	238.06
482.28	259.06
482.498	348.06
482.717	322.06
482.935	278.06
483.153	250.06
483.372	260.06
483.59	257.06
483.808	257.06
484.027	240.06
484.245	214.06
484.463	250.06
484.681	254.06
484.9	263.06
485.118	273.06
485.336	260.06
485.554	240.06
485.772	235.06
485.99	277.06
486.209	290.06
486.427	301.06
486.645	266.06
486.863	274.06
487.081	271.06
487.299	298.06
487.517	287.06
487.735	268.06
487.953	270.06
488.171	286.06
488.389	261.06
488.607	237.06
488.825	247.06
489.043	291.06
489.261	306.06
489.479	322.06
489.696	286.06
489.914	266.06
490.132	260.06
490.35	262.06
490.568	248.06
490.786	274.06
491.003	246.06
491.221	271.06
491.439	256.06
491.657	260.06
491.874	267.06
492.092	312.06
492.31	358.06
492.527	351.06
492.745	328.06
492.963	278.06
493.18	279.06
493.398	280.06
493.615	292.06
493.833	285.06
494.05	283.06
494.268	286.06
494.485	288.06
494.703	279.06
494.92	288.06
495.138	279.06
495.355	268.06
495.573	272.06
495.79	302.06
496.008	374.06
496.225	315.06
496.442	283.06
496.66	299.06
496.877	296.06
497.094	290.06
497.312	287.06
497.529	279.06
497.746	302.06
497.963	302.06
498.181	328.06
498.398	334.06
498.615	374.06
498.832	363.06
499.049	399.06
499.267	376.06
499.484	368.06
499.701	390.06
499.918	433.06
500.135	479.06
500.352	505.06
500.569	535.06
500.786	556.06
501.003	494.06
501.22	440.06
501.437	439.06
501.654	392.06
501.871	359.06
502.088	359.06
502.305	342.06
502.522	356.06
