Data from NickelSpatula.Lamp.E5.5.P2_HRD10591_11-51-57-557.txt Node
Date: Tue Jul 23 11:51:57 EDT 2019
User: cochatt
Spectrometer: HR+D1059
Trigger mode: 1
Integration Time (sec): 1.000000E-1
Scans to average: 1
Electric dark correction enabled: true
Nonlinearity correction enabled: false
Boxcar width: 0
XAxis mode: Wavelengths
Number of Pixels in Spectrum: 2048
>>>>>Begin Spectral Data<<<<<
223.165	-12
223.4	-12
223.635	-12
223.869	-40
224.104	-12
224.338	-7
224.573	-13
224.808	-3
225.042	5
225.277	-15
225.511	-7
225.746	0
225.98	12
226.215	1
226.449	11
226.683	18
226.918	33
227.152	29
227.387	30
227.621	41
227.856	38
228.09	34
228.324	57
228.559	54
228.793	60
229.027	81
229.262	78
229.496	72
229.73	84
229.964	95
230.199	96
230.433	90
230.667	93
230.901	98
231.136	86
231.37	90
231.604	105
231.838	100
232.072	93
232.306	108
232.541	94
232.775	94
233.009	96
233.243	112
233.477	114
233.711	144
233.945	108
234.179	117
234.413	120
234.647	116
234.881	128
235.115	129
235.349	117
235.583	116
235.817	118
236.051	101
236.285	126
236.519	136
236.753	140
236.987	144
237.221	147
237.455	136
237.689	129
237.922	122
238.156	129
238.39	164
238.624	176
238.858	164
239.091	133
239.325	148
239.559	146
239.793	148
240.027	174
240.26	159
240.494	150
240.728	162
240.961	188
241.195	160
241.429	157
241.662	157
241.896	140
242.13	128
242.363	113
242.597	139
242.83	130
243.064	136
243.298	160
243.531	175
243.765	174
243.998	156
244.232	156
244.465	157
244.699	145
244.932	170
245.166	170
245.399	149
245.633	145
245.866	150
246.099	159
246.333	180
246.566	188
246.8	182
247.033	194
247.266	182
247.5	161
247.733	168
247.966	162
248.2	156
248.433	188
248.666	198
248.899	194
249.133	189
249.366	237
249.599	210
249.832	212
250.066	202
250.299	198
250.532	194
250.765	209
250.998	172
251.231	189
251.465	182
251.698	192
251.931	185
252.164	207
252.397	217
252.63	224
252.863	265
253.096	267
253.329	263
253.562	240
253.795	263
254.028	297
254.261	306
254.494	268
254.727	241
254.96	247
255.193	262
255.426	248
255.659	188
255.892	179
256.124	213
256.357	232
256.59	266
256.823	276
257.056	232
257.289	211
257.521	232
257.754	264
257.987	295
258.22	266
258.452	234
258.685	245
258.918	272
259.151	282
259.383	290
259.616	333
259.849	344
260.081	364
260.314	397
260.547	320
260.779	340
261.012	375
261.244	336
261.477	358
261.71	326
261.942	285
262.175	284
262.407	265
262.64	277
262.872	317
263.105	348
263.337	360
263.57	329
263.802	237
264.035	209
264.267	213
264.499	202
264.732	182
264.964	167
265.197	166
265.429	186
265.661	219
265.894	212
266.126	199
266.358	239
266.591	288
266.823	310
267.055	287
267.287	255
267.52	269
267.752	299
267.984	325
268.216	325
268.448	245
268.681	254
268.913	276
269.145	281
269.377	265
269.609	311
269.841	270
270.073	279
270.306	298
270.538	306
270.77	309
271.002	329
271.234	316
271.466	330
271.698	306
271.93	292
272.162	304
272.394	296
272.626	279
272.858	308
273.09	324
273.322	280
273.553	250
273.785	295
274.017	385
274.249	455
274.481	491
274.713	510
274.945	612
275.176	642
275.408	549
275.64	510
275.872	507
276.104	443
276.335	390
276.567	378
276.799	395
277.031	421
277.262	332
277.494	256
277.726	258
277.957	281
278.189	318
278.421	311
278.652	300
278.884	304
279.115	273
279.347	263
279.579	280
279.81	278
280.042	263
280.273	273
280.505	263
280.736	232
280.968	237
281.199	248
281.431	270
281.662	287
281.894	244
282.125	258
282.356	290
282.588	317
282.819	276
283.051	282
283.282	338
283.513	400
283.745	436
283.976	440
284.207	409
284.439	422
284.67	413
284.901	353
285.132	400
285.364	402
285.595	377
285.826	386
286.057	398
286.288	396
286.52	401
286.751	422
286.982	435
287.213	384
287.444	364
287.675	366
287.906	372
288.138	339
288.369	288
288.6	275
288.831	303
289.062	348
289.293	348
289.524	339
289.755	330
289.986	354
290.217	299
290.448	246
290.679	204
290.91	224
291.141	210
291.371	228
291.602	216
291.833	232
292.064	216
292.295	257
292.526	309
292.757	297
292.987	330
293.218	324
293.449	354
293.68	366
293.91	349
294.141	352
294.372	356
294.603	304
294.833	335
295.064	378
295.295	392
295.525	302
295.756	256
295.987	222
296.217	237
296.448	224
296.679	244
296.909	264
297.14	270
297.37	301
297.601	293
297.831	267
298.062	265
298.292	304
298.523	302
298.753	370
298.984	331
299.214	258
299.445	237
299.675	244
299.905	227
300.136	242
300.366	253
300.597	252
300.827	240
301.057	221
301.288	229
301.518	214
301.748	277
301.979	277
302.209	293
302.439	297
302.669	255
302.9	256
303.13	249
303.36	252
303.59	251
303.82	246
304.051	287
304.281	285
304.511	284
304.741	252
304.971	273
305.201	269
305.431	269
305.661	244
305.891	223
306.121	225
306.352	205
306.582	196
306.812	214
307.042	192
307.272	204
307.502	189
307.731	203
307.961	205
308.191	205
308.421	205
308.651	192
308.881	195
309.111	186
309.341	189
309.571	199
309.8	222
310.03	213
310.26	216
310.49	218
310.72	203
310.949	213
311.179	217
311.409	227
311.639	230
311.868	272
312.098	342
312.328	374
312.557	362
312.787	377
313.017	338
313.246	361
313.476	408
313.706	338
313.935	284
314.165	249
314.394	205
314.624	209
314.853	224
315.083	239
315.312	233
315.542	226
315.771	207
316.001	201
316.23	192
316.46	201
316.689	185
316.919	203
317.148	184
317.377	199
317.607	207
317.836	214
318.065	233
318.295	253
318.524	238
318.753	212
318.983	204
319.212	210
319.441	196
319.67	232
319.9	258
320.129	235
320.358	213
320.587	197
320.816	213
321.046	239
321.275	266
321.504	261
321.733	256
321.962	241
322.191	222
322.42	224
322.649	235
322.878	248
323.108	263
323.337	234
323.566	232
323.795	247
324.024	232
324.253	218
324.482	219
324.71	218
324.939	257
325.168	241
325.397	224
325.626	221
325.855	223
326.084	221
326.313	188
326.542	192
326.77	202
326.999	205
327.228	222
327.457	234
327.686	226
327.914	199
328.143	207
328.372	210
328.6	185
328.829	205
329.058	213
329.287	212
329.515	216
329.744	212
329.972	195
330.201	193
330.43	194
330.658	217
330.887	217
331.115	233
331.344	229
331.572	214
331.801	216
332.03	203
332.258	195
332.486	216
332.715	223
332.943	244
333.172	202
333.4	243
333.629	258
333.857	243
334.085	234
334.314	247
334.542	248
334.771	233
334.999	221
335.227	225
335.455	214
335.684	229
335.912	261
336.14	277
336.369	276
336.597	276
336.825	298
337.053	314
337.281	252
337.51	221
337.738	220
337.966	218
338.194	257
338.422	246
338.65	215
338.878	223
339.106	221
339.334	220
339.562	219
339.79	231
340.018	217
340.246	216
340.474	251
340.702	260
340.93	270
341.158	280
341.386	246
341.614	227
341.842	240
342.07	236
342.298	277
342.526	307
342.754	252
342.981	223
343.209	250
343.437	235
343.665	248
343.893	253
344.12	291
344.348	338
344.576	306
344.804	250
345.031	207
345.259	215
345.487	234
345.714	210
345.942	236
346.17	249
346.397	241
346.625	220
346.853	234
347.08	237
347.308	232
347.535	248
347.763	251
347.99	238
348.218	191
348.445	217
348.673	227
348.9	222
349.128	212
349.355	246
349.583	238
349.81	227
350.037	215
350.265	224
350.492	182
350.72	195
350.947	188
351.174	180
351.402	189
351.629	208
351.856	217
352.083	214
352.311	201
352.538	224
352.765	246
352.992	225
353.22	210
353.447	220
353.674	219
353.901	210
354.128	213
354.355	208
354.583	218
354.81	227
355.037	240
355.264	234
355.491	237
355.718	245
355.945	237
356.172	222
356.399	253
356.626	269
356.853	308
357.08	341
357.307	331
357.534	288
357.761	280
357.988	366
358.215	402
358.441	364
358.668	308
358.895	304
359.122	253
359.349	270
359.576	301
359.802	273
360.029	226
360.256	232
360.483	267
360.709	336
360.936	339
361.163	292
361.39	245
361.616	224
361.843	246
362.07	286
362.296	288
362.523	240
362.749	206
362.976	211
363.203	260
363.429	264
363.656	228
363.882	212
364.109	226
364.335	226
364.562	217
364.788	232
365.015	264
365.241	230
365.468	206
365.694	191
365.92	195
366.147	200
366.373	183
366.599	196
366.826	187
367.052	181
367.278	185
367.505	202
367.731	193
367.957	208
368.184	215
368.41	209
368.636	220
368.862	226
369.089	206
369.315	206
369.541	192
369.767	200
369.993	201
370.219	207
370.445	200
370.672	237
370.898	241
371.124	246
371.35	209
371.576	207
371.802	221
372.028	255
372.254	268
372.48	262
372.706	232
372.932	236
373.158	260
373.384	284
373.61	332
373.835	351
374.061	278
374.287	268
374.513	294
374.739	346
374.965	365
375.191	343
375.416	252
375.642	240
375.868	291
376.094	284
376.319	247
376.545	272
376.771	287
376.997	239
377.222	209
377.448	201
377.674	190
377.899	191
378.125	191
378.35	188
378.576	174
378.802	199
379.027	218
379.253	197
379.478	217
379.704	221
379.929	223
380.155	229
380.38	225
380.606	218
380.831	233
381.057	220
381.282	219
381.507	253
381.733	288
381.958	294
382.184	344
382.409	333
382.634	344
382.86	329
383.085	284
383.31	244
383.535	267
383.761	273
383.986	254
384.211	298
384.436	280
384.662	255
384.887	248
385.112	238
385.337	255
385.562	235
385.787	256
386.013	286
386.238	298
386.463	243
386.688	229
386.913	224
387.138	205
387.363	241
387.588	234
387.813	228
388.038	252
388.263	221
388.488	217
388.713	252
388.938	284
389.163	232
389.387	216
389.612	201
389.837	221
390.062	226
390.287	240
390.512	239
390.736	219
390.961	200
391.186	204
391.411	218
391.636	218
391.86	235
392.085	252
392.31	246
392.534	237
392.759	217
392.984	253
393.208	229
393.433	187
393.658	197
393.882	198
394.107	207
394.331	201
394.556	206
394.78	220
395.005	208
395.229	226
395.454	207
395.678	203
395.903	209
396.127	202
396.352	241
396.576	228
396.801	237
397.025	245
397.249	259
397.474	229
397.698	219
397.922	226
398.147	222
398.371	238
398.595	223
398.82	226
399.044	239
399.268	240
399.492	279
399.717	284
399.941	286
400.165	275
400.389	250
400.613	236
400.837	238
401.062	225
401.286	234
401.51	217
401.734	225
401.958	231
402.182	216
402.406	223
402.63	227
402.854	252
403.078	284
403.302	369
403.526	378
403.75	344
403.974	292
404.198	267
404.422	306
404.645	320
404.869	346
405.093	269
405.317	279
405.541	266
405.765	259
405.988	272
406.212	248
406.436	286
406.66	309
406.883	261
407.107	283
407.331	308
407.555	303
407.778	274
408.002	284
408.226	258
408.449	270
408.673	272
408.896	237
409.12	236
409.344	249
409.567	226
409.791	236
410.014	241
410.238	219
410.461	244
410.685	243
410.908	232
411.132	232
411.355	232
411.578	263
411.802	230
412.025	247
412.249	228
412.472	248
412.695	250
412.919	249
413.142	232
413.365	246
413.589	269
413.812	235
414.035	249
414.258	222
414.482	231
414.705	250
414.928	224
415.151	232
415.374	228
415.597	236
415.821	232
416.044	218
416.267	219
416.49	230
416.713	226
416.936	221
417.159	225
417.382	232
417.605	225
417.828	229
418.051	239
418.274	229
418.497	227
418.72	234
418.943	236
419.166	241
419.389	278
419.611	254
419.834	236
420.057	238
420.28	260
420.503	260
420.726	226
420.948	228
421.171	220
421.394	227
421.617	224
421.839	244
422.062	212
422.285	229
422.507	228
422.73	242
422.953	243
423.175	228
423.398	250
423.621	254
423.843	253
424.066	241
424.288	245
424.511	240
424.733	253
424.956	237
425.178	258
425.401	280
425.623	362
425.846	314
426.068	252
426.291	266
426.513	243
426.735	252
426.958	250
427.18	264
427.402	327
427.625	362
427.847	308
428.069	259
428.292	225
428.514	225
428.736	217
428.958	241
429.181	306
429.403	253
429.625	239
429.847	237
430.069	241
430.292	215
430.514	223
430.736	219
430.958	256
431.18	256
431.402	206
431.624	198
431.846	216
432.068	216
432.29	226
432.512	209
432.734	262
432.956	260
433.178	226
433.4	210
433.622	216
433.844	222
434.066	232
434.287	241
434.509	217
434.731	237
434.953	235
435.175	260
435.397	256
435.618	237
435.84	215
436.062	208
436.284	232
436.505	205
436.727	210
436.949	204
437.17	221
437.392	212
437.614	233
437.835	203
438.057	226
438.278	232
438.5	307
438.721	296
438.943	233
439.165	203
439.386	204
439.608	201
439.829	195
440.05	200
440.272	209
440.493	243
440.715	284
440.936	250
441.158	224
441.379	213
441.6	248
441.822	254
442.043	217
442.264	238
442.486	228
442.707	236
442.928	228
443.149	228
443.371	247
443.592	262
443.813	227
444.034	217
444.255	252
444.476	239
444.698	249
444.919	268
445.14	333
445.361	292
445.582	244
445.803	235
446.024	244
446.245	242
446.466	225
446.687	220
446.908	217
447.129	220
447.35	215
447.571	210
447.792	208
448.013	191
448.234	196
448.455	212
448.675	210
448.896	204
449.117	219
449.338	223
449.559	239
449.779	232
450	223
450.221	216
450.442	219
450.662	216
450.883	209
451.104	220
451.324	243
451.545	224
451.766	226
451.986	200
452.207	209
452.428	211
452.648	194
452.869	223
453.089	213
453.31	201
453.53	192
453.751	203
453.971	212
454.192	190
454.412	205
454.633	200
454.853	199
455.073	191
455.294	185
455.514	186
455.734	195
455.955	186
456.175	205
456.395	194
456.616	184
456.836	179
457.056	190
457.276	173
457.497	194
457.717	212
457.937	190
458.157	213
458.377	180
458.598	184
458.818	192
459.038	215
459.258	235
459.478	212
459.698	249
459.918	225
460.138	221
460.358	248
460.578	236
460.798	241
461.018	256
461.238	236
461.458	229
461.678	223
461.898	253
462.118	258
462.338	252
462.558	257
462.777	270
462.997	278
463.217	292
463.437	285
463.657	266
463.876	257
464.096	260
464.316	264
464.536	258
464.755	258
464.975	264
465.195	258
465.414	243
465.634	262
465.854	225
466.073	212
466.293	219
466.512	220
466.732	242
466.951	260
467.171	205
467.391	216
467.61	218
467.829	235
468.049	218
468.268	228
468.488	219
468.707	234
468.927	244
469.146	258
469.365	254
469.585	251
469.804	254
470.023	266
470.243	241
470.462	239
470.681	232
470.901	241
471.12	248
471.339	241
471.558	238
471.777	221
471.997	233
472.216	262
472.435	248
472.654	249
472.873	224
473.092	243
473.311	264
473.53	216
473.749	219
473.968	240
474.187	244
474.406	212
474.625	218
474.844	236
475.063	248
475.282	240
475.501	236
475.72	283
475.939	263
476.158	262
476.377	288
476.596	335
476.814	342
477.033	281
477.252	251
477.471	237
477.69	253
477.908	256
478.127	294
478.346	264
478.564	280
478.783	276
479.002	263
479.22	294
479.439	314
479.658	269
479.876	286
480.095	294
480.313	308
480.532	308
480.751	268
480.969	277
481.188	295
481.406	296
481.624	287
481.843	266
482.061	269
482.28	265
482.498	335
482.717	329
482.935	287
483.153	258
483.372	255
483.59	273
483.808	260
484.027	260
484.245	259
484.463	237
484.681	245
484.9	260
485.118	274
485.336	271
485.554	256
485.772	267
485.99	307
486.209	304
486.427	292
486.645	291
486.863	274
487.081	291
487.299	292
487.517	299
487.735	287
487.953	286
488.171	284
488.389	272
488.607	259
488.825	275
489.043	283
489.261	325
489.479	315
489.696	288
489.914	277
490.132	262
490.35	262
490.568	259
490.786	249
491.003	258
491.221	265
491.439	264
491.657	280
491.874	275
492.092	321
492.31	351
492.527	349
492.745	329
492.963	286
493.18	286
493.398	288
493.615	293
493.833	296
494.05	296
494.268	277
494.485	280
494.703	285
494.92	285
495.138	275
495.355	285
495.573	278
495.79	304
496.008	365
496.225	328
496.442	304
496.66	291
496.877	312
497.094	304
497.312	289
497.529	316
497.746	324
497.963	319
498.181	321
498.398	340
498.615	333
498.832	378
499.049	396
499.267	366
499.484	365
499.701	399
499.918	448
500.135	489
500.352	501
500.569	532
500.786	558
501.003	539
501.22	479
501.437	454
501.654	403
501.871	399
502.088	369
502.305	343
502.522	336
502.739	333
502.956	320
503.172	317
503.389	321
503.606	296
503.823	294
504.04	313
504.256	309
504.473	331
504.69	339
504.907	299
505.123	326
505.34	333
505.557	315
505.773	296
505.99	308
506.207	294
506.423	310
506.64	274
506.856	273
507.073	311
507.289	330
507.506	290
507.722	313
507.939	308
508.155	331
508.372	306
508.588	302
508.805	276
509.021	268
509.238	261
509.454	272
509.67	260
509.887	261
510.103	290
510.319	285
510.536	286
510.752	257
510.968	244
511.184	258
511.401	262
511.617	252
511.833	256
512.049	237
512.265	274
512.481	270
512.698	279
512.914	312
513.13	289
513.346	266
513.562	261
513.778	260
513.994	260
514.21	263
514.426	270
514.642	263
514.858	259
515.074	274
515.29	311
515.506	332
515.721	300
515.937	291
516.153	277
516.369	270
516.585	273
516.801	324
517.016	376
517.232	342
517.448	350
517.664	318
517.879	308
518.095	328
518.311	313
518.527	317
518.742	333
518.958	352
519.173	326
519.389	310
519.605	298
519.82	335
520.036	373
520.251	390
520.467	355
520.682	540
520.898	701
521.113	648
521.329	388
521.544	358
521.76	339
521.975	287
522.19	301
522.406	297
522.621	336
522.836	351
523.052	331
523.267	289
523.482	286
523.698	305
523.913	317
524.128	280
524.343	274
524.559	272
524.774	276
524.989	273
525.204	274
525.419	312
525.634	280
525.849	293
526.064	283
526.28	282
526.495	345
526.71	361
526.925	309
527.14	324
527.355	300
527.57	262
527.785	287
527.999	278
528.214	261
528.429	269
528.644	239
528.859	232
529.074	228
529.289	247
529.503	244
529.718	253
529.933	298
530.148	308
530.363	281
530.577	255
530.792	235
531.007	253
531.221	251
531.436	241
531.651	262
531.865	251
532.08	239
532.295	242
532.509	253
532.724	261
532.938	289
533.153	340
533.367	284
533.582	279
533.796	274
534.011	270
534.225	254
534.44	261
534.654	261
534.868	303
535.083	297
535.297	254
535.511	260
535.726	292
535.94	273
536.154	256
536.369	248
536.583	228
536.797	241
537.011	245
537.225	268
537.44	261
537.654	253
537.868	263
538.082	276
538.296	258
538.51	270
538.724	255
538.938	261
539.153	250
539.367	234
539.581	226
539.795	233
540.009	275
540.222	262
540.436	262
540.65	282
540.864	269
541.078	298
541.292	336
541.506	277
541.72	252
541.934	237
542.147	243
542.361	243
542.575	264
542.789	252
543.002	213
543.216	256
543.43	233
543.644	246
543.857	230
544.071	250
544.285	228
544.498	226
544.712	256
544.925	253
545.139	236
545.352	226
545.566	232
545.779	254
545.993	223
546.206	232
546.42	223
546.633	219
546.847	212
547.06	206
547.274	218
547.487	216
547.7	236
547.914	257
548.127	268
548.34	278
548.554	235
548.767	237
548.98	267
549.193	238
549.407	254
549.62	298
549.833	258
550.046	294
550.259	282
550.473	243
550.686	258
550.899	250
551.112	249
551.325	253
551.538	259
551.751	211
551.964	222
552.177	230
552.39	236
552.603	234
552.816	229
553.029	240
553.242	235
553.455	249
553.667	260
553.88	246
554.093	240
554.306	220
554.519	241
554.732	213
554.944	214
555.157	209
555.37	218
555.583	219
555.795	208
556.008	205
556.221	212
556.433	212
556.646	219
556.859	216
557.071	228
557.284	222
557.496	210
557.709	205
557.921	205
558.134	210
558.346	194
558.559	196
558.771	208
558.984	214
559.196	206
559.409	206
559.621	193
559.833	183
560.046	204
560.258	187
560.47	207
560.683	198
560.895	198
561.107	192
561.32	189
561.532	198
561.744	206
561.956	197
562.168	204
562.381	201
562.593	209
562.805	199
563.017	191
563.229	170
563.441	194
563.653	191
563.865	191
564.077	190
564.289	188
