Data from NickelSpatula.Lamp.E10.P2_HRD10591_11-58-06-529.txt Node
Date: Tue Jul 23 11:58:06 EDT 2019
User: cochatt
Spectrometer: HR+D1059
Trigger mode: 1
Integration Time (sec): 1.000000E-1
Scans to average: 1
Electric dark correction enabled: true
Nonlinearity correction enabled: false
Boxcar width: 0
XAxis mode: Wavelengths
Number of Pixels in Spectrum: 2048
>>>>>Begin Spectral Data<<<<<
223.165	-17.25
223.4	-17.25
223.635	-17.25
223.869	-18.25
224.104	-16.25
224.338	-17.25
224.573	-22.25
224.808	-25.25
225.042	-7.25
225.277	-9.25
225.511	2.75
225.746	7.75
225.98	26.75
226.215	6.75
226.449	19.75
226.683	15.75
226.918	32.75
227.152	20.75
227.387	33.75
227.621	33.75
227.856	35.75
228.09	46.75
228.324	56.75
228.559	48.75
228.793	82.75
229.027	139.75
229.262	156.75
229.496	152.75
229.73	165.75
229.964	186.75
230.199	201.75
230.433	208.75
230.667	218.75
230.901	222.75
231.136	208.75
231.37	201.75
231.604	222.75
231.838	241.75
232.072	264.75
232.306	252.75
232.541	242.75
232.775	244.75
233.009	265.75
233.243	307.75
233.477	317.75
233.711	347.75
233.945	319.75
234.179	331.75
234.413	342.75
234.647	374.75
234.881	446.75
235.115	400.75
235.349	394.75
235.583	349.75
235.817	355.75
236.051	376.75
236.285	424.75
236.519	474.75
236.753	455.75
236.987	442.75
237.221	412.75
237.455	401.75
237.689	418.75
237.922	464.75
238.156	479.75
238.39	577.75
238.624	634.75
238.858	594.75
239.091	494.75
239.325	522.75
239.559	472.75
239.793	541.75
240.027	632.75
240.26	621.75
240.494	611.75
240.728	598.75
240.961	697.75
241.195	631.75
241.429	629.75
241.662	627.75
241.896	537.75
242.13	476.75
242.363	439.75
242.597	473.75
242.83	549.75
243.064	548.75
243.298	598.75
243.531	643.75
243.765	654.75
243.998	630.75
244.232	599.75
244.465	596.75
244.699	585.75
244.932	663.75
245.166	644.75
245.399	546.75
245.633	548.75
245.866	531.75
246.099	634.75
246.333	737.75
246.566	792.75
246.8	769.75
247.033	762.75
247.266	704.75
247.5	674.75
247.733	646.75
247.966	663.75
248.2	705.75
248.433	793.75
248.666	842.75
248.899	827.75
249.133	886.75
249.366	1000.75
249.599	1087.75
249.832	949.75
250.066	845.75
250.299	855.75
250.532	826.75
250.765	835.75
250.998	760.75
251.231	728.75
251.465	789.75
251.698	807.75
251.931	800.75
252.164	842.75
252.397	922.75
252.63	1040.75
252.863	1168.75
253.096	1193.75
253.329	1136.75
253.562	1080.75
253.795	1268.75
254.028	1365.75
254.261	1401.75
254.494	1280.75
254.727	1165.75
254.96	1123.75
255.193	1205.75
255.426	1154.75
255.659	881.75
255.892	806.75
256.124	862.75
256.357	1018.75
256.59	1219.75
256.823	1138.75
257.056	942.75
257.289	920.75
257.521	965.75
257.754	1148.75
257.987	1291.75
258.22	1134.75
258.452	1016.75
258.685	1112.75
258.918	1327.75
259.151	1247.75
259.383	1335.75
259.616	1492.75
259.849	1582.75
260.081	1729.75
260.314	1911.75
260.547	1463.75
260.779	1501.75
261.012	1712.75
261.244	1612.75
261.477	1671.75
261.71	1556.75
261.942	1331.75
262.175	1295.75
262.407	1226.75
262.64	1258.75
262.872	1528.75
263.105	1675.75
263.337	1724.75
263.57	1536.75
263.802	1051.75
264.035	928.75
264.267	896.75
264.499	757.75
264.732	696.75
264.964	693.75
265.197	709.75
265.429	778.75
265.661	823.75
265.894	861.75
266.126	923.75
266.358	1024.75
266.591	1256.75
266.823	1514.75
267.055	1427.75
267.287	1290.75
267.52	1260.75
267.752	1342.75
267.984	1432.75
268.216	1385.75
268.448	1116.75
268.681	1076.75
268.913	1198.75
269.145	1297.75
269.377	1302.75
269.609	1267.75
269.841	1235.75
270.073	1286.75
270.306	1378.75
270.538	1364.75
270.77	1417.75
271.002	1409.75
271.234	1503.75
271.466	1513.75
271.698	1467.75
271.93	1410.75
272.162	1432.75
272.394	1419.75
272.626	1406.75
272.858	1455.75
273.09	1494.75
273.322	1338.75
273.553	1310.75
273.785	1529.75
274.017	2002.75
274.249	2485.75
274.481	2558.75
274.713	2792.75
274.945	3196.75
275.176	3246.75
275.408	2948.75
275.64	2654.75
275.872	2662.75
276.104	2241.75
276.335	1949.75
276.567	1949.75
276.799	1958.75
277.031	2052.75
277.262	1614.75
277.494	1251.75
277.726	1212.75
277.957	1330.75
278.189	1509.75
278.421	1477.75
278.652	1410.75
278.884	1364.75
279.115	1294.75
279.347	1185.75
279.579	1222.75
279.81	1171.75
280.042	1196.75
280.273	1238.75
280.505	1116.75
280.736	1025.75
280.968	1014.75
281.199	1111.75
281.431	1247.75
281.662	1228.75
281.894	1175.75
282.125	1213.75
282.356	1352.75
282.588	1425.75
282.819	1262.75
283.051	1380.75
283.282	1714.75
283.513	1940.75
283.745	2189.75
283.976	2178.75
284.207	2017.75
284.439	2126.75
284.67	2004.75
284.901	1805.75
285.132	1980.75
285.364	2042.75
285.595	1883.75
285.826	1992.75
286.057	2063.75
286.288	1985.75
286.52	2032.75
286.751	2117.75
286.982	2058.75
287.213	1810.75
287.444	1746.75
287.675	1859.75
287.906	1853.75
288.138	1545.75
288.369	1370.75
288.6	1310.75
288.831	1373.75
289.062	1574.75
289.293	1721.75
289.524	1606.75
289.755	1608.75
289.986	1664.75
290.217	1454.75
290.448	1116.75
290.679	958.75
290.91	911.75
291.141	894.75
291.371	952.75
291.602	963.75
291.833	973.75
292.064	1060.75
292.295	1237.75
292.526	1417.75
292.757	1463.75
292.987	1575.75
293.218	1585.75
293.449	1592.75
293.68	1664.75
293.91	1637.75
294.141	1633.75
294.372	1507.75
294.603	1425.75
294.833	1576.75
295.064	1861.75
295.295	1760.75
295.525	1319.75
295.756	1149.75
295.987	986.75
296.217	1012.75
296.448	1022.75
296.679	1116.75
296.909	1212.75
297.14	1305.75
297.37	1438.75
297.601	1350.75
297.831	1162.75
298.062	1269.75
298.292	1428.75
298.523	1555.75
298.753	1818.75
298.984	1582.75
299.214	1255.75
299.445	1074.75
299.675	1020.75
299.905	1016.75
300.136	1065.75
300.366	1189.75
300.597	1173.75
300.827	1004.75
301.057	995.75
301.288	1030.75
301.518	1069.75
301.748	1208.75
301.979	1284.75
302.209	1412.75
302.439	1438.75
302.669	1220.75
302.9	1222.75
303.13	1111.75
303.36	1096.75
303.59	1044.75
303.82	1084.75
304.051	1207.75
304.281	1344.75
304.511	1290.75
304.741	1156.75
304.971	1176.75
305.201	1296.75
305.431	1161.75
305.661	1068.75
305.891	1034.75
306.121	1072.75
306.352	925.75
306.582	857.75
306.812	882.75
307.042	871.75
307.272	807.75
307.502	796.75
307.731	876.75
307.961	916.75
308.191	858.75
308.421	814.75
308.651	807.75
308.881	762.75
309.111	769.75
309.341	823.75
309.571	892.75
309.8	929.75
310.03	936.75
310.26	998.75
310.49	973.75
310.72	871.75
310.949	882.75
311.179	864.75
311.409	927.75
311.639	1118.75
311.868	1349.75
312.098	1802.75
312.328	1959.75
312.557	1862.75
312.787	1864.75
313.017	1688.75
313.246	1828.75
313.476	1988.75
313.706	1636.75
313.935	1277.75
314.165	1042.75
314.394	960.75
314.624	935.75
314.853	998.75
315.083	1041.75
315.312	999.75
315.542	1010.75
315.771	948.75
316.001	871.75
316.23	838.75
316.46	841.75
316.689	878.75
316.919	873.75
317.148	871.75
317.377	878.75
317.607	848.75
317.836	952.75
318.065	1087.75
318.295	1246.75
318.524	1130.75
318.753	983.75
318.983	921.75
319.212	902.75
319.441	1026.75
319.67	1140.75
319.9	1232.75
320.129	1132.75
320.358	967.75
320.587	928.75
320.816	1028.75
321.046	1159.75
321.275	1318.75
321.504	1284.75
321.733	1242.75
321.962	1211.75
322.191	1135.75
322.42	1079.75
322.649	1121.75
322.878	1196.75
323.108	1180.75
323.337	1123.75
323.566	1078.75
323.795	1047.75
324.024	1024.75
324.253	967.75
324.482	976.75
324.71	1080.75
324.939	1190.75
325.168	1109.75
325.397	918.75
325.626	914.75
325.855	945.75
326.084	941.75
326.313	872.75
326.542	828.75
326.77	868.75
326.999	885.75
327.228	950.75
327.457	998.75
327.686	996.75
327.914	882.75
328.143	829.75
328.372	830.75
328.6	847.75
328.829	886.75
329.058	904.75
329.287	906.75
329.515	918.75
329.744	878.75
329.972	818.75
330.201	814.75
330.43	849.75
330.658	947.75
330.887	1041.75
331.115	1034.75
331.344	1006.75
331.572	926.75
331.801	913.75
332.03	852.75
332.258	888.75
332.486	962.75
332.715	971.75
332.943	917.75
333.172	913.75
333.4	934.75
333.629	1040.75
333.857	1106.75
334.085	1094.75
334.314	1108.75
334.542	1069.75
334.771	966.75
334.999	952.75
335.227	919.75
335.455	972.75
335.684	1029.75
335.912	1169.75
336.14	1321.75
336.369	1254.75
336.597	1210.75
336.825	1394.75
337.053	1507.75
337.281	1181.75
337.51	977.75
337.738	945.75
337.966	1073.75
338.194	1152.75
338.422	1106.75
338.65	959.75
338.878	864.75
339.106	913.75
339.334	1010.75
339.562	1055.75
339.79	1036.75
340.018	959.75
340.246	1064.75
340.474	1188.75
340.702	1259.75
340.93	1296.75
341.158	1320.75
341.386	1100.75
341.614	1078.75
341.842	1116.75
342.07	1137.75
342.298	1329.75
342.526	1392.75
342.754	1202.75
342.981	1095.75
343.209	1068.75
343.437	1116.75
343.665	1176.75
343.893	1153.75
344.12	1384.75
344.348	1540.75
344.576	1411.75
344.804	1191.75
345.031	1026.75
345.259	964.75
345.487	993.75
345.714	997.75
345.942	1108.75
346.17	1198.75
346.397	1126.75
346.625	1005.75
346.853	975.75
347.08	932.75
347.308	1002.75
347.535	1094.75
347.763	1139.75
347.99	970.75
348.218	932.75
348.445	978.75
348.673	961.75
348.9	988.75
349.128	1016.75
349.355	1076.75
349.583	1043.75
349.81	1004.75
350.037	923.75
350.265	838.75
350.492	784.75
350.72	820.75
350.947	848.75
351.174	865.75
351.402	932.75
351.629	970.75
351.856	911.75
352.083	889.75
352.311	955.75
352.538	1042.75
352.765	1124.75
352.992	1043.75
353.22	974.75
353.447	998.75
353.674	963.75
353.901	940.75
354.128	962.75
354.355	1000.75
354.583	963.75
354.81	983.75
355.037	1035.75
355.264	963.75
355.491	1056.75
355.718	1133.75
355.945	1122.75
356.172	1065.75
356.399	1118.75
356.626	1294.75
356.853	1600.75
357.08	1686.75
357.307	1708.75
357.534	1336.75
357.761	1374.75
357.988	1720.75
358.215	2024.75
358.441	1904.75
358.668	1606.75
358.895	1480.75
359.122	1177.75
359.349	1212.75
359.576	1296.75
359.802	1089.75
360.029	931.75
360.256	1010.75
360.483	1260.75
360.709	1589.75
360.936	1623.75
361.163	1420.75
361.39	1116.75
361.616	1052.75
361.843	1233.75
362.07	1460.75
362.296	1352.75
362.523	1058.75
362.749	914.75
362.976	980.75
363.203	1213.75
363.429	1321.75
363.656	1050.75
363.882	965.75
364.109	998.75
364.335	1001.75
364.562	989.75
364.788	1103.75
365.015	1264.75
365.241	1154.75
365.468	930.75
365.694	845.75
365.92	792.75
366.147	793.75
366.373	800.75
366.599	773.75
366.826	810.75
367.052	815.75
367.278	846.75
367.505	820.75
367.731	885.75
367.957	1017.75
368.184	986.75
368.41	1006.75
368.636	1009.75
368.862	1050.75
369.089	1006.75
369.315	885.75
369.541	890.75
369.767	871.75
369.993	860.75
370.219	839.75
370.445	918.75
370.672	991.75
370.898	1079.75
371.124	1052.75
371.35	946.75
371.576	852.75
371.802	971.75
372.028	1145.75
372.254	1294.75
372.48	1137.75
372.706	1007.75
372.932	1086.75
373.158	1158.75
373.384	1345.75
373.61	1773.75
373.835	1852.75
374.061	1320.75
374.287	1132.75
374.513	1337.75
374.739	1648.75
374.965	1680.75
375.191	1635.75
375.416	1146.75
375.642	1049.75
375.868	1194.75
376.094	1335.75
376.319	1200.75
376.545	1268.75
376.771	1311.75
376.997	1151.75
377.222	833.75
377.448	753.75
377.674	762.75
377.899	751.75
378.125	734.75
378.35	750.75
378.576	801.75
378.802	821.75
379.027	932.75
379.253	880.75
379.478	897.75
379.704	1028.75
379.929	1084.75
380.155	1068.75
380.38	935.75
380.606	1004.75
380.831	1094.75
381.057	985.75
381.282	989.75
381.507	1129.75
381.733	1435.75
381.958	1531.75
382.184	1584.75
382.409	1676.75
382.634	1644.75
382.86	1710.75
383.085	1416.75
383.31	1139.75
383.535	1178.75
383.761	1216.75
383.986	1132.75
384.211	1400.75
384.436	1369.75
384.662	1040.75
384.887	974.75
385.112	1022.75
385.337	1023.75
385.562	976.75
385.787	1069.75
386.013	1192.75
386.238	1195.75
386.463	1020.75
386.688	972.75
386.913	939.75
387.138	893.75
387.363	970.75
387.588	970.75
387.813	975.75
388.038	1086.75
388.263	969.75
388.488	942.75
388.713	1100.75
388.938	1207.75
389.163	1035.75
389.387	882.75
389.612	922.75
389.837	944.75
390.062	971.75
390.287	972.75
390.512	1010.75
390.736	930.75
390.961	879.75
391.186	861.75
391.411	846.75
391.636	860.75
391.86	922.75
392.085	1024.75
392.31	970.75
392.534	956.75
392.759	950.75
392.984	982.75
393.208	969.75
393.433	860.75
393.658	815.75
393.882	822.75
394.107	796.75
394.331	828.75
394.556	791.75
394.78	810.75
395.005	844.75
395.229	894.75
395.454	853.75
395.678	866.75
395.903	901.75
396.127	896.75
396.352	893.75
396.576	988.75
396.801	974.75
397.025	1102.75
397.249	1097.75
397.474	924.75
397.698	914.75
397.922	980.75
398.147	918.75
398.371	930.75
398.595	977.75
398.82	964.75
399.044	951.75
399.268	1011.75
399.492	1055.75
399.717	1061.75
399.941	1104.75
400.165	1048.75
400.389	1023.75
400.613	1045.75
400.837	1037.75
401.062	928.75
401.286	878.75
401.51	889.75
401.734	899.75
401.958	925.75
402.182	902.75
402.406	920.75
402.63	903.75
402.854	947.75
403.078	1053.75
403.302	1296.75
403.526	1334.75
403.75	1188.75
403.974	1043.75
404.198	1108.75
404.422	1199.75
404.645	1425.75
404.869	1568.75
405.093	1153.75
405.317	984.75
405.541	978.75
405.765	1000.75
405.988	1012.75
406.212	1084.75
406.436	1293.75
406.66	1412.75
406.883	1097.75
407.107	1184.75
407.331	1356.75
407.555	1271.75
407.778	1086.75
408.002	1039.75
408.226	1052.75
408.449	1047.75
408.673	1024.75
408.896	927.75
409.12	917.75
409.344	898.75
409.567	910.75
409.791	882.75
410.014	888.75
410.238	890.75
410.461	869.75
410.685	882.75
410.908	892.75
411.132	924.75
411.355	971.75
411.578	961.75
411.802	921.75
412.025	1002.75
412.249	950.75
412.472	935.75
412.695	959.75
412.919	965.75
413.142	953.75
413.365	1042.75
413.589	1055.75
413.812	964.75
414.035	918.75
414.258	956.75
414.482	1049.75
414.705	1021.75
414.928	920.75
415.151	871.75
415.374	880.75
415.597	942.75
415.821	890.75
416.044	891.75
416.267	894.75
416.49	865.75
416.713	873.75
416.936	849.75
417.159	849.75
417.382	862.75
417.605	898.75
417.828	912.75
418.051	893.75
418.274	935.75
418.497	950.75
418.72	942.75
418.943	956.75
419.166	1008.75
419.389	1031.75
419.611	974.75
419.834	1038.75
420.057	1089.75
420.28	1089.75
420.503	1026.75
420.726	905.75
420.948	866.75
421.171	869.75
421.394	906.75
421.617	843.75
421.839	878.75
422.062	951.75
422.285	937.75
422.507	932.75
422.73	938.75
422.953	959.75
423.175	928.75
423.398	923.75
423.621	1013.75
423.843	1049.75
424.066	1015.75
424.288	939.75
424.511	895.75
424.733	916.75
424.956	940.75
425.178	1087.75
425.401	1193.75
425.623	1342.75
425.846	1162.75
426.068	1000.75
426.291	1109.75
426.513	1026.75
426.735	940.75
426.958	967.75
427.18	1124.75
427.402	1494.75
427.625	1438.75
427.847	1161.75
428.069	918.75
428.292	880.75
428.514	924.75
428.736	854.75
428.958	944.75
429.181	1109.75
429.403	979.75
429.625	907.75
429.847	893.75
430.069	886.75
430.292	893.75
430.514	910.75
430.736	936.75
430.958	1180.75
431.18	1060.75
431.402	837.75
431.624	808.75
431.846	818.75
432.068	807.75
432.29	830.75
432.512	900.75
432.734	1191.75
432.956	1114.75
433.178	898.75
433.4	849.75
433.622	826.75
433.844	881.75
434.066	901.75
434.287	897.75
434.509	882.75
434.731	938.75
434.953	899.75
435.175	909.75
435.397	1024.75
435.618	888.75
435.84	842.75
436.062	839.75
436.284	846.75
436.505	768.75
436.727	790.75
436.949	829.75
437.17	860.75
437.392	854.75
437.614	823.75
437.835	818.75
438.057	837.75
438.278	985.75
438.5	1382.75
438.721	1381.75
438.943	937.75
439.165	822.75
439.386	812.75
439.608	808.75
439.829	798.75
440.05	825.75
440.272	877.75
440.493	994.75
440.715	1213.75
440.936	999.75
441.158	842.75
441.379	868.75
441.6	1011.75
441.822	1018.75
442.043	889.75
442.264	887.75
442.486	880.75
442.707	893.75
442.928	885.75
443.149	892.75
443.371	892.75
443.592	920.75
443.813	930.75
444.034	899.75
444.255	889.75
444.476	935.75
444.698	976.75
444.919	927.75
445.14	1079.75
445.361	1009.75
445.582	960.75
445.803	951.75
446.024	933.75
446.245	969.75
446.466	917.75
446.687	892.75
446.908	895.75
447.129	844.75
447.35	804.75
447.571	790.75
447.792	790.75
448.013	768.75
448.234	777.75
448.455	765.75
448.675	775.75
448.896	821.75
449.117	792.75
449.338	805.75
449.559	821.75
449.779	884.75
450	850.75
450.221	842.75
450.442	796.75
450.662	816.75
450.883	788.75
451.104	812.75
451.324	782.75
451.545	816.75
451.766	822.75
451.986	797.75
452.207	788.75
452.428	791.75
452.648	764.75
452.869	809.75
453.089	834.75
453.31	846.75
453.53	757.75
453.751	750.75
453.971	725.75
454.192	749.75
454.412	816.75
454.633	767.75
454.853	763.75
455.073	725.75
455.294	734.75
455.514	721.75
455.734	797.75
455.955	814.75
456.175	843.75
456.395	753.75
456.616	707.75
456.836	702.75
457.056	696.75
457.276	710.75
457.497	721.75
457.717	705.75
457.937	724.75
458.157	691.75
458.377	737.75
458.598	744.75
458.818	767.75
459.038	823.75
459.258	842.75
459.478	833.75
459.698	902.75
459.918	860.75
460.138	892.75
460.358	885.75
460.578	874.75
460.798	890.75
461.018	912.75
461.238	862.75
461.458	894.75
461.678	888.75
461.898	933.75
462.118	920.75
462.338	961.75
462.558	950.75
462.777	994.75
462.997	1004.75
463.217	1013.75
463.437	1040.75
463.657	1000.75
463.876	995.75
464.096	984.75
464.316	967.75
464.536	954.75
464.755	1004.75
464.975	1024.75
465.195	973.75
465.414	1004.75
465.634	968.75
465.854	948.75
466.073	883.75
466.293	875.75
466.512	916.75
466.732	1032.75
466.951	1024.75
467.171	920.75
467.391	868.75
467.61	856.75
467.829	935.75
468.049	941.75
468.268	860.75
468.488	868.75
468.707	914.75
468.927	1060.75
469.146	1126.75
469.365	1056.75
469.585	961.75
469.804	1052.75
470.023	1093.75
470.243	978.75
470.462	924.75
470.681	917.75
470.901	935.75
471.12	963.75
471.339	949.75
471.558	897.75
471.777	936.75
471.997	1011.75
472.216	1144.75
472.435	1074.75
472.654	964.75
472.873	958.75
473.092	986.75
473.311	1038.75
473.53	931.75
473.749	947.75
473.968	968.75
474.187	982.75
474.406	927.75
474.625	924.75
474.844	956.75
475.063	1044.75
475.282	1045.75
475.501	1077.75
475.72	1142.75
475.939	1101.75
476.158	1112.75
476.377	1218.75
476.596	1428.75
476.814	1521.75
477.033	1225.75
477.252	1068.75
477.471	999.75
477.69	1017.75
477.908	1122.75
478.127	1180.75
478.346	1049.75
478.564	1153.75
478.783	1095.75
479.002	1108.75
479.22	1255.75
479.439	1434.75
479.658	1226.75
479.876	1145.75
480.095	1172.75
480.313	1240.75
480.532	1123.75
480.751	1087.75
480.969	1133.75
481.188	1262.75
481.406	1308.75
481.624	1262.75
481.843	1152.75
482.061	1078.75
482.28	1193.75
482.498	1474.75
482.717	1388.75
482.935	1200.75
483.153	1162.75
483.372	1056.75
483.59	1064.75
483.808	1087.75
484.027	1034.75
484.245	1006.75
484.463	989.75
484.681	1008.75
484.9	1106.75
485.118	1178.75
485.336	1109.75
485.554	1051.75
485.772	1091.75
485.99	1152.75
486.209	1252.75
486.427	1232.75
486.645	1191.75
486.863	1225.75
487.081	1231.75
487.299	1351.75
487.517	1333.75
487.735	1196.75
487.953	1262.75
488.171	1246.75
488.389	1202.75
488.607	1140.75
488.825	1189.75
489.043	1264.75
489.261	1463.75
489.479	1545.75
489.696	1294.75
489.914	1196.75
490.132	1128.75
490.35	1129.75
490.568	1153.75
490.786	1122.75
491.003	1132.75
491.221	1168.75
491.439	1152.75
491.657	1125.75
491.874	1239.75
492.092	1497.75
492.31	1788.75
492.527	1743.75
492.745	1522.75
492.963	1350.75
493.18	1295.75
493.398	1300.75
493.615	1281.75
493.833	1235.75
494.05	1245.75
494.268	1294.75
