Data from NickelSpatula.Lamp.E5.5.P2_HRD10591_11-53-12-550.txt Node
Date: Tue Jul 23 11:53:12 EDT 2019
User: cochatt
Spectrometer: HR+D1059
Trigger mode: 1
Integration Time (sec): 1.000000E-1
Scans to average: 1
Electric dark correction enabled: true
Nonlinearity correction enabled: false
Boxcar width: 0
XAxis mode: Wavelengths
Number of Pixels in Spectrum: 2048
>>>>>Begin Spectral Data<<<<<
223.165	1.5
223.4	1.5
223.635	1.5
223.869	-17.5
224.104	-18.5
224.338	-12.5
224.573	-15.5
224.808	-9.5
225.042	-11.5
225.277	-18.5
225.511	-0.5
225.746	0.5
225.98	4.5
226.215	6.5
226.449	21.5
226.683	30.5
226.918	15.5
227.152	23.5
227.387	34.5
227.621	44.5
227.856	49.5
228.09	49.5
228.324	56.5
228.559	59.5
228.793	48.5
229.027	89.5
229.262	79.5
229.496	74.5
229.73	74.5
229.964	83.5
230.199	104.5
230.433	89.5
230.667	99.5
230.901	96.5
231.136	70.5
231.37	101.5
231.604	87.5
231.838	101.5
232.072	94.5
232.306	102.5
232.541	96.5
232.775	111.5
233.009	111.5
233.243	111.5
233.477	128.5
233.711	118.5
233.945	124.5
234.179	120.5
234.413	108.5
234.647	129.5
234.881	131.5
235.115	144.5
235.349	120.5
235.583	117.5
235.817	116.5
236.051	114.5
236.285	133.5
236.519	139.5
236.753	128.5
236.987	140.5
237.221	136.5
237.455	121.5
237.689	147.5
237.922	135.5
238.156	137.5
238.39	160.5
238.624	160.5
238.858	172.5
239.091	126.5
239.325	154.5
239.559	147.5
239.793	142.5
240.027	174.5
240.26	147.5
240.494	157.5
240.728	159.5
240.961	157.5
241.195	167.5
241.429	157.5
241.662	152.5
241.896	152.5
242.13	163.5
242.363	117.5
242.597	132.5
242.83	143.5
243.064	143.5
243.298	156.5
243.531	168.5
243.765	164.5
243.998	175.5
244.232	163.5
244.465	159.5
244.699	163.5
244.932	169.5
245.166	173.5
245.399	149.5
245.633	150.5
245.866	146.5
246.099	155.5
246.333	167.5
246.566	180.5
246.8	173.5
247.033	163.5
247.266	166.5
247.5	173.5
247.733	160.5
247.966	176.5
248.2	168.5
248.433	185.5
248.666	196.5
248.899	193.5
249.133	204.5
249.366	227.5
249.599	227.5
249.832	205.5
250.066	207.5
250.299	207.5
250.532	208.5
250.765	191.5
250.998	173.5
251.231	157.5
251.465	188.5
251.698	209.5
251.931	200.5
252.164	200.5
252.397	193.5
252.63	235.5
252.863	267.5
253.096	252.5
253.329	230.5
253.562	233.5
253.795	271.5
254.028	292.5
254.261	293.5
254.494	263.5
254.727	248.5
254.96	237.5
255.193	253.5
255.426	258.5
255.659	183.5
255.892	213.5
256.124	211.5
256.357	245.5
256.59	264.5
256.823	271.5
257.056	211.5
257.289	210.5
257.521	204.5
257.754	261.5
257.987	283.5
258.22	241.5
258.452	224.5
258.685	253.5
258.918	285.5
259.151	262.5
259.383	278.5
259.616	335.5
259.849	338.5
260.081	355.5
260.314	379.5
260.547	294.5
260.779	329.5
261.012	351.5
261.244	332.5
261.477	338.5
261.71	304.5
261.942	291.5
262.175	288.5
262.407	276.5
262.64	262.5
262.872	310.5
263.105	328.5
263.337	361.5
263.57	330.5
263.802	232.5
264.035	215.5
264.267	225.5
264.499	199.5
264.732	182.5
264.964	177.5
265.197	171.5
265.429	178.5
265.661	194.5
265.894	221.5
266.126	223.5
266.358	226.5
266.591	275.5
266.823	313.5
267.055	304.5
267.287	265.5
267.52	277.5
267.752	292.5
267.984	312.5
268.216	307.5
268.448	276.5
268.681	244.5
268.913	269.5
269.145	283.5
269.377	284.5
269.609	281.5
269.841	266.5
270.073	272.5
270.306	304.5
270.538	318.5
270.77	315.5
271.002	311.5
271.234	322.5
271.466	329.5
271.698	307.5
271.93	316.5
272.162	295.5
272.394	289.5
272.626	304.5
272.858	296.5
273.09	316.5
273.322	271.5
273.553	260.5
273.785	299.5
274.017	369.5
274.249	452.5
274.481	485.5
274.713	519.5
274.945	576.5
275.176	624.5
275.408	551.5
275.64	495.5
275.872	503.5
276.104	434.5
276.335	370.5
276.567	389.5
276.799	384.5
277.031	419.5
277.262	347.5
277.494	260.5
277.726	258.5
277.957	274.5
278.189	314.5
278.421	297.5
278.652	307.5
278.884	294.5
279.115	279.5
279.347	265.5
279.579	281.5
279.81	285.5
280.042	279.5
280.273	270.5
280.505	263.5
280.736	228.5
280.968	219.5
281.199	243.5
281.431	282.5
281.662	263.5
281.894	283.5
282.125	272.5
282.356	305.5
282.588	288.5
282.819	279.5
283.051	295.5
283.282	343.5
283.513	382.5
283.745	419.5
283.976	421.5
284.207	400.5
284.439	427.5
284.67	411.5
284.901	355.5
285.132	401.5
285.364	416.5
285.595	374.5
285.826	408.5
286.057	415.5
286.288	381.5
286.52	390.5
286.751	397.5
286.982	430.5
287.213	389.5
287.444	373.5
287.675	353.5
287.906	387.5
288.138	322.5
288.369	295.5
288.6	281.5
288.831	307.5
289.062	343.5
289.293	359.5
289.524	339.5
289.755	334.5
289.986	333.5
290.217	318.5
290.448	267.5
290.679	229.5
290.91	206.5
291.141	219.5
291.371	256.5
291.602	225.5
291.833	230.5
292.064	240.5
292.295	268.5
292.526	287.5
292.757	304.5
292.987	329.5
293.218	324.5
293.449	356.5
293.68	379.5
293.91	324.5
294.141	353.5
294.372	343.5
294.603	314.5
294.833	343.5
295.064	394.5
295.295	374.5
295.525	287.5
295.756	260.5
295.987	246.5
296.217	228.5
296.448	224.5
296.679	229.5
296.909	266.5
297.14	293.5
297.37	317.5
297.601	282.5
297.831	255.5
298.062	272.5
298.292	297.5
298.523	320.5
298.753	365.5
298.984	344.5
299.214	269.5
299.445	265.5
299.675	233.5
299.905	237.5
300.136	235.5
300.366	238.5
300.597	250.5
300.827	229.5
301.057	223.5
301.288	225.5
301.518	232.5
301.748	264.5
301.979	286.5
302.209	299.5
302.439	309.5
302.669	254.5
302.9	275.5
303.13	260.5
303.36	235.5
303.59	247.5
303.82	241.5
304.051	261.5
304.281	299.5
304.511	289.5
304.741	260.5
304.971	279.5
305.201	285.5
305.431	268.5
305.661	225.5
305.891	223.5
306.121	237.5
306.352	224.5
306.582	210.5
306.812	200.5
307.042	202.5
307.272	200.5
307.502	207.5
307.731	207.5
307.961	213.5
308.191	209.5
308.421	190.5
308.651	192.5
308.881	201.5
309.111	187.5
309.341	208.5
309.571	214.5
309.8	217.5
310.03	207.5
310.26	230.5
310.49	227.5
310.72	202.5
310.949	212.5
311.179	204.5
311.409	213.5
311.639	231.5
311.868	296.5
312.098	351.5
312.328	376.5
312.557	392.5
312.787	389.5
313.017	344.5
313.246	377.5
313.476	403.5
313.706	339.5
313.935	289.5
314.165	232.5
314.394	209.5
314.624	203.5
314.853	224.5
315.083	223.5
315.312	223.5
315.542	225.5
315.771	212.5
316.001	210.5
316.23	205.5
316.46	198.5
316.689	208.5
316.919	206.5
317.148	214.5
317.377	211.5
317.607	210.5
317.836	202.5
318.065	237.5
318.295	262.5
318.524	231.5
318.753	219.5
318.983	210.5
319.212	199.5
319.441	209.5
319.67	237.5
319.9	260.5
320.129	229.5
320.358	212.5
320.587	204.5
320.816	216.5
321.046	247.5
321.275	253.5
321.504	272.5
321.733	256.5
321.962	232.5
322.191	237.5
322.42	230.5
322.649	241.5
322.878	243.5
323.108	258.5
323.337	229.5
323.566	241.5
323.795	240.5
324.024	228.5
324.253	212.5
324.482	219.5
324.71	219.5
324.939	266.5
325.168	247.5
325.397	220.5
325.626	209.5
325.855	209.5
326.084	206.5
326.313	200.5
326.542	198.5
326.77	193.5
326.999	205.5
327.228	213.5
327.457	220.5
327.686	227.5
327.914	219.5
328.143	181.5
328.372	173.5
328.6	198.5
328.829	206.5
329.058	203.5
329.287	211.5
329.515	204.5
329.744	205.5
329.972	192.5
330.201	198.5
330.43	195.5
330.658	210.5
330.887	207.5
331.115	229.5
331.344	215.5
331.572	233.5
331.801	216.5
332.03	199.5
332.258	186.5
332.486	202.5
332.715	230.5
332.943	218.5
333.172	216.5
333.4	237.5
333.629	254.5
333.857	264.5
334.085	274.5
334.314	235.5
334.542	253.5
334.771	235.5
334.999	219.5
335.227	206.5
335.455	226.5
335.684	229.5
335.912	245.5
336.14	303.5
336.369	265.5
336.597	268.5
336.825	290.5
337.053	329.5
337.281	275.5
337.51	224.5
337.738	235.5
337.966	246.5
338.194	249.5
338.422	240.5
338.65	229.5
338.878	213.5
339.106	210.5
339.334	233.5
339.562	230.5
339.79	211.5
340.018	212.5
340.246	228.5
340.474	274.5
340.702	254.5
340.93	266.5
341.158	275.5
341.386	252.5
341.614	238.5
341.842	234.5
342.07	247.5
342.298	285.5
342.526	296.5
342.754	252.5
342.981	251.5
343.209	228.5
343.437	253.5
343.665	278.5
343.893	259.5
344.12	297.5
344.348	347.5
344.576	286.5
344.804	255.5
345.031	226.5
345.259	211.5
345.487	221.5
345.714	224.5
345.942	242.5
346.17	259.5
346.397	241.5
346.625	217.5
346.853	219.5
347.08	224.5
347.308	242.5
347.535	256.5
347.763	281.5
347.99	226.5
348.218	221.5
348.445	223.5
348.673	231.5
348.9	217.5
349.128	227.5
349.355	216.5
349.583	238.5
349.81	235.5
350.037	207.5
350.265	200.5
350.492	180.5
350.72	193.5
350.947	205.5
351.174	215.5
351.402	211.5
351.629	216.5
351.856	232.5
352.083	209.5
352.311	219.5
352.538	257.5
352.765	257.5
352.992	214.5
353.22	238.5
353.447	210.5
353.674	220.5
353.901	203.5
354.128	214.5
354.355	215.5
354.583	222.5
354.81	245.5
355.037	237.5
355.264	233.5
355.491	221.5
355.718	234.5
355.945	249.5
356.172	235.5
356.399	230.5
356.626	303.5
356.853	313.5
357.08	317.5
357.307	348.5
357.534	285.5
357.761	268.5
357.988	343.5
358.215	408.5
358.441	365.5
358.668	321.5
358.895	304.5
359.122	260.5
359.349	277.5
359.576	290.5
359.802	237.5
360.029	205.5
360.256	236.5
360.483	280.5
360.709	334.5
360.936	342.5
361.163	286.5
361.39	259.5
361.616	228.5
361.843	259.5
362.07	298.5
362.296	271.5
362.523	229.5
362.749	209.5
362.976	212.5
363.203	243.5
363.429	288.5
363.656	231.5
363.882	218.5
364.109	215.5
364.335	220.5
364.562	227.5
364.788	226.5
365.015	262.5
365.241	233.5
365.468	228.5
365.694	212.5
365.92	203.5
366.147	184.5
366.373	191.5
366.599	202.5
366.826	195.5
367.052	196.5
367.278	201.5
367.505	205.5
367.731	207.5
367.957	225.5
368.184	224.5
368.41	213.5
368.636	219.5
368.862	221.5
369.089	223.5
369.315	226.5
369.541	213.5
369.767	185.5
369.993	195.5
370.219	201.5
370.445	218.5
370.672	227.5
370.898	226.5
371.124	229.5
371.35	199.5
371.576	216.5
371.802	225.5
372.028	252.5
372.254	283.5
372.48	271.5
372.706	236.5
372.932	240.5
373.158	231.5
373.384	269.5
373.61	346.5
373.835	364.5
374.061	283.5
374.287	269.5
374.513	300.5
374.739	333.5
374.965	342.5
375.191	323.5
375.416	248.5
375.642	235.5
375.868	265.5
376.094	286.5
376.319	251.5
376.545	273.5
376.771	285.5
376.997	248.5
377.222	204.5
377.448	178.5
377.674	190.5
377.899	182.5
378.125	201.5
378.35	199.5
378.576	185.5
378.802	207.5
379.027	207.5
379.253	209.5
379.478	208.5
379.704	221.5
379.929	229.5
380.155	248.5
380.38	212.5
380.606	212.5
380.831	246.5
381.057	236.5
381.282	221.5
381.507	233.5
381.733	292.5
381.958	311.5
382.184	339.5
382.409	349.5
382.634	340.5
382.86	355.5
383.085	306.5
383.31	239.5
383.535	263.5
383.761	279.5
383.986	263.5
384.211	302.5
384.436	290.5
384.662	232.5
384.887	218.5
385.112	242.5
385.337	244.5
385.562	239.5
385.787	256.5
386.013	269.5
386.238	285.5
386.463	246.5
386.688	235.5
386.913	221.5
387.138	189.5
387.363	215.5
387.588	211.5
387.813	236.5
388.038	241.5
388.263	240.5
388.488	219.5
388.713	266.5
388.938	269.5
389.163	232.5
389.387	207.5
389.612	216.5
389.837	227.5
390.062	213.5
390.287	227.5
390.512	233.5
390.736	217.5
390.961	212.5
391.186	205.5
391.411	201.5
391.636	208.5
391.86	232.5
392.085	236.5
392.31	233.5
392.534	236.5
392.759	230.5
392.984	250.5
393.208	228.5
393.433	209.5
393.658	197.5
393.882	194.5
394.107	219.5
394.331	195.5
394.556	203.5
394.78	208.5
395.005	227.5
395.229	235.5
395.454	209.5
395.678	211.5
395.903	205.5
396.127	207.5
396.352	214.5
396.576	240.5
396.801	222.5
397.025	267.5
397.249	246.5
397.474	228.5
397.698	224.5
397.922	239.5
398.147	225.5
398.371	225.5
398.595	229.5
398.82	221.5
399.044	224.5
399.268	246.5
399.492	277.5
399.717	295.5
399.941	284.5
400.165	277.5
400.389	240.5
400.613	246.5
400.837	238.5
401.062	232.5
401.286	233.5
401.51	226.5
401.734	236.5
401.958	225.5
402.182	237.5
402.406	231.5
402.63	244.5
402.854	241.5
403.078	284.5
403.302	352.5
403.526	372.5
403.75	308.5
403.974	284.5
404.198	274.5
404.422	293.5
404.645	329.5
404.869	341.5
405.093	279.5
405.317	248.5
405.541	269.5
405.765	253.5
405.988	264.5
406.212	260.5
406.436	299.5
406.66	323.5
406.883	246.5
407.107	255.5
407.331	315.5
407.555	304.5
407.778	262.5
408.002	277.5
408.226	263.5
408.449	264.5
408.673	269.5
408.896	230.5
409.12	239.5
409.344	230.5
409.567	236.5
409.791	236.5
410.014	226.5
410.238	219.5
410.461	240.5
410.685	225.5
410.908	227.5
411.132	226.5
411.355	230.5
411.578	232.5
411.802	237.5
412.025	225.5
412.249	237.5
412.472	270.5
412.695	223.5
412.919	214.5
413.142	249.5
413.365	252.5
413.589	243.5
413.812	223.5
414.035	251.5
414.258	245.5
414.482	254.5
414.705	243.5
414.928	224.5
415.151	226.5
415.374	219.5
415.597	230.5
415.821	220.5
416.044	220.5
416.267	214.5
416.49	228.5
416.713	222.5
416.936	207.5
417.159	214.5
417.382	221.5
417.605	218.5
417.828	214.5
418.051	240.5
418.274	229.5
418.497	230.5
418.72	233.5
418.943	237.5
419.166	253.5
419.389	256.5
419.611	251.5
419.834	243.5
420.057	263.5
420.28	271.5
420.503	238.5
420.726	220.5
420.948	222.5
421.171	231.5
421.394	230.5
421.617	208.5
421.839	238.5
422.062	226.5
422.285	227.5
422.507	229.5
422.73	240.5
422.953	235.5
423.175	230.5
423.398	243.5
423.621	252.5
423.843	241.5
424.066	229.5
424.288	232.5
424.511	220.5
424.733	228.5
424.956	256.5
425.178	271.5
425.401	297.5
425.623	342.5
425.846	292.5
426.068	256.5
426.291	247.5
426.513	227.5
426.735	227.5
426.958	237.5
427.18	267.5
427.402	323.5
427.625	344.5
427.847	301.5
428.069	224.5
428.292	221.5
428.514	224.5
428.736	215.5
428.958	245.5
429.181	293.5
429.403	269.5
429.625	229.5
429.847	225.5
430.069	216.5
430.292	227.5
430.514	206.5
430.736	227.5
430.958	254.5
431.18	257.5
431.402	206.5
431.624	202.5
431.846	211.5
432.068	223.5
432.29	225.5
432.512	224.5
432.734	270.5
432.956	262.5
433.178	228.5
433.4	216.5
433.622	218.5
433.844	236.5
434.066	253.5
434.287	244.5
434.509	229.5
434.731	243.5
434.953	228.5
435.175	244.5
435.397	261.5
435.618	237.5
435.84	215.5
436.062	205.5
436.284	206.5
436.505	207.5
436.727	212.5
436.949	226.5
437.17	214.5
437.392	233.5
437.614	238.5
437.835	207.5
438.057	223.5
438.278	222.5
438.5	291.5
438.721	289.5
438.943	239.5
439.165	219.5
439.386	216.5
439.608	209.5
439.829	221.5
440.05	213.5
440.272	205.5
440.493	235.5
440.715	277.5
440.936	260.5
441.158	231.5
441.379	217.5
441.6	256.5
441.822	247.5
442.043	217.5
442.264	224.5
442.486	204.5
442.707	225.5
442.928	227.5
443.149	224.5
443.371	236.5
443.592	237.5
443.813	239.5
444.034	231.5
444.255	228.5
444.476	239.5
444.698	253.5
444.919	257.5
445.14	339.5
445.361	292.5
445.582	243.5
445.803	258.5
446.024	262.5
446.245	240.5
446.466	229.5
446.687	227.5
446.908	225.5
447.129	217.5
447.35	207.5
447.571	227.5
447.792	209.5
448.013	206.5
448.234	204.5
448.455	191.5
448.675	209.5
448.896	214.5
449.117	220.5
449.338	202.5
449.559	235.5
449.779	231.5
450	228.5
450.221	206.5
450.442	215.5
450.662	195.5
450.883	211.5
451.104	212.5
451.324	211.5
451.545	232.5
451.766	217.5
451.986	195.5
452.207	205.5
452.428	199.5
452.648	223.5
452.869	213.5
453.089	204.5
453.31	217.5
453.53	216.5
453.751	207.5
453.971	190.5
454.192	212.5
454.412	208.5
454.633	193.5
454.853	196.5
455.073	193.5
455.294	184.5
455.514	207.5
455.734	181.5
455.955	192.5
456.175	209.5
456.395	185.5
456.616	194.5
456.836	196.5
457.056	195.5
457.276	198.5
457.497	199.5
457.717	210.5
457.937	193.5
458.157	196.5
458.377	194.5
458.598	193.5
458.818	201.5
459.038	216.5
459.258	209.5
459.478	225.5
459.698	212.5
459.918	232.5
460.138	231.5
460.358	231.5
460.578	232.5
460.798	248.5
461.018	240.5
461.238	217.5
461.458	230.5
461.678	236.5
461.898	240.5
462.118	233.5
462.338	230.5
462.558	245.5
462.777	245.5
462.997	289.5
463.217	288.5
463.437	283.5
463.657	271.5
463.876	237.5
464.096	253.5
464.316	258.5
464.536	277.5
464.755	263.5
464.975	263.5
465.195	256.5
465.414	269.5
465.634	246.5
465.854	218.5
466.073	213.5
466.293	222.5
466.512	236.5
466.732	259.5
466.951	251.5
467.171	225.5
467.391	232.5
467.61	221.5
467.829	220.5
468.049	239.5
468.268	200.5
468.488	219.5
468.707	224.5
468.927	262.5
469.146	263.5
469.365	254.5
469.585	223.5
469.804	255.5
470.023	262.5
470.243	222.5
470.462	214.5
470.681	243.5
470.901	235.5
471.12	254.5
471.339	241.5
471.558	228.5
471.777	214.5
471.997	238.5
472.216	253.5
472.435	267.5
472.654	235.5
472.873	222.5
473.092	232.5
473.311	228.5
473.53	227.5
473.749	219.5
473.968	241.5
474.187	243.5
474.406	242.5
474.625	238.5
474.844	227.5
475.063	242.5
475.282	243.5
475.501	262.5
475.72	268.5
475.939	260.5
476.158	247.5
476.377	291.5
476.596	342.5
476.814	338.5
477.033	307.5
477.252	249.5
477.471	236.5
477.69	247.5
477.908	274.5
478.127	282.5
478.346	262.5
478.564	287.5
478.783	256.5
479.002	256.5
479.22	291.5
479.439	332.5
479.658	276.5
479.876	270.5
480.095	282.5
480.313	298.5
480.532	281.5
480.751	281.5
480.969	265.5
481.188	284.5
481.406	289.5
481.624	278.5
481.843	248.5
482.061	250.5
482.28	290.5
482.498	332.5
482.717	329.5
482.935	265.5
483.153	259.5
483.372	240.5
483.59	255.5
483.808	252.5
484.027	257.5
484.245	231.5
484.463	229.5
484.681	263.5
484.9	263.5
485.118	277.5
485.336	257.5
485.554	239.5
485.772	260.5
485.99	276.5
486.209	286.5
486.427	286.5
486.645	270.5
486.863	287.5
487.081	281.5
487.299	303.5
487.517	293.5
487.735	265.5
487.953	268.5
488.171	279.5
488.389	257.5
488.607	262.5
488.825	279.5
489.043	283.5
489.261	319.5
489.479	324.5
489.696	296.5
489.914	273.5
490.132	242.5
490.35	272.5
490.568	261.5
490.786	263.5
491.003	263.5
491.221	261.5
491.439	250.5
491.657	262.5
491.874	274.5
492.092	316.5
492.31	352.5
492.527	342.5
492.745	311.5
492.963	267.5
493.18	286.5
493.398	265.5
493.615	283.5
493.833	283.5
494.05	278.5
494.268	265.5
494.485	284.5
494.703	269.5
494.92	274.5
495.138	258.5
495.355	274.5
495.573	285.5
495.79	280.5
496.008	347.5
496.225	331.5
496.442	283.5
496.66	296.5
496.877	284.5
497.094	295.5
497.312	292.5
497.529	307.5
497.746	287.5
497.963	307.5
498.181	310.5
498.398	351.5
498.615	363.5
498.832	379.5
499.049	386.5
499.267	371.5
499.484	378.5
499.701	384.5
499.918	421.5
500.135	486.5
500.352	513.5
500.569	523.5
500.786	522.5
501.003	504.5
501.22	465.5
501.437	432.5
501.654	372.5
501.871	379.5
502.088	378.5
502.305	343.5
502.522	336.5
502.739	355.5
502.956	295.5
503.172	310.5
503.389	309.5
503.606	280.5
503.823	297.5
504.04	319.5
504.256	300.5
504.473	299.5
504.69	312.5
504.907	311.5
505.123	292.5
505.34	303.5
505.557	331.5
505.773	290.5
505.99	278.5
506.207	297.5
506.423	272.5
506.64	279.5
506.856	283.5
507.073	296.5
507.289	294.5
507.506	282.5
507.722	315.5
507.939	313.5
508.155	327.5
508.372	280.5
508.588	286.5
508.805	286.5
509.021	265.5
509.238	269.5
509.454	259.5
509.67	284.5
509.887	270.5
510.103	286.5
510.319	299.5
510.536	273.5
510.752	243.5
510.968	251.5
511.184	231.5
511.401	253.5
511.617	250.5
511.833	249.5
512.049	239.5
512.265	254.5
512.481	264.5
512.698	283.5
512.914	327.5
513.13	281.5
513.346	258.5
513.562	273.5
513.778	274.5
513.994	259.5
514.21	271.5
514.426	246.5
514.642	256.5
514.858	262.5
515.074	272.5
515.29	286.5
515.506	307.5
515.721	320.5
515.937	273.5
516.153	243.5
516.369	288.5
516.585	275.5
516.801	309.5
517.016	334.5
517.232	330.5
517.448	334.5
517.664	322.5
517.879	302.5
518.095	297.5
518.311	311.5
518.527	312.5
518.742	308.5
518.958	331.5
519.173	307.5
519.389	297.5
519.605	313.5
519.82	315.5
520.036	360.5
520.251	354.5
520.467	339.5
