Data from NickelSpatula_HRD10591_16-36-37-126.txt Node
Date: Mon Jul 22 16:36:37 EDT 2019
User: cochatt
Spectrometer: HR+D1059
Trigger mode: 1
Integration Time (sec): 1.000000E-1
Scans to average: 1
Electric dark correction enabled: true
Nonlinearity correction enabled: false
Boxcar width: 0
XAxis mode: Wavelengths
Number of Pixels in Spectrum: 2048
>>>>>Begin Spectral Data<<<<<
223.165	-7
223.4	-7
223.635	-7
223.869	-24
224.104	-19
224.338	-16
224.573	-11
224.808	-1
225.042	-2
225.277	-17
225.511	8
225.746	0
225.98	7
226.215	21
226.449	5
226.683	11
226.918	19
227.152	26
227.387	44
227.621	52
227.856	50
228.09	60
228.324	57
228.559	60
228.793	59
229.027	61
229.262	56
229.496	56
229.73	68
229.964	81
230.199	79
230.433	89
230.667	87
230.901	80
231.136	84
231.37	93
231.604	81
231.838	80
232.072	86
232.306	81
232.541	87
232.775	89
233.009	83
233.243	90
233.477	91
233.711	100
233.945	92
234.179	95
234.413	100
234.647	97
234.881	86
235.115	90
235.349	90
235.583	97
235.817	83
236.051	109
236.285	98
236.519	100
236.753	90
236.987	96
237.221	97
237.455	86
237.689	92
237.922	85
238.156	83
238.39	89
238.624	97
238.858	97
239.091	104
239.325	90
239.559	100
239.793	112
240.027	103
240.26	104
240.494	96
240.728	92
240.961	103
241.195	101
241.429	106
241.662	88
241.896	104
242.13	84
242.363	106
242.597	87
242.83	105
243.064	107
243.298	100
243.531	105
243.765	115
243.998	111
244.232	105
244.465	113
244.699	109
244.932	100
245.166	102
245.399	89
245.633	90
245.866	97
246.099	92
246.333	113
246.566	106
246.8	105
247.033	111
247.266	95
247.5	112
247.733	104
247.966	96
248.2	103
248.433	99
248.666	103
248.899	101
249.133	107
249.366	113
249.599	106
249.832	110
250.066	99
250.299	116
250.532	110
250.765	109
250.998	101
251.231	105
251.465	121
251.698	114
251.931	111
252.164	114
252.397	119
252.63	113
252.863	114
253.096	114
253.329	123
253.562	111
253.795	135
254.028	136
254.261	140
254.494	123
254.727	136
254.96	134
255.193	118
255.426	112
255.659	116
255.892	117
256.124	113
256.357	114
256.59	121
256.823	114
257.056	120
257.289	124
257.521	134
257.754	126
257.987	118
258.22	108
258.452	132
258.685	141
258.918	139
259.151	128
259.383	122
259.616	138
259.849	132
260.081	142
260.314	162
260.547	138
260.779	139
261.012	153
261.244	153
261.477	137
261.71	146
261.942	119
262.175	124
262.407	131
262.64	133
262.872	144
263.105	144
263.337	152
263.57	139
263.802	121
264.035	105
264.267	114
264.499	113
264.732	87
264.964	88
265.197	115
265.429	106
265.661	117
265.894	124
266.126	103
266.358	107
266.591	130
266.823	134
267.055	135
267.287	136
267.52	136
267.752	139
267.984	139
268.216	148
268.448	122
268.681	126
268.913	121
269.145	128
269.377	138
269.609	130
269.841	140
270.073	144
270.306	130
270.538	138
270.77	135
271.002	138
271.234	150
271.466	150
271.698	133
271.93	136
272.162	126
272.394	134
272.626	128
272.858	113
273.09	132
273.322	130
273.553	119
273.785	126
274.017	132
274.249	187
274.481	163
274.713	162
274.945	197
275.176	197
275.408	197
275.64	181
275.872	183
276.104	167
276.335	145
276.567	167
276.799	154
277.031	151
277.262	136
277.494	127
277.726	123
277.957	129
278.189	140
278.421	139
278.652	127
278.884	127
279.115	110
279.347	118
279.579	112
279.81	127
280.042	134
280.273	123
280.505	120
280.736	123
280.968	130
281.199	138
281.431	127
281.662	135
281.894	134
282.125	129
282.356	132
282.588	133
282.819	126
283.051	131
283.282	131
283.513	169
283.745	171
283.976	154
284.207	146
284.439	142
284.67	162
284.901	151
285.132	136
285.364	160
285.595	138
285.826	153
286.057	156
286.288	149
286.52	163
286.751	161
286.982	153
287.213	141
287.444	138
287.675	142
287.906	150
288.138	142
288.369	133
288.6	133
288.831	146
289.062	151
289.293	147
289.524	147
289.755	127
289.986	142
290.217	145
290.448	128
290.679	108
290.91	119
291.141	114
291.371	118
291.602	117
291.833	111
292.064	116
292.295	144
292.526	150
292.757	154
292.987	137
293.218	130
293.449	135
293.68	150
293.91	139
294.141	145
294.372	140
294.603	138
294.833	137
295.064	149
295.295	154
295.525	123
295.756	123
295.987	123
296.217	113
296.448	114
296.679	112
296.909	112
297.14	129
297.37	121
297.601	134
297.831	128
298.062	138
298.292	122
298.523	124
298.753	144
298.984	127
299.214	118
299.445	121
299.675	126
299.905	112
300.136	113
300.366	113
300.597	114
300.827	108
301.057	117
301.288	103
301.518	109
301.748	99
301.979	124
302.209	133
302.439	128
302.669	112
302.9	124
303.13	112
303.36	110
303.59	101
303.82	104
304.051	124
304.281	126
304.511	128
304.741	122
304.971	140
305.201	127
305.431	110
305.661	122
305.891	112
306.121	109
306.352	119
306.582	118
306.812	106
307.042	109
307.272	99
307.502	107
307.731	114
307.961	104
308.191	104
308.421	100
308.651	130
308.881	116
309.111	99
309.341	112
309.571	101
309.8	114
310.03	107
310.26	99
310.49	110
310.72	113
310.949	117
311.179	115
311.409	112
311.639	119
311.868	126
312.098	142
312.328	150
312.557	133
312.787	151
313.017	142
313.246	140
313.476	146
313.706	132
313.935	134
314.165	106
314.394	107
314.624	96
314.853	111
315.083	113
315.312	113
315.542	100
315.771	110
316.001	112
316.23	102
316.46	112
316.689	114
316.919	105
317.148	90
317.377	111
317.607	106
317.836	128
318.065	130
318.295	118
318.524	114
318.753	121
318.983	105
319.212	105
319.441	103
319.67	103
319.9	125
320.129	127
320.358	123
320.587	116
320.816	124
321.046	123
321.275	112
321.504	119
321.733	126
321.962	116
322.191	118
322.42	106
322.649	122
322.878	120
323.108	140
323.337	113
323.566	119
323.795	126
324.024	104
324.253	108
324.482	97
324.71	104
324.939	116
325.168	119
325.397	118
325.626	120
325.855	131
326.084	85
326.313	117
326.542	95
326.77	105
326.999	106
327.228	114
327.457	112
327.686	118
327.914	111
328.143	99
328.372	92
328.6	110
328.829	107
329.058	118
329.287	114
329.515	106
329.744	105
329.972	110
330.201	100
330.43	111
330.658	114
330.887	117
331.115	112
331.344	112
331.572	106
331.801	99
332.03	94
332.258	98
332.486	111
332.715	102
332.943	89
333.172	110
333.4	111
333.629	128
333.857	108
334.085	106
334.314	104
334.542	118
334.771	107
334.999	90
335.227	111
335.455	124
335.684	112
335.912	131
336.14	126
336.369	128
336.597	117
336.825	121
337.053	119
337.281	102
337.51	111
337.738	110
337.966	105
338.194	110
338.422	117
338.65	105
338.878	117
339.106	105
339.334	121
339.562	106
339.79	102
340.018	110
340.246	112
340.474	117
340.702	117
340.93	129
341.158	130
341.386	107
341.614	122
341.842	105
342.07	114
342.298	124
342.526	115
342.754	111
342.981	107
343.209	116
343.437	113
343.665	108
343.893	130
344.12	129
344.348	137
344.576	115
344.804	120
345.031	121
345.259	98
345.487	109
345.714	122
345.942	117
346.17	118
346.397	137
346.625	102
346.853	102
347.08	105
347.308	119
347.535	112
347.763	121
347.99	116
348.218	113
348.445	118
348.673	106
348.9	104
349.128	108
349.355	108
349.583	117
349.81	106
350.037	111
350.265	98
350.492	98
350.72	103
350.947	99
351.174	106
351.402	106
351.629	106
351.856	109
352.083	91
352.311	95
352.538	105
352.765	100
352.992	101
353.22	135
353.447	102
353.674	104
353.901	105
354.128	105
354.355	112
354.583	107
354.81	116
355.037	121
355.264	111
355.491	116
355.718	127
355.945	118
356.172	106
356.399	97
356.626	113
356.853	135
357.08	143
357.307	118
357.534	120
357.761	121
357.988	138
358.215	148
358.441	157
358.668	149
358.895	114
359.122	128
359.349	144
359.576	138
359.802	101
360.029	98
360.256	113
360.483	114
360.709	125
360.936	137
361.163	139
361.39	125
361.616	106
361.843	110
362.07	118
362.296	120
362.523	94
362.749	105
362.976	94
363.203	114
363.429	112
363.656	115
363.882	108
364.109	120
364.335	118
364.562	82
364.788	122
365.015	102
365.241	117
365.468	109
365.694	88
365.92	89
366.147	92
366.373	111
366.599	106
366.826	114
367.052	97
367.278	102
367.505	87
367.731	118
367.957	106
368.184	116
368.41	120
368.636	103
368.862	110
369.089	103
369.315	111
369.541	116
369.767	109
369.993	121
370.219	94
370.445	116
370.672	112
370.898	115
371.124	123
371.35	119
371.576	118
371.802	120
372.028	116
372.254	120
372.48	103
372.706	115
372.932	107
373.158	113
373.384	118
373.61	140
373.835	141
374.061	123
374.287	100
374.513	128
374.739	130
374.965	138
375.191	120
375.416	110
375.642	113
375.868	128
376.094	127
376.319	118
376.545	111
376.771	130
376.997	119
377.222	94
377.448	96
377.674	107
377.899	108
378.125	99
378.35	102
378.576	103
378.802	106
379.027	120
379.253	103
379.478	98
379.704	113
379.929	114
380.155	100
380.38	101
380.606	113
380.831	122
381.057	122
381.282	115
381.507	118
381.733	129
381.958	119
382.184	134
382.409	126
382.634	130
382.86	151
383.085	112
383.31	104
383.535	122
383.761	128
383.986	130
384.211	136
384.436	116
384.662	99
384.887	120
385.112	123
385.337	121
385.562	113
385.787	116
386.013	129
386.238	110
386.463	104
386.688	107
386.913	113
387.138	93
387.363	110
387.588	110
387.813	116
388.038	114
388.263	113
388.488	112
388.713	120
388.938	123
389.163	112
389.387	102
389.612	126
389.837	117
390.062	111
390.287	131
390.512	100
390.736	107
390.961	111
391.186	125
391.411	103
391.636	116
391.86	103
392.085	114
392.31	111
392.534	109
392.759	122
392.984	125
393.208	126
393.433	124
393.658	123
393.882	128
394.107	105
394.331	110
394.556	100
394.78	118
395.005	94
395.229	103
395.454	102
395.678	124
395.903	121
396.127	114
396.352	131
396.576	123
396.801	114
397.025	138
397.249	139
397.474	118
397.698	123
397.922	122
398.147	105
398.371	110
398.595	101
398.82	104
399.044	119
399.268	114
399.492	112
399.717	114
399.941	126
400.165	118
400.389	107
400.613	106
400.837	106
401.062	144
401.286	104
401.51	90
401.734	116
401.958	124
402.182	99
402.406	108
402.63	97
402.854	121
403.078	118
403.302	115
403.526	126
403.75	136
403.974	116
404.198	102
404.422	122
404.645	126
404.869	118
405.093	132
405.317	118
405.541	108
405.765	102
405.988	113
406.212	108
406.436	137
406.66	138
406.883	112
407.107	127
407.331	135
407.555	123
407.778	102
408.002	113
408.226	109
408.449	108
408.673	116
408.896	109
409.12	114
409.344	121
409.567	113
409.791	103
410.014	114
410.238	102
410.461	103
410.685	113
410.908	114
411.132	123
411.355	113
411.578	124
411.802	131
412.025	101
412.249	107
412.472	106
412.695	120
412.919	100
413.142	126
413.365	105
413.589	106
413.812	106
414.035	111
414.258	116
414.482	124
414.705	115
414.928	124
415.151	115
415.374	123
415.597	118
415.821	104
416.044	112
416.267	108
416.49	112
416.713	108
416.936	108
417.159	115
417.382	118
417.605	112
417.828	125
418.051	112
418.274	125
418.497	111
418.72	110
418.943	123
419.166	116
419.389	126
419.611	122
419.834	120
420.057	126
420.28	127
420.503	110
420.726	104
420.948	120
421.171	106
421.394	128
421.617	113
421.839	116
422.062	104
422.285	111
422.507	121
422.73	119
422.953	116
423.175	122
423.398	122
423.621	127
423.843	122
424.066	118
424.288	115
424.511	104
424.733	102
424.956	123
425.178	114
425.401	131
425.623	121
425.846	120
426.068	118
426.291	108
426.513	108
426.735	108
426.958	115
427.18	128
427.402	146
427.625	129
427.847	119
428.069	119
428.292	112
428.514	123
428.736	116
428.958	115
429.181	135
429.403	116
429.625	113
429.847	116
430.069	114
430.292	100
430.514	124
430.736	114
430.958	128
431.18	103
431.402	104
431.624	110
431.846	102
432.068	106
432.29	107
432.512	116
432.734	118
432.956	119
433.178	118
433.4	127
433.622	110
433.844	110
434.066	122
434.287	110
434.509	99
434.731	120
434.953	98
435.175	116
435.397	126
435.618	122
435.84	116
436.062	102
436.284	100
436.505	90
436.727	108
436.949	106
437.17	104
437.392	111
437.614	105
437.835	114
438.057	94
438.278	116
438.5	126
438.721	130
438.943	119
439.165	97
439.386	102
439.608	123
439.829	108
440.05	123
440.272	103
440.493	114
440.715	124
440.936	123
441.158	129
441.379	110
441.6	112
441.822	105
442.043	119
442.264	116
442.486	122
442.707	129
442.928	102
443.149	121
443.371	112
443.592	107
443.813	110
444.034	118
444.255	127
444.476	120
444.698	118
444.919	104
445.14	219
445.361	170
445.582	128
445.803	114
446.024	124
446.245	108
446.466	115
446.687	126
446.908	104
447.129	104
447.35	100
447.571	122
447.792	104
448.013	117
448.234	114
448.455	107
448.675	118
448.896	106
449.117	91
449.338	107
449.559	130
449.779	123
450	124
450.221	121
450.442	110
450.662	105
450.883	118
451.104	118
451.324	103
451.545	114
451.766	99
451.986	110
452.207	110
452.428	118
452.648	104
452.869	118
453.089	100
453.31	103
453.53	103
453.751	97
453.971	104
454.192	98
454.412	104
454.633	107
454.853	110
455.073	102
455.294	99
455.514	113
455.734	114
455.955	104
456.175	110
456.395	92
456.616	105
456.836	104
457.056	104
457.276	87
457.497	113
457.717	102
457.937	101
458.157	104
458.377	117
458.598	108
458.818	108
459.038	98
459.258	87
459.478	100
459.698	97
459.918	116
460.138	128
460.358	120
460.578	116
460.798	123
461.018	115
461.238	119
461.458	124
461.678	120
461.898	111
462.118	117
462.338	115
462.558	116
462.777	126
462.997	114
463.217	111
463.437	121
463.657	104
463.876	121
464.096	130
464.316	113
464.536	100
464.755	121
464.975	134
465.195	111
465.414	120
465.634	125
465.854	120
466.073	100
466.293	116
466.512	117
466.732	119
466.951	120
467.171	120
467.391	114
467.61	110
467.829	98
468.049	106
468.268	113
468.488	112
468.707	118
468.927	119
469.146	118
469.365	113
469.585	115
469.804	108
470.023	118
470.243	113
470.462	123
470.681	125
470.901	107
471.12	122
471.339	116
471.558	100
471.777	107
471.997	106
472.216	116
472.435	114
472.654	95
472.873	124
473.092	118
473.311	119
473.53	114
473.749	118
473.968	123
474.187	123
474.406	103
474.625	113
474.844	113
475.063	113
475.282	102
475.501	114
475.72	131
475.939	126
476.158	130
476.377	124
476.596	140
476.814	151
477.033	123
477.252	119
477.471	118
477.69	122
477.908	130
478.127	137
478.346	121
478.564	129
478.783	116
479.002	116
479.22	134
479.439	136
479.658	137
479.876	133
480.095	136
480.313	130
480.532	132
480.751	135
480.969	125
481.188	131
481.406	146
481.624	132
481.843	116
482.061	118
482.28	135
482.498	149
482.717	137
482.935	139
483.153	131
483.372	127
483.59	127
483.808	120
484.027	118
484.245	119
484.463	104
484.681	126
484.9	112
485.118	130
485.336	129
485.554	130
485.772	123
485.99	125
486.209	129
486.427	128
486.645	118
486.863	132
487.081	137
487.299	127
487.517	136
487.735	128
487.953	129
488.171	141
488.389	126
488.607	135
488.825	127
489.043	126
489.261	148
489.479	154
489.696	131
489.914	130
490.132	137
490.35	134
490.568	130
490.786	130
491.003	120
491.221	134
491.439	133
491.657	132
491.874	117
492.092	147
492.31	137
492.527	151
492.745	148
492.963	124
493.18	136
493.398	142
493.615	131
493.833	125
494.05	141
494.268	119
494.485	119
494.703	130
494.92	114
495.138	132
495.355	126
495.573	131
495.79	139
496.008	158
496.225	132
496.442	128
496.66	126
496.877	136
497.094	139
497.312	124
497.529	136
497.746	138
497.963	149
498.181	139
498.398	140
498.615	141
498.832	148
499.049	130
499.267	148
499.484	148
499.701	151
499.918	153
500.135	158
500.352	159
500.569	147
500.786	174
501.003	163
501.22	156
501.437	134
501.654	151
501.871	147
502.088	152
502.305	137
502.522	155
502.739	134
502.956	136
503.172	136
503.389	133
503.606	137
503.823	139
504.04	129
504.256	125
504.473	122
504.69	118
504.907	149
505.123	132
505.34	150
505.557	127
505.773	130
505.99	114
506.207	128
506.423	128
506.64	124
506.856	145
507.073	140
507.289	126
507.506	150
507.722	144
507.939	138
508.155	128
508.372	131
508.588	124
508.805	139
509.021	118
509.238	122
509.454	111
509.67	132
509.887	119
510.103	138
510.319	144
510.536	130
510.752	125
510.968	130
511.184	120
511.401	130
511.617	115
511.833	126
512.049	118
512.265	118
512.481	132
512.698	146
512.914	126
513.13	104
513.346	136
513.562	116
513.778	118
513.994	126
514.21	117
514.426	130
514.642	129
514.858	118
515.074	122
515.29	132
515.506	151
515.721	146
515.937	144
516.153	144
516.369	132
516.585	132
516.801	145
517.016	139
517.232	142
517.448	140
517.664	120
517.879	145
518.095	139
518.311	141
518.527	132
518.742	149
518.958	146
519.173	123
519.389	131
519.605	139
519.82	151
520.036	167
520.251	158
520.467	161
520.682	200
520.898	222
521.113	191
521.329	148
521.544	134
521.76	140
521.975	150
522.19	148
522.406	127
522.621	154
522.836	153
523.052	140
523.267	134
523.482	133
523.698	145
523.913	127
524.128	135
524.343	130
524.559	122
524.774	123
524.989	113
525.204	118
525.419	145
525.634	140
525.849	134
526.064	150
526.28	128
526.495	144
526.71	145
526.925	141
527.14	139
527.355	142
527.57	130
527.785	141
527.999	133
528.214	146
528.429	116
528.644	129
528.859	115
529.074	128
529.289	121
529.503	122
529.718	124
529.933	138
530.148	152
530.363	131
530.577	110
530.792	128
531.007	131
531.221	142
531.436	127
531.651	130
531.865	135
532.08	130
532.295	122
532.509	122
532.724	135
532.938	139
533.153	144
533.367	129
533.582	134
533.796	136
534.011	130
534.225	125
534.44	120
534.654	140
534.868	142
535.083	121
535.297	125
535.511	128
535.726	115
535.94	119
536.154	137
536.369	131
536.583	119
536.797	109
537.011	116
537.225	133
537.44	127
537.654	141
537.868	118
538.082	117
538.296	133
538.51	120
538.724	118
538.938	123
539.153	117
539.367	118
539.581	119
539.795	119
540.009	122
540.222	132
540.436	132
540.65	135
540.864	127
541.078	143
541.292	129
541.506	144
541.72	120
541.934	108
542.147	115
542.361	129
542.575	117
542.789	141
543.002	123
543.216	140
543.43	131
543.644	129
543.857	116
544.071	106
544.285	132
544.498	124
544.712	120
544.925	114
545.139	132
545.352	120
545.566	119
545.779	102
545.993	121
546.206	118
546.42	110
546.633	99
546.847	113
547.06	102
547.274	89
547.487	116
547.7	110
547.914	112
548.127	138
548.34	138
548.554	128
548.767	126
548.98	118
549.193	121
549.407	120
549.62	120
549.833	121
550.046	132
550.259	128
550.473	123
550.686	122
550.899	125
551.112	122
551.325	121
551.538	123
551.751	117
551.964	113
552.177	126
552.39	120
552.603	132
552.816	137
553.029	122
553.242	147
553.455	116
553.667	136
553.88	125
554.093	128
554.306	119
554.519	112
554.732	115
554.944	118
555.157	114
555.37	107
555.583	118
555.795	120
556.008	116
556.221	106
556.433	116
556.646	115
556.859	110
557.071	106
557.284	103
557.496	119
557.709	128
557.921	103
558.134	106
558.346	132
558.559	113
558.771	111
558.984	111
559.196	106
559.409	116
559.621	114
559.833	105
560.046	98
560.258	105
560.47	110
560.683	119
560.895	115
561.107	105
561.32	108
561.532	101
561.744	117
561.956	122
562.168	111
562.381	112
562.593	101
562.805	99
563.017	111
563.229	118
563.441	111
563.653	111
563.865	104
564.077	118
564.289	107
564.501	112
564.713	119
564.925	112
565.137	130
565.349	111
565.561	102
565.773	112
565.985	100
566.197	116
