Data from NickelSpatula.Lamp.E10.P2_HRD10591_11-57-30-532.txt Node
Date: Tue Jul 23 11:57:30 EDT 2019
User: cochatt
Spectrometer: HR+D1059
Trigger mode: 1
Integration Time (sec): 1.000000E-1
Scans to average: 1
Electric dark correction enabled: true
Nonlinearity correction enabled: false
Boxcar width: 0
XAxis mode: Wavelengths
Number of Pixels in Spectrum: 2048
>>>>>Begin Spectral Data<<<<<
223.165	-7.06
223.4	-7.06
223.635	-7.06
223.869	-18.06
224.104	-20.06
224.338	-13.06
224.573	5.94
224.808	-14.06
225.042	-14.06
225.277	-22.06
225.511	-9.06
225.746	-2.06
225.98	10.94
226.215	10.94
226.449	4.94
226.683	25.94
226.918	28.94
227.152	31.94
227.387	31.94
227.621	45.94
227.856	43.94
228.09	33.94
228.324	40.94
228.559	44.94
228.793	81.94
229.027	133.94
229.262	151.94
229.496	160.94
229.73	172.94
229.964	190.94
230.199	205.94
230.433	228.94
230.667	193.94
230.901	202.94
231.136	191.94
231.37	215.94
231.604	221.94
231.838	229.94
232.072	241.94
232.306	231.94
232.541	219.94
232.775	237.94
233.009	248.94
233.243	282.94
233.477	303.94
233.711	352.94
233.945	320.94
234.179	325.94
234.413	333.94
234.647	369.94
234.881	431.94
235.115	420.94
235.349	385.94
235.583	336.94
235.817	339.94
236.051	365.94
236.285	396.94
236.519	456.94
236.753	437.94
236.987	410.94
237.221	398.94
237.455	392.94
237.689	415.94
237.922	447.94
238.156	452.94
238.39	538.94
238.624	666.94
238.858	575.94
239.091	471.94
239.325	482.94
239.559	486.94
239.793	543.94
240.027	638.94
240.26	565.94
240.494	575.94
240.728	583.94
240.961	682.94
241.195	630.94
241.429	604.94
241.662	609.94
241.896	503.94
242.13	461.94
242.363	428.94
242.597	454.94
242.83	512.94
243.064	518.94
243.298	584.94
243.531	602.94
243.765	617.94
243.998	620.94
244.232	583.94
244.465	591.94
244.699	576.94
244.932	655.94
245.166	624.94
245.399	533.94
245.633	545.94
245.866	549.94
246.099	593.94
246.333	705.94
246.566	725.94
246.8	738.94
247.033	689.94
247.266	671.94
247.5	657.94
247.733	652.94
247.966	646.94
248.2	656.94
248.433	732.94
248.666	801.94
248.899	813.94
249.133	823.94
249.366	966.94
249.599	1005.94
249.832	911.94
250.066	796.94
250.299	792.94
250.532	794.94
250.765	788.94
250.998	719.94
251.231	701.94
251.465	793.94
251.698	768.94
251.931	790.94
252.164	802.94
252.397	887.94
252.63	1026.94
252.863	1099.94
253.096	1150.94
253.329	1112.94
253.562	1053.94
253.795	1168.94
254.028	1306.94
254.261	1392.94
254.494	1206.94
254.727	1095.94
254.96	1076.94
255.193	1136.94
255.426	1103.94
255.659	848.94
255.892	781.94
256.124	829.94
256.357	993.94
256.59	1180.94
256.823	1140.94
257.056	928.94
257.289	894.94
257.521	912.94
257.754	1113.94
257.987	1256.94
258.22	1070.94
258.452	984.94
258.685	1133.94
258.918	1224.94
259.151	1204.94
259.383	1272.94
259.616	1468.94
259.849	1501.94
260.081	1668.94
260.314	1821.94
260.547	1435.94
260.779	1424.94
261.012	1701.94
261.244	1576.94
261.477	1574.94
261.71	1462.94
261.942	1240.94
262.175	1252.94
262.407	1173.94
262.64	1267.94
262.872	1474.94
263.105	1594.94
263.337	1647.94
263.57	1508.94
263.802	998.94
264.035	896.94
264.267	854.94
264.499	730.94
264.732	711.94
264.964	686.94
265.197	692.94
265.429	721.94
265.661	809.94
265.894	810.94
266.126	890.94
266.358	1032.94
266.591	1234.94
266.823	1464.94
267.055	1349.94
267.287	1227.94
267.52	1228.94
267.752	1253.94
267.984	1428.94
268.216	1328.94
268.448	1109.94
268.681	1090.94
268.913	1172.94
269.145	1194.94
269.377	1249.94
269.609	1277.94
269.841	1181.94
270.073	1273.94
270.306	1331.94
270.538	1317.94
270.77	1349.94
271.002	1362.94
271.234	1424.94
271.466	1456.94
271.698	1392.94
271.93	1396.94
272.162	1354.94
272.394	1354.94
272.626	1367.94
272.858	1379.94
273.09	1437.94
273.322	1263.94
273.553	1216.94
273.785	1415.94
274.017	1901.94
274.249	2352.94
274.481	2406.94
274.713	2602.94
274.945	3025.94
275.176	3140.94
275.408	2749.94
275.64	2468.94
275.872	2493.94
276.104	2171.94
276.335	1893.94
276.567	1857.94
276.799	1896.94
277.031	1988.94
277.262	1541.94
277.494	1197.94
277.726	1166.94
277.957	1276.94
278.189	1411.94
278.421	1419.94
278.652	1365.94
278.884	1286.94
279.115	1226.94
279.347	1176.94
279.579	1161.94
279.81	1163.94
280.042	1200.94
280.273	1196.94
280.505	1101.94
280.736	981.94
280.968	973.94
281.199	1069.94
281.431	1197.94
281.662	1205.94
281.894	1151.94
282.125	1224.94
282.356	1319.94
282.588	1366.94
282.819	1214.94
283.051	1326.94
283.282	1587.94
283.513	1874.94
283.745	2145.94
283.976	2089.94
284.207	1971.94
284.439	2009.94
284.67	1929.94
284.901	1731.94
285.132	1890.94
285.364	1971.94
285.595	1780.94
285.826	1911.94
286.057	1948.94
286.288	1899.94
286.52	1963.94
286.751	2045.94
286.982	1972.94
287.213	1766.94
287.444	1706.94
287.675	1816.94
287.906	1774.94
288.138	1528.94
288.369	1343.94
288.6	1284.94
288.831	1296.94
289.062	1506.94
289.293	1655.94
289.524	1584.94
289.755	1542.94
289.986	1576.94
290.217	1382.94
290.448	1092.94
290.679	946.94
290.91	907.94
291.141	868.94
291.371	940.94
291.602	945.94
291.833	966.94
292.064	1037.94
292.295	1156.94
292.526	1336.94
292.757	1396.94
292.987	1486.94
293.218	1540.94
293.449	1556.94
293.68	1629.94
293.91	1514.94
294.141	1546.94
294.372	1477.94
294.603	1370.94
294.833	1520.94
295.064	1774.94
295.295	1692.94
295.525	1282.94
295.756	1095.94
295.987	985.94
296.217	977.94
296.448	981.94
296.679	1060.94
296.909	1133.94
297.14	1225.94
297.37	1344.94
297.601	1299.94
297.831	1123.94
298.062	1201.94
298.292	1365.94
298.523	1518.94
298.753	1687.94
298.984	1534.94
299.214	1230.94
299.445	1018.94
299.675	980.94
299.905	972.94
300.136	1042.94
300.366	1100.94
300.597	1085.94
300.827	974.94
301.057	921.94
301.288	966.94
301.518	1028.94
301.748	1134.94
301.979	1250.94
302.209	1368.94
302.439	1353.94
302.669	1163.94
302.9	1164.94
303.13	1098.94
303.36	1048.94
303.59	996.94
303.82	1059.94
304.051	1171.94
304.281	1228.94
304.511	1195.94
304.741	1083.94
304.971	1152.94
305.201	1233.94
305.431	1135.94
305.661	1006.94
305.891	1015.94
306.121	1040.94
306.352	903.94
306.582	851.94
306.812	806.94
307.042	816.94
307.272	779.94
307.502	778.94
307.731	855.94
307.961	888.94
308.191	841.94
308.421	764.94
308.651	777.94
308.881	738.94
309.111	756.94
309.341	787.94
309.571	885.94
309.8	884.94
310.03	892.94
310.26	912.94
310.49	914.94
310.72	833.94
310.949	833.94
311.179	822.94
311.409	862.94
311.639	1046.94
311.868	1335.94
312.098	1711.94
312.328	1868.94
312.557	1798.94
312.787	1779.94
313.017	1577.94
313.246	1728.94
313.476	1879.94
313.706	1527.94
313.935	1253.94
314.165	1028.94
314.394	924.94
314.624	948.94
314.853	989.94
315.083	1014.94
315.312	1014.94
315.542	976.94
315.771	914.94
316.001	832.94
316.23	813.94
316.46	804.94
316.689	838.94
316.919	859.94
317.148	861.94
317.377	827.94
317.607	855.94
317.836	918.94
318.065	1054.94
318.295	1156.94
318.524	1094.94
318.753	953.94
318.983	910.94
319.212	877.94
319.441	967.94
319.67	1074.94
319.9	1140.94
320.129	1068.94
320.358	924.94
320.587	896.94
320.816	957.94
321.046	1123.94
321.275	1209.94
321.504	1225.94
321.733	1194.94
321.962	1145.94
322.191	1102.94
322.42	1011.94
322.649	1026.94
322.878	1124.94
323.108	1144.94
323.337	1048.94
323.566	1030.94
323.795	1018.94
324.024	963.94
324.253	944.94
324.482	894.94
324.71	1009.94
324.939	1139.94
325.168	1039.94
325.397	868.94
325.626	876.94
325.855	854.94
326.084	885.94
326.313	835.94
326.542	823.94
326.77	838.94
326.999	848.94
327.228	904.94
327.457	987.94
327.686	952.94
327.914	842.94
328.143	784.94
328.372	790.94
328.6	799.94
328.829	841.94
329.058	821.94
329.287	859.94
329.515	878.94
329.744	840.94
329.972	795.94
330.201	757.94
330.43	817.94
330.658	902.94
330.887	1016.94
331.115	971.94
331.344	977.94
331.572	910.94
331.801	868.94
332.03	836.94
332.258	854.94
332.486	924.94
332.715	931.94
332.943	895.94
333.172	884.94
333.4	907.94
333.629	986.94
333.857	1091.94
334.085	1094.94
334.314	1056.94
334.542	1010.94
334.771	934.94
334.999	892.94
335.227	895.94
335.455	898.94
335.684	988.94
335.912	1132.94
336.14	1251.94
336.369	1221.94
336.597	1198.94
336.825	1300.94
337.053	1446.94
337.281	1182.94
337.51	962.94
337.738	931.94
337.966	1032.94
338.194	1119.94
338.422	1040.94
338.65	916.94
338.878	850.94
339.106	885.94
339.334	982.94
339.562	1023.94
339.79	965.94
340.018	915.94
340.246	968.94
340.474	1103.94
340.702	1181.94
340.93	1216.94
341.158	1268.94
341.386	1060.94
341.614	1029.94
341.842	1041.94
342.07	1112.94
342.298	1258.94
342.526	1317.94
342.754	1161.94
342.981	1032.94
343.209	991.94
343.437	1097.94
343.665	1109.94
343.893	1118.94
344.12	1315.94
344.348	1458.94
344.576	1358.94
344.804	1128.94
345.031	978.94
345.259	916.94
345.487	926.94
345.714	983.94
345.942	1044.94
346.17	1105.94
346.397	1071.94
346.625	964.94
346.853	922.94
347.08	901.94
347.308	951.94
347.535	1060.94
347.763	1076.94
347.99	920.94
348.218	852.94
348.445	919.94
348.673	940.94
348.9	955.94
349.128	1005.94
349.355	1043.94
349.583	1007.94
349.81	962.94
350.037	892.94
350.265	806.94
350.492	757.94
350.72	736.94
350.947	813.94
351.174	841.94
351.402	888.94
351.629	942.94
351.856	896.94
352.083	827.94
352.311	909.94
352.538	1010.94
352.765	1059.94
352.992	975.94
353.22	937.94
353.447	948.94
353.674	905.94
353.901	894.94
354.128	920.94
354.355	954.94
354.583	941.94
354.81	918.94
355.037	942.94
355.264	933.94
355.491	1003.94
355.718	1055.94
355.945	1019.94
356.172	1028.94
356.399	1020.94
356.626	1226.94
356.853	1466.94
357.08	1564.94
357.307	1605.94
357.534	1264.94
357.761	1264.94
357.988	1600.94
358.215	1840.94
358.441	1726.94
358.668	1496.94
358.895	1382.94
359.122	1131.94
359.349	1126.94
359.576	1196.94
359.802	1002.94
360.029	891.94
360.256	974.94
360.483	1152.94
360.709	1442.94
360.936	1473.94
361.163	1367.94
361.39	1026.94
361.616	991.94
361.843	1115.94
362.07	1406.94
362.296	1246.94
362.523	1022.94
362.749	887.94
362.976	925.94
363.203	1134.94
363.429	1207.94
363.656	1006.94
363.882	926.94
364.109	928.94
364.335	934.94
364.562	904.94
364.788	1038.94
365.015	1224.94
365.241	1082.94
365.468	876.94
365.694	799.94
365.92	808.94
366.147	765.94
366.373	754.94
366.599	744.94
366.826	754.94
367.052	771.94
367.278	820.94
367.505	771.94
367.731	850.94
367.957	946.94
368.184	986.94
368.41	937.94
368.636	952.94
368.862	938.94
369.089	940.94
369.315	854.94
369.541	858.94
369.767	848.94
369.993	795.94
370.219	810.94
370.445	861.94
370.672	944.94
370.898	1004.94
371.124	1007.94
371.35	906.94
371.576	870.94
371.802	930.94
372.028	1068.94
372.254	1238.94
372.48	1032.94
372.706	965.94
372.932	1017.94
373.158	1056.94
373.384	1248.94
373.61	1633.94
373.835	1678.94
374.061	1236.94
374.287	1091.94
374.513	1256.94
374.739	1488.94
374.965	1544.94
375.191	1509.94
375.416	1081.94
375.642	930.94
375.868	1089.94
376.094	1256.94
376.319	1074.94
376.545	1190.94
376.771	1230.94
376.997	1074.94
377.222	799.94
377.448	726.94
377.674	742.94
377.899	725.94
378.125	700.94
378.35	720.94
378.576	726.94
378.802	794.94
379.027	868.94
379.253	836.94
379.478	862.94
379.704	954.94
379.929	991.94
380.155	986.94
380.38	886.94
380.606	928.94
380.831	1052.94
381.057	960.94
381.282	921.94
381.507	1081.94
381.733	1337.94
381.958	1381.94
382.184	1470.94
382.409	1533.94
382.634	1516.94
382.86	1606.94
383.085	1326.94
383.31	1052.94
383.535	1113.94
383.761	1113.94
383.986	1072.94
384.211	1322.94
384.436	1247.94
384.662	964.94
384.887	950.94
385.112	941.94
385.337	995.94
385.562	935.94
385.787	1017.94
386.013	1112.94
386.238	1152.94
386.463	926.94
386.688	928.94
386.913	896.94
387.138	853.94
387.363	910.94
387.588	956.94
387.813	974.94
388.038	1012.94
388.263	948.94
388.488	938.94
388.713	1029.94
388.938	1121.94
389.163	942.94
389.387	886.94
389.612	855.94
389.837	881.94
390.062	917.94
390.287	960.94
390.512	937.94
390.736	907.94
390.961	884.94
391.186	800.94
391.411	809.94
391.636	850.94
391.86	883.94
392.085	962.94
392.31	967.94
392.534	906.94
392.759	880.94
392.984	916.94
393.208	949.94
393.433	883.94
393.658	790.94
393.882	753.94
394.107	772.94
394.331	767.94
394.556	808.94
394.78	806.94
395.005	825.94
395.229	846.94
395.454	841.94
395.678	877.94
395.903	863.94
396.127	841.94
396.352	832.94
396.576	913.94
396.801	929.94
397.025	1034.94
397.249	1058.94
397.474	910.94
397.698	870.94
397.922	958.94
398.147	880.94
398.371	867.94
398.595	918.94
398.82	907.94
399.044	918.94
399.268	967.94
399.492	1028.94
399.717	1006.94
399.941	1076.94
400.165	1052.94
400.389	988.94
400.613	1030.94
400.837	1014.94
401.062	917.94
401.286	877.94
401.51	877.94
401.734	883.94
401.958	898.94
402.182	853.94
402.406	888.94
402.63	892.94
402.854	926.94
403.078	1012.94
403.302	1273.94
403.526	1266.94
403.75	1133.94
403.974	1009.94
404.198	1044.94
404.422	1175.94
404.645	1354.94
404.869	1440.94
405.093	1104.94
405.317	983.94
405.541	971.94
405.765	948.94
405.988	999.94
406.212	1070.94
406.436	1223.94
406.66	1346.94
406.883	1098.94
407.107	1109.94
407.331	1303.94
407.555	1215.94
407.778	1066.94
408.002	1009.94
408.226	1013.94
408.449	1005.94
408.673	993.94
408.896	926.94
409.12	897.94
409.344	917.94
409.567	850.94
409.791	886.94
410.014	874.94
410.238	881.94
410.461	871.94
410.685	867.94
410.908	841.94
411.132	904.94
411.355	889.94
411.578	925.94
411.802	892.94
412.025	927.94
412.249	958.94
412.472	910.94
412.695	902.94
412.919	899.94
413.142	922.94
413.365	990.94
413.589	1014.94
413.812	933.94
414.035	870.94
414.258	911.94
414.482	1004.94
414.705	1011.94
414.928	892.94
415.151	853.94
415.374	851.94
415.597	892.94
415.821	890.94
416.044	861.94
416.267	858.94
416.49	829.94
416.713	815.94
416.936	824.94
417.159	841.94
417.382	856.94
417.605	857.94
417.828	882.94
418.051	880.94
418.274	905.94
418.497	909.94
418.72	887.94
418.943	924.94
419.166	971.94
419.389	995.94
419.611	1000.94
419.834	971.94
420.057	1037.94
420.28	1077.94
420.503	956.94
420.726	862.94
420.948	855.94
421.171	854.94
421.394	870.94
421.617	857.94
421.839	881.94
422.062	890.94
422.285	911.94
422.507	902.94
422.73	914.94
422.953	933.94
423.175	929.94
423.398	901.94
423.621	966.94
423.843	983.94
424.066	930.94
424.288	919.94
424.511	906.94
424.733	927.94
424.956	915.94
425.178	998.94
425.401	1160.94
425.623	1276.94
425.846	1073.94
426.068	956.94
426.291	1050.94
426.513	984.94
426.735	924.94
426.958	984.94
427.18	1102.94
427.402	1373.94
427.625	1381.94
427.847	1139.94
428.069	889.94
428.292	890.94
428.514	858.94
428.736	870.94
428.958	920.94
429.181	1074.94
429.403	924.94
429.625	871.94
429.847	839.94
430.069	863.94
430.292	866.94
430.514	821.94
430.736	894.94
430.958	1116.94
431.18	1006.94
431.402	828.94
431.624	802.94
431.846	778.94
432.068	796.94
432.29	812.94
432.512	900.94
432.734	1112.94
432.956	1062.94
433.178	866.94
433.4	809.94
433.622	821.94
433.844	869.94
434.066	901.94
434.287	885.94
434.509	846.94
434.731	881.94
434.953	850.94
435.175	915.94
435.397	999.94
435.618	853.94
435.84	823.94
436.062	797.94
436.284	816.94
436.505	784.94
436.727	770.94
436.949	799.94
437.17	833.94
437.392	827.94
437.614	824.94
437.835	770.94
438.057	842.94
438.278	932.94
438.5	1286.94
438.721	1270.94
438.943	918.94
439.165	807.94
439.386	773.94
439.608	763.94
439.829	748.94
440.05	760.94
440.272	822.94
440.493	988.94
440.715	1162.94
440.936	928.94
441.158	812.94
441.379	840.94
441.6	943.94
441.822	989.94
442.043	869.94
442.264	832.94
442.486	840.94
442.707	818.94
442.928	850.94
443.149	855.94
443.371	878.94
443.592	898.94
443.813	904.94
444.034	893.94
444.255	910.94
444.476	929.94
444.698	911.94
444.919	948.94
445.14	1011.94
445.361	967.94
445.582	951.94
445.803	896.94
446.024	923.94
446.245	884.94
446.466	887.94
446.687	864.94
446.908	855.94
447.129	816.94
447.35	807.94
447.571	767.94
447.792	800.94
448.013	788.94
448.234	756.94
448.455	792.94
448.675	764.94
448.896	786.94
449.117	796.94
449.338	802.94
449.559	825.94
449.779	850.94
450	845.94
450.221	808.94
450.442	785.94
450.662	796.94
450.883	778.94
451.104	787.94
451.324	795.94
451.545	790.94
451.766	757.94
451.986	778.94
452.207	748.94
452.428	761.94
452.648	756.94
452.869	795.94
453.089	812.94
453.31	806.94
453.53	700.94
453.751	714.94
453.971	725.94
454.192	738.94
454.412	770.94
454.633	714.94
454.853	738.94
455.073	700.94
455.294	722.94
455.514	706.94
455.734	741.94
455.955	767.94
456.175	814.94
456.395	754.94
456.616	714.94
456.836	714.94
457.056	664.94
457.276	714.94
457.497	713.94
457.717	699.94
457.937	690.94
458.157	720.94
458.377	710.94
458.598	724.94
458.818	712.94
459.038	779.94
459.258	808.94
459.478	809.94
459.698	869.94
459.918	886.94
460.138	871.94
460.358	888.94
460.578	868.94
460.798	884.94
461.018	871.94
461.238	872.94
461.458	846.94
461.678	906.94
461.898	916.94
462.118	886.94
462.338	897.94
462.558	936.94
462.777	958.94
462.997	983.94
463.217	976.94
463.437	1018.94
463.657	1012.94
463.876	954.94
464.096	948.94
464.316	951.94
464.536	943.94
464.755	980.94
464.975	978.94
465.195	891.94
465.414	969.94
465.634	919.94
465.854	925.94
466.073	854.94
466.293	864.94
466.512	929.94
466.732	973.94
466.951	1008.94
467.171	907.94
467.391	855.94
467.61	880.94
467.829	941.94
468.049	930.94
468.268	840.94
468.488	860.94
468.707	878.94
468.927	1033.94
469.146	1125.94
469.365	998.94
469.585	921.94
469.804	1008.94
470.023	1071.94
470.243	946.94
470.462	885.94
470.681	907.94
470.901	890.94
471.12	940.94
471.339	936.94
471.558	900.94
471.777	926.94
471.997	990.94
472.216	1090.94
472.435	1070.94
472.654	952.94
472.873	914.94
473.092	958.94
473.311	1019.94
473.53	936.94
473.749	911.94
473.968	962.94
474.187	940.94
474.406	916.94
474.625	917.94
474.844	954.94
475.063	1022.94
475.282	1006.94
475.501	1041.94
475.72	1115.94
475.939	1074.94
476.158	1076.94
476.377	1228.94
476.596	1396.94
476.814	1452.94
477.033	1191.94
477.252	1031.94
477.471	987.94
477.69	1001.94
477.908	1088.94
478.127	1142.94
478.346	1044.94
478.564	1120.94
478.783	1052.94
479.002	1080.94
479.22	1244.94
479.439	1352.94
479.658	1193.94
479.876	1068.94
480.095	1188.94
480.313	1218.94
480.532	1093.94
480.751	1055.94
480.969	1093.94
481.188	1250.94
481.406	1289.94
481.624	1221.94
481.843	1112.94
482.061	1048.94
482.28	1178.94
482.498	1439.94
482.717	1344.94
482.935	1158.94
483.153	1113.94
483.372	1024.94
483.59	1014.94
483.808	1032.94
484.027	1005.94
484.245	970.94
484.463	964.94
484.681	992.94
484.9	1098.94
485.118	1168.94
485.336	1072.94
485.554	1037.94
485.772	1056.94
485.99	1149.94
486.209	1200.94
486.427	1198.94
486.645	1180.94
486.863	1196.94
487.081	1162.94
487.299	1326.94
487.517	1268.94
487.735	1187.94
487.953	1186.94
488.171	1223.94
488.389	1129.94
488.607	1084.94
488.825	1133.94
489.043	1198.94
489.261	1377.94
489.479	1454.94
489.696	1280.94
489.914	1170.94
490.132	1098.94
490.35	1104.94
490.568	1090.94
490.786	1085.94
491.003	1129.94
491.221	1154.94
491.439	1118.94
491.657	1112.94
491.874	1187.94
492.092	1404.94
492.31	1657.94
492.527	1640.94
492.745	1484.94
492.963	1266.94
493.18	1307.94
493.398	1255.94
493.615	1269.94
493.833	1196.94
494.05	1199.94
494.268	1236.94
494.485	1195.94
494.703	1154.94
494.92	1179.94
495.138	1182.94
495.355	1194.94
