Data from NickelSpatula.Lamp.E5.5.P2_HRD10591_11-51-56-557.txt Node
Date: Tue Jul 23 11:51:56 EDT 2019
User: cochatt
Spectrometer: HR+D1059
Trigger mode: 1
Integration Time (sec): 1.000000E-1
Scans to average: 1
Electric dark correction enabled: true
Nonlinearity correction enabled: false
Boxcar width: 0
XAxis mode: Wavelengths
Number of Pixels in Spectrum: 2048
>>>>>Begin Spectral Data<<<<<
223.165	-20.06
223.4	-20.06
223.635	-20.06
223.869	-23.06
224.104	-11.06
224.338	-28.06
224.573	-15.06
224.808	0.94
225.042	-5.06
225.277	-8.06
225.511	6.94
225.746	2.94
225.98	6.94
226.215	9.94
226.449	9.94
226.683	10.94
226.918	23.94
227.152	37.94
227.387	45.94
227.621	43.94
227.856	43.94
228.09	55.94
228.324	60.94
228.559	59.94
228.793	68.94
229.027	75.94
229.262	74.94
229.496	98.94
229.73	73.94
229.964	101.94
230.199	106.94
230.433	106.94
230.667	78.94
230.901	103.94
231.136	91.94
231.37	107.94
231.604	101.94
231.838	105.94
232.072	115.94
232.306	111.94
232.541	109.94
232.775	108.94
233.009	123.94
233.243	117.94
233.477	114.94
233.711	113.94
233.945	125.94
234.179	123.94
234.413	129.94
234.647	149.94
234.881	166.94
235.115	133.94
235.349	137.94
235.583	124.94
235.817	120.94
236.051	138.94
236.285	141.94
236.519	131.94
236.753	133.94
236.987	123.94
237.221	133.94
237.455	125.94
237.689	125.94
237.922	124.94
238.156	125.94
238.39	156.94
238.624	151.94
238.858	148.94
239.091	150.94
239.325	146.94
239.559	139.94
239.793	149.94
240.027	180.94
240.26	153.94
240.494	142.94
240.728	163.94
240.961	171.94
241.195	171.94
241.429	174.94
241.662	174.94
241.896	138.94
242.13	139.94
242.363	142.94
242.597	148.94
242.83	155.94
243.064	158.94
243.298	165.94
243.531	166.94
243.765	158.94
243.998	165.94
244.232	164.94
244.465	163.94
244.699	173.94
244.932	173.94
245.166	175.94
245.399	158.94
245.633	152.94
245.866	166.94
246.099	158.94
246.333	169.94
246.566	177.94
246.8	181.94
247.033	165.94
247.266	198.94
247.5	173.94
247.733	163.94
247.966	159.94
248.2	185.94
248.433	197.94
248.666	181.94
248.899	193.94
249.133	180.94
249.366	214.94
249.599	213.94
249.832	215.94
250.066	184.94
250.299	184.94
250.532	198.94
250.765	194.94
250.998	187.94
251.231	175.94
251.465	197.94
251.698	198.94
251.931	192.94
252.164	180.94
252.397	205.94
252.63	245.94
252.863	227.94
253.096	239.94
253.329	236.94
253.562	245.94
253.795	270.94
254.028	293.94
254.261	311.94
254.494	266.94
254.727	245.94
254.96	251.94
255.193	241.94
255.426	232.94
255.659	206.94
255.892	196.94
256.124	206.94
256.357	222.94
256.59	274.94
256.823	255.94
257.056	237.94
257.289	221.94
257.521	206.94
257.754	243.94
257.987	286.94
258.22	251.94
258.452	221.94
258.685	269.94
258.918	283.94
259.151	275.94
259.383	283.94
259.616	333.94
259.849	345.94
260.081	361.94
260.314	375.94
260.547	302.94
260.779	323.94
261.012	365.94
261.244	357.94
261.477	329.94
261.71	327.94
261.942	293.94
262.175	293.94
262.407	265.94
262.64	259.94
262.872	299.94
263.105	324.94
263.337	329.94
263.57	324.94
263.802	231.94
264.035	217.94
264.267	210.94
264.499	195.94
264.732	182.94
264.964	174.94
265.197	177.94
265.429	190.94
265.661	190.94
265.894	206.94
266.126	213.94
266.358	222.94
266.591	278.94
266.823	298.94
267.055	309.94
267.287	277.94
267.52	278.94
267.752	268.94
267.984	317.94
268.216	302.94
268.448	245.94
268.681	231.94
268.913	277.94
269.145	262.94
269.377	313.94
269.609	285.94
269.841	262.94
270.073	273.94
270.306	295.94
270.538	309.94
270.77	306.94
271.002	316.94
271.234	310.94
271.466	322.94
271.698	294.94
271.93	291.94
272.162	302.94
272.394	322.94
272.626	295.94
272.858	304.94
273.09	292.94
273.322	275.94
273.553	258.94
273.785	271.94
274.017	362.94
274.249	425.94
274.481	462.94
274.713	481.94
274.945	554.94
275.176	575.94
275.408	547.94
275.64	472.94
275.872	487.94
276.104	417.94
276.335	371.94
276.567	363.94
276.799	390.94
277.031	423.94
277.262	335.94
277.494	262.94
277.726	260.94
277.957	265.94
278.189	292.94
278.421	307.94
278.652	294.94
278.884	289.94
279.115	272.94
279.347	264.94
279.579	271.94
279.81	288.94
280.042	280.94
280.273	282.94
280.505	259.94
280.736	228.94
280.968	230.94
281.199	246.94
281.431	267.94
281.662	251.94
281.894	265.94
282.125	270.94
282.356	277.94
282.588	293.94
282.819	287.94
283.051	277.94
283.282	354.94
283.513	373.94
283.745	415.94
283.976	427.94
284.207	382.94
284.439	399.94
284.67	396.94
284.901	355.94
285.132	378.94
285.364	404.94
285.595	367.94
285.826	402.94
286.057	396.94
286.288	387.94
286.52	381.94
286.751	385.94
286.982	405.94
287.213	369.94
287.444	347.94
287.675	356.94
287.906	381.94
288.138	320.94
288.369	304.94
288.6	285.94
288.831	286.94
289.062	322.94
289.293	359.94
289.524	353.94
289.755	327.94
289.986	334.94
290.217	318.94
290.448	275.94
290.679	223.94
290.91	215.94
291.141	219.94
291.371	231.94
291.602	236.94
291.833	226.94
292.064	218.94
292.295	264.94
292.526	283.94
292.757	285.94
292.987	312.94
293.218	318.94
293.449	356.94
293.68	354.94
293.91	359.94
294.141	345.94
294.372	338.94
294.603	300.94
294.833	307.94
295.064	373.94
295.295	374.94
295.525	277.94
295.756	267.94
295.987	243.94
296.217	227.94
296.448	239.94
296.679	242.94
296.909	241.94
297.14	287.94
297.37	307.94
297.601	299.94
297.831	254.94
298.062	274.94
298.292	301.94
298.523	309.94
298.753	359.94
298.984	341.94
299.214	280.94
299.445	248.94
299.675	208.94
299.905	235.94
300.136	236.94
300.366	246.94
300.597	259.94
300.827	226.94
301.057	230.94
301.288	250.94
301.518	249.94
301.748	268.94
301.979	287.94
302.209	297.94
302.439	301.94
302.669	259.94
302.9	280.94
303.13	267.94
303.36	252.94
303.59	224.94
303.82	245.94
304.051	282.94
304.281	282.94
304.511	269.94
304.741	268.94
304.971	259.94
305.201	302.94
305.431	263.94
305.661	246.94
305.891	219.94
306.121	219.94
306.352	214.94
306.582	211.94
306.812	201.94
307.042	207.94
307.272	184.94
307.502	192.94
307.731	205.94
307.961	223.94
308.191	208.94
308.421	190.94
308.651	188.94
308.881	203.94
309.111	189.94
309.341	208.94
309.571	214.94
309.8	228.94
310.03	203.94
310.26	213.94
310.49	241.94
310.72	190.94
310.949	207.94
311.179	193.94
311.409	211.94
311.639	245.94
311.868	278.94
312.098	352.94
312.328	377.94
312.557	358.94
312.787	377.94
313.017	331.94
313.246	366.94
313.476	389.94
313.706	332.94
313.935	279.94
314.165	240.94
314.394	225.94
314.624	231.94
314.853	216.94
315.083	225.94
315.312	219.94
315.542	215.94
315.771	221.94
316.001	215.94
316.23	210.94
316.46	202.94
316.689	210.94
316.919	189.94
317.148	193.94
317.377	219.94
317.607	206.94
317.836	202.94
318.065	244.94
318.295	240.94
318.524	250.94
318.753	233.94
318.983	221.94
319.212	204.94
319.441	214.94
319.67	231.94
319.9	241.94
320.129	246.94
320.358	220.94
320.587	217.94
320.816	224.94
321.046	247.94
321.275	272.94
321.504	252.94
321.733	261.94
321.962	250.94
322.191	235.94
322.42	219.94
322.649	226.94
322.878	253.94
323.108	247.94
323.337	244.94
323.566	235.94
323.795	231.94
324.024	238.94
324.253	222.94
324.482	214.94
324.71	237.94
324.939	263.94
325.168	247.94
325.397	215.94
325.626	208.94
325.855	226.94
326.084	207.94
326.313	210.94
326.542	204.94
326.77	211.94
326.999	210.94
327.228	237.94
327.457	228.94
327.686	220.94
327.914	198.94
328.143	196.94
328.372	205.94
328.6	214.94
328.829	201.94
329.058	193.94
329.287	217.94
329.515	209.94
329.744	222.94
329.972	198.94
330.201	185.94
330.43	212.94
330.658	208.94
330.887	238.94
331.115	241.94
331.344	235.94
331.572	205.94
331.801	204.94
332.03	216.94
332.258	211.94
332.486	225.94
332.715	234.94
332.943	222.94
333.172	221.94
333.4	250.94
333.629	228.94
333.857	263.94
334.085	243.94
334.314	267.94
334.542	249.94
334.771	221.94
334.999	223.94
335.227	221.94
335.455	218.94
335.684	235.94
335.912	274.94
336.14	293.94
336.369	263.94
336.597	257.94
336.825	299.94
337.053	308.94
337.281	272.94
337.51	227.94
337.738	218.94
337.966	243.94
338.194	250.94
338.422	226.94
338.65	212.94
338.878	212.94
339.106	198.94
339.334	227.94
339.562	234.94
339.79	226.94
340.018	211.94
340.246	233.94
340.474	247.94
340.702	240.94
340.93	271.94
341.158	279.94
341.386	242.94
341.614	233.94
341.842	222.94
342.07	232.94
342.298	279.94
342.526	287.94
342.754	249.94
342.981	241.94
343.209	244.94
343.437	257.94
343.665	246.94
343.893	274.94
344.12	302.94
344.348	349.94
344.576	313.94
344.804	259.94
345.031	230.94
345.259	232.94
345.487	205.94
345.714	225.94
345.942	223.94
346.17	253.94
346.397	250.94
346.625	222.94
346.853	224.94
347.08	237.94
347.308	245.94
347.535	247.94
347.763	269.94
347.99	215.94
348.218	206.94
348.445	216.94
348.673	234.94
348.9	226.94
349.128	265.94
349.355	239.94
349.583	232.94
349.81	239.94
350.037	211.94
350.265	201.94
350.492	190.94
350.72	191.94
350.947	203.94
351.174	212.94
351.402	218.94
351.629	207.94
351.856	213.94
352.083	219.94
352.311	206.94
352.538	242.94
352.765	228.94
352.992	235.94
353.22	225.94
353.447	236.94
353.674	211.94
353.901	213.94
354.128	226.94
354.355	210.94
354.583	227.94
354.81	231.94
355.037	236.94
355.264	217.94
355.491	221.94
355.718	228.94
355.945	244.94
356.172	244.94
356.399	227.94
356.626	265.94
356.853	300.94
357.08	326.94
357.307	354.94
357.534	286.94
357.761	284.94
357.988	364.94
358.215	395.94
358.441	369.94
358.668	327.94
358.895	303.94
359.122	278.94
359.349	257.94
359.576	286.94
359.802	250.94
360.029	233.94
360.256	250.94
360.483	261.94
360.709	311.94
360.936	333.94
361.163	298.94
361.39	231.94
361.616	232.94
361.843	247.94
362.07	305.94
362.296	274.94
362.523	234.94
362.749	202.94
362.976	225.94
363.203	262.94
363.429	265.94
363.656	234.94
363.882	219.94
364.109	232.94
364.335	222.94
364.562	225.94
364.788	227.94
365.015	265.94
365.241	232.94
365.468	221.94
365.694	209.94
365.92	204.94
366.147	208.94
366.373	185.94
366.599	189.94
366.826	216.94
367.052	203.94
367.278	203.94
367.505	206.94
367.731	194.94
367.957	218.94
368.184	221.94
368.41	223.94
368.636	224.94
368.862	236.94
369.089	213.94
369.315	211.94
369.541	191.94
369.767	200.94
369.993	203.94
370.219	224.94
370.445	221.94
370.672	243.94
370.898	241.94
371.124	236.94
371.35	219.94
371.576	216.94
371.802	240.94
372.028	266.94
372.254	283.94
372.48	267.94
372.706	243.94
372.932	243.94
373.158	258.94
373.384	276.94
373.61	337.94
373.835	358.94
374.061	294.94
374.287	237.94
374.513	291.94
374.739	335.94
374.965	365.94
375.191	353.94
375.416	276.94
375.642	245.94
375.868	263.94
376.094	281.94
376.319	267.94
376.545	286.94
376.771	258.94
376.997	251.94
377.222	215.94
377.448	206.94
377.674	189.94
377.899	203.94
378.125	192.94
378.35	206.94
378.576	199.94
378.802	217.94
379.027	226.94
379.253	211.94
379.478	204.94
379.704	218.94
379.929	248.94
380.155	251.94
380.38	235.94
380.606	218.94
380.831	257.94
381.057	249.94
381.282	209.94
381.507	251.94
381.733	275.94
381.958	284.94
382.184	345.94
382.409	346.94
382.634	333.94
382.86	346.94
383.085	314.94
383.31	270.94
383.535	277.94
383.761	272.94
383.986	248.94
384.211	283.94
384.436	294.94
384.662	254.94
384.887	253.94
385.112	255.94
385.337	260.94
385.562	221.94
385.787	240.94
386.013	291.94
386.238	292.94
386.463	237.94
386.688	224.94
386.913	216.94
387.138	214.94
387.363	225.94
387.588	258.94
387.813	230.94
388.038	251.94
388.263	247.94
388.488	239.94
388.713	261.94
388.938	271.94
389.163	237.94
389.387	218.94
389.612	221.94
389.837	226.94
390.062	230.94
390.287	230.94
390.512	245.94
390.736	220.94
390.961	229.94
391.186	218.94
391.411	216.94
391.636	214.94
391.86	237.94
392.085	248.94
392.31	246.94
392.534	265.94
392.759	256.94
392.984	243.94
393.208	234.94
393.433	213.94
393.658	209.94
393.882	211.94
394.107	202.94
394.331	231.94
394.556	202.94
394.78	200.94
395.005	226.94
395.229	207.94
395.454	207.94
395.678	233.94
395.903	218.94
396.127	212.94
396.352	222.94
396.576	236.94
396.801	208.94
397.025	248.94
397.249	269.94
397.474	233.94
397.698	234.94
397.922	233.94
398.147	217.94
398.371	241.94
398.595	230.94
398.82	244.94
399.044	261.94
399.268	271.94
399.492	274.94
399.717	295.94
399.941	301.94
400.165	266.94
400.389	257.94
400.613	244.94
400.837	235.94
401.062	243.94
401.286	210.94
401.51	220.94
401.734	234.94
401.958	230.94
402.182	233.94
402.406	245.94
402.63	224.94
402.854	243.94
403.078	282.94
403.302	360.94
403.526	387.94
403.75	334.94
403.974	287.94
404.198	268.94
404.422	311.94
404.645	313.94
404.869	355.94
405.093	294.94
405.317	265.94
405.541	249.94
405.765	260.94
405.988	266.94
406.212	263.94
406.436	287.94
406.66	299.94
406.883	285.94
407.107	277.94
407.331	319.94
407.555	318.94
407.778	268.94
408.002	265.94
408.226	279.94
408.449	279.94
408.673	263.94
408.896	255.94
409.12	249.94
409.344	256.94
409.567	232.94
409.791	257.94
410.014	230.94
410.238	228.94
410.461	232.94
410.685	222.94
410.908	227.94
411.132	258.94
411.355	259.94
411.578	240.94
411.802	250.94
412.025	232.94
412.249	244.94
412.472	230.94
412.695	230.94
412.919	253.94
413.142	233.94
413.365	259.94
413.589	246.94
413.812	229.94
414.035	234.94
414.258	238.94
414.482	237.94
414.705	264.94
414.928	231.94
415.151	227.94
415.374	229.94
415.597	258.94
415.821	232.94
416.044	219.94
416.267	231.94
416.49	220.94
416.713	223.94
416.936	215.94
417.159	224.94
417.382	236.94
417.605	228.94
417.828	232.94
418.051	250.94
418.274	229.94
418.497	235.94
418.72	243.94
418.943	248.94
419.166	250.94
419.389	263.94
419.611	253.94
419.834	254.94
420.057	251.94
420.28	249.94
420.503	244.94
420.726	249.94
420.948	222.94
421.171	255.94
421.394	224.94
421.617	223.94
421.839	228.94
422.062	256.94
422.285	238.94
422.507	213.94
422.73	246.94
422.953	241.94
423.175	260.94
423.398	246.94
423.621	263.94
423.843	282.94
424.066	241.94
424.288	237.94
424.511	231.94
424.733	242.94
424.956	241.94
425.178	263.94
425.401	296.94
425.623	373.94
425.846	287.94
426.068	255.94
426.291	266.94
426.513	253.94
426.735	233.94
426.958	239.94
427.18	250.94
427.402	319.94
427.625	357.94
427.847	298.94
428.069	240.94
428.292	241.94
428.514	215.94
428.736	245.94
428.958	263.94
429.181	282.94
429.403	268.94
429.625	242.94
429.847	230.94
430.069	228.94
430.292	219.94
430.514	222.94
430.736	230.94
430.958	267.94
431.18	236.94
431.402	226.94
431.624	205.94
431.846	222.94
432.068	216.94
432.29	235.94
432.512	221.94
432.734	284.94
432.956	263.94
433.178	221.94
433.4	243.94
433.622	210.94
433.844	220.94
434.066	249.94
434.287	251.94
434.509	241.94
434.731	250.94
434.953	247.94
435.175	220.94
435.397	279.94
435.618	241.94
435.84	217.94
436.062	220.94
436.284	231.94
436.505	198.94
436.727	210.94
436.949	202.94
437.17	224.94
437.392	213.94
437.614	226.94
437.835	210.94
438.057	204.94
438.278	220.94
438.5	293.94
438.721	296.94
438.943	243.94
439.165	222.94
439.386	203.94
439.608	219.94
439.829	206.94
440.05	219.94
440.272	234.94
440.493	265.94
440.715	296.94
440.936	245.94
441.158	243.94
441.379	233.94
441.6	232.94
441.822	265.94
442.043	235.94
442.264	222.94
442.486	216.94
442.707	233.94
442.928	232.94
443.149	235.94
443.371	239.94
443.592	228.94
443.813	250.94
444.034	254.94
444.255	257.94
444.476	249.94
444.698	249.94
444.919	261.94
445.14	333.94
445.361	279.94
445.582	267.94
445.803	243.94
446.024	239.94
446.245	245.94
446.466	240.94
446.687	212.94
446.908	228.94
447.129	213.94
447.35	222.94
447.571	202.94
447.792	201.94
448.013	202.94
448.234	202.94
448.455	213.94
448.675	236.94
448.896	214.94
449.117	214.94
449.338	204.94
449.559	223.94
449.779	220.94
450	215.94
450.221	231.94
450.442	215.94
450.662	210.94
450.883	217.94
451.104	221.94
451.324	220.94
451.545	216.94
451.766	217.94
451.986	218.94
452.207	209.94
452.428	203.94
452.648	207.94
452.869	224.94
453.089	211.94
453.31	226.94
453.53	213.94
453.751	218.94
453.971	209.94
454.192	213.94
454.412	228.94
454.633	207.94
454.853	221.94
455.073	198.94
455.294	189.94
455.514	211.94
455.734	197.94
455.955	199.94
456.175	226.94
456.395	196.94
456.616	197.94
456.836	202.94
457.056	203.94
457.276	177.94
457.497	185.94
457.717	201.94
457.937	187.94
458.157	195.94
458.377	199.94
458.598	198.94
458.818	219.94
459.038	230.94
459.258	218.94
459.478	222.94
459.698	232.94
459.918	233.94
460.138	229.94
460.358	227.94
460.578	247.94
460.798	237.94
461.018	232.94
461.238	238.94
461.458	252.94
461.678	235.94
461.898	258.94
462.118	265.94
462.338	243.94
462.558	279.94
462.777	274.94
462.997	282.94
463.217	298.94
463.437	291.94
463.657	284.94
463.876	271.94
464.096	257.94
464.316	256.94
464.536	246.94
464.755	279.94
464.975	254.94
465.195	269.94
465.414	261.94
465.634	255.94
465.854	238.94
466.073	223.94
466.293	218.94
466.512	232.94
466.732	245.94
466.951	249.94
467.171	238.94
467.391	220.94
467.61	226.94
467.829	238.94
468.049	217.94
468.268	227.94
468.488	195.94
468.707	234.94
468.927	243.94
469.146	290.94
469.365	243.94
469.585	229.94
469.804	247.94
470.023	267.94
470.243	244.94
470.462	233.94
470.681	236.94
470.901	224.94
471.12	253.94
471.339	241.94
471.558	234.94
471.777	245.94
471.997	261.94
472.216	271.94
472.435	257.94
472.654	231.94
472.873	242.94
473.092	253.94
473.311	273.94
473.53	235.94
473.749	235.94
473.968	251.94
474.187	233.94
474.406	211.94
474.625	214.94
474.844	225.94
475.063	243.94
475.282	241.94
475.501	245.94
475.72	265.94
475.939	258.94
476.158	274.94
476.377	299.94
476.596	313.94
476.814	345.94
477.033	286.94
477.252	261.94
477.471	257.94
477.69	249.94
477.908	266.94
478.127	287.94
478.346	274.94
478.564	257.94
478.783	275.94
479.002	271.94
479.22	302.94
479.439	325.94
479.658	285.94
479.876	277.94
480.095	283.94
480.313	293.94
480.532	274.94
480.751	276.94
480.969	269.94
481.188	285.94
481.406	303.94
481.624	300.94
481.843	272.94
482.061	255.94
482.28	289.94
482.498	319.94
482.717	324.94
482.935	293.94
483.153	273.94
483.372	248.94
483.59	265.94
483.808	262.94
484.027	247.94
484.245	245.94
484.463	238.94
484.681	252.94
484.9	266.94
485.118	252.94
485.336	273.94
485.554	241.94
485.772	281.94
485.99	285.94
486.209	286.94
486.427	299.94
486.645	286.94
486.863	272.94
487.081	283.94
487.299	306.94
487.517	291.94
487.735	291.94
487.953	283.94
488.171	286.94
488.389	293.94
488.607	277.94
488.825	270.94
489.043	277.94
489.261	314.94
489.479	311.94
489.696	294.94
489.914	283.94
490.132	250.94
490.35	268.94
490.568	270.94
490.786	263.94
491.003	245.94
491.221	259.94
491.439	256.94
491.657	265.94
491.874	286.94
492.092	309.94
492.31	345.94
492.527	335.94
492.745	320.94
492.963	286.94
493.18	293.94
493.398	293.94
493.615	281.94
493.833	287.94
494.05	291.94
494.268	302.94
494.485	282.94
494.703	278.94
494.92	281.94
495.138	287.94
495.355	297.94
495.573	265.94
495.79	291.94
496.008	349.94
496.225	304.94
496.442	294.94
496.66	298.94
496.877	309.94
497.094	305.94
497.312	300.94
497.529	305.94
497.746	300.94
497.963	300.94
498.181	309.94
498.398	340.94
498.615	360.94
498.832	369.94
499.049	364.94
499.267	377.94
499.484	389.94
499.701	406.94
499.918	462.94
500.135	499.94
500.352	537.94
500.569	555.94
500.786	541.94
501.003	553.94
501.22	469.94
501.437	431.94
501.654	393.94
501.871	392.94
502.088	379.94
502.305	367.94
502.522	377.94
