Data from NickelSpatula_HRD10591_16-35-57-126.txt Node
Date: Mon Jul 22 16:35:57 EDT 2019
User: cochatt
Spectrometer: HR+D1059
Trigger mode: 1
Integration Time (sec): 1.000000E-1
Scans to average: 1
Electric dark correction enabled: true
Nonlinearity correction enabled: false
Boxcar width: 0
XAxis mode: Wavelengths
Number of Pixels in Spectrum: 2048
>>>>>Begin Spectral Data<<<<<
223.165	-19.81
223.4	-19.81
223.635	-19.81
223.869	-0.81
224.104	-2.81
224.338	-11.81
224.573	-6.81
224.808	-9.81
225.042	-5.81
225.277	-10.81
225.511	-20.81
225.746	1.19
225.98	7.19
226.215	17.19
226.449	12.19
226.683	10.19
226.918	21.19
227.152	20.19
227.387	23.19
227.621	43.19
227.856	50.19
228.09	49.19
228.324	41.19
228.559	55.19
228.793	68.19
229.027	61.19
229.262	69.19
229.496	78.19
229.73	77.19
229.964	85.19
230.199	90.19
230.433	81.19
230.667	79.19
230.901	90.19
231.136	81.19
231.37	95.19
231.604	99.19
231.838	87.19
232.072	93.19
232.306	99.19
232.541	101.19
232.775	98.19
233.009	105.19
233.243	108.19
233.477	106.19
233.711	108.19
233.945	110.19
234.179	105.19
234.413	101.19
234.647	107.19
234.881	98.19
235.115	116.19
235.349	104.19
235.583	102.19
235.817	95.19
236.051	115.19
236.285	117.19
236.519	113.19
236.753	105.19
236.987	117.19
237.221	103.19
237.455	108.19
237.689	116.19
237.922	123.19
238.156	130.19
238.39	124.19
238.624	138.19
238.858	121.19
239.091	121.19
239.325	121.19
239.559	120.19
239.793	115.19
240.027	132.19
240.26	130.19
240.494	132.19
240.728	116.19
240.961	149.19
241.195	146.19
241.429	133.19
241.662	138.19
241.896	116.19
242.13	112.19
242.363	119.19
242.597	96.19
242.83	127.19
243.064	113.19
243.298	128.19
243.531	134.19
243.765	140.19
243.998	134.19
244.232	131.19
244.465	123.19
244.699	123.19
244.932	139.19
245.166	138.19
245.399	127.19
245.633	121.19
245.866	116.19
246.099	133.19
246.333	147.19
246.566	137.19
246.8	146.19
247.033	125.19
247.266	132.19
247.5	134.19
247.733	132.19
247.966	133.19
248.2	152.19
248.433	151.19
248.666	151.19
248.899	163.19
249.133	135.19
249.366	164.19
249.599	176.19
249.832	156.19
250.066	165.19
250.299	149.19
250.532	158.19
250.765	139.19
250.998	135.19
251.231	122.19
251.465	140.19
251.698	157.19
251.931	150.19
252.164	147.19
252.397	155.19
252.63	184.19
252.863	185.19
253.096	182.19
253.329	183.19
253.562	189.19
253.795	204.19
254.028	207.19
254.261	212.19
254.494	186.19
254.727	192.19
254.96	179.19
255.193	200.19
255.426	196.19
255.659	145.19
255.892	141.19
256.124	156.19
256.357	177.19
256.59	199.19
256.823	181.19
257.056	162.19
257.289	155.19
257.521	169.19
257.754	178.19
257.987	191.19
258.22	185.19
258.452	166.19
258.685	181.19
258.918	194.19
259.151	195.19
259.383	205.19
259.616	231.19
259.849	219.19
260.081	228.19
260.314	241.19
260.547	217.19
260.779	223.19
261.012	251.19
261.244	233.19
261.477	236.19
261.71	217.19
261.942	201.19
262.175	200.19
262.407	190.19
262.64	194.19
262.872	216.19
263.105	243.19
263.337	248.19
263.57	211.19
263.802	167.19
264.035	175.19
264.267	148.19
264.499	154.19
264.732	143.19
264.964	151.19
265.197	132.19
265.429	156.19
265.661	155.19
265.894	155.19
266.126	157.19
266.358	168.19
266.591	188.19
266.823	246.19
267.055	224.19
267.287	187.19
267.52	195.19
267.752	201.19
267.984	227.19
268.216	206.19
268.448	167.19
268.681	185.19
268.913	186.19
269.145	180.19
269.377	202.19
269.609	214.19
269.841	172.19
270.073	193.19
270.306	193.19
270.538	209.19
270.77	205.19
271.002	207.19
271.234	217.19
271.466	239.19
271.698	220.19
271.93	230.19
272.162	211.19
272.394	219.19
272.626	219.19
272.858	204.19
273.09	217.19
273.322	195.19
273.553	198.19
273.785	219.19
274.017	272.19
274.249	306.19
274.481	309.19
274.713	320.19
274.945	359.19
275.176	390.19
275.408	348.19
275.64	328.19
275.872	313.19
276.104	289.19
276.335	259.19
276.567	236.19
276.799	257.19
277.031	281.19
277.262	211.19
277.494	186.19
277.726	178.19
277.957	196.19
278.189	218.19
278.421	210.19
278.652	212.19
278.884	177.19
279.115	198.19
279.347	189.19
279.579	179.19
279.81	165.19
280.042	179.19
280.273	189.19
280.505	180.19
280.736	161.19
280.968	167.19
281.199	167.19
281.431	187.19
281.662	184.19
281.894	193.19
282.125	201.19
282.356	203.19
282.588	199.19
282.819	180.19
283.051	187.19
283.282	233.19
283.513	261.19
283.745	276.19
283.976	285.19
284.207	274.19
284.439	283.19
284.67	273.19
284.901	264.19
285.132	266.19
285.364	284.19
285.595	239.19
285.826	278.19
286.057	283.19
286.288	267.19
286.52	259.19
286.751	276.19
286.982	281.19
287.213	229.19
287.444	245.19
287.675	253.19
287.906	247.19
288.138	223.19
288.369	202.19
288.6	207.19
288.831	203.19
289.062	220.19
289.293	227.19
289.524	212.19
289.755	227.19
289.986	231.19
290.217	216.19
290.448	168.19
290.679	163.19
290.91	157.19
291.141	147.19
291.371	177.19
291.602	160.19
291.833	156.19
292.064	162.19
292.295	177.19
292.526	204.19
292.757	207.19
292.987	226.19
293.218	234.19
293.449	231.19
293.68	223.19
293.91	217.19
294.141	240.19
294.372	211.19
294.603	217.19
294.833	228.19
295.064	239.19
295.295	231.19
295.525	189.19
295.756	171.19
295.987	153.19
296.217	143.19
296.448	165.19
296.679	160.19
296.909	186.19
297.14	181.19
297.37	201.19
297.601	187.19
297.831	158.19
298.062	189.19
298.292	217.19
298.523	215.19
298.753	233.19
298.984	215.19
299.214	173.19
299.445	160.19
299.675	176.19
299.905	154.19
300.136	160.19
300.366	172.19
300.597	172.19
300.827	153.19
301.057	158.19
301.288	141.19
301.518	169.19
301.748	176.19
301.979	219.19
302.209	203.19
302.439	198.19
302.669	192.19
302.9	178.19
303.13	168.19
303.36	170.19
303.59	170.19
303.82	160.19
304.051	175.19
304.281	186.19
304.511	192.19
304.741	187.19
304.971	175.19
305.201	195.19
305.431	186.19
305.661	161.19
305.891	159.19
306.121	169.19
306.352	135.19
306.582	154.19
306.812	163.19
307.042	136.19
307.272	133.19
307.502	137.19
307.731	131.19
307.961	140.19
308.191	137.19
308.421	142.19
308.651	152.19
308.881	131.19
309.111	135.19
309.341	137.19
309.571	154.19
309.8	155.19
310.03	149.19
310.26	164.19
310.49	156.19
310.72	154.19
310.949	138.19
311.179	152.19
311.409	153.19
311.639	164.19
311.868	197.19
312.098	250.19
312.328	251.19
312.557	260.19
312.787	232.19
313.017	240.19
313.246	253.19
313.476	258.19
313.706	218.19
313.935	173.19
314.165	152.19
314.394	146.19
314.624	156.19
314.853	156.19
315.083	170.19
315.312	164.19
315.542	149.19
315.771	133.19
316.001	137.19
316.23	137.19
316.46	125.19
316.689	134.19
316.919	143.19
317.148	145.19
317.377	157.19
317.607	145.19
317.836	153.19
318.065	157.19
318.295	181.19
318.524	179.19
318.753	155.19
318.983	153.19
319.212	151.19
319.441	164.19
319.67	153.19
319.9	156.19
320.129	167.19
320.358	161.19
320.587	138.19
320.816	154.19
321.046	177.19
321.275	187.19
321.504	191.19
321.733	178.19
321.962	166.19
322.191	169.19
322.42	170.19
322.649	165.19
322.878	177.19
323.108	176.19
323.337	171.19
323.566	165.19
323.795	166.19
324.024	171.19
324.253	164.19
324.482	160.19
324.71	165.19
324.939	170.19
325.168	164.19
325.397	143.19
325.626	141.19
325.855	143.19
326.084	135.19
326.313	149.19
326.542	140.19
326.77	128.19
326.999	144.19
327.228	149.19
327.457	153.19
327.686	157.19
327.914	136.19
328.143	139.19
328.372	127.19
328.6	127.19
328.829	151.19
329.058	137.19
329.287	133.19
329.515	140.19
329.744	151.19
329.972	137.19
330.201	136.19
330.43	138.19
330.658	134.19
330.887	163.19
331.115	140.19
331.344	150.19
331.572	149.19
331.801	139.19
332.03	123.19
332.258	131.19
332.486	162.19
332.715	152.19
332.943	131.19
333.172	141.19
333.4	141.19
333.629	156.19
333.857	159.19
334.085	161.19
334.314	165.19
334.542	159.19
334.771	163.19
334.999	136.19
335.227	134.19
335.455	145.19
335.684	166.19
335.912	175.19
336.14	180.19
336.369	179.19
336.597	159.19
336.825	186.19
337.053	226.19
337.281	181.19
337.51	148.19
337.738	152.19
337.966	146.19
338.194	165.19
338.422	160.19
338.65	139.19
338.878	133.19
339.106	137.19
339.334	152.19
339.562	164.19
339.79	175.19
340.018	164.19
340.246	161.19
340.474	184.19
340.702	177.19
340.93	183.19
341.158	197.19
341.386	171.19
341.614	155.19
341.842	157.19
342.07	188.19
342.298	209.19
342.526	195.19
342.754	175.19
342.981	172.19
343.209	159.19
343.437	171.19
343.665	176.19
343.893	167.19
344.12	196.19
344.348	239.19
344.576	198.19
344.804	171.19
345.031	153.19
345.259	149.19
345.487	160.19
345.714	164.19
345.942	142.19
346.17	155.19
346.397	155.19
346.625	147.19
346.853	169.19
347.08	149.19
347.308	168.19
347.535	168.19
347.763	170.19
347.99	165.19
348.218	147.19
348.445	151.19
348.673	153.19
348.9	151.19
349.128	151.19
349.355	164.19
349.583	161.19
349.81	157.19
350.037	162.19
350.265	129.19
350.492	135.19
350.72	139.19
350.947	142.19
351.174	131.19
351.402	167.19
351.629	136.19
351.856	153.19
352.083	142.19
352.311	162.19
352.538	162.19
352.765	185.19
352.992	165.19
353.22	170.19
353.447	153.19
353.674	161.19
353.901	158.19
354.128	154.19
354.355	165.19
354.583	153.19
354.81	164.19
355.037	158.19
355.264	165.19
355.491	159.19
355.718	193.19
355.945	195.19
356.172	154.19
356.399	155.19
356.626	188.19
356.853	233.19
357.08	258.19
357.307	218.19
357.534	205.19
357.761	227.19
357.988	260.19
358.215	271.19
358.441	260.19
358.668	227.19
358.895	216.19
359.122	193.19
359.349	182.19
359.576	211.19
359.802	171.19
360.029	164.19
360.256	178.19
360.483	204.19
360.709	232.19
360.936	225.19
361.163	203.19
361.39	184.19
361.616	171.19
361.843	169.19
362.07	218.19
362.296	192.19
362.523	159.19
362.749	160.19
362.976	149.19
363.203	195.19
363.429	179.19
363.656	170.19
363.882	169.19
364.109	157.19
364.335	156.19
364.562	138.19
364.788	154.19
365.015	196.19
365.241	177.19
365.468	155.19
365.694	135.19
365.92	139.19
366.147	140.19
366.373	148.19
366.599	137.19
366.826	148.19
367.052	139.19
367.278	143.19
367.505	159.19
367.731	157.19
367.957	171.19
368.184	166.19
368.41	176.19
368.636	160.19
368.862	170.19
369.089	161.19
369.315	147.19
369.541	153.19
369.767	147.19
369.993	144.19
370.219	131.19
370.445	145.19
370.672	156.19
370.898	177.19
371.124	163.19
371.35	163.19
371.576	148.19
371.802	165.19
372.028	185.19
372.254	202.19
372.48	158.19
372.706	161.19
372.932	177.19
373.158	181.19
373.384	201.19
373.61	252.19
373.835	251.19
374.061	188.19
374.287	182.19
374.513	217.19
374.739	234.19
374.965	229.19
375.191	229.19
375.416	170.19
375.642	175.19
375.868	180.19
376.094	203.19
376.319	175.19
376.545	195.19
376.771	203.19
376.997	183.19
377.222	151.19
377.448	148.19
377.674	155.19
377.899	161.19
378.125	131.19
378.35	121.19
378.576	123.19
378.802	139.19
379.027	172.19
379.253	148.19
379.478	165.19
379.704	161.19
379.929	170.19
380.155	176.19
380.38	159.19
380.606	161.19
380.831	190.19
381.057	170.19
381.282	154.19
381.507	184.19
381.733	216.19
381.958	232.19
382.184	220.19
382.409	251.19
382.634	239.19
382.86	230.19
383.085	207.19
383.31	173.19
383.535	203.19
383.761	187.19
383.986	196.19
384.211	197.19
384.436	198.19
384.662	153.19
384.887	168.19
385.112	169.19
385.337	177.19
385.562	179.19
385.787	172.19
386.013	186.19
386.238	185.19
386.463	172.19
386.688	163.19
386.913	156.19
387.138	155.19
387.363	156.19
387.588	152.19
387.813	153.19
388.038	155.19
388.263	164.19
388.488	162.19
388.713	163.19
388.938	197.19
389.163	168.19
389.387	148.19
389.612	154.19
389.837	161.19
390.062	171.19
390.287	170.19
390.512	164.19
390.736	160.19
390.961	132.19
391.186	148.19
391.411	136.19
391.636	149.19
391.86	151.19
392.085	165.19
392.31	163.19
392.534	155.19
392.759	157.19
392.984	155.19
393.208	150.19
393.433	138.19
393.658	141.19
393.882	140.19
394.107	149.19
394.331	144.19
394.556	128.19
394.78	133.19
395.005	149.19
395.229	149.19
395.454	137.19
395.678	145.19
395.903	147.19
396.127	141.19
396.352	150.19
396.576	177.19
396.801	162.19
397.025	170.19
397.249	183.19
397.474	161.19
397.698	159.19
397.922	168.19
398.147	139.19
398.371	137.19
398.595	183.19
398.82	150.19
399.044	141.19
399.268	154.19
399.492	153.19
399.717	169.19
399.941	169.19
400.165	161.19
400.389	163.19
400.613	177.19
400.837	145.19
401.062	155.19
401.286	162.19
401.51	145.19
401.734	152.19
401.958	153.19
402.182	152.19
402.406	125.19
402.63	140.19
402.854	156.19
403.078	163.19
403.302	200.19
403.526	218.19
403.75	179.19
403.974	161.19
404.198	172.19
404.422	191.19
404.645	211.19
404.869	212.19
405.093	181.19
405.317	164.19
405.541	159.19
405.765	153.19
405.988	161.19
406.212	175.19
406.436	183.19
406.66	213.19
406.883	168.19
407.107	191.19
407.331	189.19
407.555	183.19
407.778	176.19
408.002	182.19
408.226	149.19
408.449	163.19
408.673	167.19
408.896	138.19
409.12	141.19
409.344	139.19
409.567	131.19
409.791	151.19
410.014	134.19
410.238	138.19
410.461	155.19
410.685	138.19
410.908	147.19
411.132	157.19
411.355	150.19
411.578	141.19
411.802	142.19
412.025	164.19
412.249	179.19
412.472	155.19
412.695	162.19
412.919	156.19
413.142	144.19
413.365	164.19
413.589	157.19
413.812	137.19
414.035	153.19
414.258	155.19
414.482	169.19
414.705	170.19
414.928	154.19
415.151	160.19
415.374	156.19
415.597	159.19
415.821	153.19
416.044	156.19
416.267	152.19
416.49	139.19
416.713	152.19
416.936	143.19
417.159	146.19
417.382	141.19
417.605	150.19
417.828	153.19
418.051	165.19
418.274	159.19
418.497	150.19
418.72	144.19
418.943	160.19
419.166	173.19
419.389	142.19
419.611	167.19
419.834	163.19
420.057	197.19
420.28	180.19
420.503	163.19
420.726	149.19
420.948	157.19
421.171	150.19
421.394	144.19
421.617	160.19
421.839	141.19
422.062	154.19
422.285	152.19
422.507	154.19
422.73	165.19
422.953	154.19
423.175	154.19
423.398	153.19
423.621	180.19
423.843	167.19
424.066	156.19
424.288	151.19
424.511	164.19
424.733	143.19
424.956	163.19
425.178	167.19
425.401	182.19
425.623	206.19
425.846	194.19
426.068	169.19
426.291	171.19
426.513	172.19
426.735	176.19
426.958	165.19
427.18	188.19
427.402	227.19
427.625	236.19
427.847	189.19
428.069	152.19
428.292	164.19
428.514	163.19
428.736	142.19
428.958	153.19
429.181	181.19
429.403	159.19
429.625	147.19
429.847	152.19
430.069	156.19
430.292	156.19
430.514	153.19
430.736	148.19
430.958	187.19
431.18	168.19
431.402	150.19
431.624	152.19
431.846	132.19
432.068	135.19
432.29	151.19
432.512	155.19
432.734	185.19
432.956	176.19
433.178	141.19
433.4	145.19
433.622	140.19
433.844	151.19
434.066	154.19
434.287	152.19
434.509	145.19
434.731	164.19
434.953	159.19
435.175	155.19
435.397	166.19
435.618	137.19
435.84	152.19
436.062	135.19
436.284	139.19
436.505	130.19
436.727	137.19
436.949	140.19
437.17	146.19
437.392	157.19
437.614	149.19
437.835	149.19
438.057	139.19
438.278	170.19
438.5	215.19
438.721	196.19
438.943	159.19
439.165	148.19
439.386	137.19
439.608	153.19
439.829	149.19
440.05	113.19
440.272	141.19
440.493	158.19
440.715	187.19
440.936	163.19
441.158	146.19
441.379	139.19
441.6	176.19
441.822	164.19
442.043	155.19
442.264	126.19
442.486	141.19
442.707	156.19
442.928	152.19
443.149	152.19
443.371	144.19
443.592	140.19
443.813	149.19
444.034	146.19
444.255	137.19
444.476	163.19
444.698	137.19
444.919	163.19
445.14	295.19
445.361	218.19
445.582	162.19
445.803	156.19
446.024	141.19
446.245	171.19
446.466	162.19
446.687	147.19
446.908	143.19
447.129	150.19
447.35	138.19
447.571	141.19
447.792	142.19
448.013	141.19
448.234	125.19
448.455	129.19
448.675	135.19
448.896	141.19
449.117	132.19
449.338	148.19
449.559	145.19
449.779	136.19
450	155.19
450.221	146.19
450.442	133.19
450.662	148.19
450.883	147.19
451.104	136.19
451.324	148.19
451.545	133.19
451.766	148.19
451.986	140.19
452.207	150.19
452.428	155.19
452.648	152.19
452.869	139.19
453.089	164.19
453.31	164.19
453.53	133.19
453.751	133.19
453.971	121.19
454.192	129.19
454.412	141.19
454.633	130.19
454.853	128.19
455.073	149.19
455.294	140.19
455.514	143.19
455.734	141.19
455.955	148.19
456.175	140.19
456.395	148.19
456.616	134.19
456.836	135.19
457.056	146.19
457.276	132.19
457.497	136.19
457.717	127.19
457.937	117.19
458.157	135.19
458.377	139.19
458.598	122.19
458.818	117.19
459.038	145.19
459.258	152.19
459.478	153.19
459.698	141.19
459.918	157.19
460.138	148.19
460.358	141.19
460.578	155.19
460.798	157.19
461.018	155.19
461.238	142.19
461.458	145.19
461.678	141.19
461.898	155.19
462.118	156.19
462.338	156.19
462.558	133.19
462.777	155.19
462.997	158.19
463.217	151.19
463.437	160.19
463.657	164.19
463.876	151.19
464.096	160.19
464.316	157.19
464.536	171.19
464.755	171.19
464.975	170.19
465.195	159.19
465.414	153.19
465.634	160.19
465.854	135.19
466.073	142.19
466.293	135.19
466.512	141.19
466.732	157.19
466.951	163.19
467.171	144.19
467.391	142.19
467.61	149.19
467.829	169.19
468.049	140.19
468.268	141.19
468.488	133.19
468.707	142.19
468.927	152.19
469.146	182.19
469.365	147.19
469.585	155.19
469.804	160.19
470.023	177.19
470.243	159.19
470.462	160.19
470.681	135.19
470.901	161.19
471.12	167.19
471.339	154.19
471.558	168.19
471.777	168.19
471.997	162.19
472.216	186.19
472.435	168.19
472.654	156.19
472.873	163.19
473.092	170.19
473.311	153.19
473.53	150.19
473.749	156.19
473.968	144.19
474.187	169.19
474.406	172.19
474.625	145.19
474.844	157.19
475.063	145.19
475.282	162.19
475.501	163.19
475.72	189.19
475.939	194.19
476.158	173.19
476.377	205.19
476.596	219.19
476.814	218.19
477.033	210.19
477.252	177.19
477.471	154.19
477.69	170.19
477.908	159.19
478.127	185.19
478.346	169.19
478.564	184.19
478.783	162.19
479.002	172.19
479.22	188.19
479.439	194.19
479.658	180.19
479.876	182.19
480.095	170.19
480.313	190.19
480.532	169.19
480.751	158.19
480.969	160.19
481.188	191.19
481.406	181.19
481.624	191.19
481.843	185.19
482.061	166.19
482.28	192.19
482.498	214.19
482.717	209.19
482.935	177.19
483.153	176.19
483.372	177.19
483.59	164.19
483.808	156.19
484.027	149.19
484.245	165.19
484.463	157.19
484.681	165.19
484.9	176.19
485.118	181.19
485.336	169.19
485.554	163.19
485.772	163.19
485.99	179.19
486.209	180.19
486.427	168.19
486.645	178.19
486.863	174.19
487.081	195.19
487.299	214.19
487.517	194.19
487.735	171.19
487.953	179.19
488.171	185.19
488.389	169.19
488.607	171.19
488.825	178.19
489.043	200.19
489.261	204.19
489.479	229.19
489.696	187.19
489.914	186.19
490.132	185.19
490.35	176.19
490.568	159.19
490.786	171.19
491.003	176.19
491.221	162.19
491.439	176.19
491.657	153.19
491.874	178.19
492.092	204.19
492.31	275.19
492.527	249.19
492.745	213.19
492.963	197.19
493.18	187.19
493.398	198.19
493.615	182.19
493.833	187.19
494.05	195.19
494.268	181.19
494.485	183.19
494.703	183.19
494.92	188.19
495.138	189.19
495.355	175.19
495.573	184.19
495.79	212.19
496.008	257.19
496.225	224.19
496.442	187.19
496.66	191.19
496.877	203.19
497.094	192.19
497.312	202.19
497.529	186.19
497.746	199.19
497.963	202.19
498.181	204.19
498.398	217.19
498.615	228.19
498.832	227.19
499.049	227.19
499.267	225.19
499.484	240.19
499.701	215.19
499.918	246.19
500.135	240.19
500.352	240.19
500.569	254.19
500.786	273.19
501.003	269.19
501.22	247.19
501.437	244.19
501.654	234.19
501.871	222.19
502.088	212.19
502.305	202.19
502.522	205.19
502.739	212.19
