Data from NickelSpatula.Lamp.E5.5.P2_HRD10591_11-52-00-557.txt Node
Date: Tue Jul 23 11:52:00 EDT 2019
User: cochatt
Spectrometer: HR+D1059
Trigger mode: 1
Integration Time (sec): 1.000000E-1
Scans to average: 1
Electric dark correction enabled: true
Nonlinearity correction enabled: false
Boxcar width: 0
XAxis mode: Wavelengths
Number of Pixels in Spectrum: 2048
>>>>>Begin Spectral Data<<<<<
223.165	-7.69
223.4	-7.69
223.635	-7.69
223.869	-11.69
224.104	-33.69
224.338	-25.69
224.573	-28.69
224.808	-10.69
225.042	0.31
225.277	-3.69
225.511	-2.69
225.746	13.31
225.98	6.31
226.215	1.31
226.449	8.31
226.683	30.31
226.918	27.31
227.152	37.31
227.387	40.31
227.621	43.31
227.856	49.31
228.09	45.31
228.324	55.31
228.559	49.31
228.793	57.31
229.027	63.31
229.262	79.31
229.496	72.31
229.73	85.31
229.964	93.31
230.199	103.31
230.433	95.31
230.667	84.31
230.901	114.31
231.136	111.31
231.37	104.31
231.604	103.31
231.838	107.31
232.072	95.31
232.306	109.31
232.541	104.31
232.775	100.31
233.009	120.31
233.243	126.31
233.477	106.31
233.711	129.31
233.945	133.31
234.179	118.31
234.413	112.31
234.647	133.31
234.881	147.31
235.115	134.31
235.349	143.31
235.583	134.31
235.817	128.31
236.051	125.31
236.285	144.31
236.519	150.31
236.753	145.31
236.987	129.31
237.221	140.31
237.455	142.31
237.689	134.31
237.922	137.31
238.156	134.31
238.39	161.31
238.624	173.31
238.858	165.31
239.091	147.31
239.325	137.31
239.559	149.31
239.793	157.31
240.027	160.31
240.26	158.31
240.494	163.31
240.728	167.31
240.961	187.31
241.195	174.31
241.429	173.31
241.662	163.31
241.896	143.31
242.13	142.31
242.363	148.31
242.597	143.31
242.83	159.31
243.064	157.31
243.298	166.31
243.531	177.31
243.765	163.31
243.998	162.31
244.232	153.31
244.465	163.31
244.699	171.31
244.932	175.31
245.166	167.31
245.399	155.31
245.633	146.31
245.866	155.31
246.099	158.31
246.333	183.31
246.566	202.31
246.8	193.31
247.033	177.31
247.266	163.31
247.5	175.31
247.733	173.31
247.966	185.31
248.2	189.31
248.433	186.31
248.666	214.31
248.899	214.31
249.133	208.31
249.366	217.31
249.599	240.31
249.832	218.31
250.066	205.31
250.299	206.31
250.532	207.31
250.765	200.31
250.998	184.31
251.231	167.31
251.465	185.31
251.698	201.31
251.931	203.31
252.164	215.31
252.397	231.31
252.63	252.31
252.863	265.31
253.096	262.31
253.329	255.31
253.562	265.31
253.795	290.31
254.028	295.31
254.261	294.31
254.494	273.31
254.727	249.31
254.96	248.31
255.193	250.31
255.426	254.31
255.659	199.31
255.892	210.31
256.124	204.31
256.357	258.31
256.59	276.31
256.823	273.31
257.056	230.31
257.289	212.31
257.521	243.31
257.754	268.31
257.987	323.31
258.22	261.31
258.452	229.31
258.685	272.31
258.918	285.31
259.151	277.31
259.383	294.31
259.616	342.31
259.849	367.31
260.081	360.31
260.314	385.31
260.547	328.31
260.779	330.31
261.012	372.31
261.244	346.31
261.477	368.31
261.71	321.31
261.942	279.31
262.175	292.31
262.407	280.31
262.64	288.31
262.872	324.31
263.105	367.31
263.337	356.31
263.57	344.31
263.802	250.31
264.035	232.31
264.267	247.31
264.499	206.31
264.732	195.31
264.964	173.31
265.197	192.31
265.429	204.31
265.661	208.31
265.894	210.31
266.126	240.31
266.358	253.31
266.591	281.31
266.823	332.31
267.055	326.31
267.287	285.31
267.52	302.31
267.752	303.31
267.984	330.31
268.216	314.31
268.448	249.31
268.681	276.31
268.913	269.31
269.145	307.31
269.377	301.31
269.609	304.31
269.841	265.31
270.073	287.31
270.306	306.31
270.538	319.31
270.77	317.31
271.002	294.31
271.234	352.31
271.466	332.31
271.698	331.31
271.93	298.31
272.162	323.31
272.394	289.31
272.626	309.31
272.858	316.31
273.09	323.31
273.322	301.31
273.553	289.31
273.785	302.31
274.017	391.31
274.249	466.31
274.481	489.31
274.713	530.31
274.945	617.31
275.176	623.31
275.408	539.31
275.64	507.31
275.872	522.31
276.104	457.31
276.335	381.31
276.567	399.31
276.799	412.31
277.031	431.31
277.262	354.31
277.494	287.31
277.726	259.31
277.957	278.31
278.189	324.31
278.421	303.31
278.652	309.31
278.884	298.31
279.115	285.31
279.347	264.31
279.579	275.31
279.81	293.31
280.042	282.31
280.273	295.31
280.505	295.31
280.736	248.31
280.968	258.31
281.199	266.31
281.431	293.31
281.662	268.31
281.894	285.31
282.125	289.31
282.356	295.31
282.588	317.31
282.819	261.31
283.051	289.31
283.282	353.31
283.513	421.31
283.745	446.31
283.976	466.31
284.207	417.31
284.439	437.31
284.67	435.31
284.901	366.31
285.132	402.31
285.364	410.31
285.595	402.31
285.826	413.31
286.057	417.31
286.288	369.31
286.52	407.31
286.751	425.31
286.982	427.31
287.213	398.31
287.444	371.31
287.675	382.31
287.906	383.31
288.138	323.31
288.369	301.31
288.6	287.31
288.831	304.31
289.062	334.31
289.293	375.31
289.524	362.31
289.755	349.31
289.986	359.31
290.217	330.31
290.448	271.31
290.679	246.31
290.91	224.31
291.141	230.31
291.371	233.31
291.602	243.31
291.833	260.31
292.064	253.31
292.295	282.31
292.526	301.31
292.757	314.31
292.987	338.31
293.218	326.31
293.449	355.31
293.68	375.31
293.91	353.31
294.141	374.31
294.372	350.31
294.603	315.31
294.833	355.31
295.064	407.31
295.295	389.31
295.525	301.31
295.756	282.31
295.987	260.31
296.217	249.31
296.448	231.31
296.679	256.31
296.909	279.31
297.14	288.31
297.37	317.31
297.601	301.31
297.831	271.31
298.062	283.31
298.292	319.31
298.523	328.31
298.753	369.31
298.984	347.31
299.214	298.31
299.445	270.31
299.675	235.31
299.905	230.31
300.136	243.31
300.366	259.31
300.597	257.31
300.827	249.31
301.057	257.31
301.288	259.31
301.518	258.31
301.748	291.31
301.979	290.31
302.209	331.31
302.439	316.31
302.669	299.31
302.9	271.31
303.13	267.31
303.36	267.31
303.59	259.31
303.82	266.31
304.051	309.31
304.281	303.31
304.511	313.31
304.741	249.31
304.971	274.31
305.201	288.31
305.431	282.31
305.661	263.31
305.891	247.31
306.121	253.31
306.352	222.31
306.582	215.31
306.812	209.31
307.042	218.31
307.272	195.31
307.502	217.31
307.731	209.31
307.961	229.31
308.191	213.31
308.421	203.31
308.651	212.31
308.881	202.31
309.111	194.31
309.341	213.31
309.571	219.31
309.8	225.31
310.03	232.31
310.26	224.31
310.49	228.31
310.72	216.31
310.949	201.31
311.179	211.31
311.409	239.31
311.639	263.31
311.868	299.31
312.098	366.31
312.328	392.31
312.557	383.31
312.787	379.31
313.017	342.31
313.246	377.31
313.476	413.31
313.706	352.31
313.935	296.31
314.165	267.31
314.394	222.31
314.624	239.31
314.853	238.31
315.083	253.31
315.312	238.31
315.542	230.31
315.771	232.31
316.001	207.31
316.23	213.31
316.46	203.31
316.689	205.31
316.919	194.31
317.148	214.31
317.377	185.31
317.607	224.31
317.836	219.31
318.065	243.31
318.295	266.31
318.524	270.31
318.753	251.31
318.983	214.31
319.212	206.31
319.441	207.31
319.67	270.31
319.9	265.31
320.129	247.31
320.358	230.31
320.587	207.31
320.816	233.31
321.046	251.31
321.275	280.31
321.504	290.31
321.733	271.31
321.962	276.31
322.191	254.31
322.42	224.31
322.649	255.31
322.878	267.31
323.108	257.31
323.337	239.31
323.566	238.31
323.795	250.31
324.024	235.31
324.253	258.31
324.482	231.31
324.71	241.31
324.939	281.31
325.168	243.31
325.397	222.31
325.626	221.31
325.855	220.31
326.084	226.31
326.313	221.31
326.542	192.31
326.77	212.31
326.999	234.31
327.228	231.31
327.457	226.31
327.686	233.31
327.914	225.31
328.143	203.31
328.372	223.31
328.6	219.31
328.829	207.31
329.058	219.31
329.287	217.31
329.515	208.31
329.744	213.31
329.972	216.31
330.201	213.31
330.43	204.31
330.658	222.31
330.887	229.31
331.115	235.31
331.344	233.31
331.572	232.31
331.801	216.31
332.03	221.31
332.258	217.31
332.486	217.31
332.715	244.31
332.943	240.31
333.172	251.31
333.4	241.31
333.629	276.31
333.857	274.31
334.085	257.31
334.314	256.31
334.542	245.31
334.771	238.31
334.999	219.31
335.227	213.31
335.455	230.31
335.684	250.31
335.912	275.31
336.14	312.31
336.369	288.31
336.597	254.31
336.825	306.31
337.053	314.31
337.281	284.31
337.51	251.31
337.738	237.31
337.966	249.31
338.194	261.31
338.422	267.31
338.65	233.31
338.878	206.31
339.106	209.31
339.334	232.31
339.562	247.31
339.79	221.31
340.018	215.31
340.246	241.31
340.474	255.31
340.702	278.31
340.93	270.31
341.158	287.31
341.386	270.31
341.614	256.31
341.842	250.31
342.07	266.31
342.298	290.31
342.526	289.31
342.754	267.31
342.981	257.31
343.209	251.31
343.437	248.31
343.665	261.31
343.893	279.31
344.12	324.31
344.348	344.31
344.576	319.31
344.804	273.31
345.031	232.31
345.259	225.31
345.487	222.31
345.714	246.31
345.942	257.31
346.17	275.31
346.397	270.31
346.625	242.31
346.853	237.31
347.08	221.31
347.308	233.31
347.535	264.31
347.763	282.31
347.99	256.31
348.218	230.31
348.445	220.31
348.673	228.31
348.9	227.31
349.128	246.31
349.355	255.31
349.583	242.31
349.81	247.31
350.037	230.31
350.265	214.31
350.492	212.31
350.72	192.31
350.947	206.31
351.174	223.31
351.402	228.31
351.629	238.31
351.856	218.31
352.083	223.31
352.311	228.31
352.538	248.31
352.765	252.31
352.992	244.31
353.22	242.31
353.447	254.31
353.674	219.31
353.901	232.31
354.128	229.31
354.355	215.31
354.583	244.31
354.81	239.31
355.037	253.31
355.264	241.31
355.491	239.31
355.718	265.31
355.945	255.31
356.172	248.31
356.399	262.31
356.626	278.31
356.853	350.31
357.08	344.31
357.307	369.31
357.534	289.31
357.761	311.31
357.988	383.31
358.215	413.31
358.441	374.31
358.668	353.31
358.895	317.31
359.122	301.31
359.349	295.31
359.576	326.31
359.802	271.31
360.029	227.31
360.256	239.31
360.483	288.31
360.709	354.31
360.936	372.31
361.163	319.31
361.39	237.31
361.616	232.31
361.843	254.31
362.07	316.31
362.296	278.31
362.523	233.31
362.749	235.31
362.976	225.31
363.203	264.31
363.429	297.31
363.656	242.31
363.882	226.31
364.109	243.31
364.335	225.31
364.562	216.31
364.788	255.31
365.015	281.31
365.241	271.31
365.468	244.31
365.694	215.31
365.92	215.31
366.147	189.31
366.373	208.31
366.599	189.31
366.826	204.31
367.052	206.31
367.278	218.31
367.505	199.31
367.731	226.31
367.957	234.31
368.184	240.31
368.41	223.31
368.636	242.31
368.862	254.31
369.089	222.31
369.315	205.31
369.541	200.31
369.767	207.31
369.993	193.31
370.219	208.31
370.445	208.31
370.672	230.31
370.898	252.31
371.124	268.31
371.35	226.31
371.576	228.31
371.802	246.31
372.028	263.31
372.254	297.31
372.48	282.31
372.706	267.31
372.932	252.31
373.158	267.31
373.384	296.31
373.61	368.31
373.835	388.31
374.061	331.31
374.287	269.31
374.513	321.31
374.739	339.31
374.965	369.31
375.191	356.31
375.416	265.31
375.642	223.31
375.868	274.31
376.094	301.31
376.319	272.31
376.545	281.31
376.771	281.31
376.997	274.31
377.222	219.31
377.448	208.31
377.674	202.31
377.899	197.31
378.125	189.31
378.35	200.31
378.576	222.31
378.802	218.31
379.027	223.31
379.253	209.31
379.478	218.31
379.704	249.31
379.929	253.31
380.155	261.31
380.38	229.31
380.606	250.31
380.831	277.31
381.057	247.31
381.282	242.31
381.507	264.31
381.733	311.31
381.958	331.31
382.184	332.31
382.409	365.31
382.634	367.31
382.86	388.31
383.085	338.31
383.31	272.31
383.535	287.31
383.761	280.31
383.986	279.31
384.211	315.31
384.436	317.31
384.662	254.31
384.887	236.31
385.112	258.31
385.337	261.31
385.562	260.31
385.787	281.31
386.013	295.31
386.238	299.31
386.463	266.31
386.688	241.31
386.913	231.31
387.138	233.31
387.363	227.31
387.588	234.31
387.813	255.31
388.038	271.31
388.263	232.31
388.488	243.31
388.713	269.31
388.938	289.31
389.163	251.31
389.387	242.31
389.612	225.31
389.837	223.31
390.062	256.31
390.287	240.31
390.512	255.31
390.736	246.31
390.961	222.31
391.186	236.31
391.411	211.31
391.636	224.31
391.86	245.31
392.085	263.31
392.31	254.31
392.534	250.31
392.759	253.31
392.984	256.31
393.208	262.31
393.433	219.31
393.658	214.31
393.882	201.31
394.107	198.31
394.331	223.31
394.556	202.31
394.78	213.31
395.005	219.31
395.229	229.31
395.454	230.31
395.678	223.31
395.903	233.31
396.127	214.31
396.352	227.31
396.576	238.31
396.801	247.31
397.025	260.31
397.249	269.31
397.474	258.31
397.698	241.31
397.922	241.31
398.147	233.31
398.371	234.31
398.595	243.31
398.82	261.31
399.044	249.31
399.268	260.31
399.492	295.31
399.717	287.31
399.941	281.31
400.165	289.31
400.389	273.31
400.613	261.31
400.837	245.31
401.062	240.31
401.286	224.31
401.51	240.31
401.734	249.31
401.958	238.31
402.182	245.31
402.406	236.31
402.63	253.31
402.854	265.31
403.078	313.31
403.302	390.31
403.526	404.31
403.75	369.31
403.974	314.31
404.198	304.31
404.422	318.31
404.645	333.31
404.869	375.31
405.093	279.31
405.317	263.31
405.541	275.31
405.765	290.31
405.988	270.31
406.212	281.31
406.436	303.31
406.66	312.31
406.883	286.31
407.107	296.31
407.331	328.31
407.555	324.31
407.778	280.31
408.002	287.31
408.226	285.31
408.449	265.31
408.673	258.31
408.896	245.31
409.12	234.31
409.344	247.31
409.567	239.31
409.791	246.31
410.014	239.31
410.238	242.31
410.461	241.31
410.685	240.31
410.908	243.31
411.132	238.31
411.355	244.31
411.578	256.31
411.802	254.31
412.025	258.31
412.249	257.31
412.472	244.31
412.695	237.31
412.919	251.31
413.142	243.31
413.365	266.31
413.589	270.31
413.812	254.31
414.035	240.31
414.258	237.31
414.482	239.31
414.705	261.31
414.928	231.31
415.151	238.31
415.374	239.31
415.597	239.31
415.821	225.31
416.044	215.31
416.267	248.31
416.49	235.31
416.713	212.31
416.936	209.31
417.159	224.31
417.382	211.31
417.605	241.31
417.828	257.31
418.051	243.31
418.274	264.31
418.497	240.31
418.72	242.31
418.943	246.31
419.166	266.31
419.389	258.31
419.611	264.31
419.834	260.31
420.057	264.31
420.28	267.31
420.503	268.31
420.726	239.31
420.948	231.31
421.171	238.31
421.394	226.31
421.617	228.31
421.839	217.31
422.062	244.31
422.285	247.31
422.507	223.31
422.73	248.31
422.953	261.31
423.175	242.31
423.398	248.31
423.621	248.31
423.843	282.31
424.066	263.31
424.288	262.31
424.511	242.31
424.733	252.31
424.956	243.31
425.178	281.31
425.401	313.31
425.623	383.31
425.846	315.31
426.068	266.31
426.291	261.31
426.513	230.31
426.735	249.31
426.958	264.31
427.18	293.31
427.402	353.31
427.625	367.31
427.847	323.31
428.069	255.31
428.292	258.31
428.514	241.31
428.736	229.31
428.958	250.31
429.181	347.31
429.403	254.31
429.625	249.31
429.847	236.31
430.069	217.31
430.292	240.31
430.514	219.31
430.736	245.31
430.958	291.31
431.18	265.31
431.402	222.31
431.624	216.31
431.846	220.31
432.068	226.31
432.29	217.31
432.512	239.31
432.734	271.31
432.956	256.31
433.178	234.31
433.4	237.31
433.622	241.31
433.844	245.31
434.066	246.31
434.287	258.31
434.509	237.31
434.731	258.31
434.953	239.31
435.175	243.31
435.397	291.31
435.618	234.31
435.84	234.31
436.062	231.31
436.284	229.31
436.505	208.31
436.727	221.31
436.949	201.31
437.17	234.31
437.392	232.31
437.614	234.31
437.835	232.31
438.057	222.31
438.278	233.31
438.5	328.31
438.721	307.31
438.943	242.31
439.165	230.31
439.386	237.31
439.608	213.31
439.829	211.31
440.05	229.31
440.272	225.31
440.493	247.31
440.715	323.31
440.936	252.31
441.158	233.31
441.379	253.31
441.6	260.31
441.822	266.31
442.043	249.31
442.264	239.31
442.486	247.31
442.707	239.31
442.928	242.31
443.149	243.31
443.371	247.31
443.592	258.31
443.813	257.31
444.034	252.31
444.255	233.31
444.476	275.31
444.698	259.31
444.919	260.31
445.14	345.31
445.361	290.31
445.582	269.31
445.803	250.31
446.024	253.31
446.245	246.31
446.466	235.31
446.687	230.31
446.908	229.31
447.129	234.31
447.35	210.31
447.571	220.31
447.792	220.31
448.013	227.31
448.234	208.31
448.455	210.31
448.675	213.31
448.896	210.31
449.117	214.31
449.338	216.31
449.559	235.31
449.779	211.31
450	238.31
450.221	209.31
450.442	221.31
450.662	215.31
450.883	221.31
451.104	223.31
451.324	226.31
451.545	236.31
451.766	216.31
451.986	241.31
452.207	207.31
452.428	199.31
452.648	204.31
452.869	223.31
453.089	237.31
453.31	223.31
453.53	210.31
453.751	198.31
453.971	232.31
454.192	214.31
454.412	217.31
454.633	229.31
454.853	211.31
455.073	204.31
455.294	199.31
455.514	209.31
455.734	201.31
455.955	213.31
456.175	224.31
456.395	203.31
456.616	187.31
456.836	201.31
457.056	203.31
457.276	206.31
457.497	194.31
457.717	203.31
457.937	209.31
458.157	207.31
458.377	195.31
458.598	205.31
458.818	215.31
459.038	217.31
459.258	236.31
459.478	225.31
459.698	246.31
459.918	246.31
460.138	260.31
460.358	266.31
460.578	235.31
460.798	235.31
461.018	263.31
461.238	242.31
461.458	257.31
461.678	259.31
461.898	273.31
462.118	253.31
462.338	257.31
462.558	280.31
462.777	271.31
462.997	293.31
463.217	298.31
463.437	288.31
463.657	303.31
463.876	273.31
464.096	269.31
464.316	265.31
464.536	266.31
464.755	294.31
464.975	280.31
465.195	258.31
465.414	275.31
465.634	246.31
465.854	248.31
466.073	245.31
466.293	223.31
466.512	244.31
466.732	259.31
466.951	257.31
467.171	231.31
467.391	223.31
467.61	235.31
467.829	255.31
468.049	240.31
468.268	221.31
468.488	207.31
468.707	246.31
468.927	276.31
469.146	255.31
469.365	247.31
469.585	245.31
469.804	256.31
470.023	255.31
470.243	249.31
470.462	230.31
470.681	257.31
470.901	260.31
471.12	247.31
471.339	262.31
471.558	227.31
471.777	243.31
471.997	254.31
472.216	301.31
472.435	278.31
472.654	245.31
472.873	263.31
473.092	247.31
473.311	263.31
473.53	251.31
473.749	244.31
473.968	245.31
474.187	251.31
474.406	244.31
474.625	240.31
474.844	252.31
475.063	257.31
475.282	260.31
475.501	256.31
475.72	272.31
475.939	291.31
476.158	268.31
476.377	312.31
476.596	330.31
476.814	372.31
477.033	282.31
477.252	265.31
477.471	241.31
477.69	274.31
477.908	281.31
478.127	280.31
478.346	274.31
478.564	300.31
478.783	288.31
479.002	295.31
479.22	319.31
479.439	339.31
479.658	282.31
479.876	294.31
480.095	294.31
480.313	299.31
480.532	283.31
480.751	285.31
480.969	277.31
481.188	311.31
481.406	324.31
481.624	291.31
481.843	288.31
482.061	282.31
482.28	293.31
482.498	361.31
482.717	359.31
482.935	285.31
483.153	278.31
483.372	267.31
483.59	267.31
483.808	294.31
484.027	259.31
484.245	262.31
484.463	252.31
484.681	261.31
484.9	282.31
485.118	282.31
485.336	270.31
485.554	245.31
485.772	273.31
485.99	281.31
486.209	307.31
486.427	296.31
486.645	312.31
486.863	299.31
487.081	297.31
487.299	317.31
487.517	321.31
487.735	293.31
487.953	286.31
488.171	306.31
488.389	282.31
488.607	276.31
488.825	312.31
489.043	290.31
489.261	344.31
489.479	330.31
489.696	307.31
489.914	295.31
490.132	266.31
490.35	256.31
490.568	280.31
490.786	277.31
491.003	295.31
491.221	266.31
491.439	245.31
491.657	261.31
491.874	287.31
492.092	334.31
492.31	375.31
492.527	373.31
492.745	337.31
492.963	301.31
493.18	302.31
493.398	287.31
493.615	298.31
493.833	312.31
494.05	298.31
494.268	302.31
494.485	305.31
494.703	310.31
494.92	301.31
495.138	285.31
495.355	291.31
495.573	290.31
495.79	331.31
496.008	387.31
496.225	334.31
496.442	312.31
496.66	314.31
496.877	323.31
497.094	319.31
497.312	297.31
497.529	309.31
497.746	330.31
497.963	314.31
498.181	322.31
498.398	370.31
498.615	359.31
498.832	377.31
499.049	402.31
499.267	384.31
499.484	396.31
499.701	407.31
499.918	464.31
500.135	516.31
500.352	533.31
500.569	557.31
500.786	544.31
501.003	534.31
501.22	487.31
501.437	454.31
501.654	436.31
501.871	385.31
502.088	369.31
502.305	361.31
502.522	358.31
