Data from NickelSpatula.Lamp.E5.5.P2_HRD10591_11-51-10-562.txt Node
Date: Tue Jul 23 11:51:10 EDT 2019
User: cochatt
Spectrometer: HR+D1059
Trigger mode: 1
Integration Time (sec): 1.000000E-1
Scans to average: 1
Electric dark correction enabled: true
Nonlinearity correction enabled: false
Boxcar width: 0
XAxis mode: Wavelengths
Number of Pixels in Spectrum: 2048
>>>>>Begin Spectral Data<<<<<
223.165	-23.81
223.4	-23.81
223.635	-23.81
223.869	-15.81
224.104	-17.81
224.338	-13.81
224.573	-2.81
224.808	-9.81
225.042	-5.81
225.277	-11.81
225.511	-4.81
225.746	9.19
225.98	-11.81
226.215	18.19
226.449	11.19
226.683	15.19
226.918	25.19
227.152	39.19
227.387	49.19
227.621	24.19
227.856	28.19
228.09	44.19
228.324	43.19
228.559	56.19
228.793	56.19
229.027	64.19
229.262	67.19
229.496	77.19
229.73	92.19
229.964	92.19
230.199	90.19
230.433	94.19
230.667	95.19
230.901	85.19
231.136	87.19
231.37	92.19
231.604	92.19
231.838	104.19
232.072	93.19
232.306	102.19
232.541	102.19
232.775	93.19
233.009	114.19
233.243	110.19
233.477	112.19
233.711	131.19
233.945	113.19
234.179	115.19
234.413	113.19
234.647	111.19
234.881	112.19
235.115	139.19
235.349	126.19
235.583	118.19
235.817	110.19
236.051	98.19
236.285	131.19
236.519	130.19
236.753	119.19
236.987	117.19
237.221	113.19
237.455	110.19
237.689	115.19
237.922	123.19
238.156	143.19
238.39	144.19
238.624	139.19
238.858	133.19
239.091	143.19
239.325	134.19
239.559	119.19
239.793	146.19
240.027	146.19
240.26	145.19
240.494	150.19
240.728	142.19
240.961	167.19
241.195	165.19
241.429	160.19
241.662	170.19
241.896	148.19
242.13	137.19
242.363	120.19
242.597	142.19
242.83	120.19
243.064	150.19
243.298	148.19
243.531	142.19
243.765	150.19
243.998	137.19
244.232	147.19
244.465	154.19
244.699	158.19
244.932	143.19
245.166	156.19
245.399	143.19
245.633	130.19
245.866	148.19
246.099	162.19
246.333	168.19
246.566	166.19
246.8	183.19
247.033	176.19
247.266	154.19
247.5	155.19
247.733	151.19
247.966	160.19
248.2	178.19
248.433	167.19
248.666	162.19
248.899	167.19
249.133	183.19
249.366	197.19
249.599	213.19
249.832	198.19
250.066	186.19
250.299	197.19
250.532	196.19
250.765	184.19
250.998	172.19
251.231	163.19
251.465	159.19
251.698	183.19
251.931	187.19
252.164	177.19
252.397	196.19
252.63	205.19
252.863	216.19
253.096	237.19
253.329	208.19
253.562	235.19
253.795	232.19
254.028	243.19
254.261	267.19
254.494	268.19
254.727	229.19
254.96	215.19
255.193	227.19
255.426	248.19
255.659	182.19
255.892	182.19
256.124	189.19
256.357	213.19
256.59	239.19
256.823	226.19
257.056	208.19
257.289	196.19
257.521	216.19
257.754	221.19
257.987	268.19
258.22	241.19
258.452	228.19
258.685	231.19
258.918	251.19
259.151	258.19
259.383	284.19
259.616	299.19
259.849	298.19
260.081	308.19
260.314	358.19
260.547	283.19
260.779	286.19
261.012	328.19
261.244	307.19
261.477	293.19
261.71	287.19
261.942	265.19
262.175	267.19
262.407	235.19
262.64	248.19
262.872	276.19
263.105	323.19
263.337	309.19
263.57	282.19
263.802	211.19
264.035	199.19
264.267	197.19
264.499	177.19
264.732	169.19
264.964	154.19
265.197	164.19
265.429	178.19
265.661	188.19
265.894	181.19
266.126	211.19
266.358	215.19
266.591	260.19
266.823	302.19
267.055	288.19
267.287	254.19
267.52	261.19
267.752	288.19
267.984	282.19
268.216	282.19
268.448	248.19
268.681	234.19
268.913	270.19
269.145	272.19
269.377	272.19
269.609	258.19
269.841	262.19
270.073	286.19
270.306	279.19
270.538	285.19
270.77	296.19
271.002	307.19
271.234	305.19
271.466	301.19
271.698	294.19
271.93	273.19
272.162	282.19
272.394	266.19
272.626	284.19
272.858	278.19
273.09	274.19
273.322	263.19
273.553	235.19
273.785	280.19
274.017	349.19
274.249	410.19
274.481	416.19
274.713	454.19
274.945	511.19
275.176	532.19
275.408	497.19
275.64	447.19
275.872	453.19
276.104	376.19
276.335	359.19
276.567	346.19
276.799	352.19
277.031	368.19
277.262	304.19
277.494	261.19
277.726	234.19
277.957	250.19
278.189	288.19
278.421	277.19
278.652	304.19
278.884	263.19
279.115	261.19
279.347	263.19
279.579	246.19
279.81	253.19
280.042	253.19
280.273	235.19
280.505	238.19
280.736	240.19
280.968	237.19
281.199	231.19
281.431	271.19
281.662	274.19
281.894	268.19
282.125	275.19
282.356	262.19
282.588	270.19
282.819	248.19
283.051	278.19
283.282	324.19
283.513	372.19
283.745	406.19
283.976	385.19
284.207	349.19
284.439	386.19
284.67	368.19
284.901	333.19
285.132	340.19
285.364	370.19
285.595	358.19
285.826	375.19
286.057	364.19
286.288	358.19
286.52	353.19
286.751	383.19
286.982	400.19
287.213	335.19
287.444	331.19
287.675	358.19
287.906	357.19
288.138	307.19
288.369	284.19
288.6	270.19
288.831	279.19
289.062	316.19
289.293	352.19
289.524	326.19
289.755	324.19
289.986	311.19
290.217	308.19
290.448	244.19
290.679	222.19
290.91	219.19
291.141	209.19
291.371	235.19
291.602	224.19
291.833	226.19
292.064	226.19
292.295	249.19
292.526	272.19
292.757	298.19
292.987	309.19
293.218	315.19
293.449	314.19
293.68	341.19
293.91	332.19
294.141	355.19
294.372	317.19
294.603	288.19
294.833	317.19
295.064	363.19
295.295	356.19
295.525	270.19
295.756	265.19
295.987	212.19
296.217	216.19
296.448	231.19
296.679	232.19
296.909	253.19
297.14	255.19
297.37	298.19
297.601	280.19
297.831	255.19
298.062	268.19
298.292	287.19
298.523	280.19
298.753	313.19
298.984	312.19
299.214	280.19
299.445	242.19
299.675	213.19
299.905	222.19
300.136	224.19
300.366	242.19
300.597	246.19
300.827	216.19
301.057	227.19
301.288	224.19
301.518	230.19
301.748	278.19
301.979	264.19
302.209	306.19
302.439	298.19
302.669	261.19
302.9	271.19
303.13	240.19
303.36	235.19
303.59	223.19
303.82	230.19
304.051	256.19
304.281	284.19
304.511	284.19
304.741	251.19
304.971	242.19
305.201	271.19
305.431	262.19
305.661	250.19
305.891	229.19
306.121	227.19
306.352	218.19
306.582	215.19
306.812	198.19
307.042	201.19
307.272	191.19
307.502	178.19
307.731	199.19
307.961	212.19
308.191	197.19
308.421	205.19
308.651	191.19
308.881	205.19
309.111	178.19
309.341	197.19
309.571	199.19
309.8	225.19
310.03	206.19
310.26	220.19
310.49	200.19
310.72	205.19
310.949	187.19
311.179	199.19
311.409	212.19
311.639	227.19
311.868	274.19
312.098	308.19
312.328	362.19
312.557	355.19
312.787	384.19
313.017	318.19
313.246	342.19
313.476	350.19
313.706	311.19
313.935	284.19
314.165	224.19
314.394	222.19
314.624	210.19
314.853	212.19
315.083	226.19
315.312	220.19
315.542	198.19
315.771	223.19
316.001	210.19
316.23	199.19
316.46	204.19
316.689	200.19
316.919	192.19
317.148	192.19
317.377	196.19
317.607	190.19
317.836	218.19
318.065	236.19
318.295	256.19
318.524	234.19
318.753	213.19
318.983	230.19
319.212	202.19
319.441	199.19
319.67	227.19
319.9	238.19
320.129	236.19
320.358	212.19
320.587	211.19
320.816	218.19
321.046	244.19
321.275	241.19
321.504	242.19
321.733	256.19
321.962	249.19
322.191	223.19
322.42	228.19
322.649	211.19
322.878	247.19
323.108	252.19
323.337	234.19
323.566	239.19
323.795	224.19
324.024	222.19
324.253	213.19
324.482	219.19
324.71	230.19
324.939	240.19
325.168	238.19
325.397	204.19
325.626	200.19
325.855	213.19
326.084	207.19
326.313	201.19
326.542	208.19
326.77	194.19
326.999	215.19
327.228	212.19
327.457	218.19
327.686	235.19
327.914	202.19
328.143	197.19
328.372	183.19
328.6	194.19
328.829	199.19
329.058	188.19
329.287	205.19
329.515	203.19
329.744	198.19
329.972	213.19
330.201	186.19
330.43	189.19
330.658	209.19
330.887	228.19
331.115	240.19
331.344	222.19
331.572	222.19
331.801	220.19
332.03	203.19
332.258	200.19
332.486	239.19
332.715	225.19
332.943	220.19
333.172	219.19
333.4	221.19
333.629	223.19
333.857	251.19
334.085	264.19
334.314	241.19
334.542	226.19
334.771	247.19
334.999	206.19
335.227	213.19
335.455	223.19
335.684	229.19
335.912	243.19
336.14	263.19
336.369	275.19
336.597	253.19
336.825	267.19
337.053	309.19
337.281	258.19
337.51	220.19
337.738	226.19
337.966	227.19
338.194	252.19
338.422	236.19
338.65	204.19
338.878	216.19
339.106	210.19
339.334	200.19
339.562	237.19
339.79	227.19
340.018	198.19
340.246	210.19
340.474	258.19
340.702	262.19
340.93	269.19
341.158	265.19
341.386	229.19
341.614	224.19
341.842	220.19
342.07	232.19
342.298	280.19
342.526	275.19
342.754	237.19
342.981	232.19
343.209	216.19
343.437	228.19
343.665	247.19
343.893	258.19
344.12	289.19
344.348	343.19
344.576	284.19
344.804	251.19
345.031	219.19
345.259	194.19
345.487	212.19
345.714	221.19
345.942	229.19
346.17	271.19
346.397	243.19
346.625	225.19
346.853	225.19
347.08	214.19
347.308	236.19
347.535	236.19
347.763	242.19
347.99	216.19
348.218	216.19
348.445	243.19
348.673	218.19
348.9	220.19
349.128	223.19
349.355	219.19
349.583	235.19
349.81	211.19
350.037	205.19
350.265	214.19
350.492	192.19
350.72	186.19
350.947	202.19
351.174	196.19
351.402	209.19
351.629	199.19
351.856	199.19
352.083	207.19
352.311	226.19
352.538	237.19
352.765	242.19
352.992	213.19
353.22	234.19
353.447	241.19
353.674	232.19
353.901	223.19
354.128	218.19
354.355	218.19
354.583	232.19
354.81	220.19
355.037	253.19
355.264	226.19
355.491	219.19
355.718	221.19
355.945	239.19
356.172	241.19
356.399	252.19
356.626	268.19
356.853	301.19
357.08	338.19
357.307	336.19
357.534	284.19
357.761	278.19
357.988	356.19
358.215	386.19
358.441	351.19
358.668	290.19
358.895	308.19
359.122	264.19
359.349	268.19
359.576	321.19
359.802	254.19
360.029	218.19
360.256	233.19
360.483	258.19
360.709	319.19
360.936	322.19
361.163	289.19
361.39	251.19
361.616	226.19
361.843	239.19
362.07	292.19
362.296	268.19
362.523	238.19
362.749	206.19
362.976	210.19
363.203	252.19
363.429	263.19
363.656	244.19
363.882	210.19
364.109	215.19
364.335	210.19
364.562	205.19
364.788	242.19
365.015	264.19
365.241	238.19
365.468	212.19
365.694	194.19
365.92	181.19
366.147	175.19
366.373	182.19
366.599	198.19
366.826	188.19
367.052	176.19
367.278	204.19
367.505	192.19
367.731	198.19
367.957	228.19
368.184	222.19
368.41	231.19
368.636	237.19
368.862	238.19
369.089	219.19
369.315	207.19
369.541	194.19
369.767	204.19
369.993	183.19
370.219	189.19
370.445	202.19
370.672	229.19
370.898	221.19
371.124	256.19
371.35	205.19
371.576	206.19
371.802	212.19
372.028	246.19
372.254	268.19
372.48	262.19
372.706	230.19
372.932	241.19
373.158	248.19
373.384	288.19
373.61	344.19
373.835	369.19
374.061	281.19
374.287	260.19
374.513	284.19
374.739	327.19
374.965	354.19
375.191	351.19
375.416	264.19
375.642	224.19
375.868	259.19
376.094	276.19
376.319	259.19
376.545	277.19
376.771	280.19
376.997	263.19
377.222	202.19
377.448	184.19
377.674	204.19
377.899	197.19
378.125	199.19
378.35	206.19
378.576	190.19
378.802	203.19
379.027	219.19
379.253	219.19
379.478	224.19
379.704	218.19
379.929	231.19
380.155	242.19
380.38	207.19
380.606	235.19
380.831	226.19
381.057	228.19
381.282	213.19
381.507	241.19
381.733	277.19
381.958	302.19
382.184	326.19
382.409	331.19
382.634	330.19
382.86	334.19
383.085	279.19
383.31	244.19
383.535	270.19
383.761	263.19
383.986	247.19
384.211	301.19
384.436	282.19
384.662	235.19
384.887	252.19
385.112	241.19
385.337	256.19
385.562	244.19
385.787	251.19
386.013	277.19
386.238	276.19
386.463	225.19
386.688	231.19
386.913	220.19
387.138	208.19
387.363	228.19
387.588	235.19
387.813	230.19
388.038	261.19
388.263	227.19
388.488	222.19
388.713	240.19
388.938	282.19
389.163	242.19
389.387	200.19
389.612	214.19
389.837	225.19
390.062	213.19
390.287	230.19
390.512	227.19
390.736	234.19
390.961	220.19
391.186	189.19
391.411	208.19
391.636	214.19
391.86	212.19
392.085	240.19
392.31	252.19
392.534	227.19
392.759	215.19
392.984	216.19
393.208	248.19
393.433	209.19
393.658	224.19
393.882	203.19
394.107	208.19
394.331	215.19
394.556	205.19
394.78	216.19
395.005	209.19
395.229	194.19
395.454	218.19
395.678	209.19
395.903	219.19
396.127	217.19
396.352	216.19
396.576	222.19
396.801	250.19
397.025	243.19
397.249	264.19
397.474	224.19
397.698	208.19
397.922	238.19
398.147	221.19
398.371	235.19
398.595	233.19
398.82	239.19
399.044	241.19
399.268	238.19
399.492	277.19
399.717	266.19
399.941	289.19
400.165	263.19
400.389	251.19
400.613	247.19
400.837	253.19
401.062	222.19
401.286	227.19
401.51	212.19
401.734	223.19
401.958	238.19
402.182	225.19
402.406	242.19
402.63	235.19
402.854	256.19
403.078	278.19
403.302	340.19
403.526	357.19
403.75	310.19
403.974	274.19
404.198	286.19
404.422	314.19
404.645	328.19
404.869	334.19
405.093	303.19
405.317	253.19
405.541	254.19
405.765	273.19
405.988	246.19
406.212	268.19
406.436	306.19
406.66	314.19
406.883	286.19
407.107	284.19
407.331	292.19
407.555	318.19
407.778	288.19
408.002	262.19
408.226	282.19
408.449	256.19
408.673	270.19
408.896	251.19
409.12	236.19
409.344	233.19
409.567	235.19
409.791	242.19
410.014	243.19
410.238	242.19
410.461	248.19
410.685	231.19
410.908	235.19
411.132	245.19
411.355	229.19
411.578	227.19
411.802	237.19
412.025	223.19
412.249	254.19
412.472	240.19
412.695	247.19
412.919	235.19
413.142	242.19
413.365	245.19
413.589	252.19
413.812	244.19
414.035	218.19
414.258	228.19
414.482	246.19
414.705	270.19
414.928	229.19
415.151	221.19
415.374	224.19
415.597	221.19
415.821	211.19
416.044	211.19
416.267	226.19
416.49	227.19
416.713	219.19
416.936	209.19
417.159	224.19
417.382	239.19
417.605	244.19
417.828	236.19
418.051	237.19
418.274	237.19
418.497	215.19
418.72	238.19
418.943	245.19
419.166	242.19
419.389	262.19
419.611	257.19
419.834	262.19
420.057	283.19
420.28	261.19
420.503	265.19
420.726	220.19
420.948	236.19
421.171	210.19
421.394	215.19
421.617	205.19
421.839	227.19
422.062	229.19
422.285	230.19
422.507	246.19
422.73	257.19
422.953	239.19
423.175	230.19
423.398	248.19
423.621	240.19
423.843	255.19
424.066	258.19
424.288	255.19
424.511	229.19
424.733	248.19
424.956	239.19
425.178	264.19
425.401	287.19
425.623	353.19
425.846	302.19
426.068	264.19
426.291	272.19
426.513	235.19
426.735	215.19
426.958	263.19
427.18	258.19
427.402	332.19
427.625	346.19
427.847	304.19
428.069	242.19
428.292	228.19
428.514	230.19
428.736	241.19
428.958	234.19
429.181	295.19
429.403	259.19
429.625	230.19
429.847	207.19
430.069	227.19
430.292	241.19
430.514	208.19
430.736	222.19
430.958	274.19
431.18	258.19
431.402	212.19
431.624	210.19
431.846	213.19
432.068	215.19
432.29	211.19
432.512	226.19
432.734	276.19
432.956	265.19
433.178	236.19
433.4	231.19
433.622	224.19
433.844	230.19
434.066	258.19
434.287	245.19
434.509	239.19
434.731	243.19
434.953	248.19
435.175	246.19
435.397	271.19
435.618	224.19
435.84	217.19
436.062	224.19
436.284	223.19
436.505	220.19
436.727	208.19
436.949	230.19
437.17	198.19
437.392	236.19
437.614	207.19
437.835	229.19
438.057	219.19
438.278	222.19
438.5	302.19
438.721	312.19
438.943	222.19
439.165	208.19
439.386	212.19
439.608	203.19
439.829	206.19
440.05	186.19
440.272	223.19
440.493	230.19
440.715	268.19
440.936	251.19
441.158	229.19
441.379	243.19
441.6	245.19
441.822	244.19
442.043	226.19
442.264	236.19
442.486	227.19
442.707	234.19
442.928	231.19
443.149	219.19
443.371	207.19
443.592	242.19
443.813	231.19
444.034	222.19
444.255	242.19
444.476	254.19
444.698	262.19
444.919	271.19
445.14	362.19
445.361	306.19
445.582	246.19
445.803	255.19
446.024	238.19
446.245	216.19
446.466	229.19
446.687	230.19
446.908	229.19
447.129	218.19
447.35	204.19
447.571	218.19
447.792	216.19
448.013	208.19
448.234	210.19
448.455	208.19
448.675	194.19
448.896	216.19
449.117	198.19
449.338	215.19
449.559	218.19
449.779	220.19
450	235.19
450.221	219.19
450.442	218.19
450.662	186.19
450.883	207.19
451.104	226.19
451.324	191.19
451.545	216.19
451.766	211.19
451.986	219.19
452.207	203.19
452.428	213.19
452.648	218.19
452.869	218.19
453.089	212.19
453.31	204.19
453.53	210.19
453.751	202.19
453.971	207.19
454.192	204.19
454.412	204.19
454.633	204.19
454.853	202.19
455.073	187.19
455.294	201.19
455.514	208.19
455.734	207.19
455.955	209.19
456.175	212.19
456.395	201.19
456.616	208.19
456.836	182.19
457.056	180.19
457.276	182.19
457.497	199.19
457.717	191.19
457.937	196.19
458.157	202.19
458.377	184.19
458.598	204.19
458.818	200.19
459.038	209.19
459.258	228.19
459.478	215.19
459.698	238.19
459.918	227.19
460.138	223.19
460.358	241.19
460.578	227.19
460.798	244.19
461.018	235.19
461.238	223.19
461.458	234.19
461.678	248.19
461.898	259.19
462.118	249.19
462.338	256.19
462.558	253.19
462.777	264.19
462.997	280.19
463.217	282.19
463.437	268.19
463.657	280.19
463.876	250.19
464.096	251.19
464.316	272.19
464.536	281.19
464.755	277.19
464.975	260.19
465.195	250.19
465.414	264.19
465.634	257.19
465.854	241.19
466.073	222.19
466.293	226.19
466.512	229.19
466.732	251.19
466.951	255.19
467.171	214.19
467.391	213.19
467.61	225.19
467.829	223.19
468.049	234.19
468.268	215.19
468.488	211.19
468.707	236.19
468.927	250.19
469.146	260.19
469.365	234.19
469.585	234.19
469.804	240.19
470.023	253.19
470.243	251.19
470.462	242.19
470.681	219.19
470.901	234.19
471.12	241.19
471.339	237.19
471.558	235.19
471.777	245.19
471.997	246.19
472.216	271.19
472.435	251.19
472.654	229.19
472.873	234.19
473.092	249.19
473.311	241.19
473.53	227.19
473.749	225.19
473.968	243.19
474.187	229.19
474.406	229.19
474.625	221.19
474.844	226.19
475.063	224.19
475.282	222.19
475.501	267.19
475.72	271.19
475.939	250.19
476.158	239.19
476.377	286.19
476.596	319.19
476.814	335.19
477.033	272.19
477.252	238.19
477.471	250.19
477.69	231.19
477.908	263.19
478.127	293.19
478.346	271.19
478.564	280.19
478.783	275.19
479.002	277.19
479.22	287.19
479.439	307.19
479.658	285.19
479.876	267.19
480.095	276.19
480.313	289.19
480.532	286.19
480.751	271.19
480.969	259.19
481.188	262.19
481.406	274.19
481.624	262.19
481.843	258.19
482.061	229.19
482.28	264.19
482.498	327.19
482.717	323.19
482.935	262.19
483.153	255.19
483.372	236.19
483.59	263.19
483.808	258.19
484.027	251.19
484.245	238.19
484.463	243.19
484.681	253.19
484.9	257.19
485.118	270.19
485.336	281.19
485.554	261.19
485.772	255.19
485.99	291.19
486.209	278.19
486.427	298.19
486.645	292.19
486.863	274.19
487.081	280.19
487.299	302.19
487.517	286.19
487.735	272.19
487.953	281.19
488.171	284.19
488.389	267.19
488.607	243.19
488.825	254.19
489.043	268.19
489.261	307.19
489.479	314.19
489.696	252.19
489.914	259.19
490.132	269.19
490.35	278.19
490.568	244.19
490.786	268.19
491.003	253.19
491.221	270.19
491.439	255.19
491.657	250.19
491.874	266.19
492.092	305.19
492.31	342.19
492.527	338.19
492.745	301.19
492.963	296.19
493.18	286.19
493.398	284.19
493.615	291.19
493.833	287.19
494.05	269.19
494.268	282.19
494.485	274.19
494.703	270.19
494.92	267.19
495.138	279.19
495.355	271.19
495.573	265.19
495.79	287.19
496.008	355.19
496.225	298.19
496.442	281.19
496.66	298.19
496.877	298.19
497.094	311.19
497.312	286.19
497.529	292.19
497.746	292.19
497.963	302.19
498.181	329.19
498.398	325.19
498.615	348.19
498.832	372.19
499.049	404.19
499.267	350.19
499.484	368.19
499.701	388.19
499.918	447.19
500.135	502.19
500.352	558.19
500.569	555.19
500.786	542.19
501.003	527.19
501.22	480.19
501.437	438.19
501.654	388.19
501.871	384.19
502.088	366.19
502.305	342.19
502.522	338.19
