Data from NickelSpatula.Lamp.E10.P2_HRD10591_11-58-38-531.txt Node
Date: Tue Jul 23 11:58:38 EDT 2019
User: cochatt
Spectrometer: HR+D1059
Trigger mode: 1
Integration Time (sec): 1.000000E-1
Scans to average: 1
Electric dark correction enabled: true
Nonlinearity correction enabled: false
Boxcar width: 0
XAxis mode: Wavelengths
Number of Pixels in Spectrum: 2048
>>>>>Begin Spectral Data<<<<<
223.165	-11.5
223.4	-11.5
223.635	-11.5
223.869	-28.5
224.104	-11.5
224.338	-16.5
224.573	-18.5
224.808	-15.5
225.042	-2.5
225.277	-2.5
225.511	7.5
225.746	10.5
225.98	2.5
226.215	11.5
226.449	7.5
226.683	20.5
226.918	20.5
227.152	26.5
227.387	39.5
227.621	40.5
227.856	47.5
228.09	52.5
228.324	59.5
228.559	60.5
228.793	69.5
229.027	127.5
229.262	163.5
229.496	162.5
229.73	171.5
229.964	192.5
230.199	227.5
230.433	221.5
230.667	197.5
230.901	209.5
231.136	202.5
231.37	204.5
231.604	221.5
231.838	261.5
232.072	257.5
232.306	241.5
232.541	276.5
232.775	256.5
233.009	250.5
233.243	308.5
233.477	323.5
233.711	351.5
233.945	333.5
234.179	331.5
234.413	350.5
234.647	380.5
234.881	455.5
235.115	436.5
235.349	412.5
235.583	357.5
235.817	340.5
236.051	387.5
236.285	426.5
236.519	465.5
236.753	426.5
236.987	420.5
237.221	415.5
237.455	424.5
237.689	459.5
237.922	483.5
238.156	464.5
238.39	551.5
238.624	663.5
238.858	594.5
239.091	496.5
239.325	494.5
239.559	483.5
239.793	550.5
240.027	667.5
240.26	603.5
240.494	585.5
240.728	591.5
240.961	685.5
241.195	651.5
241.429	623.5
241.662	605.5
241.896	528.5
242.13	477.5
242.363	454.5
242.597	480.5
242.83	554.5
243.064	535.5
243.298	605.5
243.531	626.5
243.765	631.5
243.998	633.5
244.232	604.5
244.465	600.5
244.699	573.5
244.932	651.5
245.166	613.5
245.399	544.5
245.633	530.5
245.866	552.5
246.099	637.5
246.333	740.5
246.566	783.5
246.8	767.5
247.033	734.5
247.266	717.5
247.5	705.5
247.733	679.5
247.966	677.5
248.2	663.5
248.433	770.5
248.666	874.5
248.899	859.5
249.133	882.5
249.366	1012.5
249.599	1033.5
249.832	946.5
250.066	833.5
250.299	848.5
250.532	812.5
250.765	849.5
250.998	757.5
251.231	723.5
251.465	777.5
251.698	824.5
251.931	826.5
252.164	852.5
252.397	923.5
252.63	1087.5
252.863	1173.5
253.096	1215.5
253.329	1145.5
253.562	1157.5
253.795	1243.5
254.028	1354.5
254.261	1424.5
254.494	1271.5
254.727	1151.5
254.96	1149.5
255.193	1201.5
255.426	1130.5
255.659	871.5
255.892	818.5
256.124	867.5
256.357	1035.5
256.59	1215.5
256.823	1164.5
257.056	969.5
257.289	915.5
257.521	982.5
257.754	1120.5
257.987	1266.5
258.22	1142.5
258.452	1014.5
258.685	1178.5
258.918	1268.5
259.151	1249.5
259.383	1293.5
259.616	1509.5
259.849	1569.5
260.081	1749.5
260.314	1917.5
260.547	1480.5
260.779	1475.5
261.012	1728.5
261.244	1637.5
261.477	1656.5
261.71	1557.5
261.942	1321.5
262.175	1317.5
262.407	1227.5
262.64	1285.5
262.872	1527.5
263.105	1650.5
263.337	1723.5
263.57	1547.5
263.802	1054.5
264.035	901.5
264.267	865.5
264.499	769.5
264.732	710.5
264.964	673.5
265.197	713.5
265.429	793.5
265.661	823.5
265.894	870.5
266.126	915.5
266.358	1037.5
266.591	1240.5
266.823	1497.5
267.055	1409.5
267.287	1244.5
267.52	1254.5
267.752	1321.5
267.984	1459.5
268.216	1387.5
268.448	1119.5
268.681	1135.5
268.913	1229.5
269.145	1269.5
269.377	1341.5
269.609	1289.5
269.841	1199.5
270.073	1291.5
270.306	1364.5
270.538	1390.5
270.77	1425.5
271.002	1393.5
271.234	1493.5
271.466	1488.5
271.698	1473.5
271.93	1432.5
272.162	1461.5
272.394	1423.5
272.626	1391.5
272.858	1478.5
273.09	1510.5
273.322	1322.5
273.553	1299.5
273.785	1506.5
274.017	2023.5
274.249	2485.5
274.481	2579.5
274.713	2773.5
274.945	3160.5
275.176	3288.5
275.408	2867.5
275.64	2613.5
275.872	2678.5
276.104	2217.5
276.335	1915.5
276.567	1950.5
276.799	1969.5
277.031	2082.5
277.262	1610.5
277.494	1244.5
277.726	1208.5
277.957	1327.5
278.189	1482.5
278.421	1491.5
278.652	1446.5
278.884	1363.5
279.115	1263.5
279.347	1221.5
279.579	1189.5
279.81	1221.5
280.042	1239.5
280.273	1270.5
280.505	1128.5
280.736	1000.5
280.968	1015.5
281.199	1096.5
281.431	1203.5
281.662	1213.5
281.894	1168.5
282.125	1261.5
282.356	1351.5
282.588	1397.5
282.819	1237.5
283.051	1375.5
283.282	1711.5
283.513	1960.5
283.745	2163.5
283.976	2167.5
284.207	1977.5
284.439	2120.5
284.67	2037.5
284.901	1765.5
285.132	1951.5
285.364	2013.5
285.595	1852.5
285.826	1989.5
286.057	2047.5
286.288	1981.5
286.52	2013.5
286.751	2135.5
286.982	2067.5
287.213	1841.5
287.444	1752.5
287.675	1851.5
287.906	1818.5
288.138	1555.5
288.369	1378.5
288.6	1262.5
288.831	1340.5
289.062	1560.5
289.293	1693.5
289.524	1635.5
289.755	1589.5
289.986	1622.5
290.217	1427.5
290.448	1126.5
290.679	960.5
290.91	934.5
291.141	927.5
291.371	958.5
291.602	981.5
291.833	1000.5
292.064	1035.5
292.295	1249.5
292.526	1389.5
292.757	1417.5
292.987	1535.5
293.218	1555.5
293.449	1592.5
293.68	1709.5
293.91	1559.5
294.141	1638.5
294.372	1546.5
294.603	1449.5
294.833	1600.5
295.064	1843.5
295.295	1709.5
295.525	1314.5
295.756	1157.5
295.987	1031.5
296.217	1012.5
296.448	1069.5
296.679	1107.5
296.909	1231.5
297.14	1327.5
297.37	1448.5
297.601	1366.5
297.831	1178.5
298.062	1263.5
298.292	1466.5
298.523	1610.5
298.753	1840.5
298.984	1624.5
299.214	1296.5
299.445	1102.5
299.675	1071.5
299.905	1059.5
300.136	1117.5
300.366	1217.5
300.597	1138.5
300.827	1031.5
301.057	1031.5
301.288	1019.5
301.518	1103.5
301.748	1235.5
301.979	1366.5
302.209	1459.5
302.439	1489.5
302.669	1272.5
302.9	1228.5
303.13	1169.5
303.36	1093.5
303.59	1071.5
303.82	1095.5
304.051	1242.5
304.281	1348.5
304.511	1301.5
304.741	1164.5
304.971	1222.5
305.201	1303.5
305.431	1218.5
305.661	1088.5
305.891	1113.5
306.121	1091.5
306.352	960.5
306.582	859.5
306.812	848.5
307.042	838.5
307.272	802.5
307.502	802.5
307.731	895.5
307.961	938.5
308.191	855.5
308.421	794.5
308.651	793.5
308.881	778.5
309.111	772.5
309.341	831.5
309.571	921.5
309.8	933.5
310.03	964.5
310.26	1036.5
310.49	1000.5
310.72	885.5
310.949	852.5
311.179	881.5
311.409	923.5
311.639	1076.5
311.868	1419.5
312.098	1791.5
312.328	1937.5
312.557	1891.5
312.787	1883.5
313.017	1662.5
313.246	1813.5
313.476	1979.5
313.706	1669.5
313.935	1311.5
314.165	1041.5
314.394	943.5
314.624	985.5
314.853	1005.5
315.083	1035.5
315.312	1021.5
315.542	1011.5
315.771	953.5
316.001	880.5
316.23	840.5
316.46	861.5
316.689	856.5
316.919	873.5
317.148	919.5
317.377	875.5
317.607	881.5
317.836	947.5
318.065	1107.5
318.295	1235.5
318.524	1141.5
318.753	979.5
318.983	938.5
319.212	933.5
319.441	1035.5
319.67	1137.5
319.9	1233.5
320.129	1143.5
320.358	1007.5
320.587	969.5
320.816	1017.5
321.046	1216.5
321.275	1331.5
321.504	1382.5
321.733	1314.5
321.962	1248.5
322.191	1169.5
322.42	1117.5
322.649	1165.5
322.878	1223.5
323.108	1228.5
323.337	1128.5
323.566	1102.5
323.795	1072.5
324.024	1020.5
324.253	1001.5
324.482	994.5
324.71	1111.5
324.939	1237.5
325.168	1144.5
325.397	935.5
325.626	915.5
325.855	919.5
326.084	913.5
326.313	872.5
326.542	844.5
326.77	891.5
326.999	905.5
327.228	964.5
327.457	1035.5
327.686	1043.5
327.914	874.5
328.143	847.5
328.372	809.5
328.6	847.5
328.829	885.5
329.058	885.5
329.287	900.5
329.515	886.5
329.744	886.5
329.972	835.5
330.201	821.5
330.43	851.5
330.658	943.5
330.887	1088.5
331.115	1041.5
331.344	1007.5
331.572	997.5
331.801	930.5
332.03	856.5
332.258	857.5
332.486	1010.5
332.715	974.5
332.943	932.5
333.172	903.5
333.4	928.5
333.629	1053.5
333.857	1117.5
334.085	1108.5
334.314	1101.5
334.542	1038.5
334.771	964.5
334.999	955.5
335.227	899.5
335.455	941.5
335.684	1042.5
335.912	1206.5
336.14	1311.5
336.369	1273.5
336.597	1220.5
336.825	1373.5
337.053	1548.5
337.281	1213.5
337.51	1008.5
337.738	970.5
337.966	1053.5
338.194	1185.5
338.422	1091.5
338.65	969.5
338.878	878.5
339.106	922.5
339.334	1036.5
339.562	1115.5
339.79	1035.5
340.018	967.5
340.246	1044.5
340.474	1197.5
340.702	1292.5
340.93	1378.5
341.158	1334.5
341.386	1146.5
341.614	1126.5
341.842	1140.5
342.07	1163.5
342.298	1345.5
342.526	1378.5
342.754	1220.5
342.981	1140.5
343.209	1085.5
343.437	1145.5
343.665	1216.5
343.893	1183.5
344.12	1405.5
344.348	1652.5
344.576	1462.5
344.804	1194.5
345.031	1047.5
345.259	974.5
345.487	1008.5
345.714	1054.5
345.942	1122.5
346.17	1178.5
346.397	1104.5
346.625	1010.5
346.853	978.5
347.08	970.5
347.308	1033.5
347.535	1147.5
347.763	1163.5
347.99	995.5
348.218	954.5
348.445	958.5
348.673	989.5
348.9	1011.5
349.128	1077.5
349.355	1119.5
349.583	1073.5
349.81	996.5
350.037	973.5
350.265	849.5
350.492	767.5
350.72	799.5
350.947	832.5
351.174	918.5
351.402	949.5
351.629	997.5
351.856	954.5
352.083	901.5
352.311	954.5
352.538	1098.5
352.765	1163.5
352.992	1032.5
353.22	970.5
353.447	1032.5
353.674	988.5
353.901	984.5
354.128	1002.5
354.355	1019.5
354.583	1001.5
354.81	996.5
355.037	1026.5
355.264	1033.5
355.491	1083.5
355.718	1208.5
355.945	1157.5
356.172	1137.5
356.399	1107.5
356.626	1373.5
356.853	1658.5
357.08	1797.5
357.307	1799.5
357.534	1411.5
357.761	1456.5
357.988	1805.5
358.215	2125.5
358.441	2018.5
358.668	1669.5
358.895	1560.5
359.122	1230.5
359.349	1254.5
359.576	1348.5
359.802	1110.5
360.029	963.5
360.256	1048.5
360.483	1305.5
360.709	1651.5
360.936	1712.5
361.163	1463.5
361.39	1137.5
361.616	1071.5
361.843	1253.5
362.07	1580.5
362.296	1401.5
362.523	1082.5
362.749	954.5
362.976	987.5
363.203	1250.5
363.429	1390.5
363.656	1096.5
363.882	1019.5
364.109	1029.5
364.335	998.5
364.562	1023.5
364.788	1147.5
365.015	1367.5
365.241	1174.5
365.468	989.5
365.694	847.5
365.92	813.5
366.147	795.5
366.373	775.5
366.599	821.5
366.826	816.5
367.052	855.5
367.278	841.5
367.505	820.5
367.731	913.5
367.957	1048.5
368.184	1038.5
368.41	1046.5
368.636	1042.5
368.862	1076.5
369.089	1039.5
369.315	965.5
369.541	917.5
369.767	908.5
369.993	856.5
370.219	881.5
370.445	896.5
370.672	1044.5
370.898	1127.5
371.124	1123.5
371.35	983.5
371.576	880.5
371.802	995.5
372.028	1187.5
372.254	1371.5
372.48	1174.5
372.706	1073.5
372.932	1157.5
373.158	1173.5
373.384	1381.5
373.61	1877.5
373.835	1863.5
374.061	1415.5
374.287	1183.5
374.513	1429.5
374.739	1703.5
374.965	1757.5
375.191	1693.5
375.416	1200.5
375.642	1060.5
375.868	1232.5
376.094	1450.5
376.319	1202.5
376.545	1338.5
376.771	1402.5
376.997	1182.5
377.222	858.5
377.448	743.5
377.674	744.5
377.899	769.5
378.125	742.5
378.35	771.5
378.576	795.5
378.802	855.5
379.027	954.5
379.253	892.5
379.478	949.5
379.704	1085.5
379.929	1104.5
380.155	1125.5
380.38	960.5
380.606	1016.5
380.831	1138.5
381.057	1056.5
381.282	1001.5
381.507	1197.5
381.733	1534.5
381.958	1581.5
382.184	1729.5
382.409	1771.5
382.634	1725.5
382.86	1807.5
383.085	1481.5
383.31	1157.5
383.535	1210.5
383.761	1266.5
383.986	1195.5
384.211	1459.5
384.436	1411.5
384.662	1037.5
384.887	1021.5
385.112	1063.5
385.337	1070.5
385.562	998.5
385.787	1104.5
386.013	1283.5
386.238	1291.5
386.463	1035.5
386.688	999.5
386.913	948.5
387.138	897.5
387.363	967.5
387.588	982.5
387.813	1019.5
388.038	1109.5
388.263	1003.5
388.488	967.5
388.713	1123.5
388.938	1267.5
389.163	1059.5
389.387	915.5
389.612	941.5
389.837	950.5
390.062	964.5
390.287	1014.5
390.512	1046.5
390.736	948.5
390.961	904.5
391.186	857.5
391.411	837.5
391.636	864.5
391.86	955.5
392.085	998.5
392.31	1005.5
392.534	951.5
392.759	959.5
392.984	1006.5
393.208	978.5
393.433	886.5
393.658	831.5
393.882	788.5
394.107	787.5
394.331	810.5
394.556	820.5
394.78	820.5
395.005	840.5
395.229	879.5
395.454	893.5
395.678	913.5
395.903	950.5
396.127	878.5
396.352	884.5
396.576	1010.5
396.801	985.5
397.025	1131.5
397.249	1151.5
397.474	962.5
397.698	958.5
397.922	998.5
398.147	889.5
398.371	919.5
398.595	982.5
398.82	956.5
399.044	974.5
399.268	1050.5
399.492	1042.5
399.717	1087.5
399.941	1103.5
400.165	1062.5
400.389	1019.5
400.613	1080.5
400.837	1029.5
401.062	944.5
401.286	915.5
401.51	903.5
401.734	951.5
401.958	912.5
402.182	909.5
402.406	912.5
402.63	914.5
402.854	945.5
403.078	1071.5
403.302	1317.5
403.526	1341.5
403.75	1199.5
403.974	1070.5
404.198	1115.5
404.422	1259.5
404.645	1502.5
404.869	1581.5
405.093	1171.5
405.317	1021.5
405.541	982.5
405.765	1013.5
405.988	996.5
406.212	1095.5
406.436	1323.5
406.66	1469.5
406.883	1159.5
407.107	1195.5
407.331	1386.5
407.555	1311.5
407.778	1087.5
408.002	1069.5
408.226	1086.5
408.449	1072.5
408.673	1029.5
408.896	955.5
409.12	915.5
409.344	935.5
409.567	890.5
409.791	880.5
410.014	895.5
410.238	879.5
410.461	919.5
410.685	901.5
410.908	923.5
411.132	941.5
411.355	935.5
411.578	959.5
411.802	957.5
412.025	1033.5
412.249	1010.5
412.472	989.5
412.695	963.5
412.919	952.5
413.142	990.5
413.365	1073.5
413.589	1060.5
413.812	951.5
414.035	929.5
414.258	961.5
414.482	1069.5
414.705	1104.5
414.928	927.5
415.151	898.5
415.374	897.5
415.597	956.5
415.821	951.5
416.044	916.5
416.267	875.5
416.49	882.5
416.713	872.5
416.936	858.5
417.159	868.5
417.382	906.5
417.605	891.5
417.828	925.5
418.051	905.5
418.274	933.5
418.497	924.5
418.72	939.5
418.943	983.5
419.166	986.5
419.389	1043.5
419.611	986.5
419.834	1056.5
420.057	1157.5
420.28	1126.5
420.503	1050.5
420.726	929.5
420.948	897.5
421.171	892.5
421.394	897.5
421.617	857.5
421.839	869.5
422.062	941.5
422.285	927.5
422.507	954.5
422.73	986.5
422.953	976.5
423.175	952.5
423.398	956.5
423.621	1041.5
423.843	1090.5
424.066	993.5
424.288	962.5
424.511	930.5
424.733	928.5
424.956	989.5
425.178	1088.5
425.401	1264.5
425.623	1410.5
425.846	1155.5
426.068	1029.5
426.291	1145.5
426.513	1042.5
426.735	960.5
426.958	994.5
427.18	1172.5
427.402	1551.5
427.625	1492.5
427.847	1183.5
428.069	911.5
428.292	929.5
428.514	934.5
428.736	887.5
428.958	947.5
429.181	1124.5
429.403	980.5
429.625	903.5
429.847	868.5
430.069	879.5
430.292	940.5
430.514	887.5
430.736	983.5
430.958	1235.5
431.18	1111.5
431.402	856.5
431.624	824.5
431.846	817.5
432.068	809.5
432.29	809.5
432.512	919.5
432.734	1267.5
432.956	1171.5
433.178	882.5
433.4	863.5
433.622	858.5
433.844	879.5
434.066	965.5
434.287	934.5
434.509	890.5
434.731	944.5
434.953	852.5
435.175	925.5
435.397	1053.5
435.618	929.5
435.84	841.5
436.062	827.5
436.284	847.5
436.505	801.5
436.727	779.5
436.949	825.5
437.17	856.5
437.392	868.5
437.614	839.5
437.835	827.5
438.057	862.5
438.278	1007.5
438.5	1435.5
438.721	1407.5
438.943	938.5
439.165	831.5
439.386	795.5
439.608	785.5
439.829	775.5
440.05	835.5
440.272	856.5
440.493	1018.5
440.715	1262.5
440.936	1009.5
441.158	863.5
441.379	883.5
441.6	980.5
441.822	1075.5
442.043	889.5
442.264	874.5
442.486	860.5
442.707	869.5
442.928	878.5
443.149	915.5
443.371	921.5
443.592	917.5
443.813	906.5
444.034	917.5
444.255	914.5
444.476	970.5
444.698	941.5
444.919	967.5
445.14	1065.5
445.361	1026.5
445.582	955.5
445.803	934.5
446.024	957.5
446.245	960.5
446.466	925.5
446.687	878.5
446.908	901.5
447.129	854.5
447.35	808.5
447.571	813.5
447.792	827.5
448.013	833.5
448.234	767.5
448.455	785.5
448.675	789.5
448.896	842.5
449.117	816.5
449.338	793.5
449.559	831.5
449.779	875.5
450	856.5
450.221	860.5
450.442	818.5
450.662	792.5
450.883	769.5
451.104	831.5
451.324	820.5
451.545	801.5
451.766	778.5
451.986	789.5
452.207	752.5
452.428	756.5
452.648	791.5
452.869	855.5
453.089	863.5
453.31	860.5
453.53	725.5
453.751	742.5
453.971	719.5
454.192	771.5
454.412	813.5
454.633	765.5
454.853	772.5
455.073	747.5
455.294	723.5
455.514	759.5
455.734	779.5
455.955	829.5
456.175	833.5
456.395	736.5
456.616	710.5
456.836	697.5
457.056	707.5
457.276	715.5
457.497	708.5
457.717	727.5
457.937	723.5
458.157	727.5
458.377	735.5
458.598	759.5
458.818	783.5
459.038	842.5
459.258	789.5
459.478	848.5
459.698	911.5
459.918	900.5
460.138	881.5
460.358	912.5
460.578	869.5
460.798	894.5
461.018	885.5
461.238	861.5
461.458	874.5
461.678	879.5
461.898	934.5
462.118	941.5
462.338	941.5
462.558	965.5
462.777	1001.5
462.997	1044.5
463.217	1008.5
463.437	1024.5
463.657	1012.5
463.876	954.5
464.096	1011.5
464.316	970.5
464.536	978.5
464.755	1012.5
464.975	1013.5
465.195	947.5
465.414	1010.5
465.634	949.5
465.854	937.5
466.073	911.5
466.293	856.5
466.512	908.5
466.732	1031.5
466.951	1039.5
467.171	938.5
467.391	872.5
467.61	873.5
467.829	944.5
468.049	957.5
468.268	894.5
468.488	893.5
468.707	942.5
468.927	1064.5
469.146	1158.5
469.365	1038.5
469.585	926.5
469.804	1020.5
470.023	1125.5
470.243	983.5
470.462	912.5
470.681	903.5
470.901	934.5
471.12	955.5
471.339	970.5
471.558	947.5
471.777	945.5
471.997	1021.5
472.216	1115.5
472.435	1058.5
472.654	987.5
472.873	957.5
473.092	1001.5
473.311	1087.5
473.53	982.5
473.749	943.5
473.968	1016.5
474.187	1009.5
474.406	962.5
474.625	941.5
474.844	943.5
475.063	1063.5
475.282	1016.5
475.501	1130.5
475.72	1118.5
475.939	1128.5
476.158	1122.5
476.377	1269.5
476.596	1443.5
476.814	1498.5
477.033	1249.5
477.252	1059.5
477.471	1009.5
477.69	1008.5
477.908	1136.5
478.127	1138.5
478.346	1060.5
478.564	1160.5
478.783	1084.5
479.002	1108.5
479.22	1310.5
479.439	1448.5
479.658	1247.5
479.876	1116.5
480.095	1185.5
480.313	1264.5
480.532	1143.5
480.751	1118.5
480.969	1108.5
481.188	1295.5
481.406	1327.5
481.624	1230.5
481.843	1112.5
482.061	1059.5
482.28	1221.5
482.498	1479.5
482.717	1393.5
482.935	1205.5
483.153	1124.5
483.372	1059.5
483.59	1079.5
483.808	1039.5
484.027	1053.5
484.245	1012.5
484.463	983.5
484.681	1026.5
484.9	1112.5
485.118	1189.5
485.336	1129.5
485.554	1056.5
485.772	1087.5
485.99	1181.5
486.209	1233.5
486.427	1225.5
486.645	1207.5
486.863	1279.5
487.081	1248.5
487.299	1386.5
487.517	1328.5
487.735	1232.5
487.953	1254.5
488.171	1262.5
488.389	1185.5
488.607	1121.5
488.825	1189.5
489.043	1266.5
489.261	1439.5
489.479	1581.5
489.696	1296.5
489.914	1171.5
490.132	1135.5
490.35	1124.5
490.568	1157.5
490.786	1135.5
491.003	1153.5
491.221	1219.5
491.439	1177.5
491.657	1153.5
491.874	1232.5
492.092	1485.5
492.31	1834.5
492.527	1778.5
492.745	1512.5
492.963	1325.5
493.18	1329.5
493.398	1303.5
493.615	1279.5
493.833	1258.5
494.05	1253.5
494.268	1261.5
494.485	1252.5
494.703	1194.5
494.92	1237.5
495.138	1208.5
495.355	1237.5
495.573	1258.5
495.79	1433.5
496.008	1877.5
496.225	1595.5
496.442	1412.5
496.66	1363.5
496.877	1414.5
497.094	1409.5
497.312	1329.5
497.529	1329.5
497.746	1348.5
497.963	1382.5
498.181	1489.5
498.398	1603.5
498.615	1654.5
498.832	1721.5
499.049	1689.5
499.267	1546.5
499.484	1592.5
499.701	1625.5
499.918	1765.5
500.135	1853.5
500.352	1924.5
500.569	1967.5
500.786	2097.5
501.003	2024.5
501.22	1849.5
501.437	1737.5
501.654	1645.5
501.871	1631.5
502.088	1665.5
502.305	1513.5
502.522	1536.5
502.739	1519.5
502.956	1415.5
503.172	1384.5
503.389	1316.5
503.606	1246.5
503.823	1337.5
504.04	1321.5
504.256	1352.5
504.473	1337.5
504.69	1394.5
504.907	1376.5
505.123	1399.5
505.34	1449.5
505.557	1444.5
505.773	1358.5
505.99	1287.5
506.207	1329.5
506.423	1239.5
506.64	1171.5
506.856	1250.5
507.073	1358.5
507.289	1348.5
507.506	1330.5
507.722	1429.5
507.939	1457.5
508.155	1479.5
508.372	1336.5
508.588	1290.5
508.805	1255.5
509.021	1247.5
509.238	1193.5
509.454	1169.5
509.67	1162.5
509.887	1194.5
510.103	1344.5
