Data from NickelSpatula.Lamp.E5.5.P2_HRD10591_11-51-30-560.txt Node
Date: Tue Jul 23 11:51:30 EDT 2019
User: cochatt
Spectrometer: HR+D1059
Trigger mode: 1
Integration Time (sec): 1.000000E-1
Scans to average: 1
Electric dark correction enabled: true
Nonlinearity correction enabled: false
Boxcar width: 0
XAxis mode: Wavelengths
Number of Pixels in Spectrum: 2048
>>>>>Begin Spectral Data<<<<<
223.165	-12.31
223.4	-12.31
223.635	-12.31
223.869	-11.31
224.104	-33.31
224.338	-20.31
224.573	-12.31
224.808	-7.31
225.042	-11.31
225.277	-7.31
225.511	-13.31
225.746	1.69
225.98	11.69
226.215	4.69
226.449	31.69
226.683	27.69
226.918	22.69
227.152	28.69
227.387	39.69
227.621	36.69
227.856	38.69
228.09	45.69
228.324	52.69
228.559	50.69
228.793	64.69
229.027	72.69
229.262	62.69
229.496	85.69
229.73	77.69
229.964	94.69
230.199	93.69
230.433	102.69
230.667	91.69
230.901	87.69
231.136	85.69
231.37	89.69
231.604	112.69
231.838	109.69
232.072	93.69
232.306	111.69
232.541	101.69
232.775	107.69
233.009	94.69
233.243	116.69
233.477	114.69
233.711	114.69
233.945	104.69
234.179	126.69
234.413	122.69
234.647	134.69
234.881	129.69
235.115	137.69
235.349	140.69
235.583	119.69
235.817	125.69
236.051	121.69
236.285	131.69
236.519	124.69
236.753	128.69
236.987	122.69
237.221	132.69
237.455	113.69
237.689	109.69
237.922	129.69
238.156	158.69
238.39	138.69
238.624	165.69
238.858	160.69
239.091	141.69
239.325	145.69
239.559	142.69
239.793	137.69
240.027	162.69
240.26	159.69
240.494	147.69
240.728	152.69
240.961	155.69
241.195	157.69
241.429	137.69
241.662	152.69
241.896	144.69
242.13	138.69
242.363	117.69
242.597	135.69
242.83	147.69
243.064	161.69
243.298	135.69
243.531	152.69
243.765	171.69
243.998	172.69
244.232	158.69
244.465	157.69
244.699	132.69
244.932	159.69
245.166	157.69
245.399	149.69
245.633	136.69
245.866	135.69
246.099	135.69
246.333	163.69
246.566	169.69
246.8	172.69
247.033	183.69
247.266	153.69
247.5	173.69
247.733	162.69
247.966	152.69
248.2	166.69
248.433	185.69
248.666	196.69
248.899	177.69
249.133	183.69
249.366	176.69
249.599	214.69
249.832	194.69
250.066	187.69
250.299	178.69
250.532	186.69
250.765	181.69
250.998	175.69
251.231	172.69
251.465	183.69
251.698	191.69
251.931	183.69
252.164	183.69
252.397	201.69
252.63	211.69
252.863	244.69
253.096	219.69
253.329	239.69
253.562	214.69
253.795	240.69
254.028	261.69
254.261	283.69
254.494	248.69
254.727	225.69
254.96	233.69
255.193	249.69
255.426	249.69
255.659	201.69
255.892	175.69
256.124	203.69
256.357	210.69
256.59	241.69
256.823	245.69
257.056	208.69
257.289	205.69
257.521	212.69
257.754	231.69
257.987	279.69
258.22	228.69
258.452	223.69
258.685	239.69
258.918	253.69
259.151	259.69
259.383	283.69
259.616	284.69
259.849	306.69
260.081	315.69
260.314	350.69
260.547	294.69
260.779	289.69
261.012	326.69
261.244	317.69
261.477	329.69
261.71	303.69
261.942	260.69
262.175	262.69
262.407	256.69
262.64	256.69
262.872	285.69
263.105	317.69
263.337	347.69
263.57	304.69
263.802	228.69
264.035	204.69
264.267	200.69
264.499	201.69
264.732	160.69
264.964	171.69
265.197	173.69
265.429	171.69
265.661	193.69
265.894	213.69
266.126	213.69
266.358	227.69
266.591	252.69
266.823	308.69
267.055	295.69
267.287	259.69
267.52	269.69
267.752	279.69
267.984	288.69
268.216	279.69
268.448	244.69
268.681	241.69
268.913	253.69
269.145	272.69
269.377	274.69
269.609	266.69
269.841	269.69
270.073	292.69
270.306	297.69
270.538	291.69
270.77	284.69
271.002	308.69
271.234	307.69
271.466	290.69
271.698	264.69
271.93	283.69
272.162	277.69
272.394	271.69
272.626	269.69
272.858	285.69
273.09	301.69
273.322	257.69
273.553	258.69
273.785	285.69
274.017	337.69
274.249	435.69
274.481	435.69
274.713	473.69
274.945	526.69
275.176	559.69
275.408	478.69
275.64	475.69
275.872	461.69
276.104	381.69
276.335	363.69
276.567	357.69
276.799	369.69
277.031	383.69
277.262	309.69
277.494	258.69
277.726	245.69
277.957	266.69
278.189	294.69
278.421	306.69
278.652	282.69
278.884	256.69
279.115	237.69
279.347	242.69
279.579	249.69
279.81	260.69
280.042	267.69
280.273	258.69
280.505	237.69
280.736	249.69
280.968	229.69
281.199	243.69
281.431	264.69
281.662	257.69
281.894	272.69
282.125	261.69
282.356	292.69
282.588	284.69
282.819	246.69
283.051	281.69
283.282	314.69
283.513	377.69
283.745	393.69
283.976	378.69
284.207	369.69
284.439	384.69
284.67	387.69
284.901	330.69
285.132	350.69
285.364	350.69
285.595	348.69
285.826	361.69
286.057	381.69
286.288	360.69
286.52	371.69
286.751	383.69
286.982	396.69
287.213	345.69
287.444	325.69
287.675	349.69
287.906	373.69
288.138	309.69
288.369	281.69
288.6	273.69
288.831	277.69
289.062	334.69
289.293	344.69
289.524	326.69
289.755	311.69
289.986	318.69
290.217	300.69
290.448	258.69
290.679	242.69
290.91	205.69
291.141	219.69
291.371	202.69
291.602	228.69
291.833	211.69
292.064	216.69
292.295	273.69
292.526	289.69
292.757	291.69
292.987	315.69
293.218	327.69
293.449	332.69
293.68	339.69
293.91	354.69
294.141	340.69
294.372	313.69
294.603	289.69
294.833	322.69
295.064	367.69
295.295	341.69
295.525	272.69
295.756	249.69
295.987	207.69
296.217	226.69
296.448	206.69
296.679	232.69
296.909	258.69
297.14	254.69
297.37	296.69
297.601	277.69
297.831	241.69
298.062	265.69
298.292	290.69
298.523	302.69
298.753	335.69
298.984	311.69
299.214	275.69
299.445	237.69
299.675	232.69
299.905	235.69
300.136	223.69
300.366	246.69
300.597	262.69
300.827	228.69
301.057	226.69
301.288	251.69
301.518	262.69
301.748	267.69
301.979	296.69
302.209	286.69
302.439	283.69
302.669	266.69
302.9	247.69
303.13	263.69
303.36	255.69
303.59	237.69
303.82	254.69
304.051	259.69
304.281	271.69
304.511	256.69
304.741	243.69
304.971	251.69
305.201	253.69
305.431	266.69
305.661	229.69
305.891	245.69
306.121	241.69
306.352	223.69
306.582	220.69
306.812	191.69
307.042	213.69
307.272	202.69
307.502	199.69
307.731	191.69
307.961	207.69
308.191	200.69
308.421	195.69
308.651	199.69
308.881	183.69
309.111	189.69
309.341	208.69
309.571	200.69
309.8	216.69
310.03	210.69
310.26	212.69
310.49	210.69
310.72	195.69
310.949	196.69
311.179	213.69
311.409	211.69
311.639	223.69
311.868	259.69
312.098	331.69
312.328	356.69
312.557	347.69
312.787	375.69
313.017	325.69
313.246	363.69
313.476	379.69
313.706	340.69
313.935	281.69
314.165	230.69
314.394	218.69
314.624	223.69
314.853	231.69
315.083	232.69
315.312	236.69
315.542	218.69
315.771	216.69
316.001	211.69
316.23	203.69
316.46	189.69
316.689	199.69
316.919	196.69
317.148	195.69
317.377	210.69
317.607	201.69
317.836	210.69
318.065	240.69
318.295	251.69
318.524	246.69
318.753	224.69
318.983	199.69
319.212	197.69
319.441	236.69
319.67	225.69
319.9	255.69
320.129	241.69
320.358	206.69
320.587	208.69
320.816	217.69
321.046	239.69
321.275	256.69
321.504	247.69
321.733	263.69
321.962	248.69
322.191	243.69
322.42	246.69
322.649	226.69
322.878	261.69
323.108	256.69
323.337	220.69
323.566	223.69
323.795	240.69
324.024	232.69
324.253	227.69
324.482	212.69
324.71	237.69
324.939	242.69
325.168	251.69
325.397	227.69
325.626	217.69
325.855	192.69
326.084	206.69
326.313	204.69
326.542	211.69
326.77	205.69
326.999	199.69
327.228	225.69
327.457	213.69
327.686	221.69
327.914	209.69
328.143	201.69
328.372	186.69
328.6	199.69
328.829	197.69
329.058	195.69
329.287	210.69
329.515	201.69
329.744	207.69
329.972	192.69
330.201	187.69
330.43	191.69
330.658	220.69
330.887	212.69
331.115	219.69
331.344	214.69
331.572	228.69
331.801	189.69
332.03	213.69
332.258	201.69
332.486	232.69
332.715	227.69
332.943	194.69
333.172	219.69
333.4	231.69
333.629	243.69
333.857	270.69
334.085	266.69
334.314	251.69
334.542	239.69
334.771	223.69
334.999	215.69
335.227	214.69
335.455	217.69
335.684	213.69
335.912	257.69
336.14	293.69
336.369	275.69
336.597	251.69
336.825	289.69
337.053	312.69
337.281	253.69
337.51	225.69
337.738	220.69
337.966	240.69
338.194	243.69
338.422	259.69
338.65	237.69
338.878	213.69
339.106	220.69
339.334	215.69
339.562	245.69
339.79	235.69
340.018	222.69
340.246	219.69
340.474	254.69
340.702	243.69
340.93	247.69
341.158	256.69
341.386	252.69
341.614	230.69
341.842	238.69
342.07	249.69
342.298	277.69
342.526	295.69
342.754	233.69
342.981	232.69
343.209	221.69
343.437	255.69
343.665	241.69
343.893	261.69
344.12	290.69
344.348	343.69
344.576	310.69
344.804	252.69
345.031	221.69
345.259	222.69
345.487	223.69
345.714	224.69
345.942	240.69
346.17	241.69
346.397	255.69
346.625	241.69
346.853	229.69
347.08	219.69
347.308	239.69
347.535	253.69
347.763	265.69
347.99	219.69
348.218	220.69
348.445	237.69
348.673	219.69
348.9	232.69
349.128	247.69
349.355	255.69
349.583	252.69
349.81	209.69
350.037	215.69
350.265	196.69
350.492	179.69
350.72	192.69
350.947	202.69
351.174	215.69
351.402	243.69
351.629	224.69
351.856	217.69
352.083	216.69
352.311	216.69
352.538	226.69
352.765	225.69
352.992	243.69
353.22	228.69
353.447	244.69
353.674	239.69
353.901	223.69
354.128	210.69
354.355	220.69
354.583	207.69
354.81	248.69
355.037	248.69
355.264	223.69
355.491	245.69
355.718	235.69
355.945	237.69
356.172	227.69
356.399	237.69
356.626	262.69
356.853	307.69
357.08	348.69
357.307	350.69
357.534	274.69
357.761	279.69
357.988	341.69
358.215	403.69
358.441	374.69
358.668	311.69
358.895	323.69
359.122	272.69
359.349	257.69
359.576	294.69
359.802	258.69
360.029	224.69
360.256	240.69
360.483	267.69
360.709	316.69
360.936	340.69
361.163	301.69
361.39	240.69
361.616	245.69
361.843	245.69
362.07	296.69
362.296	271.69
362.523	235.69
362.749	198.69
362.976	214.69
363.203	258.69
363.429	259.69
363.656	238.69
363.882	230.69
364.109	231.69
364.335	221.69
364.562	220.69
364.788	228.69
365.015	271.69
365.241	247.69
365.468	226.69
365.694	199.69
365.92	185.69
366.147	200.69
366.373	205.69
366.599	198.69
366.826	207.69
367.052	204.69
367.278	208.69
367.505	186.69
367.731	202.69
367.957	236.69
368.184	217.69
368.41	218.69
368.636	237.69
368.862	237.69
369.089	209.69
369.315	190.69
369.541	195.69
369.767	218.69
369.993	215.69
370.219	208.69
370.445	215.69
370.672	225.69
370.898	228.69
371.124	246.69
371.35	219.69
371.576	207.69
371.802	222.69
372.028	237.69
372.254	281.69
372.48	246.69
372.706	222.69
372.932	249.69
373.158	235.69
373.384	271.69
373.61	353.69
373.835	353.69
374.061	275.69
374.287	251.69
374.513	303.69
374.739	329.69
374.965	342.69
375.191	344.69
375.416	279.69
375.642	230.69
375.868	253.69
376.094	280.69
376.319	264.69
376.545	273.69
376.771	280.69
376.997	241.69
377.222	208.69
377.448	186.69
377.674	205.69
377.899	192.69
378.125	190.69
378.35	177.69
378.576	196.69
378.802	225.69
379.027	233.69
379.253	225.69
379.478	223.69
379.704	240.69
379.929	226.69
380.155	243.69
380.38	214.69
380.606	229.69
380.831	246.69
381.057	240.69
381.282	216.69
381.507	251.69
381.733	299.69
381.958	308.69
382.184	323.69
382.409	347.69
382.634	327.69
382.86	341.69
383.085	297.69
383.31	277.69
383.535	259.69
383.761	270.69
383.986	272.69
384.211	287.69
384.436	291.69
384.662	231.69
384.887	237.69
385.112	256.69
385.337	267.69
385.562	240.69
385.787	263.69
386.013	287.69
386.238	293.69
386.463	253.69
386.688	253.69
386.913	244.69
387.138	219.69
387.363	221.69
387.588	240.69
387.813	240.69
388.038	246.69
388.263	216.69
388.488	228.69
388.713	254.69
388.938	280.69
389.163	239.69
389.387	223.69
389.612	227.69
389.837	240.69
390.062	234.69
390.287	240.69
390.512	230.69
390.736	229.69
390.961	215.69
391.186	226.69
391.411	215.69
391.636	226.69
391.86	225.69
392.085	244.69
392.31	248.69
392.534	243.69
392.759	221.69
392.984	251.69
393.208	242.69
393.433	221.69
393.658	198.69
393.882	201.69
394.107	211.69
394.331	214.69
394.556	190.69
394.78	205.69
395.005	197.69
395.229	211.69
395.454	215.69
395.678	226.69
395.903	237.69
396.127	227.69
396.352	238.69
396.576	245.69
396.801	244.69
397.025	240.69
397.249	245.69
397.474	214.69
397.698	228.69
397.922	217.69
398.147	229.69
398.371	219.69
398.595	231.69
398.82	247.69
399.044	236.69
399.268	269.69
399.492	288.69
399.717	304.69
399.941	299.69
400.165	259.69
400.389	226.69
400.613	252.69
400.837	250.69
401.062	215.69
401.286	221.69
401.51	208.69
401.734	213.69
401.958	232.69
402.182	243.69
402.406	219.69
402.63	247.69
402.854	263.69
403.078	293.69
403.302	369.69
403.526	387.69
403.75	340.69
403.974	282.69
404.198	287.69
404.422	307.69
404.645	311.69
404.869	337.69
405.093	271.69
405.317	246.69
405.541	245.69
405.765	263.69
405.988	256.69
406.212	268.69
406.436	293.69
406.66	312.69
406.883	281.69
407.107	271.69
407.331	306.69
407.555	312.69
407.778	279.69
408.002	285.69
408.226	285.69
408.449	268.69
408.673	280.69
408.896	235.69
409.12	244.69
409.344	241.69
409.567	243.69
409.791	244.69
410.014	243.69
410.238	251.69
410.461	255.69
410.685	258.69
410.908	243.69
411.132	246.69
411.355	234.69
411.578	228.69
411.802	240.69
412.025	244.69
412.249	222.69
412.472	224.69
412.695	246.69
412.919	248.69
413.142	241.69
413.365	271.69
413.589	259.69
413.812	222.69
414.035	221.69
414.258	254.69
414.482	247.69
414.705	279.69
414.928	241.69
415.151	213.69
415.374	219.69
415.597	224.69
415.821	234.69
416.044	236.69
416.267	228.69
416.49	235.69
416.713	222.69
416.936	211.69
417.159	219.69
417.382	233.69
417.605	237.69
417.828	251.69
418.051	239.69
418.274	252.69
418.497	218.69
418.72	249.69
418.943	271.69
419.166	273.69
419.389	256.69
419.611	249.69
419.834	256.69
420.057	283.69
420.28	277.69
420.503	258.69
420.726	243.69
420.948	229.69
421.171	229.69
421.394	230.69
421.617	230.69
421.839	225.69
422.062	239.69
422.285	238.69
422.507	241.69
422.73	240.69
422.953	244.69
423.175	239.69
423.398	244.69
423.621	262.69
423.843	266.69
424.066	252.69
424.288	249.69
424.511	252.69
424.733	246.69
424.956	235.69
425.178	265.69
425.401	301.69
425.623	357.69
425.846	302.69
426.068	257.69
426.291	254.69
426.513	238.69
426.735	247.69
426.958	243.69
427.18	277.69
427.402	328.69
427.625	343.69
427.847	294.69
428.069	235.69
428.292	220.69
428.514	251.69
428.736	224.69
428.958	253.69
429.181	317.69
429.403	265.69
429.625	236.69
429.847	226.69
430.069	225.69
430.292	230.69
430.514	230.69
430.736	232.69
430.958	279.69
431.18	251.69
431.402	222.69
431.624	219.69
431.846	224.69
432.068	235.69
432.29	207.69
432.512	232.69
432.734	276.69
432.956	272.69
433.178	221.69
433.4	220.69
433.622	226.69
433.844	213.69
434.066	248.69
434.287	256.69
434.509	245.69
434.731	268.69
434.953	232.69
435.175	253.69
435.397	272.69
435.618	238.69
435.84	225.69
436.062	227.69
436.284	237.69
436.505	205.69
436.727	207.69
436.949	225.69
437.17	214.69
437.392	218.69
437.614	211.69
437.835	211.69
438.057	214.69
438.278	241.69
438.5	320.69
438.721	300.69
438.943	226.69
439.165	210.69
439.386	206.69
439.608	205.69
439.829	224.69
440.05	227.69
440.272	229.69
440.493	235.69
440.715	277.69
440.936	247.69
441.158	225.69
441.379	229.69
441.6	263.69
441.822	265.69
442.043	240.69
442.264	234.69
442.486	253.69
442.707	223.69
442.928	212.69
443.149	232.69
443.371	229.69
443.592	236.69
443.813	244.69
444.034	248.69
444.255	220.69
444.476	248.69
444.698	232.69
444.919	260.69
445.14	357.69
445.361	312.69
445.582	257.69
445.803	239.69
446.024	252.69
446.245	252.69
446.466	252.69
446.687	217.69
446.908	226.69
447.129	202.69
447.35	228.69
447.571	217.69
447.792	211.69
448.013	215.69
448.234	214.69
448.455	205.69
448.675	207.69
448.896	214.69
449.117	204.69
449.338	207.69
449.559	221.69
449.779	217.69
450	245.69
450.221	223.69
450.442	219.69
450.662	221.69
450.883	212.69
451.104	211.69
451.324	205.69
451.545	223.69
451.766	225.69
451.986	219.69
452.207	202.69
452.428	201.69
452.648	179.69
452.869	205.69
453.089	205.69
453.31	217.69
453.53	204.69
453.751	212.69
453.971	206.69
454.192	211.69
454.412	224.69
454.633	209.69
454.853	215.69
455.073	202.69
455.294	198.69
455.514	200.69
455.734	211.69
455.955	195.69
456.175	189.69
456.395	187.69
456.616	178.69
456.836	180.69
457.056	196.69
457.276	207.69
457.497	195.69
457.717	208.69
457.937	183.69
458.157	205.69
458.377	211.69
458.598	205.69
458.818	222.69
459.038	198.69
459.258	222.69
459.478	227.69
459.698	252.69
459.918	224.69
460.138	243.69
460.358	247.69
460.578	230.69
460.798	259.69
461.018	240.69
461.238	219.69
461.458	239.69
461.678	239.69
461.898	241.69
462.118	240.69
462.338	246.69
462.558	269.69
462.777	265.69
462.997	276.69
463.217	293.69
463.437	282.69
463.657	245.69
463.876	257.69
464.096	287.69
464.316	273.69
464.536	281.69
464.755	281.69
464.975	277.69
465.195	255.69
465.414	277.69
465.634	245.69
465.854	246.69
466.073	211.69
466.293	216.69
466.512	230.69
466.732	241.69
466.951	246.69
467.171	241.69
467.391	234.69
467.61	252.69
467.829	248.69
468.049	239.69
468.268	209.69
468.488	205.69
468.707	227.69
468.927	253.69
469.146	249.69
469.365	241.69
469.585	232.69
469.804	245.69
470.023	265.69
470.243	238.69
470.462	247.69
470.681	237.69
470.901	235.69
471.12	234.69
471.339	244.69
471.558	225.69
471.777	232.69
471.997	235.69
472.216	266.69
472.435	241.69
472.654	251.69
472.873	228.69
473.092	257.69
473.311	259.69
473.53	232.69
473.749	229.69
473.968	238.69
474.187	228.69
474.406	223.69
474.625	237.69
474.844	241.69
475.063	241.69
475.282	230.69
475.501	258.69
475.72	257.69
475.939	261.69
476.158	254.69
476.377	285.69
476.596	319.69
476.814	336.69
477.033	294.69
477.252	249.69
477.471	223.69
477.69	244.69
477.908	264.69
478.127	274.69
478.346	265.69
478.564	299.69
478.783	280.69
479.002	275.69
479.22	316.69
479.439	314.69
479.658	281.69
479.876	260.69
480.095	296.69
480.313	291.69
480.532	295.69
480.751	269.69
480.969	280.69
481.188	295.69
481.406	297.69
481.624	263.69
481.843	238.69
482.061	259.69
482.28	280.69
482.498	326.69
482.717	332.69
482.935	279.69
483.153	269.69
483.372	255.69
483.59	255.69
483.808	257.69
484.027	240.69
484.245	254.69
484.463	232.69
484.681	259.69
484.9	244.69
485.118	265.69
485.336	259.69
485.554	259.69
485.772	252.69
485.99	288.69
486.209	276.69
486.427	291.69
486.645	268.69
486.863	275.69
487.081	261.69
487.299	303.69
487.517	296.69
487.735	279.69
487.953	281.69
488.171	295.69
488.389	262.69
488.607	252.69
488.825	278.69
489.043	291.69
489.261	339.69
489.479	343.69
489.696	293.69
489.914	259.69
490.132	250.69
490.35	268.69
490.568	268.69
490.786	287.69
491.003	265.69
491.221	263.69
491.439	267.69
491.657	255.69
491.874	264.69
492.092	321.69
492.31	369.69
492.527	364.69
492.745	306.69
492.963	284.69
493.18	297.69
493.398	277.69
493.615	278.69
493.833	279.69
494.05	295.69
494.268	280.69
494.485	276.69
494.703	273.69
494.92	271.69
495.138	265.69
495.355	248.69
495.573	265.69
495.79	301.69
496.008	368.69
496.225	319.69
496.442	281.69
496.66	283.69
496.877	289.69
497.094	311.69
497.312	279.69
497.529	293.69
497.746	288.69
497.963	292.69
498.181	330.69
498.398	332.69
498.615	341.69
498.832	374.69
499.049	379.69
499.267	365.69
499.484	400.69
499.701	408.69
499.918	444.69
500.135	496.69
500.352	532.69
500.569	550.69
500.786	557.69
501.003	533.69
501.22	489.69
501.437	436.69
501.654	410.69
501.871	385.69
502.088	368.69
502.305	345.69
502.522	347.69
