Data from NickelSpatula.Lamp.E5.5.P2_HRD10591_11-53-48-550.txt Node
Date: Tue Jul 23 11:53:48 EDT 2019
User: cochatt
Spectrometer: HR+D1059
Trigger mode: 1
Integration Time (sec): 1.000000E-1
Scans to average: 1
Electric dark correction enabled: true
Nonlinearity correction enabled: false
Boxcar width: 0
XAxis mode: Wavelengths
Number of Pixels in Spectrum: 2048
>>>>>Begin Spectral Data<<<<<
223.165	-11.88
223.4	-11.88
223.635	-11.88
223.869	-2.88
224.104	-17.88
224.338	-17.88
224.573	-2.88
224.808	-14.88
225.042	-4.88
225.277	-5.88
225.511	-6.88
225.746	5.12
225.98	-1.88
226.215	7.12
226.449	21.12
226.683	19.12
226.918	20.12
227.152	15.12
227.387	34.12
227.621	44.12
227.856	46.12
228.09	39.12
228.324	41.12
228.559	49.12
228.793	79.12
229.027	59.12
229.262	80.12
229.496	80.12
229.73	64.12
229.964	86.12
230.199	97.12
230.433	93.12
230.667	96.12
230.901	105.12
231.136	101.12
231.37	91.12
231.604	90.12
231.838	114.12
232.072	101.12
232.306	95.12
232.541	101.12
232.775	105.12
233.009	112.12
233.243	102.12
233.477	127.12
233.711	127.12
233.945	118.12
234.179	118.12
234.413	120.12
234.647	138.12
234.881	134.12
235.115	117.12
235.349	123.12
235.583	121.12
235.817	123.12
236.051	136.12
236.285	118.12
236.519	149.12
236.753	117.12
236.987	145.12
237.221	97.12
237.455	144.12
237.689	107.12
237.922	133.12
238.156	136.12
238.39	145.12
238.624	167.12
238.858	146.12
239.091	151.12
239.325	141.12
239.559	133.12
239.793	146.12
240.027	155.12
240.26	158.12
240.494	155.12
240.728	153.12
240.961	163.12
241.195	166.12
241.429	156.12
241.662	147.12
241.896	139.12
242.13	136.12
242.363	145.12
242.597	140.12
242.83	132.12
243.064	151.12
243.298	163.12
243.531	163.12
243.765	157.12
243.998	165.12
244.232	158.12
244.465	180.12
244.699	162.12
244.932	169.12
245.166	153.12
245.399	166.12
245.633	149.12
245.866	144.12
246.099	167.12
246.333	173.12
246.566	173.12
246.8	188.12
247.033	189.12
247.266	155.12
247.5	180.12
247.733	163.12
247.966	159.12
248.2	175.12
248.433	182.12
248.666	188.12
248.899	182.12
249.133	203.12
249.366	211.12
249.599	233.12
249.832	207.12
250.066	201.12
250.299	214.12
250.532	193.12
250.765	182.12
250.998	185.12
251.231	176.12
251.465	181.12
251.698	187.12
251.931	186.12
252.164	208.12
252.397	223.12
252.63	235.12
252.863	267.12
253.096	265.12
253.329	246.12
253.562	245.12
253.795	263.12
254.028	294.12
254.261	309.12
254.494	258.12
254.727	225.12
254.96	224.12
255.193	249.12
255.426	265.12
255.659	208.12
255.892	181.12
256.124	200.12
256.357	229.12
256.59	267.12
256.823	259.12
257.056	211.12
257.289	211.12
257.521	217.12
257.754	262.12
257.987	286.12
258.22	253.12
258.452	218.12
258.685	250.12
258.918	268.12
259.151	252.12
259.383	298.12
259.616	329.12
259.849	323.12
260.081	346.12
260.314	377.12
260.547	287.12
260.779	312.12
261.012	341.12
261.244	326.12
261.477	332.12
261.71	330.12
261.942	266.12
262.175	273.12
262.407	249.12
262.64	289.12
262.872	306.12
263.105	331.12
263.337	364.12
263.57	312.12
263.802	240.12
264.035	219.12
264.267	189.12
264.499	201.12
264.732	192.12
264.964	182.12
265.197	175.12
265.429	195.12
265.661	207.12
265.894	213.12
266.126	221.12
266.358	217.12
266.591	265.12
266.823	322.12
267.055	330.12
267.287	273.12
267.52	283.12
267.752	295.12
267.984	306.12
268.216	283.12
268.448	251.12
268.681	256.12
268.913	272.12
269.145	266.12
269.377	288.12
269.609	299.12
269.841	281.12
270.073	273.12
270.306	282.12
270.538	305.12
270.77	305.12
271.002	304.12
271.234	312.12
271.466	309.12
271.698	296.12
271.93	292.12
272.162	277.12
272.394	274.12
272.626	291.12
272.858	275.12
273.09	305.12
273.322	264.12
273.553	246.12
273.785	296.12
274.017	333.12
274.249	424.12
274.481	431.12
274.713	487.12
274.945	577.12
275.176	568.12
275.408	537.12
275.64	487.12
275.872	486.12
276.104	416.12
276.335	371.12
276.567	381.12
276.799	398.12
277.031	400.12
277.262	327.12
277.494	263.12
277.726	248.12
277.957	276.12
278.189	294.12
278.421	303.12
278.652	311.12
278.884	286.12
279.115	278.12
279.347	254.12
279.579	291.12
279.81	278.12
280.042	261.12
280.273	265.12
280.505	248.12
280.736	236.12
280.968	231.12
281.199	250.12
281.431	271.12
281.662	278.12
281.894	246.12
282.125	277.12
282.356	290.12
282.588	286.12
282.819	244.12
283.051	288.12
283.282	320.12
283.513	374.12
283.745	416.12
283.976	415.12
284.207	383.12
284.439	405.12
284.67	387.12
284.901	334.12
285.132	371.12
285.364	417.12
285.595	359.12
285.826	385.12
286.057	389.12
286.288	393.12
286.52	389.12
286.751	393.12
286.982	399.12
287.213	368.12
287.444	359.12
287.675	368.12
287.906	383.12
288.138	322.12
288.369	294.12
288.6	289.12
288.831	307.12
289.062	324.12
289.293	352.12
289.524	335.12
289.755	322.12
289.986	345.12
290.217	321.12
290.448	255.12
290.679	228.12
290.91	221.12
291.141	214.12
291.371	224.12
291.602	222.12
291.833	218.12
292.064	239.12
292.295	254.12
292.526	304.12
292.757	293.12
292.987	315.12
293.218	309.12
293.449	334.12
293.68	370.12
293.91	338.12
294.141	348.12
294.372	315.12
294.603	309.12
294.833	349.12
295.064	379.12
295.295	373.12
295.525	288.12
295.756	255.12
295.987	214.12
296.217	223.12
296.448	223.12
296.679	238.12
296.909	252.12
297.14	250.12
297.37	292.12
297.601	275.12
297.831	260.12
298.062	282.12
298.292	316.12
298.523	311.12
298.753	351.12
298.984	325.12
299.214	284.12
299.445	240.12
299.675	251.12
299.905	229.12
300.136	230.12
300.366	242.12
300.597	263.12
300.827	237.12
301.057	226.12
301.288	225.12
301.518	238.12
301.748	265.12
301.979	284.12
302.209	313.12
302.439	295.12
302.669	273.12
302.9	277.12
303.13	256.12
303.36	247.12
303.59	233.12
303.82	235.12
304.051	275.12
304.281	275.12
304.511	285.12
304.741	243.12
304.971	267.12
305.201	282.12
305.431	262.12
305.661	227.12
305.891	221.12
306.121	243.12
306.352	219.12
306.582	195.12
306.812	203.12
307.042	203.12
307.272	192.12
307.502	184.12
307.731	197.12
307.961	219.12
308.191	191.12
308.421	186.12
308.651	192.12
308.881	183.12
309.111	166.12
309.341	201.12
309.571	181.12
309.8	209.12
310.03	216.12
310.26	234.12
310.49	212.12
310.72	211.12
310.949	209.12
311.179	197.12
311.409	211.12
311.639	229.12
311.868	294.12
312.098	368.12
312.328	366.12
312.557	370.12
312.787	369.12
313.017	331.12
313.246	357.12
313.476	397.12
313.706	341.12
313.935	281.12
314.165	244.12
314.394	233.12
314.624	207.12
314.853	226.12
315.083	236.12
315.312	211.12
315.542	218.12
315.771	216.12
316.001	199.12
316.23	204.12
316.46	184.12
316.689	204.12
316.919	200.12
317.148	211.12
317.377	191.12
317.607	190.12
317.836	209.12
318.065	234.12
318.295	267.12
318.524	241.12
318.753	226.12
318.983	209.12
319.212	195.12
319.441	225.12
319.67	230.12
319.9	239.12
320.129	254.12
320.358	214.12
320.587	201.12
320.816	211.12
321.046	245.12
321.275	263.12
321.504	250.12
321.733	257.12
321.962	242.12
322.191	230.12
322.42	234.12
322.649	231.12
322.878	228.12
323.108	237.12
323.337	237.12
323.566	258.12
323.795	247.12
324.024	224.12
324.253	230.12
324.482	226.12
324.71	226.12
324.939	258.12
325.168	255.12
325.397	199.12
325.626	216.12
325.855	218.12
326.084	214.12
326.313	201.12
326.542	200.12
326.77	216.12
326.999	215.12
327.228	222.12
327.457	225.12
327.686	220.12
327.914	199.12
328.143	204.12
328.372	200.12
328.6	197.12
328.829	194.12
329.058	194.12
329.287	227.12
329.515	202.12
329.744	220.12
329.972	181.12
330.201	190.12
330.43	199.12
330.658	200.12
330.887	226.12
331.115	220.12
331.344	234.12
331.572	237.12
331.801	215.12
332.03	222.12
332.258	213.12
332.486	222.12
332.715	227.12
332.943	223.12
333.172	227.12
333.4	241.12
333.629	240.12
333.857	254.12
334.085	241.12
334.314	238.12
334.542	240.12
334.771	225.12
334.999	213.12
335.227	215.12
335.455	214.12
335.684	223.12
335.912	250.12
336.14	267.12
336.369	262.12
336.597	247.12
336.825	279.12
337.053	291.12
337.281	256.12
337.51	221.12
337.738	214.12
337.966	239.12
338.194	257.12
338.422	242.12
338.65	216.12
338.878	187.12
339.106	193.12
339.334	216.12
339.562	241.12
339.79	231.12
340.018	205.12
340.246	242.12
340.474	257.12
340.702	244.12
340.93	265.12
341.158	264.12
341.386	239.12
341.614	223.12
341.842	253.12
342.07	230.12
342.298	266.12
342.526	293.12
342.754	236.12
342.981	226.12
343.209	227.12
343.437	264.12
343.665	263.12
343.893	267.12
344.12	302.12
344.348	349.12
344.576	312.12
344.804	259.12
345.031	219.12
345.259	221.12
345.487	224.12
345.714	224.12
345.942	233.12
346.17	262.12
346.397	251.12
346.625	222.12
346.853	221.12
347.08	214.12
347.308	221.12
347.535	256.12
347.763	259.12
347.99	227.12
348.218	214.12
348.445	222.12
348.673	230.12
348.9	210.12
349.128	240.12
349.355	239.12
349.583	228.12
349.81	224.12
350.037	216.12
350.265	209.12
350.492	182.12
350.72	204.12
350.947	187.12
351.174	188.12
351.402	207.12
351.629	201.12
351.856	207.12
352.083	203.12
352.311	209.12
352.538	224.12
352.765	243.12
352.992	221.12
353.22	237.12
353.447	221.12
353.674	223.12
353.901	218.12
354.128	219.12
354.355	220.12
354.583	224.12
354.81	214.12
355.037	226.12
355.264	239.12
355.491	235.12
355.718	240.12
355.945	253.12
356.172	224.12
356.399	243.12
356.626	266.12
356.853	346.12
357.08	331.12
357.307	358.12
357.534	284.12
357.761	296.12
357.988	351.12
358.215	385.12
358.441	373.12
358.668	319.12
358.895	292.12
359.122	259.12
359.349	277.12
359.576	303.12
359.802	245.12
360.029	217.12
360.256	238.12
360.483	294.12
360.709	330.12
360.936	331.12
361.163	304.12
361.39	234.12
361.616	247.12
361.843	247.12
362.07	295.12
362.296	267.12
362.523	231.12
362.749	214.12
362.976	203.12
363.203	265.12
363.429	287.12
363.656	254.12
363.882	202.12
364.109	221.12
364.335	243.12
364.562	223.12
364.788	241.12
365.015	277.12
365.241	247.12
365.468	206.12
365.694	195.12
365.92	187.12
366.147	188.12
366.373	191.12
366.599	189.12
366.826	197.12
367.052	203.12
367.278	197.12
367.505	186.12
367.731	209.12
367.957	226.12
368.184	224.12
368.41	230.12
368.636	215.12
368.862	217.12
369.089	215.12
369.315	193.12
369.541	213.12
369.767	189.12
369.993	198.12
370.219	219.12
370.445	229.12
370.672	236.12
370.898	255.12
371.124	230.12
371.35	204.12
371.576	210.12
371.802	222.12
372.028	254.12
372.254	290.12
372.48	265.12
372.706	233.12
372.932	241.12
373.158	253.12
373.384	268.12
373.61	354.12
373.835	361.12
374.061	286.12
374.287	256.12
374.513	284.12
374.739	321.12
374.965	321.12
375.191	329.12
375.416	254.12
375.642	223.12
375.868	265.12
376.094	288.12
376.319	249.12
376.545	260.12
376.771	258.12
376.997	257.12
377.222	215.12
377.448	193.12
377.674	191.12
377.899	186.12
378.125	189.12
378.35	182.12
378.576	186.12
378.802	193.12
379.027	217.12
379.253	218.12
379.478	213.12
379.704	223.12
379.929	249.12
380.155	234.12
380.38	218.12
380.606	226.12
380.831	237.12
381.057	249.12
381.282	226.12
381.507	253.12
381.733	287.12
381.958	293.12
382.184	331.12
382.409	355.12
382.634	337.12
382.86	376.12
383.085	307.12
383.31	260.12
383.535	267.12
383.761	279.12
383.986	272.12
384.211	307.12
384.436	292.12
384.662	235.12
384.887	250.12
385.112	249.12
385.337	244.12
385.562	254.12
385.787	253.12
386.013	290.12
386.238	287.12
386.463	239.12
386.688	233.12
386.913	221.12
387.138	204.12
387.363	227.12
387.588	222.12
387.813	223.12
388.038	268.12
388.263	235.12
388.488	237.12
388.713	267.12
388.938	259.12
389.163	225.12
389.387	204.12
389.612	204.12
389.837	225.12
390.062	229.12
390.287	232.12
390.512	237.12
390.736	218.12
390.961	202.12
391.186	206.12
391.411	219.12
391.636	218.12
391.86	234.12
392.085	260.12
392.31	242.12
392.534	258.12
392.759	222.12
392.984	250.12
393.208	237.12
393.433	203.12
393.658	215.12
393.882	195.12
394.107	200.12
394.331	186.12
394.556	215.12
394.78	214.12
395.005	205.12
395.229	218.12
395.454	208.12
395.678	212.12
395.903	209.12
396.127	215.12
396.352	216.12
396.576	231.12
396.801	256.12
397.025	251.12
397.249	263.12
397.474	215.12
397.698	227.12
397.922	240.12
398.147	231.12
398.371	201.12
398.595	225.12
398.82	228.12
399.044	218.12
399.268	240.12
399.492	261.12
399.717	285.12
399.941	280.12
400.165	260.12
400.389	260.12
400.613	251.12
400.837	249.12
401.062	223.12
401.286	221.12
401.51	219.12
401.734	232.12
401.958	228.12
402.182	231.12
402.406	221.12
402.63	238.12
402.854	245.12
403.078	278.12
403.302	336.12
403.526	362.12
403.75	329.12
403.974	259.12
404.198	277.12
404.422	291.12
404.645	322.12
404.869	343.12
405.093	274.12
405.317	257.12
405.541	247.12
405.765	264.12
405.988	237.12
406.212	252.12
406.436	286.12
406.66	301.12
406.883	266.12
407.107	271.12
407.331	307.12
407.555	292.12
407.778	274.12
408.002	291.12
408.226	271.12
408.449	271.12
408.673	271.12
408.896	261.12
409.12	222.12
409.344	242.12
409.567	235.12
409.791	247.12
410.014	234.12
410.238	238.12
410.461	238.12
410.685	256.12
410.908	214.12
411.132	236.12
411.355	229.12
411.578	246.12
411.802	243.12
412.025	233.12
412.249	226.12
412.472	231.12
412.695	243.12
412.919	228.12
413.142	239.12
413.365	245.12
413.589	247.12
413.812	239.12
414.035	221.12
414.258	238.12
414.482	254.12
414.705	256.12
414.928	241.12
415.151	224.12
415.374	232.12
415.597	230.12
415.821	237.12
416.044	233.12
416.267	210.12
416.49	221.12
416.713	217.12
416.936	219.12
417.159	214.12
417.382	221.12
417.605	229.12
417.828	210.12
418.051	219.12
418.274	231.12
418.497	218.12
418.72	237.12
418.943	237.12
419.166	244.12
419.389	268.12
419.611	248.12
419.834	250.12
420.057	259.12
420.28	246.12
420.503	239.12
420.726	224.12
420.948	211.12
421.171	236.12
421.394	213.12
421.617	223.12
421.839	233.12
422.062	239.12
422.285	218.12
422.507	222.12
422.73	235.12
422.953	251.12
423.175	242.12
423.398	242.12
423.621	265.12
423.843	263.12
424.066	254.12
424.288	246.12
424.511	249.12
424.733	232.12
424.956	237.12
425.178	265.12
425.401	298.12
425.623	354.12
425.846	293.12
426.068	267.12
426.291	258.12
426.513	245.12
426.735	231.12
426.958	242.12
427.18	281.12
427.402	313.12
427.625	335.12
427.847	295.12
428.069	232.12
428.292	202.12
428.514	214.12
428.736	224.12
428.958	237.12
429.181	291.12
429.403	246.12
429.625	218.12
429.847	217.12
430.069	209.12
430.292	239.12
430.514	205.12
430.736	237.12
430.958	270.12
431.18	243.12
431.402	215.12
431.624	197.12
431.846	213.12
432.068	209.12
432.29	214.12
432.512	232.12
432.734	267.12
432.956	279.12
433.178	211.12
433.4	229.12
433.622	210.12
433.844	213.12
434.066	226.12
434.287	244.12
434.509	241.12
434.731	247.12
434.953	244.12
435.175	261.12
435.397	258.12
435.618	233.12
435.84	208.12
436.062	218.12
436.284	214.12
436.505	215.12
436.727	198.12
436.949	216.12
437.17	208.12
437.392	209.12
437.614	206.12
437.835	222.12
438.057	209.12
438.278	218.12
438.5	303.12
438.721	304.12
438.943	232.12
439.165	215.12
439.386	213.12
439.608	212.12
439.829	201.12
440.05	202.12
440.272	220.12
440.493	250.12
440.715	268.12
440.936	255.12
441.158	215.12
441.379	210.12
441.6	250.12
441.822	238.12
442.043	221.12
442.264	225.12
442.486	231.12
442.707	213.12
442.928	228.12
443.149	235.12
443.371	222.12
443.592	247.12
443.813	238.12
444.034	260.12
444.255	245.12
444.476	242.12
444.698	231.12
444.919	255.12
445.14	343.12
445.361	297.12
445.582	245.12
445.803	236.12
446.024	219.12
446.245	228.12
446.466	255.12
446.687	226.12
446.908	221.12
447.129	211.12
447.35	214.12
447.571	214.12
447.792	206.12
448.013	214.12
448.234	191.12
448.455	183.12
448.675	182.12
448.896	210.12
449.117	198.12
449.338	196.12
449.559	217.12
449.779	214.12
450	209.12
450.221	210.12
450.442	217.12
450.662	217.12
450.883	211.12
451.104	227.12
451.324	195.12
451.545	220.12
451.766	196.12
451.986	204.12
452.207	209.12
452.428	203.12
452.648	189.12
452.869	216.12
453.089	209.12
453.31	212.12
453.53	210.12
453.751	191.12
453.971	196.12
454.192	203.12
454.412	226.12
454.633	193.12
454.853	202.12
455.073	192.12
455.294	194.12
455.514	201.12
455.734	178.12
455.955	202.12
456.175	214.12
456.395	198.12
456.616	173.12
456.836	189.12
457.056	189.12
457.276	195.12
457.497	173.12
457.717	192.12
457.937	186.12
458.157	208.12
458.377	189.12
458.598	200.12
458.818	211.12
459.038	207.12
459.258	223.12
459.478	219.12
459.698	224.12
459.918	232.12
460.138	238.12
460.358	223.12
460.578	213.12
460.798	241.12
461.018	223.12
461.238	234.12
461.458	221.12
461.678	233.12
461.898	246.12
462.118	234.12
462.338	237.12
462.558	243.12
462.777	247.12
462.997	266.12
463.217	295.12
463.437	301.12
463.657	277.12
463.876	257.12
464.096	263.12
464.316	265.12
464.536	245.12
464.755	278.12
464.975	265.12
465.195	251.12
465.414	256.12
465.634	249.12
465.854	221.12
466.073	217.12
466.293	216.12
466.512	229.12
466.732	241.12
466.951	247.12
467.171	228.12
467.391	238.12
467.61	215.12
467.829	222.12
468.049	214.12
468.268	225.12
468.488	208.12
468.707	242.12
468.927	256.12
469.146	251.12
469.365	242.12
469.585	203.12
469.804	237.12
470.023	238.12
470.243	239.12
470.462	233.12
470.681	220.12
470.901	239.12
471.12	247.12
471.339	242.12
471.558	223.12
471.777	227.12
471.997	231.12
472.216	263.12
472.435	257.12
472.654	232.12
472.873	226.12
473.092	225.12
473.311	258.12
473.53	221.12
473.749	205.12
473.968	235.12
474.187	235.12
474.406	239.12
474.625	215.12
474.844	213.12
475.063	246.12
475.282	244.12
475.501	259.12
475.72	273.12
475.939	245.12
476.158	255.12
476.377	284.12
476.596	329.12
476.814	343.12
477.033	298.12
477.252	243.12
477.471	255.12
477.69	236.12
477.908	243.12
478.127	267.12
478.346	244.12
478.564	265.12
478.783	275.12
479.002	255.12
479.22	297.12
479.439	317.12
479.658	293.12
479.876	248.12
480.095	282.12
480.313	291.12
480.532	279.12
480.751	267.12
480.969	273.12
481.188	274.12
481.406	287.12
481.624	272.12
481.843	258.12
482.061	257.12
482.28	274.12
482.498	317.12
482.717	327.12
482.935	280.12
483.153	252.12
483.372	265.12
483.59	241.12
483.808	249.12
484.027	243.12
484.245	216.12
484.463	229.12
484.681	241.12
484.9	261.12
485.118	281.12
485.336	253.12
485.554	248.12
485.772	240.12
485.99	280.12
486.209	285.12
486.427	293.12
486.645	264.12
486.863	277.12
487.081	265.12
487.299	315.12
487.517	290.12
487.735	245.12
487.953	266.12
488.171	263.12
488.389	272.12
488.607	244.12
488.825	255.12
489.043	269.12
489.261	319.12
489.479	330.12
489.696	279.12
489.914	271.12
490.132	254.12
490.35	262.12
490.568	266.12
490.786	261.12
491.003	258.12
491.221	253.12
491.439	262.12
491.657	255.12
491.874	275.12
492.092	309.12
492.31	351.12
492.527	326.12
492.745	313.12
492.963	303.12
493.18	281.12
493.398	294.12
493.615	282.12
493.833	289.12
494.05	301.12
494.268	307.12
494.485	271.12
494.703	265.12
494.92	267.12
495.138	285.12
495.355	260.12
495.573	248.12
495.79	294.12
496.008	341.12
496.225	319.12
496.442	292.12
496.66	295.12
496.877	307.12
497.094	298.12
497.312	296.12
497.529	288.12
497.746	286.12
497.963	290.12
498.181	327.12
498.398	337.12
498.615	343.12
498.832	378.12
499.049	394.12
499.267	360.12
499.484	368.12
499.701	413.12
499.918	435.12
500.135	457.12
500.352	511.12
500.569	500.12
500.786	528.12
501.003	518.12
501.22	437.12
501.437	396.12
501.654	374.12
501.871	375.12
502.088	352.12
502.305	338.12
502.522	334.12
