Data from NickelSpatula.Lamp.E5.5.P2_HRD10591_11-50-58-563.txt Node
Date: Tue Jul 23 11:50:58 EDT 2019
User: cochatt
Spectrometer: HR+D1059
Trigger mode: 1
Integration Time (sec): 1.000000E-1
Scans to average: 1
Electric dark correction enabled: true
Nonlinearity correction enabled: false
Boxcar width: 0
XAxis mode: Wavelengths
Number of Pixels in Spectrum: 2048
>>>>>Begin Spectral Data<<<<<
223.165	-15.31
223.4	-15.31
223.635	-15.31
223.869	-17.31
224.104	-11.31
224.338	-6.31
224.573	-3.31
224.808	-15.31
225.042	-16.31
225.277	8.69
225.511	10.69
225.746	-7.31
225.98	1.69
226.215	7.69
226.449	18.69
226.683	1.69
226.918	28.69
227.152	14.69
227.387	33.69
227.621	40.69
227.856	48.69
228.09	56.69
228.324	48.69
228.559	52.69
228.793	56.69
229.027	61.69
229.262	73.69
229.496	75.69
229.73	75.69
229.964	74.69
230.199	86.69
230.433	102.69
230.667	85.69
230.901	81.69
231.136	75.69
231.37	91.69
231.604	88.69
231.838	101.69
232.072	98.69
232.306	100.69
232.541	79.69
232.775	86.69
233.009	103.69
233.243	112.69
233.477	112.69
233.711	95.69
233.945	106.69
234.179	102.69
234.413	105.69
234.647	110.69
234.881	121.69
235.115	117.69
235.349	128.69
235.583	99.69
235.817	108.69
236.051	100.69
236.285	112.69
236.519	110.69
236.753	136.69
236.987	118.69
237.221	115.69
237.455	106.69
237.689	124.69
237.922	108.69
238.156	125.69
238.39	121.69
238.624	134.69
238.858	138.69
239.091	119.69
239.325	119.69
239.559	120.69
239.793	130.69
240.027	140.69
240.26	132.69
240.494	134.69
240.728	132.69
240.961	150.69
241.195	134.69
241.429	133.69
241.662	138.69
241.896	130.69
242.13	130.69
242.363	103.69
242.597	120.69
242.83	128.69
243.064	145.69
243.298	154.69
243.531	131.69
243.765	144.69
243.998	136.69
244.232	142.69
244.465	139.69
244.699	138.69
244.932	161.69
245.166	145.69
245.399	126.69
245.633	134.69
245.866	139.69
246.099	128.69
246.333	143.69
246.566	166.69
246.8	154.69
247.033	160.69
247.266	148.69
247.5	128.69
247.733	146.69
247.966	156.69
248.2	149.69
248.433	174.69
248.666	165.69
248.899	160.69
249.133	162.69
249.366	183.69
249.599	184.69
249.832	185.69
250.066	165.69
250.299	186.69
250.532	153.69
250.765	170.69
250.998	156.69
251.231	146.69
251.465	151.69
251.698	166.69
251.931	172.69
252.164	166.69
252.397	176.69
252.63	176.69
252.863	205.69
253.096	209.69
253.329	216.69
253.562	189.69
253.795	208.69
254.028	223.69
254.261	251.69
254.494	211.69
254.727	202.69
254.96	197.69
255.193	206.69
255.426	191.69
255.659	172.69
255.892	150.69
256.124	172.69
256.357	194.69
256.59	211.69
256.823	205.69
257.056	193.69
257.289	176.69
257.521	180.69
257.754	229.69
257.987	237.69
258.22	210.69
258.452	196.69
258.685	212.69
258.918	232.69
259.151	234.69
259.383	244.69
259.616	256.69
259.849	260.69
260.081	273.69
260.314	293.69
260.547	279.69
260.779	256.69
261.012	276.69
261.244	269.69
261.477	277.69
261.71	253.69
261.942	238.69
262.175	226.69
262.407	223.69
262.64	228.69
262.872	238.69
263.105	285.69
263.337	279.69
263.57	262.69
263.802	213.69
264.035	208.69
264.267	185.69
264.499	170.69
264.732	169.69
264.964	163.69
265.197	158.69
265.429	191.69
265.661	175.69
265.894	175.69
266.126	193.69
266.358	200.69
266.591	210.69
266.823	269.69
267.055	265.69
267.287	247.69
267.52	223.69
267.752	246.69
267.984	250.69
268.216	246.69
268.448	213.69
268.681	222.69
268.913	225.69
269.145	254.69
269.377	242.69
269.609	252.69
269.841	217.69
270.073	248.69
270.306	241.69
270.538	266.69
270.77	263.69
271.002	256.69
271.234	261.69
271.466	268.69
271.698	258.69
271.93	241.69
272.162	230.69
272.394	256.69
272.626	231.69
272.858	258.69
273.09	265.69
273.322	237.69
273.553	217.69
273.785	262.69
274.017	293.69
274.249	345.69
274.481	368.69
274.713	394.69
274.945	425.69
275.176	436.69
275.408	419.69
275.64	387.69
275.872	381.69
276.104	342.69
276.335	290.69
276.567	303.69
276.799	309.69
277.031	319.69
277.262	259.69
277.494	229.69
277.726	211.69
277.957	237.69
278.189	252.69
278.421	248.69
278.652	235.69
278.884	261.69
279.115	236.69
279.347	234.69
279.579	243.69
279.81	224.69
280.042	236.69
280.273	244.69
280.505	228.69
280.736	217.69
280.968	205.69
281.199	214.69
281.431	236.69
281.662	247.69
281.894	217.69
282.125	232.69
282.356	239.69
282.588	246.69
282.819	227.69
283.051	237.69
283.282	289.69
283.513	316.69
283.745	346.69
283.976	339.69
284.207	320.69
284.439	323.69
284.67	330.69
284.901	301.69
285.132	319.69
285.364	325.69
285.595	313.69
285.826	318.69
286.057	326.69
286.288	342.69
286.52	338.69
286.751	346.69
286.982	359.69
287.213	315.69
287.444	296.69
287.675	295.69
287.906	288.69
288.138	275.69
288.369	260.69
288.6	253.69
288.831	247.69
289.062	300.69
289.293	293.69
289.524	290.69
289.755	280.69
289.986	285.69
290.217	271.69
290.448	221.69
290.679	202.69
290.91	195.69
291.141	188.69
291.371	218.69
291.602	201.69
291.833	197.69
292.064	218.69
292.295	216.69
292.526	253.69
292.757	245.69
292.987	287.69
293.218	294.69
293.449	282.69
293.68	326.69
293.91	314.69
294.141	301.69
294.372	280.69
294.603	265.69
294.833	279.69
295.064	324.69
295.295	310.69
295.525	254.69
295.756	236.69
295.987	215.69
296.217	196.69
296.448	201.69
296.679	223.69
296.909	232.69
297.14	258.69
297.37	264.69
297.601	258.69
297.831	232.69
298.062	243.69
298.292	282.69
298.523	280.69
298.753	333.69
298.984	283.69
299.214	249.69
299.445	231.69
299.675	205.69
299.905	216.69
300.136	230.69
300.366	238.69
300.597	227.69
300.827	223.69
301.057	208.69
301.288	210.69
301.518	229.69
301.748	248.69
301.979	252.69
302.209	272.69
302.439	270.69
302.669	238.69
302.9	240.69
303.13	233.69
303.36	221.69
303.59	214.69
303.82	230.69
304.051	249.69
304.281	256.69
304.511	256.69
304.741	230.69
304.971	225.69
305.201	258.69
305.431	241.69
305.661	205.69
305.891	233.69
306.121	225.69
306.352	196.69
306.582	184.69
306.812	192.69
307.042	178.69
307.272	202.69
307.502	194.69
307.731	185.69
307.961	197.69
308.191	175.69
308.421	182.69
308.651	191.69
308.881	180.69
309.111	194.69
309.341	168.69
309.571	172.69
309.8	178.69
310.03	191.69
310.26	210.69
310.49	213.69
310.72	202.69
310.949	192.69
311.179	185.69
311.409	214.69
311.639	218.69
311.868	247.69
312.098	280.69
312.328	323.69
312.557	306.69
312.787	321.69
313.017	288.69
313.246	304.69
313.476	322.69
313.706	277.69
313.935	240.69
314.165	199.69
314.394	216.69
314.624	207.69
314.853	183.69
315.083	205.69
315.312	221.69
315.542	202.69
315.771	198.69
316.001	190.69
316.23	170.69
316.46	189.69
316.689	186.69
316.919	186.69
317.148	196.69
317.377	179.69
317.607	181.69
317.836	200.69
318.065	212.69
318.295	230.69
318.524	227.69
318.753	189.69
318.983	200.69
319.212	192.69
319.441	212.69
319.67	209.69
319.9	218.69
320.129	224.69
320.358	211.69
320.587	206.69
320.816	192.69
321.046	213.69
321.275	233.69
321.504	223.69
321.733	230.69
321.962	213.69
322.191	204.69
322.42	202.69
322.649	221.69
322.878	232.69
323.108	225.69
323.337	215.69
323.566	213.69
323.795	198.69
324.024	208.69
324.253	217.69
324.482	205.69
324.71	211.69
324.939	223.69
325.168	197.69
325.397	201.69
325.626	202.69
325.855	202.69
326.084	197.69
326.313	188.69
326.542	185.69
326.77	196.69
326.999	200.69
327.228	196.69
327.457	212.69
327.686	217.69
327.914	179.69
328.143	187.69
328.372	186.69
328.6	188.69
328.829	182.69
329.058	185.69
329.287	194.69
329.515	197.69
329.744	201.69
329.972	185.69
330.201	178.69
330.43	194.69
330.658	214.69
330.887	201.69
331.115	215.69
331.344	218.69
331.572	206.69
331.801	197.69
332.03	193.69
332.258	213.69
332.486	225.69
332.715	225.69
332.943	214.69
333.172	192.69
333.4	230.69
333.629	238.69
333.857	260.69
334.085	252.69
334.314	229.69
334.542	229.69
334.771	206.69
334.999	221.69
335.227	208.69
335.455	206.69
335.684	217.69
335.912	239.69
336.14	264.69
336.369	245.69
336.597	242.69
336.825	260.69
337.053	264.69
337.281	240.69
337.51	206.69
337.738	227.69
337.966	206.69
338.194	229.69
338.422	226.69
338.65	210.69
338.878	193.69
339.106	183.69
339.334	210.69
339.562	226.69
339.79	211.69
340.018	198.69
340.246	212.69
340.474	243.69
340.702	245.69
340.93	233.69
341.158	243.69
341.386	222.69
341.614	214.69
341.842	230.69
342.07	224.69
342.298	240.69
342.526	243.69
342.754	215.69
342.981	211.69
343.209	206.69
343.437	222.69
343.665	255.69
343.893	243.69
344.12	292.69
344.348	310.69
344.576	290.69
344.804	252.69
345.031	227.69
345.259	212.69
345.487	206.69
345.714	209.69
345.942	213.69
346.17	233.69
346.397	231.69
346.625	213.69
346.853	217.69
347.08	194.69
347.308	215.69
347.535	229.69
347.763	241.69
347.99	215.69
348.218	215.69
348.445	220.69
348.673	209.69
348.9	220.69
349.128	220.69
349.355	217.69
349.583	228.69
349.81	209.69
350.037	207.69
350.265	195.69
350.492	180.69
350.72	200.69
350.947	178.69
351.174	195.69
351.402	199.69
351.629	214.69
351.856	199.69
352.083	191.69
352.311	200.69
352.538	219.69
352.765	225.69
352.992	223.69
353.22	207.69
353.447	214.69
353.674	222.69
353.901	204.69
354.128	215.69
354.355	201.69
354.583	215.69
354.81	233.69
355.037	230.69
355.264	218.69
355.491	209.69
355.718	244.69
355.945	222.69
356.172	245.69
356.399	223.69
356.626	264.69
356.853	305.69
357.08	319.69
357.307	329.69
357.534	260.69
357.761	280.69
357.988	337.69
358.215	371.69
358.441	338.69
358.668	282.69
358.895	290.69
359.122	243.69
359.349	257.69
359.576	278.69
359.802	232.69
360.029	205.69
360.256	217.69
360.483	253.69
360.709	304.69
360.936	317.69
361.163	279.69
361.39	229.69
361.616	223.69
361.843	242.69
362.07	278.69
362.296	243.69
362.523	216.69
362.749	197.69
362.976	209.69
363.203	246.69
363.429	229.69
363.656	219.69
363.882	207.69
364.109	215.69
364.335	213.69
364.562	214.69
364.788	217.69
365.015	256.69
365.241	223.69
365.468	217.69
365.694	188.69
365.92	203.69
366.147	189.69
366.373	175.69
366.599	190.69
366.826	182.69
367.052	186.69
367.278	190.69
367.505	186.69
367.731	186.69
367.957	213.69
368.184	222.69
368.41	211.69
368.636	210.69
368.862	235.69
369.089	212.69
369.315	186.69
369.541	203.69
369.767	190.69
369.993	177.69
370.219	195.69
370.445	199.69
370.672	225.69
370.898	221.69
371.124	213.69
371.35	213.69
371.576	205.69
371.802	197.69
372.028	239.69
372.254	270.69
372.48	246.69
372.706	214.69
372.932	224.69
373.158	240.69
373.384	250.69
373.61	327.69
373.835	346.69
374.061	280.69
374.287	258.69
374.513	285.69
374.739	310.69
374.965	355.69
375.191	301.69
375.416	242.69
375.642	214.69
375.868	239.69
376.094	266.69
376.319	238.69
376.545	272.69
376.771	275.69
376.997	235.69
377.222	206.69
377.448	174.69
377.674	187.69
377.899	179.69
378.125	187.69
378.35	194.69
378.576	180.69
378.802	186.69
379.027	237.69
379.253	212.69
379.478	223.69
379.704	210.69
379.929	228.69
380.155	238.69
380.38	197.69
380.606	216.69
380.831	248.69
381.057	228.69
381.282	218.69
381.507	250.69
381.733	264.69
381.958	277.69
382.184	302.69
382.409	311.69
382.634	308.69
382.86	312.69
383.085	271.69
383.31	250.69
383.535	264.69
383.761	252.69
383.986	250.69
384.211	293.69
384.436	295.69
384.662	239.69
384.887	224.69
385.112	248.69
385.337	247.69
385.562	243.69
385.787	256.69
386.013	276.69
386.238	281.69
386.463	237.69
386.688	227.69
386.913	216.69
387.138	213.69
387.363	211.69
387.588	217.69
387.813	239.69
388.038	240.69
388.263	233.69
388.488	232.69
388.713	254.69
388.938	275.69
389.163	250.69
389.387	202.69
389.612	204.69
389.837	233.69
390.062	210.69
390.287	226.69
390.512	215.69
390.736	199.69
390.961	195.69
391.186	211.69
391.411	198.69
391.636	214.69
391.86	236.69
392.085	248.69
392.31	274.69
392.534	238.69
392.759	232.69
392.984	236.69
393.208	232.69
393.433	205.69
393.658	205.69
393.882	201.69
394.107	202.69
394.331	204.69
394.556	204.69
394.78	209.69
395.005	200.69
395.229	207.69
395.454	217.69
395.678	217.69
395.903	211.69
396.127	207.69
396.352	218.69
396.576	228.69
396.801	220.69
397.025	245.69
397.249	250.69
397.474	210.69
397.698	209.69
397.922	222.69
398.147	204.69
398.371	221.69
398.595	244.69
398.82	211.69
399.044	241.69
399.268	262.69
399.492	266.69
399.717	306.69
399.941	291.69
400.165	253.69
400.389	246.69
400.613	236.69
400.837	250.69
401.062	216.69
401.286	230.69
401.51	219.69
401.734	216.69
401.958	223.69
402.182	218.69
402.406	218.69
402.63	212.69
402.854	227.69
403.078	262.69
403.302	371.69
403.526	371.69
403.75	326.69
403.974	288.69
404.198	277.69
404.422	277.69
404.645	296.69
404.869	339.69
405.093	274.69
405.317	252.69
405.541	230.69
405.765	250.69
405.988	238.69
406.212	252.69
406.436	273.69
406.66	322.69
406.883	255.69
407.107	272.69
407.331	300.69
407.555	303.69
407.778	273.69
408.002	278.69
408.226	267.69
408.449	259.69
408.673	246.69
408.896	241.69
409.12	229.69
409.344	242.69
409.567	239.69
409.791	232.69
410.014	233.69
410.238	241.69
410.461	238.69
410.685	224.69
410.908	229.69
411.132	215.69
411.355	223.69
411.578	235.69
411.802	220.69
412.025	237.69
412.249	221.69
412.472	223.69
412.695	209.69
412.919	229.69
413.142	227.69
413.365	246.69
413.589	242.69
413.812	241.69
414.035	218.69
414.258	229.69
414.482	253.69
414.705	236.69
414.928	221.69
415.151	231.69
415.374	215.69
415.597	229.69
415.821	228.69
416.044	220.69
416.267	232.69
416.49	217.69
416.713	209.69
416.936	212.69
417.159	213.69
417.382	208.69
417.605	210.69
417.828	230.69
418.051	222.69
418.274	222.69
418.497	223.69
418.72	225.69
418.943	231.69
419.166	250.69
419.389	244.69
419.611	248.69
419.834	231.69
420.057	256.69
420.28	238.69
420.503	248.69
420.726	215.69
420.948	220.69
421.171	219.69
421.394	220.69
421.617	209.69
421.839	210.69
422.062	229.69
422.285	220.69
422.507	210.69
422.73	239.69
422.953	229.69
423.175	232.69
423.398	223.69
423.621	243.69
423.843	256.69
424.066	245.69
424.288	240.69
424.511	241.69
424.733	238.69
424.956	245.69
425.178	257.69
425.401	304.69
425.623	342.69
425.846	284.69
426.068	252.69
426.291	268.69
426.513	220.69
426.735	228.69
426.958	231.69
427.18	262.69
427.402	297.69
427.625	327.69
427.847	279.69
428.069	226.69
428.292	233.69
428.514	230.69
428.736	210.69
428.958	252.69
429.181	290.69
429.403	248.69
429.625	217.69
429.847	212.69
430.069	223.69
430.292	213.69
430.514	222.69
430.736	220.69
430.958	252.69
431.18	250.69
431.402	200.69
431.624	202.69
431.846	195.69
432.068	211.69
432.29	225.69
432.512	206.69
432.734	262.69
432.956	242.69
433.178	220.69
433.4	212.69
433.622	232.69
433.844	234.69
434.066	234.69
434.287	216.69
434.509	230.69
434.731	229.69
434.953	221.69
435.175	238.69
435.397	270.69
435.618	220.69
435.84	204.69
436.062	209.69
436.284	218.69
436.505	201.69
436.727	201.69
436.949	217.69
437.17	233.69
437.392	223.69
437.614	224.69
437.835	208.69
438.057	199.69
438.278	224.69
438.5	304.69
438.721	297.69
438.943	216.69
439.165	209.69
439.386	216.69
439.608	217.69
439.829	197.69
440.05	207.69
440.272	201.69
440.493	233.69
440.715	261.69
440.936	236.69
441.158	221.69
441.379	217.69
441.6	224.69
441.822	254.69
442.043	209.69
442.264	222.69
442.486	210.69
442.707	229.69
442.928	230.69
443.149	242.69
443.371	223.69
443.592	229.69
443.813	236.69
444.034	239.69
444.255	241.69
444.476	243.69
444.698	230.69
444.919	232.69
445.14	376.69
445.361	307.69
445.582	241.69
445.803	228.69
446.024	244.69
446.245	229.69
446.466	236.69
446.687	220.69
446.908	218.69
447.129	191.69
447.35	204.69
447.571	200.69
447.792	193.69
448.013	201.69
448.234	190.69
448.455	183.69
448.675	205.69
448.896	178.69
449.117	212.69
449.338	191.69
449.559	203.69
449.779	224.69
450	213.69
450.221	213.69
450.442	186.69
450.662	187.69
450.883	188.69
451.104	185.69
451.324	196.69
451.545	196.69
451.766	189.69
451.986	203.69
452.207	212.69
452.428	206.69
452.648	231.69
452.869	220.69
453.089	212.69
453.31	205.69
453.53	211.69
453.751	206.69
453.971	206.69
454.192	208.69
454.412	199.69
454.633	205.69
454.853	193.69
455.073	199.69
455.294	199.69
455.514	188.69
455.734	198.69
455.955	204.69
456.175	196.69
456.395	190.69
456.616	194.69
456.836	178.69
457.056	190.69
457.276	174.69
457.497	195.69
457.717	184.69
457.937	192.69
458.157	195.69
458.377	199.69
458.598	194.69
458.818	188.69
459.038	196.69
459.258	205.69
459.478	217.69
459.698	204.69
459.918	218.69
460.138	222.69
460.358	259.69
460.578	227.69
460.798	216.69
461.018	247.69
461.238	213.69
461.458	231.69
461.678	247.69
461.898	236.69
462.118	246.69
462.338	236.69
462.558	244.69
462.777	256.69
462.997	270.69
463.217	268.69
463.437	299.69
463.657	274.69
463.876	266.69
464.096	241.69
464.316	264.69
464.536	268.69
464.755	281.69
464.975	256.69
465.195	239.69
465.414	251.69
465.634	223.69
465.854	217.69
466.073	214.69
466.293	213.69
466.512	228.69
466.732	238.69
466.951	238.69
467.171	233.69
467.391	217.69
467.61	215.69
467.829	211.69
468.049	221.69
468.268	195.69
468.488	194.69
468.707	214.69
468.927	232.69
469.146	235.69
469.365	214.69
469.585	218.69
469.804	223.69
470.023	238.69
470.243	236.69
470.462	222.69
470.681	220.69
470.901	221.69
471.12	221.69
471.339	228.69
471.558	212.69
471.777	229.69
471.997	223.69
472.216	232.69
472.435	225.69
472.654	232.69
472.873	213.69
473.092	223.69
473.311	232.69
473.53	218.69
473.749	211.69
473.968	221.69
474.187	231.69
474.406	217.69
474.625	219.69
474.844	233.69
475.063	214.69
475.282	217.69
475.501	255.69
475.72	266.69
475.939	255.69
476.158	254.69
476.377	266.69
476.596	287.69
476.814	285.69
477.033	269.69
477.252	255.69
477.471	228.69
477.69	231.69
477.908	247.69
478.127	265.69
478.346	252.69
478.564	278.69
478.783	252.69
479.002	262.69
479.22	276.69
479.439	291.69
479.658	285.69
479.876	279.69
480.095	273.69
480.313	268.69
480.532	262.69
480.751	259.69
480.969	280.69
481.188	262.69
481.406	271.69
481.624	268.69
481.843	247.69
482.061	233.69
482.28	252.69
482.498	309.69
482.717	297.69
482.935	256.69
483.153	249.69
483.372	233.69
483.59	228.69
483.808	238.69
484.027	221.69
484.245	224.69
484.463	229.69
484.681	250.69
484.9	236.69
485.118	241.69
485.336	267.69
485.554	251.69
485.772	240.69
485.99	252.69
486.209	264.69
486.427	269.69
486.645	265.69
486.863	270.69
487.081	278.69
487.299	279.69
487.517	284.69
487.735	266.69
487.953	283.69
488.171	265.69
488.389	258.69
488.607	240.69
488.825	234.69
489.043	276.69
489.261	294.69
489.479	318.69
489.696	257.69
489.914	258.69
490.132	265.69
490.35	246.69
490.568	248.69
490.786	249.69
491.003	259.69
491.221	259.69
491.439	256.69
491.657	249.69
491.874	262.69
492.092	289.69
492.31	314.69
492.527	312.69
492.745	287.69
492.963	292.69
493.18	271.69
493.398	276.69
493.615	272.69
493.833	278.69
494.05	263.69
494.268	264.69
494.485	264.69
494.703	264.69
494.92	262.69
495.138	256.69
495.355	244.69
495.573	265.69
495.79	294.69
496.008	323.69
496.225	286.69
496.442	274.69
496.66	271.69
496.877	288.69
497.094	283.69
497.312	257.69
497.529	268.69
497.746	285.69
497.963	281.69
498.181	310.69
498.398	330.69
498.615	341.69
498.832	342.69
499.049	349.69
499.267	366.69
499.484	370.69
499.701	388.69
499.918	428.69
500.135	489.69
500.352	512.69
500.569	538.69
500.786	567.69
501.003	516.69
501.22	452.69
501.437	407.69
501.654	384.69
501.871	365.69
502.088	348.69
502.305	338.69
502.522	327.69
