Data from NickelSpatula.Lamp.E10.P2_HRD10591_11-58-48-527.txt Node
Date: Tue Jul 23 11:58:48 EDT 2019
User: cochatt
Spectrometer: HR+D1059
Trigger mode: 1
Integration Time (sec): 1.000000E-1
Scans to average: 1
Electric dark correction enabled: true
Nonlinearity correction enabled: false
Boxcar width: 0
XAxis mode: Wavelengths
Number of Pixels in Spectrum: 2048
>>>>>Begin Spectral Data<<<<<
223.165	-16.94
223.4	-16.94
223.635	-16.94
223.869	-11.94
224.104	-14.94
224.338	-3.94
224.573	-15.94
224.808	-26.94
225.042	4.06
225.277	-1.94
225.511	0.06
225.746	-1.94
225.98	5.06
226.215	8.06
226.449	18.06
226.683	12.06
226.918	16.06
227.152	31.06
227.387	28.06
227.621	40.06
227.856	52.06
228.09	38.06
228.324	48.06
228.559	58.06
228.793	85.06
229.027	161.06
229.262	157.06
229.496	162.06
229.73	156.06
229.964	179.06
230.199	219.06
230.433	217.06
230.667	213.06
230.901	212.06
231.136	202.06
231.37	204.06
231.604	223.06
231.838	256.06
232.072	254.06
232.306	248.06
232.541	254.06
232.775	263.06
233.009	281.06
233.243	280.06
233.477	321.06
233.711	337.06
233.945	337.06
234.179	328.06
234.413	358.06
234.647	373.06
234.881	457.06
235.115	423.06
235.349	418.06
235.583	351.06
235.817	360.06
236.051	379.06
236.285	446.06
236.519	449.06
236.753	450.06
236.987	441.06
237.221	393.06
237.455	417.06
237.689	423.06
237.922	459.06
238.156	478.06
238.39	534.06
238.624	661.06
238.858	592.06
239.091	477.06
239.325	510.06
239.559	489.06
239.793	553.06
240.027	657.06
240.26	618.06
240.494	578.06
240.728	581.06
240.961	690.06
241.195	631.06
241.429	627.06
241.662	607.06
241.896	531.06
242.13	474.06
242.363	454.06
242.597	473.06
242.83	560.06
243.064	539.06
243.298	589.06
243.531	634.06
243.765	636.06
243.998	646.06
244.232	605.06
244.465	619.06
244.699	588.06
244.932	674.06
245.166	641.06
245.399	534.06
245.633	548.06
245.866	564.06
246.099	603.06
246.333	705.06
246.566	777.06
246.8	760.06
247.033	742.06
247.266	684.06
247.5	655.06
247.733	660.06
247.966	665.06
248.2	699.06
248.433	754.06
248.666	842.06
248.899	843.06
249.133	864.06
249.366	967.06
249.599	1044.06
249.832	965.06
250.066	807.06
250.299	846.06
250.532	835.06
250.765	784.06
250.998	752.06
251.231	738.06
251.465	790.06
251.698	838.06
251.931	809.06
252.164	830.06
252.397	930.06
252.63	1069.06
252.863	1172.06
253.096	1203.06
253.329	1156.06
253.562	1100.06
253.795	1252.06
254.028	1362.06
254.261	1376.06
254.494	1248.06
254.727	1169.06
254.96	1113.06
255.193	1194.06
255.426	1109.06
255.659	873.06
255.892	787.06
256.124	866.06
256.357	1040.06
256.59	1184.06
256.823	1134.06
257.056	976.06
257.289	914.06
257.521	974.06
257.754	1139.06
257.987	1278.06
258.22	1107.06
258.452	1030.06
258.685	1128.06
258.918	1264.06
259.151	1248.06
259.383	1298.06
259.616	1497.06
259.849	1536.06
260.081	1689.06
260.314	1895.06
260.547	1434.06
260.779	1464.06
261.012	1686.06
261.244	1592.06
261.477	1665.06
261.71	1547.06
261.942	1311.06
262.175	1295.06
262.407	1217.06
262.64	1281.06
262.872	1468.06
263.105	1631.06
263.337	1714.06
263.57	1555.06
263.802	1036.06
264.035	916.06
264.267	889.06
264.499	768.06
264.732	718.06
264.964	681.06
265.197	710.06
265.429	763.06
265.661	823.06
265.894	819.06
266.126	896.06
266.358	1035.06
266.591	1247.06
266.823	1498.06
267.055	1422.06
267.287	1190.06
267.52	1254.06
267.752	1302.06
267.984	1436.06
268.216	1371.06
268.448	1132.06
268.681	1111.06
268.913	1217.06
269.145	1258.06
269.377	1295.06
269.609	1258.06
269.841	1214.06
270.073	1294.06
270.306	1402.06
270.538	1388.06
270.77	1395.06
271.002	1376.06
271.234	1466.06
271.466	1492.06
271.698	1466.06
271.93	1418.06
272.162	1469.06
272.394	1434.06
272.626	1405.06
272.858	1458.06
273.09	1505.06
273.322	1271.06
273.553	1276.06
273.785	1497.06
274.017	1990.06
274.249	2446.06
274.481	2497.06
274.713	2793.06
274.945	3169.06
275.176	3249.06
275.408	2819.06
275.64	2633.06
275.872	2618.06
276.104	2206.06
276.335	1890.06
276.567	1862.06
276.799	1930.06
277.031	2066.06
277.262	1633.06
277.494	1248.06
277.726	1212.06
277.957	1355.06
278.189	1484.06
278.421	1470.06
278.652	1454.06
278.884	1331.06
279.115	1242.06
279.347	1184.06
279.579	1212.06
279.81	1184.06
280.042	1192.06
280.273	1268.06
280.505	1156.06
280.736	1006.06
280.968	1011.06
281.199	1117.06
281.431	1237.06
281.662	1247.06
281.894	1192.06
282.125	1271.06
282.356	1347.06
282.588	1391.06
282.819	1243.06
283.051	1347.06
283.282	1667.06
283.513	1945.06
283.745	2162.06
283.976	2154.06
284.207	1986.06
284.439	2056.06
284.67	1993.06
284.901	1755.06
285.132	1936.06
285.364	1982.06
285.595	1852.06
285.826	1969.06
286.057	2011.06
286.288	1951.06
286.52	1969.06
286.751	2057.06
286.982	2083.06
287.213	1768.06
287.444	1772.06
287.675	1811.06
287.906	1838.06
288.138	1534.06
288.369	1386.06
288.6	1302.06
288.831	1355.06
289.062	1520.06
289.293	1688.06
289.524	1593.06
289.755	1565.06
289.986	1627.06
290.217	1422.06
290.448	1105.06
290.679	971.06
290.91	934.06
291.141	917.06
291.371	959.06
291.602	975.06
291.833	990.06
292.064	1052.06
292.295	1208.06
292.526	1397.06
292.757	1424.06
292.987	1548.06
293.218	1511.06
293.449	1591.06
293.68	1654.06
293.91	1581.06
294.141	1642.06
294.372	1500.06
294.603	1404.06
294.833	1574.06
295.064	1799.06
295.295	1705.06
295.525	1314.06
295.756	1164.06
295.987	992.06
296.217	1037.06
296.448	1041.06
296.679	1076.06
296.909	1227.06
297.14	1314.06
297.37	1402.06
297.601	1346.06
297.831	1148.06
298.062	1251.06
298.292	1429.06
298.523	1573.06
298.753	1758.06
298.984	1574.06
299.214	1275.06
299.445	1074.06
299.675	1050.06
299.905	1019.06
300.136	1075.06
300.366	1175.06
300.597	1182.06
300.827	992.06
301.057	997.06
301.288	1030.06
301.518	1091.06
301.748	1219.06
301.979	1334.06
302.209	1438.06
302.439	1458.06
302.669	1258.06
302.9	1239.06
303.13	1144.06
303.36	1073.06
303.59	1054.06
303.82	1111.06
304.051	1268.06
304.281	1364.06
304.511	1311.06
304.741	1135.06
304.971	1195.06
305.201	1280.06
305.431	1190.06
305.661	1047.06
305.891	1052.06
306.121	1045.06
306.352	958.06
306.582	868.06
306.812	859.06
307.042	859.06
307.272	819.06
307.502	819.06
307.731	882.06
307.961	906.06
308.191	871.06
308.421	806.06
308.651	821.06
308.881	747.06
309.111	789.06
309.341	810.06
309.571	924.06
309.8	924.06
310.03	950.06
310.26	1029.06
310.49	995.06
310.72	866.06
310.949	889.06
311.179	910.06
311.409	905.06
311.639	1082.06
311.868	1363.06
312.098	1793.06
312.328	1926.06
312.557	1808.06
312.787	1886.06
313.017	1673.06
313.246	1792.06
313.476	1930.06
313.706	1606.06
313.935	1276.06
314.165	1038.06
314.394	967.06
314.624	960.06
314.853	1009.06
315.083	1036.06
315.312	992.06
315.542	1006.06
315.771	962.06
316.001	847.06
316.23	824.06
316.46	839.06
316.689	867.06
316.919	890.06
317.148	910.06
317.377	880.06
317.607	857.06
317.836	950.06
318.065	1102.06
318.295	1256.06
318.524	1131.06
318.753	994.06
318.983	928.06
319.212	898.06
319.441	1015.06
319.67	1118.06
319.9	1193.06
320.129	1134.06
320.358	950.06
320.587	965.06
320.816	1001.06
321.046	1175.06
321.275	1338.06
321.504	1332.06
321.733	1261.06
321.962	1201.06
322.191	1151.06
322.42	1118.06
322.649	1134.06
322.878	1200.06
323.108	1212.06
323.337	1121.06
323.566	1070.06
323.795	1046.06
324.024	1059.06
324.253	970.06
324.482	972.06
324.71	1079.06
324.939	1209.06
325.168	1136.06
325.397	942.06
325.626	922.06
325.855	932.06
326.084	971.06
326.313	855.06
326.542	830.06
326.77	852.06
326.999	898.06
327.228	949.06
327.457	1010.06
327.686	1029.06
327.914	881.06
328.143	838.06
328.372	826.06
328.6	834.06
328.829	880.06
329.058	902.06
329.287	889.06
329.515	901.06
329.744	897.06
329.972	864.06
330.201	800.06
330.43	834.06
330.658	923.06
330.887	1082.06
331.115	1032.06
331.344	998.06
331.572	942.06
331.801	906.06
332.03	833.06
332.258	896.06
332.486	962.06
332.715	988.06
332.943	891.06
333.172	903.06
333.4	933.06
333.629	1005.06
333.857	1118.06
334.085	1110.06
334.314	1108.06
334.542	1042.06
334.771	987.06
334.999	938.06
335.227	899.06
335.455	951.06
335.684	1041.06
335.912	1178.06
336.14	1280.06
336.369	1246.06
336.597	1196.06
336.825	1391.06
337.053	1506.06
337.281	1225.06
337.51	969.06
337.738	994.06
337.966	1064.06
338.194	1195.06
338.422	1108.06
338.65	902.06
338.878	872.06
339.106	904.06
339.334	1038.06
339.562	1070.06
339.79	987.06
340.018	971.06
340.246	1039.06
340.474	1200.06
340.702	1271.06
340.93	1302.06
341.158	1342.06
341.386	1127.06
341.614	1136.06
341.842	1106.06
342.07	1183.06
342.298	1316.06
342.526	1377.06
342.754	1231.06
342.981	1135.06
343.209	1083.06
343.437	1150.06
343.665	1202.06
343.893	1175.06
344.12	1400.06
344.348	1634.06
344.576	1428.06
344.804	1194.06
345.031	1058.06
345.259	989.06
345.487	1008.06
345.714	1058.06
345.942	1121.06
346.17	1198.06
346.397	1120.06
346.625	982.06
346.853	982.06
347.08	927.06
347.308	1007.06
347.535	1135.06
347.763	1166.06
347.99	970.06
348.218	894.06
348.445	971.06
348.673	963.06
348.9	998.06
349.128	1059.06
349.355	1082.06
349.583	1068.06
349.81	1006.06
350.037	950.06
350.265	862.06
350.492	790.06
350.72	796.06
350.947	822.06
351.174	892.06
351.402	947.06
351.629	972.06
351.856	968.06
352.083	895.06
352.311	1004.06
352.538	1122.06
352.765	1146.06
352.992	1068.06
353.22	977.06
353.447	1008.06
353.674	980.06
353.901	1003.06
354.128	977.06
354.355	1027.06
354.583	1008.06
354.81	960.06
355.037	1026.06
355.264	994.06
355.491	1105.06
355.718	1190.06
355.945	1155.06
356.172	1117.06
356.399	1097.06
356.626	1356.06
356.853	1633.06
357.08	1728.06
357.307	1774.06
357.534	1375.06
357.761	1412.06
357.988	1822.06
358.215	2072.06
358.441	1996.06
358.668	1641.06
358.895	1529.06
359.122	1186.06
359.349	1209.06
359.576	1344.06
359.802	1131.06
360.029	936.06
360.256	1022.06
360.483	1280.06
360.709	1632.06
360.936	1662.06
361.163	1475.06
361.39	1155.06
361.616	1095.06
361.843	1250.06
362.07	1543.06
362.296	1398.06
362.523	1085.06
362.749	958.06
362.976	1006.06
363.203	1211.06
363.429	1364.06
363.656	1046.06
363.882	975.06
364.109	1029.06
364.335	1018.06
364.562	995.06
364.788	1144.06
365.015	1344.06
365.241	1172.06
365.468	983.06
365.694	827.06
365.92	822.06
366.147	792.06
366.373	813.06
366.599	774.06
366.826	831.06
367.052	826.06
367.278	828.06
367.505	811.06
367.731	902.06
367.957	998.06
368.184	1053.06
368.41	1032.06
368.636	1052.06
368.862	1065.06
369.089	1033.06
369.315	924.06
369.541	933.06
369.767	912.06
369.993	840.06
370.219	866.06
370.445	925.06
370.672	1017.06
370.898	1105.06
371.124	1092.06
371.35	948.06
371.576	899.06
371.802	1007.06
372.028	1177.06
372.254	1372.06
372.48	1150.06
372.706	1037.06
372.932	1140.06
373.158	1173.06
373.384	1358.06
373.61	1806.06
373.835	1889.06
374.061	1440.06
374.287	1210.06
374.513	1412.06
374.739	1656.06
374.965	1764.06
375.191	1716.06
375.416	1157.06
375.642	1021.06
375.868	1227.06
376.094	1371.06
376.319	1189.06
376.545	1319.06
376.771	1372.06
376.997	1161.06
377.222	862.06
377.448	737.06
377.674	740.06
377.899	748.06
378.125	775.06
378.35	765.06
378.576	798.06
378.802	891.06
379.027	932.06
379.253	890.06
379.478	942.06
379.704	1038.06
379.929	1116.06
380.155	1112.06
380.38	966.06
380.606	1014.06
380.831	1122.06
381.057	1025.06
381.282	1010.06
381.507	1180.06
381.733	1496.06
381.958	1579.06
382.184	1667.06
382.409	1769.06
382.634	1687.06
382.86	1799.06
383.085	1469.06
383.31	1148.06
383.535	1220.06
383.761	1226.06
383.986	1174.06
384.211	1448.06
384.436	1404.06
384.662	1069.06
384.887	1022.06
385.112	1064.06
385.337	1096.06
385.562	983.06
385.787	1104.06
386.013	1249.06
386.238	1283.06
386.463	1046.06
386.688	1012.06
386.913	982.06
387.138	928.06
387.363	970.06
387.588	1014.06
387.813	1010.06
388.038	1138.06
388.263	1011.06
388.488	973.06
388.713	1114.06
388.938	1238.06
389.163	1051.06
389.387	910.06
389.612	919.06
389.837	990.06
390.062	958.06
390.287	998.06
390.512	998.06
390.736	965.06
390.961	899.06
391.186	840.06
391.411	860.06
391.636	834.06
391.86	945.06
392.085	1061.06
392.31	1050.06
392.534	964.06
392.759	942.06
392.984	1033.06
393.208	1001.06
393.433	866.06
393.658	837.06
393.882	794.06
394.107	774.06
394.331	836.06
394.556	804.06
394.78	821.06
395.005	852.06
395.229	895.06
395.454	890.06
395.678	904.06
395.903	922.06
396.127	882.06
396.352	887.06
396.576	974.06
396.801	1010.06
397.025	1097.06
397.249	1156.06
397.474	958.06
397.698	928.06
397.922	987.06
398.147	932.06
398.371	910.06
398.595	976.06
398.82	962.06
399.044	985.06
399.268	995.06
399.492	1071.06
399.717	1042.06
399.941	1111.06
400.165	1024.06
400.389	1056.06
400.613	1072.06
400.837	1039.06
401.062	921.06
401.286	921.06
401.51	906.06
401.734	918.06
401.958	907.06
402.182	894.06
402.406	907.06
402.63	915.06
402.854	963.06
403.078	1078.06
403.302	1295.06
403.526	1350.06
403.75	1218.06
403.974	1067.06
404.198	1098.06
404.422	1207.06
404.645	1449.06
404.869	1593.06
405.093	1184.06
405.317	1003.06
405.541	974.06
405.765	1006.06
405.988	1016.06
406.212	1118.06
406.436	1326.06
406.66	1457.06
406.883	1136.06
407.107	1178.06
407.331	1381.06
407.555	1342.06
407.778	1099.06
408.002	1013.06
408.226	1050.06
408.449	1058.06
408.673	1010.06
408.896	920.06
409.12	916.06
409.344	897.06
409.567	894.06
409.791	914.06
410.014	902.06
410.238	896.06
410.461	895.06
410.685	876.06
410.908	910.06
411.132	951.06
411.355	936.06
411.578	956.06
411.802	936.06
412.025	1003.06
412.249	992.06
412.472	991.06
412.695	951.06
412.919	954.06
413.142	963.06
413.365	1034.06
413.589	1067.06
413.812	970.06
414.035	924.06
414.258	943.06
414.482	1081.06
414.705	1079.06
414.928	909.06
415.151	894.06
415.374	904.06
415.597	940.06
415.821	906.06
416.044	914.06
416.267	906.06
416.49	880.06
416.713	871.06
416.936	854.06
417.159	867.06
417.382	887.06
417.605	906.06
417.828	928.06
418.051	954.06
418.274	955.06
418.497	958.06
418.72	921.06
418.943	985.06
419.166	1000.06
419.389	1002.06
419.611	1024.06
419.834	1068.06
420.057	1148.06
420.28	1141.06
420.503	1041.06
420.726	930.06
420.948	908.06
421.171	902.06
421.394	867.06
421.617	848.06
421.839	894.06
422.062	931.06
422.285	942.06
422.507	928.06
422.73	983.06
422.953	989.06
423.175	961.06
423.398	950.06
423.621	1034.06
423.843	1037.06
424.066	976.06
424.288	962.06
424.511	920.06
424.733	900.06
424.956	950.06
425.178	1092.06
425.401	1243.06
425.623	1416.06
425.846	1154.06
426.068	1067.06
426.291	1131.06
426.513	1039.06
426.735	959.06
426.958	1020.06
427.18	1194.06
427.402	1523.06
427.625	1494.06
427.847	1209.06
428.069	911.06
428.292	911.06
428.514	878.06
428.736	854.06
428.958	952.06
429.181	1156.06
429.403	1014.06
429.625	918.06
429.847	872.06
430.069	908.06
430.292	915.06
430.514	873.06
430.736	956.06
430.958	1187.06
431.18	1104.06
431.402	853.06
431.624	817.06
431.846	806.06
432.068	803.06
432.29	831.06
432.512	947.06
432.734	1238.06
432.956	1146.06
433.178	868.06
433.4	864.06
433.622	869.06
433.844	905.06
434.066	936.06
434.287	932.06
434.509	918.06
434.731	926.06
434.953	861.06
435.175	921.06
435.397	1038.06
435.618	936.06
435.84	822.06
436.062	846.06
436.284	856.06
436.505	768.06
436.727	803.06
436.949	816.06
437.17	816.06
437.392	870.06
437.614	837.06
437.835	823.06
438.057	846.06
438.278	961.06
438.5	1456.06
438.721	1395.06
438.943	945.06
439.165	836.06
439.386	790.06
439.608	774.06
439.829	769.06
440.05	799.06
440.272	872.06
440.493	1022.06
440.715	1263.06
440.936	996.06
441.158	836.06
441.379	882.06
441.6	987.06
441.822	1056.06
442.043	892.06
442.264	882.06
442.486	876.06
442.707	838.06
442.928	867.06
443.149	883.06
443.371	889.06
443.592	923.06
443.813	915.06
444.034	888.06
444.255	890.06
444.476	952.06
444.698	926.06
444.919	962.06
445.14	1106.06
445.361	1011.06
445.582	972.06
445.803	905.06
446.024	949.06
446.245	952.06
446.466	928.06
446.687	871.06
446.908	882.06
447.129	838.06
447.35	861.06
447.571	786.06
447.792	794.06
448.013	799.06
448.234	763.06
448.455	779.06
448.675	793.06
448.896	799.06
449.117	791.06
449.338	810.06
449.559	828.06
449.779	888.06
450	867.06
450.221	830.06
450.442	809.06
450.662	794.06
450.883	776.06
451.104	814.06
451.324	793.06
451.545	840.06
451.766	811.06
451.986	780.06
452.207	786.06
452.428	780.06
452.648	779.06
452.869	802.06
453.089	871.06
453.31	839.06
453.53	759.06
453.751	751.06
453.971	734.06
454.192	772.06
454.412	793.06
454.633	768.06
454.853	754.06
455.073	737.06
455.294	736.06
455.514	730.06
455.734	768.06
455.955	798.06
456.175	818.06
456.395	748.06
456.616	714.06
456.836	714.06
457.056	706.06
457.276	714.06
457.497	719.06
457.717	722.06
457.937	714.06
458.157	745.06
458.377	730.06
458.598	747.06
458.818	770.06
459.038	812.06
459.258	820.06
459.478	854.06
459.698	915.06
459.918	912.06
460.138	860.06
460.358	898.06
460.578	887.06
460.798	892.06
461.018	889.06
461.238	849.06
461.458	888.06
461.678	909.06
461.898	947.06
462.118	922.06
462.338	934.06
462.558	931.06
462.777	1007.06
462.997	1031.06
463.217	981.06
463.437	1030.06
463.657	1014.06
463.876	977.06
464.096	956.06
464.316	980.06
464.536	982.06
464.755	1016.06
464.975	1032.06
465.195	989.06
465.414	1015.06
465.634	971.06
465.854	927.06
466.073	892.06
466.293	849.06
466.512	906.06
466.732	1007.06
466.951	1022.06
467.171	946.06
467.391	875.06
467.61	897.06
467.829	934.06
468.049	932.06
468.268	841.06
468.488	866.06
468.707	920.06
468.927	1100.06
469.146	1138.06
469.365	1061.06
469.585	974.06
469.804	999.06
470.023	1106.06
470.243	960.06
470.462	936.06
470.681	905.06
470.901	938.06
471.12	984.06
471.339	980.06
471.558	907.06
471.777	942.06
471.997	997.06
472.216	1109.06
472.435	1078.06
472.654	1009.06
472.873	956.06
473.092	982.06
473.311	1062.06
473.53	964.06
473.749	944.06
473.968	992.06
474.187	969.06
474.406	962.06
474.625	920.06
474.844	965.06
475.063	1046.06
475.282	1038.06
475.501	1081.06
475.72	1154.06
475.939	1075.06
476.158	1075.06
476.377	1234.06
476.596	1449.06
476.814	1477.06
477.033	1262.06
477.252	1067.06
477.471	1008.06
477.69	1015.06
477.908	1095.06
478.127	1123.06
478.346	1051.06
478.564	1152.06
478.783	1090.06
479.002	1127.06
479.22	1315.06
479.439	1410.06
479.658	1224.06
479.876	1110.06
480.095	1193.06
480.313	1229.06
480.532	1140.06
480.751	1104.06
480.969	1108.06
481.188	1264.06
481.406	1319.06
481.624	1233.06
481.843	1129.06
482.061	1095.06
482.28	1236.06
482.498	1470.06
482.717	1368.06
482.935	1176.06
483.153	1138.06
483.372	1044.06
483.59	1048.06
483.808	1047.06
484.027	1031.06
484.245	985.06
484.463	1011.06
484.681	1007.06
484.9	1132.06
485.118	1186.06
485.336	1104.06
485.554	1031.06
485.772	1078.06
485.99	1157.06
486.209	1269.06
486.427	1253.06
486.645	1214.06
486.863	1241.06
487.081	1227.06
487.299	1394.06
487.517	1308.06
487.735	1208.06
487.953	1247.06
488.171	1258.06
488.389	1187.06
488.607	1134.06
488.825	1176.06
489.043	1284.06
489.261	1466.06
489.479	1594.06
489.696	1307.06
489.914	1177.06
490.132	1161.06
490.35	1105.06
490.568	1130.06
490.786	1123.06
491.003	1095.06
491.221	1178.06
491.439	1111.06
491.657	1152.06
491.874	1230.06
492.092	1503.06
492.31	1838.06
492.527	1773.06
492.745	1547.06
492.963	1332.06
493.18	1284.06
493.398	1288.06
493.615	1280.06
493.833	1242.06
494.05	1249.06
