Data from NickelSpatula_HRD10591_16-34-58-126.txt Node
Date: Mon Jul 22 16:34:58 EDT 2019
User: cochatt
Spectrometer: HR+D1059
Trigger mode: 1
Integration Time (sec): 1.000000E-1
Scans to average: 1
Electric dark correction enabled: true
Nonlinearity correction enabled: false
Boxcar width: 0
XAxis mode: Wavelengths
Number of Pixels in Spectrum: 2048
>>>>>Begin Spectral Data<<<<<
223.165	-6.62
223.4	-6.62
223.635	-6.62
223.869	-10.62
224.104	-20.62
224.338	-21.62
224.573	-13.62
224.808	0.38
225.042	-24.62
225.277	1.38
225.511	-7.62
225.746	-2.62
225.98	8.38
226.215	16.38
226.449	12.38
226.683	25.38
226.918	21.38
227.152	22.38
227.387	20.38
227.621	40.38
227.856	47.38
228.09	55.38
228.324	52.38
228.559	47.38
228.793	51.38
229.027	82.38
229.262	86.38
229.496	81.38
229.73	78.38
229.964	86.38
230.199	106.38
230.433	106.38
230.667	102.38
230.901	106.38
231.136	102.38
231.37	94.38
231.604	106.38
231.838	104.38
232.072	106.38
232.306	110.38
232.541	99.38
232.775	99.38
233.009	121.38
233.243	113.38
233.477	110.38
233.711	129.38
233.945	124.38
234.179	126.38
234.413	126.38
234.647	123.38
234.881	134.38
235.115	132.38
235.349	122.38
235.583	116.38
235.817	123.38
236.051	124.38
236.285	140.38
236.519	137.38
236.753	126.38
236.987	122.38
237.221	126.38
237.455	126.38
237.689	131.38
237.922	136.38
238.156	133.38
238.39	149.38
238.624	165.38
238.858	157.38
239.091	127.38
239.325	151.38
239.559	125.38
239.793	143.38
240.027	182.38
240.26	171.38
240.494	158.38
240.728	182.38
240.961	186.38
241.195	152.38
241.429	167.38
241.662	160.38
241.896	135.38
242.13	139.38
242.363	133.38
242.597	145.38
242.83	163.38
243.064	155.38
243.298	171.38
243.531	163.38
243.765	171.38
243.998	174.38
244.232	165.38
244.465	179.38
244.699	175.38
244.932	173.38
245.166	172.38
245.399	152.38
245.633	167.38
245.866	163.38
246.099	185.38
246.333	177.38
246.566	188.38
246.8	203.38
247.033	182.38
247.266	179.38
247.5	167.38
247.733	184.38
247.966	181.38
248.2	162.38
248.433	193.38
248.666	188.38
248.899	198.38
249.133	196.38
249.366	229.38
249.599	238.38
249.832	225.38
250.066	208.38
250.299	215.38
250.532	204.38
250.765	205.38
250.998	202.38
251.231	182.38
251.465	213.38
251.698	202.38
251.931	208.38
252.164	217.38
252.397	231.38
252.63	244.38
252.863	274.38
253.096	253.38
253.329	270.38
253.562	251.38
253.795	281.38
254.028	307.38
254.261	284.38
254.494	287.38
254.727	262.38
254.96	273.38
255.193	256.38
255.426	260.38
255.659	223.38
255.892	188.38
256.124	214.38
256.357	239.38
256.59	268.38
256.823	261.38
257.056	230.38
257.289	237.38
257.521	228.38
257.754	255.38
257.987	295.38
258.22	266.38
258.452	228.38
258.685	276.38
258.918	283.38
259.151	271.38
259.383	285.38
259.616	312.38
259.849	336.38
260.081	338.38
260.314	352.38
260.547	323.38
260.779	319.38
261.012	354.38
261.244	346.38
261.477	342.38
261.71	312.38
261.942	286.38
262.175	293.38
262.407	285.38
262.64	273.38
262.872	321.38
263.105	350.38
263.337	356.38
263.57	324.38
263.802	233.38
264.035	229.38
264.267	219.38
264.499	216.38
264.732	181.38
264.964	159.38
265.197	165.38
265.429	197.38
265.661	198.38
265.894	209.38
266.126	233.38
266.358	237.38
266.591	283.38
266.823	342.38
267.055	317.38
267.287	293.38
267.52	301.38
267.752	301.38
267.984	309.38
268.216	307.38
268.448	262.38
268.681	255.38
268.913	286.38
269.145	293.38
269.377	300.38
269.609	293.38
269.841	292.38
270.073	292.38
270.306	324.38
270.538	330.38
270.77	316.38
271.002	334.38
271.234	319.38
271.466	333.38
271.698	309.38
271.93	306.38
272.162	286.38
272.394	309.38
272.626	310.38
272.858	319.38
273.09	310.38
273.322	266.38
273.553	265.38
273.785	291.38
274.017	362.38
274.249	461.38
274.481	471.38
274.713	509.38
274.945	564.38
275.176	575.38
275.408	551.38
275.64	513.38
275.872	502.38
276.104	445.38
276.335	399.38
276.567	395.38
276.799	396.38
277.031	421.38
277.262	350.38
277.494	281.38
277.726	282.38
277.957	294.38
278.189	330.38
278.421	301.38
278.652	313.38
278.884	301.38
279.115	292.38
279.347	267.38
279.579	265.38
279.81	271.38
280.042	275.38
280.273	284.38
280.505	248.38
280.736	232.38
280.968	234.38
281.199	252.38
281.431	287.38
281.662	262.38
281.894	281.38
282.125	286.38
282.356	289.38
282.588	308.38
282.819	268.38
283.051	291.38
283.282	333.38
283.513	389.38
283.745	419.38
283.976	438.38
284.207	403.38
284.439	440.38
284.67	395.38
284.901	363.38
285.132	381.38
285.364	395.38
285.595	389.38
285.826	396.38
286.057	410.38
286.288	387.38
286.52	406.38
286.751	421.38
286.982	430.38
287.213	375.38
287.444	365.38
287.675	371.38
287.906	381.38
288.138	344.38
288.369	321.38
288.6	285.38
288.831	285.38
289.062	320.38
289.293	377.38
289.524	343.38
289.755	354.38
289.986	356.38
290.217	292.38
290.448	250.38
290.679	215.38
290.91	219.38
291.141	203.38
291.371	224.38
291.602	203.38
291.833	228.38
292.064	239.38
292.295	261.38
292.526	292.38
292.757	297.38
292.987	328.38
293.218	334.38
293.449	339.38
293.68	378.38
293.91	343.38
294.141	344.38
294.372	335.38
294.603	300.38
294.833	322.38
295.064	383.38
295.295	369.38
295.525	280.38
295.756	245.38
295.987	244.38
296.217	224.38
296.448	231.38
296.679	230.38
296.909	257.38
297.14	271.38
297.37	293.38
297.601	267.38
297.831	237.38
298.062	260.38
298.292	308.38
298.523	326.38
298.753	365.38
298.984	333.38
299.214	263.38
299.445	230.38
299.675	207.38
299.905	228.38
300.136	225.38
300.366	228.38
300.597	230.38
300.827	229.38
301.057	216.38
301.288	211.38
301.518	210.38
301.748	253.38
301.979	276.38
302.209	292.38
302.439	283.38
302.669	253.38
302.9	246.38
303.13	250.38
303.36	241.38
303.59	239.38
303.82	225.38
304.051	263.38
304.281	265.38
304.511	286.38
304.741	262.38
304.971	251.38
305.201	265.38
305.431	264.38
305.661	226.38
305.891	232.38
306.121	227.38
306.352	201.38
306.582	213.38
306.812	188.38
307.042	187.38
307.272	179.38
307.502	169.38
307.731	190.38
307.961	206.38
308.191	204.38
308.421	173.38
308.651	183.38
308.881	171.38
309.111	157.38
309.341	190.38
309.571	206.38
309.8	196.38
310.03	203.38
310.26	218.38
310.49	203.38
310.72	169.38
310.949	190.38
311.179	172.38
311.409	188.38
311.639	233.38
311.868	293.38
312.098	376.38
312.328	373.38
312.557	371.38
312.787	370.38
313.017	324.38
313.246	364.38
313.476	390.38
313.706	341.38
313.935	270.38
314.165	230.38
314.394	195.38
314.624	205.38
314.853	215.38
315.083	225.38
315.312	201.38
315.542	203.38
315.771	201.38
316.001	181.38
316.23	193.38
316.46	180.38
316.689	183.38
316.919	200.38
317.148	194.38
317.377	191.38
317.607	186.38
317.836	203.38
318.065	206.38
318.295	246.38
318.524	231.38
318.753	210.38
318.983	202.38
319.212	193.38
319.441	188.38
319.67	243.38
319.9	246.38
320.129	238.38
320.358	216.38
320.587	198.38
320.816	202.38
321.046	233.38
321.275	284.38
321.504	263.38
321.733	235.38
321.962	245.38
322.191	226.38
322.42	216.38
322.649	207.38
322.878	217.38
323.108	261.38
323.337	235.38
323.566	220.38
323.795	215.38
324.024	202.38
324.253	205.38
324.482	207.38
324.71	211.38
324.939	216.38
325.168	214.38
325.397	202.38
325.626	174.38
325.855	192.38
326.084	203.38
326.313	170.38
326.542	177.38
326.77	180.38
326.999	199.38
327.228	189.38
327.457	214.38
327.686	202.38
327.914	186.38
328.143	170.38
328.372	175.38
328.6	180.38
328.829	197.38
329.058	182.38
329.287	175.38
329.515	183.38
329.744	196.38
329.972	193.38
330.201	191.38
330.43	183.38
330.658	207.38
330.887	225.38
331.115	217.38
331.344	198.38
331.572	202.38
331.801	197.38
332.03	189.38
332.258	179.38
332.486	201.38
332.715	210.38
332.943	196.38
333.172	193.38
333.4	193.38
333.629	214.38
333.857	214.38
334.085	222.38
334.314	229.38
334.542	211.38
334.771	201.38
334.999	203.38
335.227	191.38
335.455	195.38
335.684	217.38
335.912	216.38
336.14	269.38
336.369	248.38
336.597	246.38
336.825	263.38
337.053	290.38
337.281	252.38
337.51	180.38
337.738	206.38
337.966	207.38
338.194	221.38
338.422	220.38
338.65	206.38
338.878	193.38
339.106	191.38
339.334	209.38
339.562	236.38
339.79	204.38
340.018	213.38
340.246	187.38
340.474	234.38
340.702	234.38
340.93	258.38
341.158	257.38
341.386	220.38
341.614	195.38
341.842	212.38
342.07	222.38
342.298	251.38
342.526	263.38
342.754	243.38
342.981	204.38
343.209	216.38
343.437	229.38
343.665	246.38
343.893	223.38
344.12	283.38
344.348	317.38
344.576	291.38
344.804	233.38
345.031	213.38
345.259	197.38
345.487	208.38
345.714	209.38
345.942	214.38
346.17	252.38
346.397	234.38
346.625	189.38
346.853	199.38
347.08	182.38
347.308	207.38
347.535	227.38
347.763	238.38
347.99	198.38
348.218	204.38
348.445	205.38
348.673	194.38
348.9	210.38
349.128	219.38
349.355	216.38
349.583	205.38
349.81	195.38
350.037	208.38
350.265	179.38
350.492	155.38
350.72	165.38
350.947	153.38
351.174	184.38
351.402	179.38
351.629	202.38
351.856	187.38
352.083	177.38
352.311	204.38
352.538	217.38
352.765	224.38
352.992	220.38
353.22	223.38
353.447	217.38
353.674	217.38
353.901	182.38
354.128	214.38
354.355	197.38
354.583	206.38
354.81	213.38
355.037	242.38
355.264	215.38
355.491	223.38
355.718	234.38
355.945	217.38
356.172	221.38
356.399	214.38
356.626	260.38
356.853	293.38
357.08	342.38
357.307	345.38
357.534	273.38
357.761	277.38
357.988	327.38
358.215	356.38
358.441	334.38
358.668	321.38
358.895	295.38
359.122	252.38
359.349	240.38
359.576	266.38
359.802	224.38
360.029	195.38
360.256	201.38
360.483	260.38
360.709	298.38
360.936	315.38
361.163	269.38
361.39	243.38
361.616	208.38
361.843	225.38
362.07	276.38
362.296	249.38
362.523	195.38
362.749	206.38
362.976	191.38
363.203	243.38
363.429	251.38
363.656	230.38
363.882	197.38
364.109	194.38
364.335	228.38
364.562	204.38
364.788	216.38
365.015	229.38
365.241	232.38
365.468	211.38
365.694	177.38
365.92	187.38
366.147	175.38
366.373	158.38
366.599	169.38
366.826	182.38
367.052	166.38
367.278	168.38
367.505	157.38
367.731	175.38
367.957	201.38
368.184	208.38
368.41	217.38
368.636	198.38
368.862	210.38
369.089	206.38
369.315	184.38
369.541	163.38
369.767	180.38
369.993	167.38
370.219	175.38
370.445	191.38
370.672	202.38
370.898	221.38
371.124	211.38
371.35	183.38
371.576	187.38
371.802	185.38
372.028	218.38
372.254	229.38
372.48	210.38
372.706	206.38
372.932	214.38
373.158	228.38
373.384	229.38
373.61	311.38
373.835	317.38
374.061	243.38
374.287	215.38
374.513	241.38
374.739	293.38
374.965	298.38
375.191	294.38
375.416	230.38
375.642	194.38
375.868	207.38
376.094	246.38
376.319	218.38
376.545	235.38
376.771	236.38
376.997	219.38
377.222	179.38
377.448	157.38
377.674	162.38
377.899	167.38
378.125	142.38
378.35	157.38
378.576	168.38
378.802	167.38
379.027	201.38
379.253	187.38
379.478	202.38
379.704	219.38
379.929	218.38
380.155	217.38
380.38	191.38
380.606	227.38
380.831	251.38
381.057	218.38
381.282	197.38
381.507	219.38
381.733	260.38
381.958	267.38
382.184	281.38
382.409	314.38
382.634	320.38
382.86	322.38
383.085	277.38
383.31	234.38
383.535	236.38
383.761	240.38
383.986	229.38
384.211	266.38
384.436	249.38
384.662	206.38
384.887	198.38
385.112	218.38
385.337	222.38
385.562	195.38
385.787	224.38
386.013	247.38
386.238	241.38
386.463	215.38
386.688	198.38
386.913	190.38
387.138	195.38
387.363	196.38
387.588	197.38
387.813	195.38
388.038	204.38
388.263	210.38
388.488	200.38
388.713	234.38
388.938	236.38
389.163	203.38
389.387	180.38
389.612	169.38
389.837	201.38
390.062	186.38
390.287	206.38
390.512	193.38
390.736	185.38
390.961	195.38
391.186	178.38
391.411	178.38
391.636	168.38
391.86	181.38
392.085	219.38
392.31	210.38
392.534	202.38
392.759	180.38
392.984	211.38
393.208	206.38
393.433	179.38
393.658	194.38
393.882	164.38
394.107	166.38
394.331	163.38
394.556	182.38
394.78	151.38
395.005	179.38
395.229	179.38
395.454	178.38
395.678	180.38
395.903	198.38
396.127	185.38
396.352	197.38
396.576	216.38
396.801	193.38
397.025	234.38
397.249	224.38
397.474	204.38
397.698	197.38
397.922	223.38
398.147	187.38
398.371	193.38
398.595	217.38
398.82	193.38
399.044	193.38
399.268	208.38
399.492	223.38
399.717	224.38
399.941	224.38
400.165	210.38
400.389	224.38
400.613	202.38
400.837	209.38
401.062	192.38
401.286	202.38
401.51	191.38
401.734	181.38
401.958	185.38
402.182	191.38
402.406	174.38
402.63	190.38
402.854	200.38
403.078	222.38
403.302	274.38
403.526	291.38
403.75	265.38
403.974	213.38
404.198	231.38
404.422	263.38
404.645	273.38
404.869	283.38
405.093	229.38
405.317	207.38
405.541	210.38
405.765	207.38
405.988	217.38
406.212	230.38
406.436	245.38
406.66	270.38
406.883	220.38
407.107	233.38
407.331	247.38
407.555	248.38
407.778	204.38
408.002	226.38
408.226	244.38
408.449	207.38
408.673	217.38
408.896	187.38
409.12	180.38
409.344	186.38
409.567	191.38
409.791	186.38
410.014	185.38
410.238	196.38
410.461	181.38
410.685	184.38
410.908	198.38
411.132	200.38
411.355	180.38
411.578	195.38
411.802	179.38
412.025	200.38
412.249	189.38
412.472	186.38
412.695	194.38
412.919	201.38
413.142	196.38
413.365	218.38
413.589	207.38
413.812	189.38
414.035	188.38
414.258	202.38
414.482	198.38
414.705	218.38
414.928	185.38
415.151	172.38
415.374	180.38
415.597	202.38
415.821	185.38
416.044	200.38
416.267	168.38
416.49	190.38
416.713	179.38
416.936	174.38
417.159	177.38
417.382	173.38
417.605	207.38
417.828	180.38
418.051	171.38
418.274	181.38
418.497	184.38
418.72	193.38
418.943	209.38
419.166	212.38
419.389	197.38
419.611	218.38
419.834	206.38
420.057	232.38
420.28	209.38
420.503	199.38
420.726	196.38
420.948	178.38
421.171	183.38
421.394	190.38
421.617	182.38
421.839	181.38
422.062	188.38
422.285	181.38
422.507	197.38
422.73	199.38
422.953	206.38
423.175	192.38
423.398	213.38
423.621	207.38
423.843	211.38
424.066	197.38
424.288	196.38
424.511	189.38
424.733	188.38
424.956	199.38
425.178	216.38
425.401	236.38
425.623	274.38
425.846	229.38
426.068	202.38
426.291	233.38
426.513	211.38
426.735	198.38
426.958	219.38
427.18	229.38
427.402	295.38
427.625	294.38
427.847	237.38
428.069	189.38
428.292	198.38
428.514	192.38
428.736	185.38
428.958	206.38
429.181	235.38
429.403	203.38
429.625	201.38
429.847	196.38
430.069	195.38
430.292	193.38
430.514	173.38
430.736	192.38
430.958	214.38
431.18	206.38
431.402	162.38
431.624	170.38
431.846	202.38
432.068	177.38
432.29	177.38
432.512	184.38
432.734	237.38
432.956	199.38
433.178	172.38
433.4	167.38
433.622	175.38
433.844	189.38
434.066	206.38
434.287	204.38
434.509	191.38
434.731	217.38
434.953	187.38
435.175	200.38
435.397	209.38
435.618	182.38
435.84	185.38
436.062	185.38
436.284	198.38
436.505	170.38
436.727	169.38
436.949	184.38
437.17	167.38
437.392	183.38
437.614	157.38
437.835	178.38
438.057	181.38
438.278	198.38
438.5	264.38
438.721	262.38
438.943	183.38
439.165	181.38
439.386	167.38
439.608	169.38
439.829	153.38
440.05	164.38
440.272	157.38
440.493	193.38
440.715	238.38
440.936	205.38
441.158	177.38
441.379	171.38
441.6	195.38
441.822	222.38
442.043	187.38
442.264	166.38
442.486	204.38
442.707	167.38
442.928	173.38
443.149	187.38
443.371	184.38
443.592	186.38
443.813	194.38
444.034	178.38
444.255	198.38
444.476	209.38
444.698	191.38
444.919	195.38
445.14	331.38
445.361	255.38
445.582	205.38
445.803	199.38
446.024	189.38
446.245	213.38
446.466	211.38
446.687	187.38
446.908	183.38
447.129	179.38
447.35	185.38
447.571	190.38
447.792	173.38
448.013	167.38
448.234	161.38
448.455	187.38
448.675	171.38
448.896	165.38
449.117	185.38
449.338	191.38
449.559	182.38
449.779	181.38
450	184.38
450.221	193.38
450.442	174.38
450.662	167.38
450.883	168.38
451.104	167.38
451.324	178.38
451.545	180.38
451.766	174.38
451.986	172.38
452.207	163.38
452.428	185.38
452.648	177.38
452.869	174.38
453.089	198.38
453.31	189.38
453.53	168.38
453.751	180.38
453.971	161.38
454.192	173.38
454.412	183.38
454.633	177.38
454.853	181.38
455.073	159.38
455.294	157.38
455.514	173.38
455.734	178.38
455.955	186.38
456.175	188.38
456.395	184.38
456.616	151.38
456.836	165.38
457.056	168.38
457.276	160.38
457.497	159.38
457.717	157.38
457.937	168.38
458.157	167.38
458.377	161.38
458.598	167.38
458.818	159.38
459.038	174.38
459.258	163.38
459.478	186.38
459.698	200.38
459.918	206.38
460.138	191.38
460.358	202.38
460.578	190.38
460.798	183.38
461.018	178.38
461.238	184.38
461.458	190.38
461.678	203.38
461.898	213.38
462.118	196.38
462.338	192.38
462.558	198.38
462.777	219.38
462.997	221.38
463.217	194.38
463.437	206.38
463.657	211.38
463.876	186.38
464.096	207.38
464.316	204.38
464.536	206.38
464.755	211.38
464.975	219.38
465.195	195.38
465.414	216.38
465.634	212.38
465.854	210.38
466.073	186.38
466.293	179.38
466.512	179.38
466.732	208.38
466.951	202.38
467.171	199.38
467.391	185.38
467.61	183.38
467.829	185.38
468.049	197.38
468.268	175.38
468.488	194.38
468.707	183.38
468.927	210.38
469.146	230.38
469.365	214.38
469.585	202.38
469.804	207.38
470.023	223.38
470.243	219.38
470.462	196.38
470.681	203.38
470.901	201.38
471.12	217.38
471.339	192.38
471.558	183.38
471.777	209.38
471.997	213.38
472.216	213.38
472.435	211.38
472.654	203.38
472.873	211.38
473.092	228.38
473.311	226.38
473.53	201.38
473.749	201.38
473.968	208.38
474.187	208.38
474.406	193.38
474.625	181.38
474.844	195.38
475.063	201.38
475.282	205.38
475.501	230.38
475.72	254.38
475.939	231.38
476.158	214.38
476.377	269.38
476.596	302.38
476.814	309.38
477.033	266.38
477.252	221.38
477.471	193.38
477.69	217.38
477.908	213.38
478.127	245.38
478.346	225.38
478.564	258.38
478.783	242.38
479.002	221.38
479.22	237.38
479.439	266.38
479.658	249.38
479.876	228.38
480.095	241.38
480.313	242.38
480.532	213.38
480.751	216.38
480.969	230.38
481.188	218.38
481.406	249.38
481.624	256.38
481.843	241.38
482.061	218.38
482.28	250.38
482.498	311.38
482.717	301.38
482.935	240.38
483.153	223.38
483.372	218.38
483.59	224.38
483.808	216.38
484.027	221.38
484.245	207.38
484.463	186.38
484.681	212.38
484.9	226.38
485.118	234.38
485.336	217.38
485.554	220.38
485.772	219.38
485.99	230.38
486.209	235.38
486.427	243.38
486.645	226.38
486.863	231.38
487.081	249.38
487.299	279.38
487.517	254.38
487.735	229.38
487.953	273.38
488.171	259.38
488.389	226.38
488.607	222.38
488.825	222.38
489.043	268.38
489.261	299.38
489.479	306.38
489.696	244.38
489.914	209.38
490.132	219.38
490.35	212.38
490.568	239.38
490.786	228.38
491.003	227.38
491.221	222.38
491.439	204.38
491.657	217.38
491.874	224.38
492.092	276.38
492.31	347.38
492.527	331.38
492.745	260.38
492.963	253.38
493.18	245.38
493.398	258.38
493.615	249.38
493.833	244.38
494.05	248.38
494.268	244.38
494.485	247.38
494.703	223.38
494.92	231.38
495.138	221.38
495.355	224.38
495.573	239.38
495.79	276.38
496.008	359.38
496.225	291.38
496.442	259.38
496.66	266.38
496.877	250.38
497.094	256.38
497.312	241.38
497.529	258.38
497.746	253.38
497.963	252.38
498.181	300.38
498.398	287.38
498.615	311.38
498.832	322.38
499.049	308.38
499.267	277.38
499.484	283.38
499.701	309.38
499.918	320.38
500.135	376.38
500.352	353.38
500.569	375.38
500.786	377.38
501.003	393.38
501.22	343.38
501.437	343.38
501.654	310.38
501.871	293.38
502.088	323.38
502.305	287.38
502.522	289.38
502.739	277.38
