Data from NickelSpatula.Lamp.E5.5.P2_HRD10591_11-53-45-547.txt Node
Date: Tue Jul 23 11:53:45 EDT 2019
User: cochatt
Spectrometer: HR+D1059
Trigger mode: 1
Integration Time (sec): 1.000000E-1
Scans to average: 1
Electric dark correction enabled: true
Nonlinearity correction enabled: false
Boxcar width: 0
XAxis mode: Wavelengths
Number of Pixels in Spectrum: 2048
>>>>>Begin Spectral Data<<<<<
223.165	-13.38
223.4	-13.38
223.635	-13.38
223.869	-28.38
224.104	-24.38
224.338	-14.38
224.573	-13.38
224.808	-5.38
225.042	-25.38
225.277	-12.38
225.511	3.62
225.746	11.62
225.98	9.62
226.215	24.62
226.449	16.62
226.683	18.62
226.918	20.62
227.152	31.62
227.387	27.62
227.621	33.62
227.856	45.62
228.09	47.62
228.324	57.62
228.559	57.62
228.793	51.62
229.027	81.62
229.262	83.62
229.496	75.62
229.73	83.62
229.964	85.62
230.199	81.62
230.433	106.62
230.667	101.62
230.901	115.62
231.136	103.62
231.37	109.62
231.604	107.62
231.838	106.62
232.072	110.62
232.306	87.62
232.541	91.62
232.775	124.62
233.009	100.62
233.243	127.62
233.477	123.62
233.711	142.62
233.945	112.62
234.179	129.62
234.413	131.62
234.647	117.62
234.881	147.62
235.115	131.62
235.349	130.62
235.583	121.62
235.817	124.62
236.051	145.62
236.285	131.62
236.519	147.62
236.753	135.62
236.987	125.62
237.221	127.62
237.455	129.62
237.689	139.62
237.922	162.62
238.156	143.62
238.39	169.62
238.624	191.62
238.858	162.62
239.091	143.62
239.325	147.62
239.559	132.62
239.793	157.62
240.027	175.62
240.26	150.62
240.494	173.62
240.728	178.62
240.961	182.62
241.195	174.62
241.429	163.62
241.662	165.62
241.896	148.62
242.13	149.62
242.363	129.62
242.597	131.62
242.83	154.62
243.064	163.62
243.298	182.62
243.531	179.62
243.765	153.62
243.998	171.62
244.232	159.62
244.465	150.62
244.699	158.62
244.932	184.62
245.166	153.62
245.399	142.62
245.633	162.62
245.866	153.62
246.099	167.62
246.333	174.62
246.566	191.62
246.8	194.62
247.033	185.62
247.266	184.62
247.5	195.62
247.733	177.62
247.966	169.62
248.2	184.62
248.433	188.62
248.666	198.62
248.899	200.62
249.133	207.62
249.366	227.62
249.599	263.62
249.832	218.62
250.066	209.62
250.299	219.62
250.532	204.62
250.765	195.62
250.998	191.62
251.231	167.62
251.465	200.62
251.698	195.62
251.931	200.62
252.164	217.62
252.397	233.62
252.63	262.62
252.863	261.62
253.096	281.62
253.329	252.62
253.562	251.62
253.795	290.62
254.028	301.62
254.261	326.62
254.494	283.62
254.727	266.62
254.96	238.62
255.193	249.62
255.426	266.62
255.659	208.62
255.892	223.62
256.124	225.62
256.357	243.62
256.59	264.62
256.823	254.62
257.056	237.62
257.289	233.62
257.521	212.62
257.754	263.62
257.987	301.62
258.22	270.62
258.452	240.62
258.685	258.62
258.918	289.62
259.151	280.62
259.383	315.62
259.616	354.62
259.849	342.62
260.081	371.62
260.314	392.62
260.547	319.62
260.779	330.62
261.012	375.62
261.244	365.62
261.477	361.62
261.71	333.62
261.942	292.62
262.175	277.62
262.407	273.62
262.64	306.62
262.872	328.62
263.105	341.62
263.337	360.62
263.57	371.62
263.802	245.62
264.035	231.62
264.267	240.62
264.499	215.62
264.732	190.62
264.964	190.62
265.197	181.62
265.429	183.62
265.661	210.62
265.894	222.62
266.126	222.62
266.358	240.62
266.591	293.62
266.823	344.62
267.055	314.62
267.287	298.62
267.52	305.62
267.752	289.62
267.984	322.62
268.216	322.62
268.448	263.62
268.681	258.62
268.913	276.62
269.145	288.62
269.377	301.62
269.609	280.62
269.841	290.62
270.073	304.62
270.306	313.62
270.538	317.62
270.77	313.62
271.002	326.62
271.234	334.62
271.466	337.62
271.698	310.62
271.93	315.62
272.162	308.62
272.394	307.62
272.626	317.62
272.858	327.62
273.09	318.62
273.322	292.62
273.553	272.62
273.785	303.62
274.017	397.62
274.249	467.62
274.481	484.62
274.713	524.62
274.945	594.62
275.176	604.62
275.408	545.62
275.64	516.62
275.872	529.62
276.104	436.62
276.335	403.62
276.567	383.62
276.799	411.62
277.031	457.62
277.262	346.62
277.494	289.62
277.726	269.62
277.957	301.62
278.189	322.62
278.421	334.62
278.652	318.62
278.884	287.62
279.115	275.62
279.347	275.62
279.579	260.62
279.81	288.62
280.042	287.62
280.273	296.62
280.505	294.62
280.736	242.62
280.968	245.62
281.199	263.62
281.431	287.62
281.662	281.62
281.894	256.62
282.125	293.62
282.356	299.62
282.588	327.62
282.819	289.62
283.051	310.62
283.282	334.62
283.513	403.62
283.745	458.62
283.976	458.62
284.207	415.62
284.439	441.62
284.67	432.62
284.901	386.62
285.132	396.62
285.364	405.62
285.595	390.62
285.826	413.62
286.057	424.62
286.288	403.62
286.52	401.62
286.751	455.62
286.982	455.62
287.213	378.62
287.444	377.62
287.675	388.62
287.906	390.62
288.138	331.62
288.369	342.62
288.6	301.62
288.831	299.62
289.062	361.62
289.293	384.62
289.524	353.62
289.755	354.62
289.986	367.62
290.217	333.62
290.448	265.62
290.679	226.62
290.91	233.62
291.141	215.62
291.371	239.62
291.602	226.62
291.833	242.62
292.064	233.62
292.295	266.62
292.526	307.62
292.757	314.62
292.987	342.62
293.218	352.62
293.449	361.62
293.68	383.62
293.91	354.62
294.141	372.62
294.372	366.62
294.603	324.62
294.833	347.62
295.064	415.62
295.295	393.62
295.525	295.62
295.756	286.62
295.987	253.62
296.217	243.62
296.448	237.62
296.679	244.62
296.909	276.62
297.14	294.62
297.37	326.62
297.601	304.62
297.831	255.62
298.062	295.62
298.292	324.62
298.523	365.62
298.753	394.62
298.984	357.62
299.214	289.62
299.445	263.62
299.675	263.62
299.905	264.62
300.136	267.62
300.366	277.62
300.597	275.62
300.827	255.62
301.057	259.62
301.288	247.62
301.518	275.62
301.748	295.62
301.979	303.62
302.209	344.62
302.439	320.62
302.669	286.62
302.9	285.62
303.13	270.62
303.36	266.62
303.59	257.62
303.82	259.62
304.051	285.62
304.281	311.62
304.511	306.62
304.741	297.62
304.971	278.62
305.201	305.62
305.431	288.62
305.661	252.62
305.891	283.62
306.121	261.62
306.352	237.62
306.582	224.62
306.812	213.62
307.042	225.62
307.272	196.62
307.502	210.62
307.731	212.62
307.961	218.62
308.191	201.62
308.421	197.62
308.651	195.62
308.881	191.62
309.111	217.62
309.341	193.62
309.571	198.62
309.8	241.62
310.03	241.62
310.26	239.62
310.49	238.62
310.72	215.62
310.949	218.62
311.179	222.62
311.409	231.62
311.639	253.62
311.868	297.62
312.098	382.62
312.328	407.62
312.557	396.62
312.787	408.62
313.017	355.62
313.246	368.62
313.476	386.62
313.706	351.62
313.935	304.62
314.165	244.62
314.394	224.62
314.624	235.62
314.853	233.62
315.083	248.62
315.312	253.62
315.542	241.62
315.771	234.62
316.001	209.62
316.23	193.62
316.46	198.62
316.689	210.62
316.919	207.62
317.148	213.62
317.377	213.62
317.607	217.62
317.836	227.62
318.065	244.62
318.295	286.62
318.524	264.62
318.753	244.62
318.983	227.62
319.212	221.62
319.441	229.62
319.67	258.62
319.9	276.62
320.129	252.62
320.358	230.62
320.587	215.62
320.816	224.62
321.046	264.62
321.275	292.62
321.504	305.62
321.733	281.62
321.962	273.62
322.191	254.62
322.42	218.62
322.649	243.62
322.878	275.62
323.108	271.62
323.337	238.62
323.566	246.62
323.795	257.62
324.024	259.62
324.253	245.62
324.482	210.62
324.71	246.62
324.939	288.62
325.168	259.62
325.397	231.62
325.626	214.62
325.855	221.62
326.084	209.62
326.313	216.62
326.542	201.62
326.77	210.62
326.999	210.62
327.228	237.62
327.457	240.62
327.686	226.62
327.914	238.62
328.143	212.62
328.372	204.62
328.6	200.62
328.829	214.62
329.058	205.62
329.287	213.62
329.515	215.62
329.744	206.62
329.972	210.62
330.201	191.62
330.43	199.62
330.658	226.62
330.887	262.62
331.115	226.62
331.344	228.62
331.572	230.62
331.801	243.62
332.03	218.62
332.258	213.62
332.486	232.62
332.715	252.62
332.943	221.62
333.172	214.62
333.4	240.62
333.629	256.62
333.857	275.62
334.085	268.62
334.314	288.62
334.542	245.62
334.771	228.62
334.999	237.62
335.227	229.62
335.455	239.62
335.684	262.62
335.912	279.62
336.14	289.62
336.369	293.62
336.597	286.62
336.825	292.62
337.053	343.62
337.281	279.62
337.51	237.62
337.738	246.62
337.966	256.62
338.194	266.62
338.422	250.62
338.65	213.62
338.878	211.62
339.106	222.62
339.334	243.62
339.562	242.62
339.79	222.62
340.018	221.62
340.246	238.62
340.474	253.62
340.702	294.62
340.93	290.62
341.158	295.62
341.386	250.62
341.614	251.62
341.842	265.62
342.07	248.62
342.298	303.62
342.526	304.62
342.754	249.62
342.981	256.62
343.209	228.62
343.437	255.62
343.665	274.62
343.893	288.62
344.12	306.62
344.348	365.62
344.576	345.62
344.804	262.62
345.031	251.62
345.259	246.62
345.487	236.62
345.714	254.62
345.942	244.62
346.17	272.62
346.397	256.62
346.625	226.62
346.853	226.62
347.08	223.62
347.308	241.62
347.535	269.62
347.763	292.62
347.99	246.62
348.218	235.62
348.445	234.62
348.673	233.62
348.9	235.62
349.128	246.62
349.355	247.62
349.583	251.62
349.81	238.62
350.037	232.62
350.265	213.62
350.492	210.62
350.72	198.62
350.947	190.62
351.174	231.62
351.402	233.62
351.629	249.62
351.856	221.62
352.083	207.62
352.311	234.62
352.538	245.62
352.765	255.62
352.992	241.62
353.22	232.62
353.447	239.62
353.674	246.62
353.901	215.62
354.128	224.62
354.355	234.62
354.583	250.62
354.81	227.62
355.037	260.62
355.264	250.62
355.491	247.62
355.718	283.62
355.945	263.62
356.172	261.62
356.399	254.62
356.626	309.62
356.853	346.62
357.08	353.62
357.307	389.62
357.534	299.62
357.761	327.62
357.988	390.62
358.215	447.62
358.441	421.62
358.668	346.62
358.895	341.62
359.122	274.62
359.349	301.62
359.576	343.62
359.802	283.62
360.029	232.62
360.256	263.62
360.483	282.62
360.709	362.62
360.936	377.62
361.163	329.62
361.39	287.62
361.616	246.62
361.843	273.62
362.07	318.62
362.296	288.62
362.523	263.62
362.749	235.62
362.976	243.62
363.203	281.62
363.429	304.62
363.656	257.62
363.882	223.62
364.109	225.62
364.335	248.62
364.562	241.62
364.788	242.62
365.015	283.62
365.241	263.62
365.468	233.62
365.694	209.62
365.92	212.62
366.147	196.62
366.373	199.62
366.599	217.62
366.826	200.62
367.052	211.62
367.278	213.62
367.505	194.62
367.731	213.62
367.957	227.62
368.184	244.62
368.41	226.62
368.636	239.62
368.862	221.62
369.089	265.62
369.315	211.62
369.541	203.62
369.767	229.62
369.993	198.62
370.219	218.62
370.445	213.62
370.672	243.62
370.898	274.62
371.124	273.62
371.35	226.62
371.576	207.62
371.802	229.62
372.028	269.62
372.254	311.62
372.48	284.62
372.706	246.62
372.932	246.62
373.158	273.62
373.384	294.62
373.61	389.62
373.835	402.62
374.061	331.62
374.287	297.62
374.513	311.62
374.739	384.62
374.965	387.62
375.191	363.62
375.416	285.62
375.642	248.62
375.868	307.62
376.094	325.62
376.319	263.62
376.545	303.62
376.771	316.62
376.997	263.62
377.222	221.62
377.448	205.62
377.674	189.62
377.899	199.62
378.125	193.62
378.35	212.62
378.576	207.62
378.802	206.62
379.027	238.62
379.253	242.62
379.478	219.62
379.704	235.62
379.929	256.62
380.155	259.62
380.38	232.62
380.606	257.62
380.831	268.62
381.057	246.62
381.282	225.62
381.507	282.62
381.733	311.62
381.958	328.62
382.184	339.62
382.409	402.62
382.634	379.62
382.86	395.62
383.085	323.62
383.31	269.62
383.535	255.62
383.761	282.62
383.986	288.62
384.211	333.62
384.436	319.62
384.662	252.62
384.887	261.62
385.112	267.62
385.337	243.62
385.562	259.62
385.787	274.62
386.013	329.62
386.238	323.62
386.463	264.62
386.688	243.62
386.913	226.62
387.138	233.62
387.363	242.62
387.588	247.62
387.813	242.62
388.038	273.62
388.263	258.62
388.488	248.62
388.713	267.62
388.938	307.62
389.163	238.62
389.387	212.62
389.612	217.62
389.837	256.62
390.062	237.62
390.287	237.62
390.512	254.62
390.736	223.62
390.961	212.62
391.186	225.62
391.411	219.62
391.636	226.62
391.86	238.62
392.085	250.62
392.31	261.62
392.534	262.62
392.759	245.62
392.984	248.62
393.208	262.62
393.433	224.62
393.658	224.62
393.882	211.62
394.107	207.62
394.331	215.62
394.556	210.62
394.78	211.62
395.005	224.62
395.229	206.62
395.454	206.62
395.678	234.62
395.903	236.62
396.127	227.62
396.352	217.62
396.576	245.62
396.801	243.62
397.025	270.62
397.249	264.62
397.474	235.62
397.698	229.62
397.922	246.62
398.147	230.62
398.371	256.62
398.595	255.62
398.82	220.62
399.044	251.62
399.268	277.62
399.492	269.62
399.717	274.62
399.941	293.62
400.165	281.62
400.389	254.62
400.613	239.62
400.837	234.62
401.062	230.62
401.286	240.62
401.51	243.62
401.734	235.62
401.958	245.62
402.182	232.62
402.406	240.62
402.63	232.62
402.854	240.62
403.078	307.62
403.302	353.62
403.526	392.62
403.75	358.62
403.974	287.62
404.198	291.62
404.422	314.62
404.645	331.62
404.869	361.62
405.093	296.62
405.317	257.62
405.541	270.62
405.765	288.62
405.988	273.62
406.212	288.62
406.436	301.62
406.66	323.62
406.883	287.62
407.107	283.62
407.331	323.62
407.555	317.62
407.778	278.62
408.002	307.62
408.226	267.62
408.449	265.62
408.673	257.62
408.896	232.62
409.12	241.62
409.344	240.62
409.567	233.62
409.791	255.62
410.014	231.62
410.238	241.62
410.461	242.62
410.685	245.62
410.908	253.62
411.132	241.62
411.355	239.62
411.578	262.62
411.802	247.62
412.025	273.62
412.249	244.62
412.472	241.62
412.695	249.62
412.919	230.62
413.142	246.62
413.365	274.62
413.589	267.62
413.812	230.62
414.035	223.62
414.258	249.62
414.482	265.62
414.705	272.62
414.928	239.62
415.151	241.62
415.374	243.62
415.597	242.62
415.821	231.62
416.044	242.62
416.267	225.62
416.49	226.62
416.713	225.62
416.936	219.62
417.159	237.62
417.382	236.62
417.605	242.62
417.828	237.62
418.051	259.62
418.274	251.62
418.497	264.62
418.72	248.62
418.943	243.62
419.166	258.62
419.389	251.62
419.611	260.62
419.834	284.62
420.057	276.62
420.28	264.62
420.503	257.62
420.726	244.62
420.948	227.62
421.171	243.62
421.394	240.62
421.617	223.62
421.839	215.62
422.062	256.62
422.285	250.62
422.507	237.62
422.73	238.62
422.953	242.62
423.175	253.62
423.398	253.62
423.621	277.62
423.843	265.62
424.066	249.62
424.288	248.62
424.511	238.62
424.733	244.62
424.956	239.62
425.178	287.62
425.401	319.62
425.623	377.62
425.846	315.62
426.068	255.62
426.291	290.62
426.513	261.62
426.735	239.62
426.958	251.62
427.18	294.62
427.402	375.62
427.625	390.62
427.847	342.62
428.069	247.62
428.292	246.62
428.514	230.62
428.736	232.62
428.958	272.62
429.181	307.62
429.403	275.62
429.625	238.62
429.847	224.62
430.069	232.62
430.292	239.62
430.514	225.62
430.736	243.62
430.958	287.62
431.18	266.62
431.402	215.62
431.624	205.62
431.846	221.62
432.068	228.62
432.29	231.62
432.512	232.62
432.734	287.62
432.956	268.62
433.178	235.62
433.4	218.62
433.622	234.62
433.844	241.62
434.066	255.62
434.287	273.62
434.509	257.62
434.731	266.62
434.953	243.62
435.175	261.62
435.397	284.62
435.618	249.62
435.84	217.62
436.062	231.62
436.284	238.62
436.505	219.62
436.727	225.62
436.949	222.62
437.17	223.62
437.392	233.62
437.614	237.62
437.835	224.62
438.057	221.62
438.278	248.62
438.5	322.62
438.721	322.62
438.943	231.62
439.165	218.62
439.386	203.62
439.608	215.62
439.829	209.62
440.05	214.62
440.272	207.62
440.493	245.62
440.715	313.62
440.936	260.62
441.158	231.62
441.379	241.62
441.6	268.62
441.822	266.62
442.043	242.62
442.264	243.62
442.486	226.62
442.707	231.62
442.928	239.62
443.149	244.62
443.371	250.62
443.592	259.62
443.813	223.62
444.034	234.62
444.255	259.62
444.476	264.62
444.698	259.62
444.919	274.62
445.14	358.62
445.361	311.62
445.582	280.62
445.803	249.62
446.024	262.62
446.245	264.62
446.466	260.62
446.687	234.62
446.908	251.62
447.129	223.62
447.35	221.62
447.571	210.62
447.792	214.62
448.013	213.62
448.234	212.62
448.455	213.62
448.675	229.62
448.896	231.62
449.117	203.62
449.338	227.62
449.559	216.62
449.779	230.62
450	229.62
450.221	246.62
450.442	229.62
450.662	215.62
450.883	212.62
451.104	208.62
451.324	217.62
451.545	209.62
451.766	218.62
451.986	207.62
452.207	230.62
452.428	199.62
452.648	223.62
452.869	235.62
453.089	224.62
453.31	233.62
453.53	207.62
453.751	205.62
453.971	211.62
454.192	214.62
454.412	204.62
454.633	202.62
454.853	221.62
455.073	207.62
455.294	213.62
455.514	195.62
455.734	213.62
455.955	229.62
456.175	203.62
456.395	205.62
456.616	189.62
456.836	193.62
457.056	195.62
457.276	206.62
457.497	196.62
457.717	200.62
457.937	195.62
458.157	194.62
458.377	196.62
458.598	208.62
458.818	200.62
459.038	190.62
459.258	222.62
459.478	222.62
459.698	249.62
459.918	241.62
460.138	236.62
460.358	270.62
460.578	247.62
460.798	258.62
461.018	244.62
461.238	222.62
461.458	234.62
461.678	254.62
461.898	264.62
462.118	260.62
462.338	259.62
462.558	249.62
462.777	276.62
462.997	279.62
463.217	274.62
463.437	280.62
463.657	284.62
463.876	264.62
464.096	265.62
464.316	265.62
464.536	271.62
464.755	279.62
464.975	286.62
465.195	291.62
465.414	264.62
465.634	241.62
465.854	257.62
466.073	228.62
466.293	227.62
466.512	229.62
466.732	268.62
466.951	245.62
467.171	240.62
467.391	239.62
467.61	241.62
467.829	226.62
468.049	237.62
468.268	229.62
468.488	209.62
468.707	208.62
468.927	244.62
469.146	285.62
469.365	248.62
469.585	251.62
469.804	267.62
470.023	271.62
470.243	238.62
470.462	238.62
470.681	249.62
470.901	240.62
471.12	237.62
471.339	235.62
471.558	210.62
471.777	230.62
471.997	255.62
472.216	290.62
472.435	269.62
472.654	238.62
472.873	244.62
473.092	245.62
473.311	239.62
473.53	230.62
473.749	245.62
473.968	255.62
474.187	238.62
474.406	217.62
474.625	230.62
474.844	235.62
475.063	261.62
475.282	246.62
475.501	273.62
475.72	297.62
475.939	280.62
476.158	274.62
476.377	303.62
476.596	351.62
476.814	375.62
477.033	315.62
477.252	259.62
477.471	259.62
477.69	267.62
477.908	276.62
478.127	277.62
478.346	265.62
478.564	305.62
478.783	266.62
479.002	289.62
479.22	288.62
479.439	336.62
479.658	295.62
479.876	270.62
480.095	285.62
480.313	315.62
480.532	289.62
480.751	286.62
480.969	290.62
481.188	307.62
481.406	315.62
481.624	287.62
481.843	281.62
482.061	269.62
482.28	295.62
482.498	338.62
482.717	342.62
482.935	286.62
483.153	262.62
483.372	253.62
483.59	263.62
483.808	280.62
484.027	243.62
484.245	237.62
484.463	260.62
484.681	259.62
484.9	253.62
485.118	277.62
485.336	286.62
485.554	263.62
485.772	294.62
485.99	300.62
486.209	294.62
486.427	305.62
486.645	301.62
486.863	298.62
487.081	290.62
487.299	305.62
487.517	315.62
487.735	292.62
487.953	313.62
488.171	285.62
488.389	282.62
488.607	281.62
488.825	279.62
489.043	293.62
489.261	331.62
489.479	359.62
489.696	290.62
489.914	281.62
490.132	273.62
490.35	269.62
490.568	276.62
490.786	278.62
491.003	296.62
491.221	271.62
491.439	274.62
491.657	252.62
491.874	279.62
492.092	336.62
492.31	375.62
492.527	376.62
492.745	335.62
492.963	311.62
493.18	312.62
493.398	301.62
493.615	292.62
493.833	296.62
494.05	278.62
494.268	287.62
494.485	279.62
494.703	290.62
494.92	289.62
495.138	273.62
495.355	262.62
495.573	274.62
495.79	324.62
496.008	393.62
496.225	329.62
496.442	302.62
496.66	303.62
496.877	319.62
497.094	305.62
497.312	313.62
497.529	305.62
497.746	307.62
497.963	310.62
498.181	341.62
498.398	362.62
498.615	381.62
498.832	377.62
499.049	385.62
499.267	385.62
499.484	382.62
499.701	395.62
499.918	420.62
500.135	494.62
500.352	496.62
500.569	555.62
500.786	541.62
501.003	518.62
501.22	455.62
501.437	428.62
501.654	413.62
501.871	387.62
502.088	399.62
502.305	359.62
