Data from NickelSpatula_HRD10591_16-34-54-126.txt Node
Date: Mon Jul 22 16:34:54 EDT 2019
User: cochatt
Spectrometer: HR+D1059
Trigger mode: 1
Integration Time (sec): 1.000000E-1
Scans to average: 1
Electric dark correction enabled: true
Nonlinearity correction enabled: false
Boxcar width: 0
XAxis mode: Wavelengths
Number of Pixels in Spectrum: 2048
>>>>>Begin Spectral Data<<<<<
223.165	-13.62
223.4	-13.62
223.635	-13.62
223.869	-26.62
224.104	-17.62
224.338	-4.62
224.573	-4.62
224.808	-19.62
225.042	-1.62
225.277	1.38
225.511	-2.62
225.746	1.38
225.98	9.38
226.215	13.38
226.449	7.38
226.683	16.38
226.918	19.38
227.152	22.38
227.387	40.38
227.621	45.38
227.856	34.38
228.09	45.38
228.324	37.38
228.559	55.38
228.793	51.38
229.027	66.38
229.262	81.38
229.496	77.38
229.73	86.38
229.964	87.38
230.199	80.38
230.433	96.38
230.667	92.38
230.901	89.38
231.136	84.38
231.37	103.38
231.604	90.38
231.838	101.38
232.072	111.38
232.306	101.38
232.541	95.38
232.775	111.38
233.009	106.38
233.243	105.38
233.477	107.38
233.711	103.38
233.945	111.38
234.179	92.38
234.413	125.38
234.647	108.38
234.881	121.38
235.115	115.38
235.349	116.38
235.583	116.38
235.817	116.38
236.051	111.38
236.285	131.38
236.519	129.38
236.753	116.38
236.987	133.38
237.221	101.38
237.455	122.38
237.689	119.38
237.922	123.38
238.156	106.38
238.39	134.38
238.624	147.38
238.858	153.38
239.091	127.38
239.325	123.38
239.559	133.38
239.793	141.38
240.027	136.38
240.26	133.38
240.494	123.38
240.728	140.38
240.961	152.38
241.195	152.38
241.429	148.38
241.662	151.38
241.896	131.38
242.13	124.38
242.363	120.38
242.597	121.38
242.83	131.38
243.064	127.38
243.298	149.38
243.531	155.38
243.765	170.38
243.998	152.38
244.232	153.38
244.465	142.38
244.699	166.38
244.932	140.38
245.166	162.38
245.399	142.38
245.633	150.38
245.866	168.38
246.099	155.38
246.333	154.38
246.566	160.38
246.8	187.38
247.033	169.38
247.266	161.38
247.5	145.38
247.733	168.38
247.966	163.38
248.2	163.38
248.433	178.38
248.666	188.38
248.899	177.38
249.133	168.38
249.366	200.38
249.599	221.38
249.832	205.38
250.066	175.38
250.299	185.38
250.532	172.38
250.765	181.38
250.998	159.38
251.231	149.38
251.465	167.38
251.698	165.38
251.931	190.38
252.164	191.38
252.397	201.38
252.63	204.38
252.863	210.38
253.096	213.38
253.329	220.38
253.562	213.38
253.795	246.38
254.028	278.38
254.261	247.38
254.494	240.38
254.727	236.38
254.96	215.38
255.193	231.38
255.426	209.38
255.659	184.38
255.892	172.38
256.124	185.38
256.357	223.38
256.59	224.38
256.823	226.38
257.056	203.38
257.289	199.38
257.521	203.38
257.754	239.38
257.987	241.38
258.22	231.38
258.452	210.38
258.685	221.38
258.918	233.38
259.151	233.38
259.383	257.38
259.616	284.38
259.849	287.38
260.081	290.38
260.314	324.38
260.547	259.38
260.779	275.38
261.012	315.38
261.244	301.38
261.477	291.38
261.71	275.38
261.942	245.38
262.175	249.38
262.407	228.38
262.64	249.38
262.872	267.38
263.105	286.38
263.337	281.38
263.57	279.38
263.802	249.38
264.035	205.38
264.267	191.38
264.499	172.38
264.732	165.38
264.964	172.38
265.197	170.38
265.429	167.38
265.661	173.38
265.894	194.38
266.126	188.38
266.358	205.38
266.591	254.38
266.823	285.38
267.055	293.38
267.287	244.38
267.52	252.38
267.752	268.38
267.984	275.38
268.216	274.38
268.448	237.38
268.681	219.38
268.913	250.38
269.145	255.38
269.377	269.38
269.609	264.38
269.841	250.38
270.073	259.38
270.306	265.38
270.538	289.38
270.77	287.38
271.002	281.38
271.234	294.38
271.466	276.38
271.698	265.38
271.93	272.38
272.162	257.38
272.394	269.38
272.626	267.38
272.858	276.38
273.09	279.38
273.322	252.38
273.553	237.38
273.785	250.38
274.017	332.38
274.249	380.38
274.481	405.38
274.713	433.38
274.945	501.38
275.176	476.38
275.408	459.38
275.64	422.38
275.872	425.38
276.104	392.38
276.335	322.38
276.567	331.38
276.799	346.38
277.031	357.38
277.262	299.38
277.494	260.38
277.726	237.38
277.957	251.38
278.189	272.38
278.421	263.38
278.652	261.38
278.884	261.38
279.115	260.38
279.347	256.38
279.579	239.38
279.81	238.38
280.042	251.38
280.273	239.38
280.505	239.38
280.736	216.38
280.968	225.38
281.199	212.38
281.431	244.38
281.662	258.38
281.894	212.38
282.125	246.38
282.356	271.38
282.588	259.38
282.819	255.38
283.051	258.38
283.282	303.38
283.513	342.38
283.745	381.38
283.976	360.38
284.207	362.38
284.439	373.38
284.67	347.38
284.901	325.38
285.132	341.38
285.364	367.38
285.595	323.38
285.826	347.38
286.057	364.38
286.288	338.38
286.52	349.38
286.751	374.38
286.982	376.38
287.213	342.38
287.444	343.38
287.675	351.38
287.906	343.38
288.138	273.38
288.369	290.38
288.6	245.38
288.831	263.38
289.062	307.38
289.293	322.38
289.524	297.38
289.755	287.38
289.986	321.38
290.217	280.38
290.448	228.38
290.679	220.38
290.91	203.38
291.141	197.38
291.371	207.38
291.602	205.38
291.833	204.38
292.064	213.38
292.295	220.38
292.526	276.38
292.757	284.38
292.987	303.38
293.218	294.38
293.449	299.38
293.68	328.38
293.91	281.38
294.141	314.38
294.372	293.38
294.603	263.38
294.833	287.38
295.064	334.38
295.295	331.38
295.525	255.38
295.756	233.38
295.987	202.38
296.217	203.38
296.448	187.38
296.679	228.38
296.909	216.38
297.14	229.38
297.37	263.38
297.601	239.38
297.831	224.38
298.062	242.38
298.292	258.38
298.523	265.38
298.753	314.38
298.984	298.38
299.214	244.38
299.445	212.38
299.675	209.38
299.905	212.38
300.136	214.38
300.366	227.38
300.597	209.38
300.827	202.38
301.057	217.38
301.288	210.38
301.518	209.38
301.748	241.38
301.979	258.38
302.209	248.38
302.439	246.38
302.669	227.38
302.9	240.38
303.13	225.38
303.36	230.38
303.59	206.38
303.82	214.38
304.051	238.38
304.281	252.38
304.511	239.38
304.741	237.38
304.971	231.38
305.201	251.38
305.431	232.38
305.661	218.38
305.891	211.38
306.121	199.38
306.352	179.38
306.582	183.38
306.812	186.38
307.042	194.38
307.272	177.38
307.502	168.38
307.731	193.38
307.961	183.38
308.191	181.38
308.421	163.38
308.651	163.38
308.881	183.38
309.111	177.38
309.341	171.38
309.571	170.38
309.8	195.38
310.03	194.38
310.26	205.38
310.49	197.38
310.72	185.38
310.949	171.38
311.179	178.38
311.409	183.38
311.639	210.38
311.868	235.38
312.098	334.38
312.328	337.38
312.557	336.38
312.787	332.38
313.017	309.38
313.246	309.38
313.476	331.38
313.706	272.38
313.935	241.38
314.165	202.38
314.394	177.38
314.624	200.38
314.853	197.38
315.083	204.38
315.312	199.38
315.542	189.38
315.771	200.38
316.001	164.38
316.23	184.38
316.46	177.38
316.689	175.38
316.919	176.38
317.148	179.38
317.377	178.38
317.607	177.38
317.836	191.38
318.065	195.38
318.295	219.38
318.524	207.38
318.753	201.38
318.983	193.38
319.212	179.38
319.441	191.38
319.67	197.38
319.9	228.38
320.129	219.38
320.358	188.38
320.587	188.38
320.816	203.38
321.046	220.38
321.275	242.38
321.504	240.38
321.733	241.38
321.962	223.38
322.191	211.38
322.42	232.38
322.649	224.38
322.878	214.38
323.108	246.38
323.337	220.38
323.566	219.38
323.795	204.38
324.024	214.38
324.253	189.38
324.482	195.38
324.71	208.38
324.939	214.38
325.168	205.38
325.397	195.38
325.626	178.38
325.855	178.38
326.084	179.38
326.313	179.38
326.542	165.38
326.77	193.38
326.999	182.38
327.228	198.38
327.457	186.38
327.686	167.38
327.914	178.38
328.143	179.38
328.372	183.38
328.6	171.38
328.829	179.38
329.058	177.38
329.287	171.38
329.515	170.38
329.744	166.38
329.972	185.38
330.201	162.38
330.43	171.38
330.658	171.38
330.887	192.38
331.115	193.38
331.344	207.38
331.572	187.38
331.801	171.38
332.03	165.38
332.258	173.38
332.486	176.38
332.715	202.38
332.943	170.38
333.172	177.38
333.4	180.38
333.629	204.38
333.857	217.38
334.085	197.38
334.314	238.38
334.542	210.38
334.771	187.38
334.999	187.38
335.227	175.38
335.455	191.38
335.684	197.38
335.912	226.38
336.14	239.38
336.369	229.38
336.597	221.38
336.825	236.38
337.053	256.38
337.281	210.38
337.51	196.38
337.738	192.38
337.966	195.38
338.194	208.38
338.422	227.38
338.65	193.38
338.878	181.38
339.106	167.38
339.334	189.38
339.562	200.38
339.79	189.38
340.018	187.38
340.246	190.38
340.474	231.38
340.702	224.38
340.93	255.38
341.158	247.38
341.386	198.38
341.614	198.38
341.842	203.38
342.07	206.38
342.298	219.38
342.526	255.38
342.754	220.38
342.981	207.38
343.209	183.38
343.437	221.38
343.665	226.38
343.893	223.38
344.12	260.38
344.348	283.38
344.576	271.38
344.804	235.38
345.031	200.38
345.259	189.38
345.487	193.38
345.714	195.38
345.942	189.38
346.17	211.38
346.397	198.38
346.625	179.38
346.853	185.38
347.08	175.38
347.308	202.38
347.535	212.38
347.763	222.38
347.99	185.38
348.218	197.38
348.445	198.38
348.673	202.38
348.9	205.38
349.128	188.38
349.355	195.38
349.583	185.38
349.81	202.38
350.037	183.38
350.265	169.38
350.492	161.38
350.72	163.38
350.947	168.38
351.174	169.38
351.402	185.38
351.629	185.38
351.856	185.38
352.083	169.38
352.311	180.38
352.538	199.38
352.765	214.38
352.992	197.38
353.22	199.38
353.447	207.38
353.674	205.38
353.901	199.38
354.128	202.38
354.355	191.38
354.583	199.38
354.81	203.38
355.037	225.38
355.264	214.38
355.491	205.38
355.718	231.38
355.945	220.38
356.172	192.38
356.399	194.38
356.626	235.38
356.853	305.38
357.08	305.38
357.307	309.38
357.534	249.38
357.761	272.38
357.988	321.38
358.215	349.38
358.441	318.38
358.668	276.38
358.895	275.38
359.122	225.38
359.349	241.38
359.576	239.38
359.802	233.38
360.029	193.38
360.256	201.38
360.483	260.38
360.709	281.38
360.936	308.38
361.163	247.38
361.39	210.38
361.616	199.38
361.843	222.38
362.07	265.38
362.296	229.38
362.523	212.38
362.749	183.38
362.976	191.38
363.203	219.38
363.429	257.38
363.656	206.38
363.882	201.38
364.109	207.38
364.335	206.38
364.562	184.38
364.788	195.38
365.015	236.38
365.241	219.38
365.468	179.38
365.694	162.38
365.92	169.38
366.147	168.38
366.373	172.38
366.599	160.38
366.826	150.38
367.052	172.38
367.278	156.38
367.505	181.38
367.731	169.38
367.957	199.38
368.184	204.38
368.41	207.38
368.636	191.38
368.862	205.38
369.089	187.38
369.315	168.38
369.541	181.38
369.767	176.38
369.993	180.38
370.219	170.38
370.445	185.38
370.672	193.38
370.898	205.38
371.124	190.38
371.35	176.38
371.576	182.38
371.802	171.38
372.028	220.38
372.254	249.38
372.48	199.38
372.706	187.38
372.932	194.38
373.158	203.38
373.384	242.38
373.61	295.38
373.835	298.38
374.061	229.38
374.287	210.38
374.513	264.38
374.739	289.38
374.965	283.38
375.191	289.38
375.416	210.38
375.642	193.38
375.868	230.38
376.094	221.38
376.319	204.38
376.545	236.38
376.771	245.38
376.997	206.38
377.222	165.38
377.448	150.38
377.674	152.38
377.899	162.38
378.125	161.38
378.35	166.38
378.576	158.38
378.802	169.38
379.027	192.38
379.253	197.38
379.478	184.38
379.704	212.38
379.929	228.38
380.155	223.38
380.38	194.38
380.606	202.38
380.831	226.38
381.057	208.38
381.282	178.38
381.507	223.38
381.733	240.38
381.958	255.38
382.184	278.38
382.409	290.38
382.634	284.38
382.86	302.38
383.085	278.38
383.31	213.38
383.535	243.38
383.761	220.38
383.986	209.38
384.211	266.38
384.436	247.38
384.662	196.38
384.887	186.38
385.112	199.38
385.337	212.38
385.562	212.38
385.787	204.38
386.013	273.38
386.238	234.38
386.463	198.38
386.688	200.38
386.913	183.38
387.138	186.38
387.363	175.38
387.588	191.38
387.813	194.38
388.038	212.38
388.263	179.38
388.488	188.38
388.713	207.38
388.938	232.38
389.163	196.38
389.387	176.38
389.612	195.38
389.837	196.38
390.062	186.38
390.287	195.38
390.512	183.38
390.736	164.38
390.961	191.38
391.186	180.38
391.411	166.38
391.636	163.38
391.86	179.38
392.085	190.38
392.31	203.38
392.534	194.38
392.759	198.38
392.984	205.38
393.208	208.38
393.433	193.38
393.658	191.38
393.882	180.38
394.107	175.38
394.331	171.38
394.556	160.38
394.78	176.38
395.005	162.38
395.229	188.38
395.454	175.38
395.678	176.38
395.903	167.38
396.127	166.38
396.352	198.38
396.576	204.38
396.801	192.38
397.025	235.38
397.249	229.38
397.474	189.38
397.698	187.38
397.922	208.38
398.147	188.38
398.371	180.38
398.595	200.38
398.82	212.38
399.044	199.38
399.268	211.38
399.492	201.38
399.717	217.38
399.941	224.38
400.165	199.38
400.389	207.38
400.613	186.38
400.837	204.38
401.062	173.38
401.286	187.38
401.51	194.38
401.734	185.38
401.958	186.38
402.182	163.38
402.406	195.38
402.63	199.38
402.854	188.38
403.078	228.38
403.302	269.38
403.526	287.38
403.75	265.38
403.974	229.38
404.198	211.38
404.422	242.38
404.645	267.38
404.869	295.38
405.093	239.38
405.317	215.38
405.541	192.38
405.765	228.38
405.988	233.38
406.212	233.38
406.436	229.38
406.66	258.38
406.883	236.38
407.107	210.38
407.331	241.38
407.555	227.38
407.778	203.38
408.002	213.38
408.226	213.38
408.449	209.38
408.673	199.38
408.896	183.38
409.12	184.38
409.344	196.38
409.567	193.38
409.791	185.38
410.014	176.38
410.238	188.38
410.461	169.38
410.685	187.38
410.908	183.38
411.132	194.38
411.355	195.38
411.578	171.38
411.802	188.38
412.025	189.38
412.249	186.38
412.472	193.38
412.695	199.38
412.919	203.38
413.142	196.38
413.365	204.38
413.589	204.38
413.812	191.38
414.035	192.38
414.258	188.38
414.482	212.38
414.705	216.38
414.928	180.38
415.151	200.38
415.374	185.38
415.597	179.38
415.821	191.38
416.044	191.38
416.267	185.38
416.49	178.38
416.713	177.38
416.936	180.38
417.159	160.38
417.382	183.38
417.605	190.38
417.828	199.38
418.051	186.38
418.274	180.38
418.497	192.38
418.72	189.38
418.943	187.38
419.166	203.38
419.389	220.38
419.611	185.38
419.834	213.38
420.057	206.38
420.28	211.38
420.503	214.38
420.726	187.38
420.948	181.38
421.171	187.38
421.394	170.38
421.617	179.38
421.839	197.38
422.062	183.38
422.285	189.38
422.507	191.38
422.73	201.38
422.953	204.38
423.175	183.38
423.398	193.38
423.621	212.38
423.843	214.38
424.066	205.38
424.288	187.38
424.511	168.38
424.733	193.38
424.956	177.38
425.178	198.38
425.401	239.38
425.623	275.38
425.846	242.38
426.068	221.38
426.291	226.38
426.513	198.38
426.735	191.38
426.958	209.38
427.18	214.38
427.402	279.38
427.625	272.38
427.847	253.38
428.069	194.38
428.292	197.38
428.514	173.38
428.736	171.38
428.958	208.38
429.181	231.38
429.403	197.38
429.625	183.38
429.847	196.38
430.069	177.38
430.292	189.38
430.514	164.38
430.736	198.38
430.958	224.38
431.18	195.38
431.402	163.38
431.624	168.38
431.846	178.38
432.068	159.38
432.29	192.38
432.512	180.38
432.734	234.38
432.956	213.38
433.178	188.38
433.4	167.38
433.622	182.38
433.844	196.38
434.066	196.38
434.287	192.38
434.509	168.38
434.731	185.38
434.953	176.38
435.175	180.38
435.397	228.38
435.618	195.38
435.84	179.38
436.062	170.38
436.284	170.38
436.505	173.38
436.727	165.38
436.949	164.38
437.17	183.38
437.392	179.38
437.614	177.38
437.835	178.38
438.057	171.38
438.278	191.38
438.5	255.38
438.721	235.38
438.943	196.38
439.165	172.38
439.386	167.38
439.608	167.38
439.829	162.38
440.05	165.38
440.272	188.38
440.493	191.38
440.715	235.38
440.936	191.38
441.158	197.38
441.379	177.38
441.6	187.38
441.822	213.38
442.043	192.38
442.264	186.38
442.486	182.38
442.707	192.38
442.928	179.38
443.149	175.38
443.371	176.38
443.592	186.38
443.813	197.38
444.034	180.38
444.255	193.38
444.476	203.38
444.698	184.38
444.919	196.38
445.14	324.38
445.361	275.38
445.582	211.38
445.803	211.38
446.024	212.38
446.245	212.38
446.466	186.38
446.687	195.38
446.908	202.38
447.129	172.38
447.35	164.38
447.571	173.38
447.792	168.38
448.013	164.38
448.234	172.38
448.455	175.38
448.675	169.38
448.896	159.38
449.117	183.38
449.338	179.38
449.559	180.38
449.779	187.38
450	181.38
450.221	166.38
450.442	183.38
450.662	167.38
450.883	157.38
451.104	165.38
451.324	179.38
451.545	175.38
451.766	173.38
451.986	173.38
452.207	175.38
452.428	177.38
452.648	172.38
452.869	178.38
453.089	179.38
453.31	189.38
453.53	163.38
453.751	149.38
453.971	165.38
454.192	171.38
454.412	180.38
454.633	177.38
454.853	183.38
455.073	166.38
455.294	161.38
455.514	153.38
455.734	160.38
455.955	186.38
456.175	180.38
456.395	172.38
456.616	157.38
456.836	155.38
457.056	169.38
457.276	143.38
457.497	160.38
457.717	149.38
457.937	149.38
458.157	151.38
458.377	161.38
458.598	142.38
458.818	156.38
459.038	164.38
459.258	169.38
459.478	180.38
459.698	184.38
459.918	196.38
460.138	176.38
460.358	200.38
460.578	181.38
460.798	173.38
461.018	175.38
461.238	175.38
461.458	187.38
461.678	186.38
461.898	201.38
462.118	177.38
462.338	200.38
462.558	197.38
462.777	203.38
462.997	210.38
463.217	203.38
463.437	207.38
463.657	206.38
463.876	208.38
464.096	205.38
464.316	190.38
464.536	202.38
464.755	218.38
464.975	217.38
465.195	200.38
465.414	210.38
465.634	203.38
465.854	193.38
466.073	190.38
466.293	191.38
466.512	184.38
466.732	204.38
466.951	190.38
467.171	187.38
467.391	168.38
467.61	171.38
467.829	191.38
468.049	205.38
468.268	172.38
468.488	178.38
468.707	166.38
468.927	193.38
469.146	200.38
469.365	204.38
469.585	185.38
469.804	203.38
470.023	221.38
470.243	208.38
470.462	183.38
470.681	181.38
470.901	192.38
471.12	204.38
471.339	184.38
471.558	189.38
471.777	191.38
471.997	203.38
472.216	199.38
472.435	197.38
472.654	182.38
472.873	193.38
473.092	203.38
473.311	215.38
473.53	169.38
473.749	181.38
473.968	188.38
474.187	187.38
474.406	180.38
474.625	187.38
474.844	204.38
475.063	196.38
475.282	183.38
475.501	225.38
475.72	252.38
475.939	215.38
476.158	227.38
476.377	246.38
476.596	286.38
476.814	300.38
477.033	250.38
477.252	200.38
477.471	193.38
477.69	199.38
477.908	200.38
478.127	224.38
478.346	207.38
478.564	255.38
478.783	235.38
479.002	229.38
479.22	228.38
479.439	246.38
479.658	243.38
479.876	199.38
480.095	215.38
480.313	226.38
480.532	223.38
480.751	219.38
480.969	207.38
481.188	235.38
481.406	247.38
481.624	234.38
481.843	209.38
482.061	205.38
482.28	219.38
482.498	277.38
482.717	288.38
482.935	240.38
483.153	218.38
483.372	191.38
483.59	201.38
483.808	187.38
484.027	210.38
484.245	209.38
484.463	204.38
484.681	202.38
484.9	204.38
485.118	232.38
485.336	215.38
485.554	196.38
485.772	191.38
485.99	216.38
486.209	232.38
486.427	239.38
486.645	210.38
486.863	221.38
487.081	236.38
487.299	267.38
487.517	239.38
487.735	232.38
487.953	231.38
488.171	231.38
488.389	230.38
488.607	211.38
488.825	237.38
489.043	233.38
489.261	269.38
489.479	300.38
489.696	243.38
489.914	205.38
490.132	207.38
490.35	213.38
490.568	207.38
490.786	199.38
491.003	218.38
491.221	213.38
491.439	207.38
491.657	208.38
491.874	218.38
492.092	259.38
492.31	345.38
492.527	319.38
492.745	267.38
492.963	235.38
493.18	224.38
493.398	225.38
493.615	232.38
493.833	239.38
494.05	224.38
494.268	214.38
494.485	213.38
494.703	227.38
494.92	218.38
495.138	203.38
495.355	221.38
495.573	230.38
495.79	261.38
496.008	334.38
496.225	277.38
496.442	231.38
496.66	249.38
496.877	249.38
497.094	242.38
497.312	243.38
497.529	240.38
497.746	224.38
497.963	232.38
498.181	273.38
498.398	282.38
498.615	280.38
498.832	299.38
499.049	283.38
499.267	288.38
499.484	275.38
499.701	311.38
499.918	325.38
500.135	333.38
500.352	354.38
500.569	381.38
500.786	378.38
501.003	369.38
501.22	332.38
501.437	315.38
501.654	317.38
501.871	299.38
502.088	280.38
502.305	292.38
502.522	273.38
502.739	268.38
