Data from NickelSpatula_HRD10591_16-35-18-126.txt Node
Date: Mon Jul 22 16:35:18 EDT 2019
User: cochatt
Spectrometer: HR+D1059
Trigger mode: 1
Integration Time (sec): 1.000000E-1
Scans to average: 1
Electric dark correction enabled: true
Nonlinearity correction enabled: false
Boxcar width: 0
XAxis mode: Wavelengths
Number of Pixels in Spectrum: 2048
>>>>>Begin Spectral Data<<<<<
223.165	-15.5
223.4	-15.5
223.635	-15.5
223.869	-15.5
224.104	-23.5
224.338	-22.5
224.573	-8.5
224.808	-1.5
225.042	-16.5
225.277	-11.5
225.511	-8.5
225.746	12.5
225.98	-3.5
226.215	20.5
226.449	20.5
226.683	16.5
226.918	23.5
227.152	33.5
227.387	33.5
227.621	33.5
227.856	35.5
228.09	44.5
228.324	22.5
228.559	48.5
228.793	62.5
229.027	66.5
229.262	76.5
229.496	78.5
229.73	82.5
229.964	83.5
230.199	90.5
230.433	102.5
230.667	103.5
230.901	83.5
231.136	94.5
231.37	92.5
231.604	92.5
231.838	124.5
232.072	104.5
232.306	98.5
232.541	102.5
232.775	97.5
233.009	107.5
233.243	112.5
233.477	103.5
233.711	116.5
233.945	118.5
234.179	112.5
234.413	107.5
234.647	126.5
234.881	137.5
235.115	123.5
235.349	140.5
235.583	123.5
235.817	123.5
236.051	129.5
236.285	133.5
236.519	139.5
236.753	124.5
236.987	123.5
237.221	131.5
237.455	128.5
237.689	132.5
237.922	124.5
238.156	129.5
238.39	155.5
238.624	159.5
238.858	160.5
239.091	140.5
239.325	149.5
239.559	138.5
239.793	143.5
240.027	154.5
240.26	168.5
240.494	148.5
240.728	149.5
240.961	171.5
241.195	156.5
241.429	158.5
241.662	146.5
241.896	156.5
242.13	147.5
242.363	136.5
242.597	130.5
242.83	146.5
243.064	149.5
243.298	160.5
243.531	160.5
243.765	159.5
243.998	160.5
244.232	171.5
244.465	167.5
244.699	165.5
244.932	174.5
245.166	174.5
245.399	158.5
245.633	148.5
245.866	159.5
246.099	160.5
246.333	185.5
246.566	182.5
246.8	200.5
247.033	198.5
247.266	186.5
247.5	168.5
247.733	165.5
247.966	160.5
248.2	170.5
248.433	190.5
248.666	201.5
248.899	213.5
249.133	191.5
249.366	204.5
249.599	256.5
249.832	212.5
250.066	203.5
250.299	214.5
250.532	180.5
250.765	203.5
250.998	178.5
251.231	177.5
251.465	182.5
251.698	200.5
251.931	193.5
252.164	193.5
252.397	214.5
252.63	226.5
252.863	258.5
253.096	271.5
253.329	238.5
253.562	241.5
253.795	262.5
254.028	291.5
254.261	304.5
254.494	264.5
254.727	241.5
254.96	240.5
255.193	264.5
255.426	263.5
255.659	206.5
255.892	203.5
256.124	201.5
256.357	230.5
256.59	260.5
256.823	254.5
257.056	234.5
257.289	218.5
257.521	212.5
257.754	242.5
257.987	272.5
258.22	254.5
258.452	219.5
258.685	250.5
258.918	278.5
259.151	279.5
259.383	292.5
259.616	310.5
259.849	319.5
260.081	343.5
260.314	351.5
260.547	294.5
260.779	309.5
261.012	336.5
261.244	331.5
261.477	338.5
261.71	299.5
261.942	277.5
262.175	267.5
262.407	260.5
262.64	279.5
262.872	310.5
263.105	336.5
263.337	331.5
263.57	306.5
263.802	236.5
264.035	202.5
264.267	221.5
264.499	197.5
264.732	168.5
264.964	176.5
265.197	177.5
265.429	185.5
265.661	209.5
265.894	197.5
266.126	201.5
266.358	230.5
266.591	258.5
266.823	329.5
267.055	318.5
267.287	287.5
267.52	265.5
267.752	284.5
267.984	302.5
268.216	291.5
268.448	257.5
268.681	258.5
268.913	258.5
269.145	276.5
269.377	276.5
269.609	290.5
269.841	268.5
270.073	283.5
270.306	294.5
270.538	310.5
270.77	307.5
271.002	315.5
271.234	315.5
271.466	323.5
271.698	323.5
271.93	289.5
272.162	286.5
272.394	278.5
272.626	289.5
272.858	310.5
273.09	315.5
273.322	282.5
273.553	264.5
273.785	271.5
274.017	378.5
274.249	434.5
274.481	459.5
274.713	489.5
274.945	564.5
275.176	591.5
275.408	530.5
275.64	480.5
275.872	499.5
276.104	436.5
276.335	386.5
276.567	373.5
276.799	389.5
277.031	395.5
277.262	318.5
277.494	253.5
277.726	219.5
277.957	260.5
278.189	310.5
278.421	307.5
278.652	306.5
278.884	284.5
279.115	276.5
279.347	255.5
279.579	247.5
279.81	251.5
280.042	266.5
280.273	279.5
280.505	253.5
280.736	226.5
280.968	219.5
281.199	227.5
281.431	242.5
281.662	249.5
281.894	244.5
282.125	258.5
282.356	274.5
282.588	285.5
282.819	263.5
283.051	282.5
283.282	341.5
283.513	384.5
283.745	430.5
283.976	427.5
284.207	380.5
284.439	376.5
284.67	394.5
284.901	351.5
285.132	371.5
285.364	387.5
285.595	359.5
285.826	402.5
286.057	403.5
286.288	366.5
286.52	386.5
286.751	396.5
286.982	411.5
287.213	352.5
287.444	350.5
287.675	370.5
287.906	368.5
288.138	326.5
288.369	290.5
288.6	263.5
288.831	285.5
289.062	328.5
289.293	345.5
289.524	321.5
289.755	329.5
289.986	351.5
290.217	302.5
290.448	256.5
290.679	215.5
290.91	193.5
291.141	189.5
291.371	219.5
291.602	216.5
291.833	215.5
292.064	227.5
292.295	235.5
292.526	282.5
292.757	283.5
292.987	312.5
293.218	313.5
293.449	331.5
293.68	358.5
293.91	316.5
294.141	341.5
294.372	327.5
294.603	296.5
294.833	295.5
295.064	342.5
295.295	341.5
295.525	267.5
295.756	246.5
295.987	206.5
296.217	196.5
296.448	203.5
296.679	222.5
296.909	255.5
297.14	260.5
297.37	298.5
297.601	265.5
297.831	230.5
298.062	267.5
298.292	283.5
298.523	298.5
298.753	319.5
298.984	321.5
299.214	256.5
299.445	209.5
299.675	206.5
299.905	210.5
300.136	223.5
300.366	232.5
300.597	234.5
300.827	196.5
301.057	223.5
301.288	219.5
301.518	222.5
301.748	243.5
301.979	261.5
302.209	278.5
302.439	268.5
302.669	239.5
302.9	238.5
303.13	238.5
303.36	231.5
303.59	222.5
303.82	219.5
304.051	259.5
304.281	285.5
304.511	266.5
304.741	223.5
304.971	238.5
305.201	265.5
305.431	241.5
305.661	226.5
305.891	211.5
306.121	225.5
306.352	199.5
306.582	187.5
306.812	183.5
307.042	168.5
307.272	159.5
307.502	174.5
307.731	161.5
307.961	195.5
308.191	187.5
308.421	183.5
308.651	165.5
308.881	177.5
309.111	158.5
309.341	179.5
309.571	184.5
309.8	176.5
310.03	195.5
310.26	213.5
310.49	196.5
310.72	194.5
310.949	192.5
311.179	175.5
311.409	190.5
311.639	228.5
311.868	254.5
312.098	327.5
312.328	373.5
312.557	362.5
312.787	344.5
313.017	300.5
313.246	316.5
313.476	351.5
313.706	308.5
313.935	264.5
314.165	200.5
314.394	197.5
314.624	212.5
314.853	223.5
315.083	211.5
315.312	199.5
315.542	212.5
315.771	194.5
316.001	181.5
316.23	174.5
316.46	171.5
316.689	178.5
316.919	180.5
317.148	196.5
317.377	177.5
317.607	182.5
317.836	193.5
318.065	217.5
318.295	240.5
318.524	231.5
318.753	194.5
318.983	196.5
319.212	186.5
319.441	203.5
319.67	205.5
319.9	233.5
320.129	218.5
320.358	198.5
320.587	183.5
320.816	195.5
321.046	220.5
321.275	268.5
321.504	252.5
321.733	235.5
321.962	234.5
322.191	226.5
322.42	206.5
322.649	219.5
322.878	215.5
323.108	236.5
323.337	208.5
323.566	204.5
323.795	201.5
324.024	212.5
324.253	202.5
324.482	190.5
324.71	215.5
324.939	210.5
325.168	219.5
325.397	192.5
325.626	176.5
325.855	186.5
326.084	185.5
326.313	197.5
326.542	167.5
326.77	178.5
326.999	188.5
327.228	191.5
327.457	177.5
327.686	201.5
327.914	178.5
328.143	184.5
328.372	167.5
328.6	157.5
328.829	179.5
329.058	170.5
329.287	179.5
329.515	197.5
329.744	184.5
329.972	180.5
330.201	157.5
330.43	168.5
330.658	202.5
330.887	189.5
331.115	196.5
331.344	210.5
331.572	201.5
331.801	176.5
332.03	172.5
332.258	187.5
332.486	198.5
332.715	195.5
332.943	209.5
333.172	178.5
333.4	197.5
333.629	205.5
333.857	212.5
334.085	224.5
334.314	238.5
334.542	216.5
334.771	203.5
334.999	184.5
335.227	201.5
335.455	185.5
335.684	174.5
335.912	247.5
336.14	247.5
336.369	236.5
336.597	240.5
336.825	264.5
337.053	278.5
337.281	233.5
337.51	213.5
337.738	203.5
337.966	210.5
338.194	217.5
338.422	200.5
338.65	194.5
338.878	191.5
339.106	180.5
339.334	206.5
339.562	221.5
339.79	187.5
340.018	191.5
340.246	196.5
340.474	224.5
340.702	243.5
340.93	240.5
341.158	242.5
341.386	219.5
341.614	216.5
341.842	216.5
342.07	208.5
342.298	252.5
342.526	245.5
342.754	229.5
342.981	207.5
343.209	217.5
343.437	232.5
343.665	223.5
343.893	208.5
344.12	249.5
344.348	306.5
344.576	279.5
344.804	231.5
345.031	207.5
345.259	187.5
345.487	194.5
345.714	207.5
345.942	216.5
346.17	244.5
346.397	230.5
346.625	194.5
346.853	203.5
347.08	187.5
347.308	207.5
347.535	207.5
347.763	213.5
347.99	188.5
348.218	186.5
348.445	192.5
348.673	200.5
348.9	206.5
349.128	215.5
349.355	210.5
349.583	190.5
349.81	197.5
350.037	177.5
350.265	175.5
350.492	177.5
350.72	168.5
350.947	180.5
351.174	182.5
351.402	186.5
351.629	190.5
351.856	187.5
352.083	171.5
352.311	179.5
352.538	200.5
352.765	194.5
352.992	210.5
353.22	196.5
353.447	214.5
353.674	180.5
353.901	201.5
354.128	196.5
354.355	191.5
354.583	192.5
354.81	203.5
355.037	212.5
355.264	188.5
355.491	207.5
355.718	230.5
355.945	233.5
356.172	194.5
356.399	200.5
356.626	246.5
356.853	275.5
357.08	295.5
357.307	315.5
357.534	258.5
357.761	258.5
357.988	322.5
358.215	349.5
358.441	302.5
358.668	290.5
358.895	260.5
359.122	218.5
359.349	206.5
359.576	241.5
359.802	196.5
360.029	200.5
360.256	203.5
360.483	231.5
360.709	274.5
360.936	304.5
361.163	272.5
361.39	206.5
361.616	189.5
361.843	212.5
362.07	254.5
362.296	250.5
362.523	189.5
362.749	186.5
362.976	180.5
363.203	222.5
363.429	230.5
363.656	203.5
363.882	188.5
364.109	192.5
364.335	207.5
364.562	194.5
364.788	212.5
365.015	220.5
365.241	211.5
365.468	194.5
365.694	171.5
365.92	163.5
366.147	165.5
366.373	163.5
366.599	167.5
366.826	159.5
367.052	168.5
367.278	170.5
367.505	161.5
367.731	176.5
367.957	196.5
368.184	201.5
368.41	180.5
368.636	194.5
368.862	211.5
369.089	205.5
369.315	188.5
369.541	196.5
369.767	170.5
369.993	173.5
370.219	162.5
370.445	187.5
370.672	195.5
370.898	197.5
371.124	212.5
371.35	188.5
371.576	174.5
371.802	188.5
372.028	202.5
372.254	217.5
372.48	194.5
372.706	186.5
372.932	216.5
373.158	208.5
373.384	213.5
373.61	284.5
373.835	304.5
374.061	225.5
374.287	217.5
374.513	238.5
374.739	296.5
374.965	298.5
375.191	302.5
375.416	202.5
375.642	190.5
375.868	195.5
376.094	230.5
376.319	209.5
376.545	210.5
376.771	231.5
376.997	200.5
377.222	171.5
377.448	158.5
377.674	163.5
377.899	147.5
378.125	172.5
378.35	151.5
378.576	159.5
378.802	170.5
379.027	191.5
379.253	184.5
379.478	177.5
379.704	205.5
379.929	214.5
380.155	208.5
380.38	185.5
380.606	206.5
380.831	199.5
381.057	213.5
381.282	191.5
381.507	207.5
381.733	261.5
381.958	277.5
382.184	269.5
382.409	276.5
382.634	284.5
382.86	293.5
383.085	254.5
383.31	228.5
383.535	232.5
383.761	211.5
383.986	228.5
384.211	255.5
384.436	242.5
384.662	190.5
384.887	192.5
385.112	206.5
385.337	219.5
385.562	211.5
385.787	202.5
386.013	229.5
386.238	226.5
386.463	174.5
386.688	201.5
386.913	182.5
387.138	188.5
387.363	204.5
387.588	208.5
387.813	203.5
388.038	201.5
388.263	196.5
388.488	188.5
388.713	200.5
388.938	230.5
389.163	211.5
389.387	164.5
389.612	188.5
389.837	201.5
390.062	198.5
390.287	183.5
390.512	216.5
390.736	194.5
390.961	193.5
391.186	172.5
391.411	179.5
391.636	185.5
391.86	203.5
392.085	203.5
392.31	211.5
392.534	199.5
392.759	188.5
392.984	198.5
393.208	185.5
393.433	180.5
393.658	159.5
393.882	159.5
394.107	182.5
394.331	175.5
394.556	166.5
394.78	158.5
395.005	186.5
395.229	169.5
395.454	179.5
395.678	179.5
395.903	188.5
396.127	171.5
396.352	178.5
396.576	191.5
396.801	203.5
397.025	203.5
397.249	216.5
397.474	193.5
397.698	194.5
397.922	188.5
398.147	191.5
398.371	184.5
398.595	187.5
398.82	200.5
399.044	196.5
399.268	209.5
399.492	210.5
399.717	216.5
399.941	211.5
400.165	224.5
400.389	202.5
400.613	219.5
400.837	216.5
401.062	161.5
401.286	184.5
401.51	180.5
401.734	172.5
401.958	190.5
402.182	196.5
402.406	184.5
402.63	178.5
402.854	200.5
403.078	207.5
403.302	255.5
403.526	271.5
403.75	260.5
403.974	225.5
404.198	240.5
404.422	230.5
404.645	235.5
404.869	282.5
405.093	227.5
405.317	208.5
405.541	207.5
405.765	207.5
405.988	191.5
406.212	212.5
406.436	236.5
406.66	260.5
406.883	207.5
407.107	229.5
407.331	261.5
407.555	241.5
407.778	233.5
408.002	204.5
408.226	222.5
408.449	213.5
408.673	208.5
408.896	211.5
409.12	191.5
409.344	198.5
409.567	191.5
409.791	183.5
410.014	195.5
410.238	175.5
410.461	188.5
410.685	184.5
410.908	198.5
411.132	187.5
411.355	195.5
411.578	201.5
411.802	200.5
412.025	196.5
412.249	195.5
412.472	201.5
412.695	195.5
412.919	183.5
413.142	197.5
413.365	207.5
413.589	206.5
413.812	186.5
414.035	202.5
414.258	188.5
414.482	211.5
414.705	210.5
414.928	196.5
415.151	196.5
415.374	200.5
415.597	181.5
415.821	192.5
416.044	194.5
416.267	170.5
416.49	174.5
416.713	182.5
416.936	194.5
417.159	176.5
417.382	178.5
417.605	188.5
417.828	198.5
418.051	183.5
418.274	193.5
418.497	172.5
418.72	192.5
418.943	209.5
419.166	196.5
419.389	204.5
419.611	197.5
419.834	213.5
420.057	222.5
420.28	220.5
420.503	220.5
420.726	195.5
420.948	184.5
421.171	186.5
421.394	177.5
421.617	177.5
421.839	183.5
422.062	186.5
422.285	194.5
422.507	177.5
422.73	208.5
422.953	197.5
423.175	194.5
423.398	202.5
423.621	203.5
423.843	228.5
424.066	178.5
424.288	186.5
424.511	180.5
424.733	191.5
424.956	219.5
425.178	208.5
425.401	244.5
425.623	255.5
425.846	238.5
426.068	205.5
426.291	225.5
426.513	202.5
426.735	192.5
426.958	185.5
427.18	240.5
427.402	263.5
427.625	298.5
427.847	249.5
428.069	180.5
428.292	180.5
428.514	187.5
428.736	174.5
428.958	192.5
429.181	226.5
429.403	208.5
429.625	176.5
429.847	182.5
430.069	196.5
430.292	173.5
430.514	193.5
430.736	175.5
430.958	225.5
431.18	202.5
431.402	175.5
431.624	175.5
431.846	166.5
432.068	169.5
432.29	178.5
432.512	195.5
432.734	228.5
432.956	203.5
433.178	180.5
433.4	168.5
433.622	176.5
433.844	208.5
434.066	199.5
434.287	194.5
434.509	188.5
434.731	194.5
434.953	175.5
435.175	201.5
435.397	227.5
435.618	197.5
435.84	182.5
436.062	179.5
436.284	166.5
436.505	166.5
436.727	166.5
436.949	189.5
437.17	182.5
437.392	184.5
437.614	165.5
437.835	176.5
438.057	174.5
438.278	191.5
438.5	258.5
438.721	260.5
438.943	202.5
439.165	184.5
439.386	172.5
439.608	174.5
439.829	193.5
440.05	174.5
440.272	174.5
440.493	192.5
440.715	234.5
440.936	207.5
441.158	207.5
441.379	198.5
441.6	204.5
441.822	192.5
442.043	180.5
442.264	184.5
442.486	178.5
442.707	178.5
442.928	198.5
443.149	172.5
443.371	199.5
443.592	200.5
443.813	182.5
444.034	187.5
444.255	186.5
444.476	193.5
444.698	198.5
444.919	208.5
445.14	343.5
445.361	266.5
445.582	211.5
445.803	205.5
446.024	210.5
446.245	207.5
446.466	196.5
446.687	186.5
446.908	182.5
447.129	184.5
447.35	183.5
447.571	183.5
447.792	164.5
448.013	163.5
448.234	164.5
448.455	168.5
448.675	178.5
448.896	181.5
449.117	174.5
449.338	175.5
449.559	193.5
449.779	186.5
450	193.5
450.221	179.5
450.442	171.5
450.662	177.5
450.883	171.5
451.104	169.5
451.324	163.5
451.545	158.5
451.766	169.5
451.986	168.5
452.207	169.5
452.428	174.5
452.648	174.5
452.869	174.5
453.089	179.5
453.31	184.5
453.53	171.5
453.751	171.5
453.971	169.5
454.192	188.5
454.412	176.5
454.633	177.5
454.853	171.5
455.073	167.5
455.294	169.5
455.514	162.5
455.734	177.5
455.955	163.5
456.175	167.5
456.395	161.5
456.616	176.5
456.836	168.5
457.056	150.5
457.276	167.5
457.497	168.5
457.717	142.5
457.937	156.5
458.157	143.5
458.377	176.5
458.598	174.5
458.818	165.5
459.038	161.5
459.258	174.5
459.478	191.5
459.698	200.5
459.918	194.5
460.138	184.5
460.358	196.5
460.578	198.5
460.798	206.5
461.018	182.5
461.238	187.5
461.458	189.5
461.678	190.5
461.898	204.5
462.118	197.5
462.338	188.5
462.558	205.5
462.777	211.5
462.997	225.5
463.217	201.5
463.437	226.5
463.657	214.5
463.876	200.5
464.096	197.5
464.316	188.5
464.536	204.5
464.755	223.5
464.975	210.5
465.195	194.5
465.414	226.5
465.634	195.5
465.854	177.5
466.073	187.5
466.293	191.5
466.512	185.5
466.732	228.5
466.951	201.5
467.171	180.5
467.391	193.5
467.61	190.5
467.829	184.5
468.049	186.5
468.268	194.5
468.488	186.5
468.707	195.5
468.927	202.5
469.146	215.5
469.365	208.5
469.585	186.5
469.804	215.5
470.023	224.5
470.243	206.5
470.462	185.5
470.681	205.5
470.901	190.5
471.12	222.5
471.339	220.5
471.558	208.5
471.777	205.5
471.997	223.5
472.216	231.5
472.435	210.5
472.654	195.5
472.873	217.5
473.092	221.5
473.311	213.5
473.53	206.5
473.749	186.5
473.968	203.5
474.187	195.5
474.406	195.5
474.625	183.5
474.844	182.5
475.063	200.5
475.282	209.5
475.501	198.5
475.72	235.5
475.939	218.5
476.158	235.5
476.377	259.5
476.596	288.5
476.814	292.5
477.033	271.5
477.252	231.5
477.471	204.5
477.69	203.5
477.908	209.5
478.127	222.5
478.346	217.5
478.564	248.5
478.783	213.5
479.002	236.5
479.22	246.5
479.439	276.5
479.658	240.5
479.876	235.5
480.095	242.5
480.313	228.5
480.532	228.5
480.751	242.5
480.969	221.5
481.188	254.5
481.406	259.5
481.624	248.5
481.843	215.5
482.061	222.5
482.28	237.5
482.498	305.5
482.717	302.5
482.935	238.5
483.153	218.5
483.372	224.5
483.59	223.5
483.808	215.5
484.027	214.5
484.245	193.5
484.463	198.5
484.681	219.5
484.9	204.5
485.118	232.5
485.336	222.5
485.554	206.5
485.772	209.5
485.99	232.5
486.209	254.5
486.427	249.5
486.645	229.5
486.863	235.5
487.081	236.5
487.299	255.5
487.517	264.5
487.735	217.5
487.953	219.5
488.171	227.5
488.389	241.5
488.607	211.5
488.825	220.5
489.043	232.5
489.261	251.5
489.479	283.5
489.696	260.5
489.914	227.5
490.132	222.5
490.35	222.5
490.568	219.5
490.786	218.5
491.003	216.5
491.221	231.5
491.439	206.5
491.657	223.5
491.874	224.5
492.092	290.5
492.31	333.5
492.527	312.5
492.745	276.5
492.963	248.5
493.18	258.5
493.398	236.5
493.615	252.5
493.833	264.5
494.05	250.5
494.268	238.5
494.485	240.5
494.703	234.5
494.92	244.5
495.138	244.5
495.355	248.5
495.573	257.5
495.79	275.5
496.008	319.5
496.225	264.5
496.442	256.5
496.66	247.5
496.877	259.5
497.094	233.5
497.312	237.5
497.529	258.5
497.746	242.5
497.963	256.5
498.181	276.5
498.398	283.5
498.615	295.5
498.832	306.5
499.049	312.5
499.267	311.5
499.484	305.5
499.701	331.5
499.918	332.5
500.135	365.5
500.352	394.5
500.569	407.5
500.786	406.5
501.003	390.5
501.22	371.5
501.437	318.5
501.654	315.5
501.871	283.5
502.088	312.5
502.305	280.5
502.522	283.5
502.739	278.5
502.956	275.5
503.172	275.5
503.389	253.5
503.606	228.5
503.823	254.5
504.04	261.5
504.256	258.5
504.473	257.5
504.69	256.5
504.907	263.5
505.123	262.5
505.34	272.5
505.557	275.5
505.773	264.5
505.99	246.5
506.207	259.5
506.423	258.5
506.64	247.5
506.856	222.5
507.073	268.5
507.289	287.5
507.506	276.5
507.722	289.5
507.939	282.5
508.155	297.5
508.372	247.5
508.588	246.5
508.805	230.5
509.021	255.5
509.238	238.5
509.454	233.5
509.67	222.5
509.887	248.5
510.103	265.5
510.319	256.5
510.536	238.5
510.752	219.5
510.968	222.5
511.184	195.5
511.401	210.5
511.617	204.5
511.833	204.5
512.049	206.5
512.265	200.5
512.481	216.5
512.698	263.5
512.914	262.5
513.13	230.5
513.346	212.5
513.562	245.5
513.778	212.5
513.994	213.5
514.21	250.5
514.426	238.5
514.642	224.5
514.858	227.5
515.074	226.5
515.29	266.5
515.506	274.5
515.721	250.5
515.937	250.5
516.153	218.5
516.369	240.5
516.585	244.5
516.801	263.5
517.016	307.5
517.232	290.5
517.448	289.5
517.664	249.5
517.879	271.5
518.095	262.5
518.311	270.5
518.527	275.5
518.742	276.5
518.958	302.5
519.173	282.5
519.389	270.5
519.605	267.5
519.82	304.5
520.036	318.5
520.251	311.5
520.467	330.5
520.682	451.5
