Data from NickelSpatula.Lamp.E5.5.P2_HRD10591_11-53-33-548.txt Node
Date: Tue Jul 23 11:53:33 EDT 2019
User: cochatt
Spectrometer: HR+D1059
Trigger mode: 1
Integration Time (sec): 1.000000E-1
Scans to average: 1
Electric dark correction enabled: true
Nonlinearity correction enabled: false
Boxcar width: 0
XAxis mode: Wavelengths
Number of Pixels in Spectrum: 2048
>>>>>Begin Spectral Data<<<<<
223.165	-28.44
223.4	-28.44
223.635	-28.44
223.869	-11.44
224.104	-5.44
224.338	-5.44
224.573	-39.44
224.808	-4.44
225.042	-3.44
225.277	12.56
225.511	-8.44
225.746	0.56
225.98	15.56
226.215	7.56
226.449	-1.44
226.683	16.56
226.918	24.56
227.152	30.56
227.387	28.56
227.621	37.56
227.856	37.56
228.09	47.56
228.324	56.56
228.559	66.56
228.793	53.56
229.027	62.56
229.262	83.56
229.496	79.56
229.73	89.56
229.964	106.56
230.199	79.56
230.433	96.56
230.667	96.56
230.901	80.56
231.136	98.56
231.37	84.56
231.604	101.56
231.838	90.56
232.072	119.56
232.306	112.56
232.541	94.56
232.775	105.56
233.009	104.56
233.243	113.56
233.477	128.56
233.711	128.56
233.945	120.56
234.179	130.56
234.413	118.56
234.647	136.56
234.881	127.56
235.115	113.56
235.349	125.56
235.583	120.56
235.817	120.56
236.051	112.56
236.285	140.56
236.519	121.56
236.753	118.56
236.987	131.56
237.221	143.56
237.455	120.56
237.689	126.56
237.922	128.56
238.156	145.56
238.39	153.56
238.624	153.56
238.858	155.56
239.091	142.56
239.325	144.56
239.559	135.56
239.793	156.56
240.027	165.56
240.26	155.56
240.494	164.56
240.728	156.56
240.961	182.56
241.195	175.56
241.429	167.56
241.662	157.56
241.896	143.56
242.13	128.56
242.363	131.56
242.597	136.56
242.83	148.56
243.064	156.56
243.298	157.56
243.531	170.56
243.765	172.56
243.998	176.56
244.232	157.56
244.465	167.56
244.699	150.56
244.932	165.56
245.166	153.56
245.399	160.56
245.633	144.56
245.866	160.56
246.099	161.56
246.333	181.56
246.566	190.56
246.8	181.56
247.033	202.56
247.266	159.56
247.5	188.56
247.733	169.56
247.966	168.56
248.2	169.56
248.433	202.56
248.666	197.56
248.899	188.56
249.133	216.56
249.366	226.56
249.599	251.56
249.832	216.56
250.066	202.56
250.299	220.56
250.532	190.56
250.765	204.56
250.998	185.56
251.231	184.56
251.465	188.56
251.698	216.56
251.931	208.56
252.164	202.56
252.397	208.56
252.63	246.56
252.863	269.56
253.096	272.56
253.329	271.56
253.562	255.56
253.795	274.56
254.028	293.56
254.261	295.56
254.494	276.56
254.727	270.56
254.96	236.56
255.193	282.56
255.426	261.56
255.659	197.56
255.892	194.56
256.124	201.56
256.357	251.56
256.59	276.56
256.823	266.56
257.056	217.56
257.289	218.56
257.521	245.56
257.754	263.56
257.987	313.56
258.22	266.56
258.452	234.56
258.685	250.56
258.918	293.56
259.151	304.56
259.383	296.56
259.616	359.56
259.849	333.56
260.081	343.56
260.314	386.56
260.547	341.56
260.779	334.56
261.012	366.56
261.244	350.56
261.477	374.56
261.71	318.56
261.942	274.56
262.175	278.56
262.407	283.56
262.64	270.56
262.872	327.56
263.105	351.56
263.337	376.56
263.57	343.56
263.802	236.56
264.035	219.56
264.267	217.56
264.499	198.56
264.732	204.56
264.964	168.56
265.197	180.56
265.429	187.56
265.661	201.56
265.894	198.56
266.126	229.56
266.358	239.56
266.591	285.56
266.823	346.56
267.055	305.56
267.287	282.56
267.52	284.56
267.752	300.56
267.984	327.56
268.216	313.56
268.448	267.56
268.681	278.56
268.913	275.56
269.145	290.56
269.377	306.56
269.609	301.56
269.841	274.56
270.073	294.56
270.306	309.56
270.538	335.56
270.77	325.56
271.002	328.56
271.234	336.56
271.466	351.56
271.698	328.56
271.93	302.56
272.162	314.56
272.394	303.56
272.626	289.56
272.858	304.56
273.09	337.56
273.322	274.56
273.553	279.56
273.785	306.56
274.017	374.56
274.249	501.56
274.481	477.56
274.713	532.56
274.945	580.56
275.176	644.56
275.408	586.56
275.64	527.56
275.872	520.56
276.104	460.56
276.335	392.56
276.567	406.56
276.799	400.56
277.031	421.56
277.262	336.56
277.494	286.56
277.726	270.56
277.957	304.56
278.189	332.56
278.421	318.56
278.652	293.56
278.884	290.56
279.115	261.56
279.347	260.56
279.579	272.56
279.81	274.56
280.042	285.56
280.273	277.56
280.505	256.56
280.736	234.56
280.968	249.56
281.199	272.56
281.431	278.56
281.662	281.56
281.894	274.56
282.125	293.56
282.356	311.56
282.588	305.56
282.819	270.56
283.051	278.56
283.282	361.56
283.513	398.56
283.745	460.56
283.976	441.56
284.207	393.56
284.439	425.56
284.67	415.56
284.901	371.56
285.132	395.56
285.364	422.56
285.595	407.56
285.826	393.56
286.057	420.56
286.288	402.56
286.52	402.56
286.751	437.56
286.982	432.56
287.213	392.56
287.444	366.56
287.675	392.56
287.906	388.56
288.138	329.56
288.369	311.56
288.6	289.56
288.831	306.56
289.062	352.56
289.293	372.56
289.524	348.56
289.755	338.56
289.986	357.56
290.217	330.56
290.448	255.56
290.679	219.56
290.91	215.56
291.141	208.56
291.371	222.56
291.602	224.56
291.833	236.56
292.064	237.56
292.295	258.56
292.526	291.56
292.757	309.56
292.987	326.56
293.218	336.56
293.449	354.56
293.68	377.56
293.91	348.56
294.141	386.56
294.372	348.56
294.603	303.56
294.833	364.56
295.064	392.56
295.295	409.56
295.525	308.56
295.756	268.56
295.987	225.56
296.217	226.56
296.448	249.56
296.679	244.56
296.909	275.56
297.14	289.56
297.37	280.56
297.601	285.56
297.831	260.56
298.062	289.56
298.292	298.56
298.523	336.56
298.753	350.56
298.984	336.56
299.214	263.56
299.445	265.56
299.675	232.56
299.905	240.56
300.136	244.56
300.366	250.56
300.597	241.56
300.827	245.56
301.057	234.56
301.288	226.56
301.518	247.56
301.748	265.56
301.979	296.56
302.209	314.56
302.439	326.56
302.669	286.56
302.9	270.56
303.13	258.56
303.36	272.56
303.59	242.56
303.82	253.56
304.051	268.56
304.281	293.56
304.511	298.56
304.741	249.56
304.971	244.56
305.201	275.56
305.431	273.56
305.661	241.56
305.891	223.56
306.121	234.56
306.352	223.56
306.582	224.56
306.812	185.56
307.042	210.56
307.272	197.56
307.502	186.56
307.731	192.56
307.961	211.56
308.191	197.56
308.421	202.56
308.651	198.56
308.881	200.56
309.111	202.56
309.341	197.56
309.571	218.56
309.8	234.56
310.03	227.56
310.26	217.56
310.49	213.56
310.72	202.56
310.949	200.56
311.179	212.56
311.409	230.56
311.639	250.56
311.868	294.56
312.098	367.56
312.328	406.56
312.557	400.56
312.787	394.56
313.017	357.56
313.246	381.56
313.476	400.56
313.706	349.56
313.935	291.56
314.165	220.56
314.394	220.56
314.624	218.56
314.853	222.56
315.083	223.56
315.312	220.56
315.542	225.56
315.771	204.56
316.001	190.56
316.23	195.56
316.46	202.56
316.689	196.56
316.919	212.56
317.148	222.56
317.377	208.56
317.607	194.56
317.836	217.56
318.065	247.56
318.295	266.56
318.524	256.56
318.753	233.56
318.983	209.56
319.212	198.56
319.441	205.56
319.67	243.56
319.9	264.56
320.129	232.56
320.358	204.56
320.587	209.56
320.816	221.56
321.046	249.56
321.275	258.56
321.504	269.56
321.733	251.56
321.962	265.56
322.191	248.56
322.42	241.56
322.649	232.56
322.878	258.56
323.108	247.56
323.337	238.56
323.566	254.56
323.795	244.56
324.024	230.56
324.253	221.56
324.482	226.56
324.71	245.56
324.939	257.56
325.168	254.56
325.397	208.56
325.626	219.56
325.855	214.56
326.084	227.56
326.313	198.56
326.542	209.56
326.77	213.56
326.999	207.56
327.228	243.56
327.457	218.56
327.686	226.56
327.914	212.56
328.143	186.56
328.372	187.56
328.6	216.56
328.829	219.56
329.058	206.56
329.287	205.56
329.515	208.56
329.744	211.56
329.972	206.56
330.201	193.56
330.43	206.56
330.658	217.56
330.887	217.56
331.115	220.56
331.344	231.56
331.572	233.56
331.801	208.56
332.03	215.56
332.258	217.56
332.486	196.56
332.715	236.56
332.943	200.56
333.172	237.56
333.4	225.56
333.629	240.56
333.857	269.56
334.085	256.56
334.314	251.56
334.542	241.56
334.771	216.56
334.999	216.56
335.227	208.56
335.455	224.56
335.684	241.56
335.912	258.56
336.14	288.56
336.369	265.56
336.597	254.56
336.825	299.56
337.053	327.56
337.281	258.56
337.51	229.56
337.738	221.56
337.966	229.56
338.194	246.56
338.422	241.56
338.65	216.56
338.878	217.56
339.106	202.56
339.334	215.56
339.562	244.56
339.79	221.56
340.018	203.56
340.246	224.56
340.474	259.56
340.702	251.56
340.93	272.56
341.158	286.56
341.386	238.56
341.614	239.56
341.842	262.56
342.07	252.56
342.298	279.56
342.526	295.56
342.754	268.56
342.981	257.56
343.209	225.56
343.437	255.56
343.665	248.56
343.893	264.56
344.12	292.56
344.348	354.56
344.576	314.56
344.804	255.56
345.031	252.56
345.259	221.56
345.487	231.56
345.714	252.56
345.942	247.56
346.17	278.56
346.397	259.56
346.625	230.56
346.853	224.56
347.08	220.56
347.308	225.56
347.535	257.56
347.763	262.56
347.99	237.56
348.218	249.56
348.445	221.56
348.673	223.56
348.9	233.56
349.128	244.56
349.355	242.56
349.583	236.56
349.81	240.56
350.037	225.56
350.265	198.56
350.492	178.56
350.72	202.56
350.947	202.56
351.174	208.56
351.402	214.56
351.629	208.56
351.856	220.56
352.083	201.56
352.311	237.56
352.538	252.56
352.765	233.56
352.992	226.56
353.22	211.56
353.447	243.56
353.674	209.56
353.901	224.56
354.128	211.56
354.355	217.56
354.583	238.56
354.81	237.56
355.037	217.56
355.264	232.56
355.491	229.56
355.718	232.56
355.945	258.56
356.172	240.56
356.399	237.56
356.626	266.56
356.853	324.56
357.08	362.56
357.307	362.56
357.534	297.56
357.761	282.56
357.988	345.56
358.215	409.56
358.441	377.56
358.668	312.56
358.895	302.56
359.122	271.56
359.349	256.56
359.576	304.56
359.802	255.56
360.029	225.56
360.256	237.56
360.483	272.56
360.709	339.56
360.936	346.56
361.163	292.56
361.39	254.56
361.616	243.56
361.843	258.56
362.07	305.56
362.296	276.56
362.523	224.56
362.749	225.56
362.976	228.56
363.203	266.56
363.429	268.56
363.656	225.56
363.882	222.56
364.109	231.56
364.335	236.56
364.562	228.56
364.788	241.56
365.015	278.56
365.241	248.56
365.468	229.56
365.694	188.56
365.92	182.56
366.147	193.56
366.373	170.56
366.599	189.56
366.826	202.56
367.052	197.56
367.278	190.56
367.505	190.56
367.731	226.56
367.957	203.56
368.184	225.56
368.41	222.56
368.636	207.56
368.862	230.56
369.089	241.56
369.315	208.56
369.541	210.56
369.767	198.56
369.993	192.56
370.219	204.56
370.445	215.56
370.672	231.56
370.898	257.56
371.124	268.56
371.35	241.56
371.576	220.56
371.802	226.56
372.028	253.56
372.254	290.56
372.48	263.56
372.706	246.56
372.932	252.56
373.158	250.56
373.384	272.56
373.61	370.56
373.835	380.56
374.061	281.56
374.287	258.56
374.513	289.56
374.739	360.56
374.965	340.56
375.191	371.56
375.416	270.56
375.642	226.56
375.868	238.56
376.094	282.56
376.319	242.56
376.545	272.56
376.771	296.56
376.997	266.56
377.222	207.56
377.448	192.56
377.674	199.56
377.899	202.56
378.125	183.56
378.35	192.56
378.576	180.56
378.802	201.56
379.027	232.56
379.253	217.56
379.478	218.56
379.704	252.56
379.929	248.56
380.155	253.56
380.38	221.56
380.606	225.56
380.831	255.56
381.057	248.56
381.282	231.56
381.507	250.56
381.733	294.56
381.958	314.56
382.184	334.56
382.409	357.56
382.634	338.56
382.86	350.56
383.085	280.56
383.31	256.56
383.535	260.56
383.761	274.56
383.986	252.56
384.211	302.56
384.436	290.56
384.662	230.56
384.887	244.56
385.112	247.56
385.337	232.56
385.562	238.56
385.787	260.56
386.013	278.56
386.238	297.56
386.463	264.56
386.688	238.56
386.913	201.56
387.138	214.56
387.363	233.56
387.588	242.56
387.813	247.56
388.038	233.56
388.263	246.56
388.488	228.56
388.713	268.56
388.938	279.56
389.163	237.56
389.387	206.56
389.612	231.56
389.837	232.56
390.062	233.56
390.287	226.56
390.512	252.56
390.736	238.56
390.961	219.56
391.186	217.56
391.411	199.56
391.636	229.56
391.86	231.56
392.085	260.56
392.31	249.56
392.534	261.56
392.759	243.56
392.984	224.56
393.208	241.56
393.433	228.56
393.658	227.56
393.882	207.56
394.107	201.56
394.331	202.56
394.556	202.56
394.78	209.56
395.005	214.56
395.229	213.56
395.454	206.56
395.678	217.56
395.903	203.56
396.127	205.56
396.352	242.56
396.576	233.56
396.801	238.56
397.025	256.56
397.249	256.56
397.474	238.56
397.698	236.56
397.922	238.56
398.147	215.56
398.371	232.56
398.595	228.56
398.82	232.56
399.044	247.56
399.268	260.56
399.492	281.56
399.717	293.56
399.941	302.56
400.165	266.56
400.389	239.56
400.613	244.56
400.837	233.56
401.062	226.56
401.286	226.56
401.51	236.56
401.734	246.56
401.958	223.56
402.182	215.56
402.406	244.56
402.63	223.56
402.854	241.56
403.078	292.56
403.302	351.56
403.526	355.56
403.75	332.56
403.974	281.56
404.198	281.56
404.422	306.56
404.645	324.56
404.869	335.56
405.093	280.56
405.317	232.56
405.541	257.56
405.765	265.56
405.988	244.56
406.212	269.56
406.436	293.56
406.66	301.56
406.883	270.56
407.107	279.56
407.331	326.56
407.555	286.56
407.778	281.56
408.002	274.56
408.226	264.56
408.449	252.56
408.673	250.56
408.896	236.56
409.12	256.56
409.344	255.56
409.567	246.56
409.791	248.56
410.014	231.56
410.238	247.56
410.461	231.56
410.685	241.56
410.908	248.56
411.132	237.56
411.355	223.56
411.578	246.56
411.802	214.56
412.025	246.56
412.249	231.56
412.472	239.56
412.695	230.56
412.919	231.56
413.142	245.56
413.365	249.56
413.589	255.56
413.812	240.56
414.035	232.56
414.258	221.56
414.482	261.56
414.705	257.56
414.928	221.56
415.151	210.56
415.374	233.56
415.597	226.56
415.821	226.56
416.044	208.56
416.267	225.56
416.49	222.56
416.713	233.56
416.936	207.56
417.159	215.56
417.382	223.56
417.605	230.56
417.828	244.56
418.051	236.56
418.274	240.56
418.497	232.56
418.72	239.56
418.943	242.56
419.166	248.56
419.389	271.56
419.611	248.56
419.834	250.56
420.057	278.56
420.28	259.56
420.503	247.56
420.726	225.56
420.948	228.56
421.171	225.56
421.394	241.56
421.617	218.56
421.839	218.56
422.062	241.56
422.285	247.56
422.507	246.56
422.73	244.56
422.953	239.56
423.175	257.56
423.398	253.56
423.621	270.56
423.843	253.56
424.066	251.56
424.288	250.56
424.511	220.56
424.733	233.56
424.956	236.56
425.178	270.56
425.401	291.56
425.623	350.56
425.846	295.56
426.068	270.56
426.291	257.56
426.513	248.56
426.735	250.56
426.958	240.56
427.18	270.56
427.402	337.56
427.625	349.56
427.847	312.56
428.069	233.56
428.292	228.56
428.514	217.56
428.736	214.56
428.958	248.56
429.181	289.56
429.403	256.56
429.625	228.56
429.847	223.56
430.069	244.56
430.292	228.56
430.514	199.56
430.736	229.56
430.958	266.56
431.18	225.56
431.402	231.56
431.624	212.56
431.846	203.56
432.068	221.56
432.29	221.56
432.512	224.56
432.734	291.56
432.956	277.56
433.178	210.56
433.4	217.56
433.622	231.56
433.844	238.56
434.066	264.56
434.287	243.56
434.509	227.56
434.731	240.56
434.953	219.56
435.175	246.56
435.397	278.56
435.618	240.56
435.84	227.56
436.062	238.56
436.284	209.56
436.505	214.56
436.727	238.56
436.949	220.56
437.17	229.56
437.392	215.56
437.614	216.56
437.835	205.56
438.057	222.56
438.278	244.56
438.5	297.56
438.721	310.56
438.943	252.56
439.165	232.56
439.386	207.56
439.608	202.56
439.829	200.56
440.05	207.56
440.272	213.56
440.493	240.56
440.715	273.56
440.936	225.56
441.158	217.56
441.379	224.56
441.6	260.56
441.822	265.56
442.043	230.56
442.264	228.56
442.486	217.56
442.707	223.56
442.928	222.56
443.149	241.56
443.371	240.56
443.592	245.56
443.813	230.56
444.034	232.56
444.255	245.56
444.476	252.56
444.698	262.56
444.919	261.56
445.14	327.56
445.361	313.56
445.582	261.56
445.803	260.56
446.024	249.56
446.245	248.56
446.466	250.56
446.687	243.56
446.908	247.56
447.129	218.56
447.35	233.56
447.571	214.56
447.792	222.56
448.013	208.56
448.234	192.56
448.455	211.56
448.675	201.56
448.896	216.56
449.117	212.56
449.338	209.56
449.559	220.56
449.779	230.56
450	226.56
450.221	217.56
450.442	224.56
450.662	212.56
450.883	212.56
451.104	208.56
451.324	234.56
451.545	203.56
451.766	215.56
451.986	220.56
452.207	216.56
452.428	211.56
452.648	208.56
452.869	206.56
453.089	214.56
453.31	199.56
453.53	194.56
453.751	198.56
453.971	202.56
454.192	195.56
454.412	229.56
454.633	196.56
454.853	201.56
455.073	201.56
455.294	200.56
455.514	186.56
455.734	209.56
455.955	213.56
456.175	222.56
456.395	212.56
456.616	194.56
456.836	197.56
457.056	194.56
457.276	192.56
457.497	192.56
457.717	191.56
457.937	200.56
458.157	203.56
458.377	215.56
458.598	193.56
458.818	202.56
459.038	205.56
459.258	238.56
459.478	215.56
459.698	233.56
459.918	229.56
460.138	231.56
460.358	240.56
460.578	243.56
460.798	238.56
461.018	247.56
461.238	239.56
461.458	255.56
461.678	249.56
461.898	252.56
462.118	236.56
462.338	241.56
462.558	228.56
462.777	262.56
462.997	278.56
463.217	290.56
463.437	284.56
463.657	270.56
463.876	275.56
464.096	262.56
464.316	258.56
464.536	266.56
464.755	264.56
464.975	271.56
465.195	267.56
465.414	264.56
465.634	253.56
465.854	242.56
466.073	214.56
466.293	221.56
466.512	215.56
466.732	256.56
466.951	259.56
467.171	238.56
467.391	211.56
467.61	214.56
467.829	216.56
468.049	213.56
468.268	209.56
468.488	218.56
468.707	236.56
468.927	249.56
469.146	274.56
469.365	239.56
469.585	235.56
469.804	262.56
470.023	259.56
470.243	245.56
470.462	236.56
470.681	229.56
470.901	230.56
471.12	237.56
471.339	229.56
471.558	236.56
471.777	214.56
471.997	265.56
472.216	264.56
472.435	272.56
472.654	243.56
472.873	242.56
473.092	225.56
473.311	254.56
473.53	236.56
473.749	215.56
473.968	238.56
474.187	248.56
474.406	226.56
474.625	226.56
474.844	244.56
475.063	248.56
475.282	246.56
475.501	270.56
475.72	272.56
475.939	271.56
476.158	267.56
476.377	307.56
476.596	327.56
476.814	341.56
477.033	283.56
477.252	246.56
477.471	232.56
477.69	266.56
477.908	239.56
478.127	284.56
478.346	259.56
478.564	292.56
478.783	255.56
479.002	288.56
479.22	290.56
479.439	326.56
479.658	296.56
479.876	252.56
480.095	287.56
480.313	311.56
480.532	288.56
480.751	284.56
480.969	277.56
481.188	300.56
481.406	303.56
481.624	300.56
481.843	255.56
482.061	260.56
482.28	284.56
482.498	342.56
482.717	324.56
482.935	274.56
483.153	274.56
483.372	259.56
483.59	248.56
483.808	236.56
484.027	250.56
484.245	252.56
484.463	248.56
484.681	270.56
484.9	258.56
485.118	300.56
485.336	280.56
485.554	240.56
485.772	245.56
485.99	276.56
486.209	304.56
486.427	274.56
486.645	270.56
486.863	302.56
487.081	290.56
487.299	319.56
487.517	298.56
487.735	292.56
487.953	285.56
488.171	281.56
488.389	287.56
488.607	278.56
488.825	261.56
489.043	274.56
489.261	321.56
489.479	323.56
489.696	287.56
489.914	272.56
490.132	268.56
490.35	262.56
490.568	263.56
490.786	257.56
491.003	278.56
491.221	270.56
491.439	268.56
491.657	271.56
491.874	291.56
492.092	321.56
492.31	358.56
492.527	364.56
492.745	327.56
492.963	286.56
493.18	304.56
493.398	283.56
493.615	294.56
493.833	290.56
494.05	278.56
494.268	282.56
494.485	273.56
494.703	286.56
494.92	287.56
495.138	278.56
495.355	282.56
495.573	263.56
495.79	311.56
496.008	356.56
496.225	308.56
496.442	308.56
496.66	322.56
496.877	321.56
497.094	320.56
497.312	305.56
497.529	294.56
497.746	297.56
497.963	306.56
498.181	344.56
498.398	352.56
498.615	373.56
498.832	370.56
499.049	380.56
499.267	382.56
499.484	383.56
499.701	390.56
499.918	436.56
500.135	484.56
500.352	508.56
500.569	556.56
500.786	548.56
501.003	530.56
501.22	453.56
501.437	409.56
501.654	400.56
501.871	353.56
502.088	374.56
502.305	347.56
502.522	358.56
