Data from NickelSpatula_HRD10591_16-35-50-126.txt Node
Date: Mon Jul 22 16:35:50 EDT 2019
User: cochatt
Spectrometer: HR+D1059
Trigger mode: 1
Integration Time (sec): 1.000000E-1
Scans to average: 1
Electric dark correction enabled: true
Nonlinearity correction enabled: false
Boxcar width: 0
XAxis mode: Wavelengths
Number of Pixels in Spectrum: 2048
>>>>>Begin Spectral Data<<<<<
223.165	-15.44
223.4	-15.44
223.635	-15.44
223.869	-17.44
224.104	-21.44
224.338	-23.44
224.573	-9.44
224.808	-9.44
225.042	-11.44
225.277	-6.44
225.511	-9.44
225.746	-7.44
225.98	9.56
226.215	6.56
226.449	25.56
226.683	29.56
226.918	45.56
227.152	14.56
227.387	35.56
227.621	45.56
227.856	38.56
228.09	46.56
228.324	45.56
228.559	68.56
228.793	64.56
229.027	74.56
229.262	83.56
229.496	80.56
229.73	83.56
229.964	80.56
230.199	83.56
230.433	96.56
230.667	86.56
230.901	97.56
231.136	84.56
231.37	83.56
231.604	92.56
231.838	98.56
232.072	96.56
232.306	99.56
232.541	96.56
232.775	103.56
233.009	99.56
233.243	94.56
233.477	102.56
233.711	103.56
233.945	96.56
234.179	103.56
234.413	97.56
234.647	120.56
234.881	120.56
235.115	107.56
235.349	106.56
235.583	100.56
235.817	94.56
236.051	112.56
236.285	116.56
236.519	101.56
236.753	102.56
236.987	101.56
237.221	114.56
237.455	107.56
237.689	109.56
237.922	124.56
238.156	116.56
238.39	129.56
238.624	124.56
238.858	130.56
239.091	93.56
239.325	118.56
239.559	101.56
239.793	127.56
240.027	124.56
240.26	124.56
240.494	110.56
240.728	128.56
240.961	129.56
241.195	145.56
241.429	125.56
241.662	133.56
241.896	127.56
242.13	121.56
242.363	105.56
242.597	121.56
242.83	94.56
243.064	124.56
243.298	125.56
243.531	143.56
243.765	137.56
243.998	130.56
244.232	134.56
244.465	125.56
244.699	124.56
244.932	135.56
245.166	136.56
245.399	124.56
245.633	138.56
245.866	132.56
246.099	122.56
246.333	140.56
246.566	152.56
246.8	138.56
247.033	136.56
247.266	147.56
247.5	125.56
247.733	129.56
247.966	138.56
248.2	125.56
248.433	134.56
248.666	153.56
248.899	157.56
249.133	145.56
249.366	161.56
249.599	162.56
249.832	162.56
250.066	158.56
250.299	158.56
250.532	146.56
250.765	135.56
250.998	142.56
251.231	129.56
251.465	151.56
251.698	152.56
251.931	150.56
252.164	148.56
252.397	163.56
252.63	171.56
252.863	193.56
253.096	209.56
253.329	193.56
253.562	167.56
253.795	173.56
254.028	204.56
254.261	198.56
254.494	202.56
254.727	192.56
254.96	173.56
255.193	171.56
255.426	178.56
255.659	161.56
255.892	155.56
256.124	155.56
256.357	169.56
256.59	183.56
256.823	187.56
257.056	173.56
257.289	157.56
257.521	167.56
257.754	181.56
257.987	196.56
258.22	179.56
258.452	162.56
258.685	173.56
258.918	175.56
259.151	187.56
259.383	204.56
259.616	211.56
259.849	218.56
260.081	224.56
260.314	240.56
260.547	216.56
260.779	217.56
261.012	225.56
261.244	200.56
261.477	222.56
261.71	221.56
261.942	187.56
262.175	188.56
262.407	182.56
262.64	170.56
262.872	206.56
263.105	206.56
263.337	225.56
263.57	211.56
263.802	170.56
264.035	152.56
264.267	156.56
264.499	149.56
264.732	125.56
264.964	129.56
265.197	141.56
265.429	137.56
265.661	160.56
265.894	152.56
266.126	150.56
266.358	183.56
266.591	186.56
266.823	205.56
267.055	200.56
267.287	200.56
267.52	196.56
267.752	182.56
267.984	212.56
268.216	205.56
268.448	181.56
268.681	181.56
268.913	194.56
269.145	195.56
269.377	207.56
269.609	188.56
269.841	195.56
270.073	203.56
270.306	206.56
270.538	216.56
270.77	212.56
271.002	215.56
271.234	224.56
271.466	220.56
271.698	178.56
271.93	200.56
272.162	210.56
272.394	201.56
272.626	192.56
272.858	205.56
273.09	197.56
273.322	186.56
273.553	181.56
273.785	207.56
274.017	235.56
274.249	299.56
274.481	295.56
274.713	326.56
274.945	365.56
275.176	381.56
275.408	329.56
275.64	328.56
275.872	311.56
276.104	287.56
276.335	265.56
276.567	236.56
276.799	249.56
277.031	264.56
277.262	211.56
277.494	178.56
277.726	176.56
277.957	194.56
278.189	215.56
278.421	209.56
278.652	202.56
278.884	199.56
279.115	186.56
279.347	177.56
279.579	173.56
279.81	180.56
280.042	180.56
280.273	197.56
280.505	174.56
280.736	168.56
280.968	155.56
281.199	167.56
281.431	193.56
281.662	182.56
281.894	185.56
282.125	189.56
282.356	196.56
282.588	196.56
282.819	194.56
283.051	203.56
283.282	235.56
283.513	238.56
283.745	261.56
283.976	257.56
284.207	241.56
284.439	255.56
284.67	246.56
284.901	234.56
285.132	258.56
285.364	250.56
285.595	262.56
285.826	242.56
286.057	269.56
286.288	268.56
286.52	235.56
286.751	267.56
286.982	266.56
287.213	246.56
287.444	237.56
287.675	227.56
287.906	220.56
288.138	215.56
288.369	200.56
288.6	199.56
288.831	205.56
289.062	224.56
289.293	234.56
289.524	199.56
289.755	204.56
289.986	217.56
290.217	188.56
290.448	174.56
290.679	145.56
290.91	158.56
291.141	157.56
291.371	164.56
291.602	152.56
291.833	156.56
292.064	160.56
292.295	178.56
292.526	193.56
292.757	197.56
292.987	227.56
293.218	217.56
293.449	205.56
293.68	235.56
293.91	232.56
294.141	235.56
294.372	199.56
294.603	200.56
294.833	203.56
295.064	252.56
295.295	232.56
295.525	192.56
295.756	175.56
295.987	160.56
296.217	145.56
296.448	160.56
296.679	148.56
296.909	187.56
297.14	184.56
297.37	185.56
297.601	171.56
297.831	158.56
298.062	185.56
298.292	190.56
298.523	215.56
298.753	226.56
298.984	220.56
299.214	165.56
299.445	167.56
299.675	161.56
299.905	155.56
300.136	160.56
300.366	163.56
300.597	155.56
300.827	150.56
301.057	144.56
301.288	160.56
301.518	171.56
301.748	164.56
301.979	179.56
302.209	191.56
302.439	196.56
302.669	193.56
302.9	176.56
303.13	162.56
303.36	176.56
303.59	166.56
303.82	158.56
304.051	180.56
304.281	197.56
304.511	207.56
304.741	180.56
304.971	170.56
305.201	198.56
305.431	179.56
305.661	154.56
305.891	170.56
306.121	173.56
306.352	141.56
306.582	143.56
306.812	144.56
307.042	139.56
307.272	122.56
307.502	137.56
307.731	141.56
307.961	151.56
308.191	130.56
308.421	135.56
308.651	130.56
308.881	143.56
309.111	139.56
309.341	140.56
309.571	137.56
309.8	145.56
310.03	156.56
310.26	152.56
310.49	149.56
310.72	130.56
310.949	130.56
311.179	141.56
311.409	146.56
311.639	157.56
311.868	194.56
312.098	222.56
312.328	258.56
312.557	236.56
312.787	228.56
313.017	221.56
313.246	218.56
313.476	233.56
313.706	215.56
313.935	190.56
314.165	176.56
314.394	156.56
314.624	160.56
314.853	160.56
315.083	157.56
315.312	152.56
315.542	160.56
315.771	139.56
316.001	147.56
316.23	148.56
316.46	129.56
316.689	130.56
316.919	123.56
317.148	142.56
317.377	149.56
317.607	141.56
317.836	162.56
318.065	165.56
318.295	179.56
318.524	146.56
318.753	153.56
318.983	133.56
319.212	142.56
319.441	156.56
319.67	168.56
319.9	163.56
320.129	181.56
320.358	156.56
320.587	143.56
320.816	155.56
321.046	163.56
321.275	181.56
321.504	187.56
321.733	175.56
321.962	169.56
322.191	177.56
322.42	172.56
322.649	152.56
322.878	160.56
323.108	157.56
323.337	168.56
323.566	169.56
323.795	145.56
324.024	156.56
324.253	157.56
324.482	141.56
324.71	158.56
324.939	172.56
325.168	157.56
325.397	155.56
325.626	136.56
325.855	133.56
326.084	130.56
326.313	135.56
326.542	135.56
326.77	141.56
326.999	132.56
327.228	136.56
327.457	153.56
327.686	148.56
327.914	150.56
328.143	148.56
328.372	131.56
328.6	139.56
328.829	138.56
329.058	132.56
329.287	129.56
329.515	141.56
329.744	147.56
329.972	123.56
330.201	126.56
330.43	143.56
330.658	137.56
330.887	137.56
331.115	156.56
331.344	160.56
331.572	154.56
331.801	155.56
332.03	151.56
332.258	153.56
332.486	142.56
332.715	150.56
332.943	141.56
333.172	160.56
333.4	133.56
333.629	148.56
333.857	178.56
334.085	153.56
334.314	161.56
334.542	164.56
334.771	142.56
334.999	155.56
335.227	126.56
335.455	135.56
335.684	166.56
335.912	176.56
336.14	185.56
336.369	174.56
336.597	157.56
336.825	180.56
337.053	185.56
337.281	173.56
337.51	150.56
337.738	144.56
337.966	162.56
338.194	170.56
338.422	158.56
338.65	144.56
338.878	136.56
339.106	145.56
339.334	150.56
339.562	162.56
339.79	150.56
340.018	140.56
340.246	149.56
340.474	165.56
340.702	181.56
340.93	181.56
341.158	183.56
341.386	158.56
341.614	158.56
341.842	167.56
342.07	164.56
342.298	191.56
342.526	208.56
342.754	163.56
342.981	168.56
343.209	142.56
343.437	171.56
343.665	161.56
343.893	164.56
344.12	183.56
344.348	181.56
344.576	181.56
344.804	165.56
345.031	142.56
345.259	157.56
345.487	145.56
345.714	158.56
345.942	168.56
346.17	164.56
346.397	157.56
346.625	156.56
346.853	143.56
347.08	141.56
347.308	147.56
347.535	153.56
347.763	155.56
347.99	147.56
348.218	152.56
348.445	154.56
348.673	147.56
348.9	152.56
349.128	170.56
349.355	161.56
349.583	144.56
349.81	141.56
350.037	130.56
350.265	128.56
350.492	138.56
350.72	134.56
350.947	140.56
351.174	152.56
351.402	138.56
351.629	141.56
351.856	156.56
352.083	143.56
352.311	141.56
352.538	157.56
352.765	171.56
352.992	169.56
353.22	147.56
353.447	162.56
353.674	145.56
353.901	147.56
354.128	161.56
354.355	153.56
354.583	155.56
354.81	180.56
355.037	173.56
355.264	146.56
355.491	150.56
355.718	173.56
355.945	160.56
356.172	161.56
356.399	159.56
356.626	152.56
356.853	222.56
357.08	222.56
357.307	231.56
357.534	197.56
357.761	191.56
357.988	212.56
358.215	257.56
358.441	239.56
358.668	194.56
358.895	203.56
359.122	166.56
359.349	179.56
359.576	199.56
359.802	169.56
360.029	147.56
360.256	155.56
360.483	177.56
360.709	225.56
360.936	221.56
361.163	176.56
361.39	165.56
361.616	146.56
361.843	188.56
362.07	187.56
362.296	192.56
362.523	153.56
362.749	151.56
362.976	148.56
363.203	168.56
363.429	190.56
363.656	170.56
363.882	157.56
364.109	151.56
364.335	145.56
364.562	149.56
364.788	157.56
365.015	157.56
365.241	161.56
365.468	152.56
365.694	134.56
365.92	135.56
366.147	133.56
366.373	138.56
366.599	130.56
366.826	146.56
367.052	151.56
367.278	130.56
367.505	122.56
367.731	157.56
367.957	161.56
368.184	143.56
368.41	167.56
368.636	148.56
368.862	171.56
369.089	143.56
369.315	133.56
369.541	152.56
369.767	143.56
369.993	154.56
370.219	139.56
370.445	144.56
370.672	166.56
370.898	165.56
371.124	156.56
371.35	149.56
371.576	134.56
371.802	152.56
372.028	161.56
372.254	162.56
372.48	164.56
372.706	157.56
372.932	137.56
373.158	155.56
373.384	187.56
373.61	219.56
373.835	219.56
374.061	183.56
374.287	178.56
374.513	194.56
374.739	207.56
374.965	214.56
375.191	204.56
375.416	168.56
375.642	146.56
375.868	174.56
376.094	190.56
376.319	171.56
376.545	189.56
376.771	181.56
376.997	152.56
377.222	164.56
377.448	132.56
377.674	123.56
377.899	137.56
378.125	130.56
378.35	123.56
378.576	115.56
378.802	145.56
379.027	144.56
379.253	145.56
379.478	143.56
379.704	168.56
379.929	152.56
380.155	173.56
380.38	135.56
380.606	146.56
380.831	186.56
381.057	158.56
381.282	162.56
381.507	168.56
381.733	201.56
381.958	224.56
382.184	214.56
382.409	236.56
382.634	220.56
382.86	227.56
383.085	196.56
383.31	152.56
383.535	188.56
383.761	178.56
383.986	165.56
384.211	209.56
384.436	183.56
384.662	162.56
384.887	150.56
385.112	159.56
385.337	165.56
385.562	160.56
385.787	173.56
386.013	160.56
386.238	181.56
386.463	166.56
386.688	153.56
386.913	136.56
387.138	131.56
387.363	149.56
387.588	161.56
387.813	171.56
388.038	175.56
388.263	162.56
388.488	155.56
388.713	174.56
388.938	173.56
389.163	145.56
389.387	148.56
389.612	140.56
389.837	163.56
390.062	142.56
390.287	157.56
390.512	160.56
390.736	156.56
390.961	142.56
391.186	130.56
391.411	131.56
391.636	140.56
391.86	161.56
392.085	164.56
392.31	173.56
392.534	152.56
392.759	144.56
392.984	156.56
393.208	155.56
393.433	140.56
393.658	143.56
393.882	123.56
394.107	128.56
394.331	125.56
394.556	128.56
394.78	140.56
395.005	132.56
395.229	139.56
395.454	147.56
395.678	151.56
395.903	157.56
396.127	145.56
396.352	148.56
396.576	158.56
396.801	167.56
397.025	176.56
397.249	187.56
397.474	152.56
397.698	141.56
397.922	138.56
398.147	148.56
398.371	140.56
398.595	158.56
398.82	150.56
399.044	135.56
399.268	169.56
399.492	162.56
399.717	167.56
399.941	154.56
400.165	148.56
400.389	159.56
400.613	160.56
400.837	154.56
401.062	140.56
401.286	154.56
401.51	150.56
401.734	147.56
401.958	144.56
402.182	136.56
402.406	142.56
402.63	154.56
402.854	150.56
403.078	180.56
403.302	216.56
403.526	211.56
403.75	193.56
403.974	163.56
404.198	177.56
404.422	194.56
404.645	197.56
404.869	229.56
405.093	175.56
405.317	159.56
405.541	158.56
405.765	161.56
405.988	165.56
406.212	151.56
406.436	184.56
406.66	205.56
406.883	168.56
407.107	174.56
407.331	191.56
407.555	178.56
407.778	173.56
408.002	155.56
408.226	159.56
408.449	153.56
408.673	171.56
408.896	127.56
409.12	145.56
409.344	128.56
409.567	131.56
409.791	141.56
410.014	133.56
410.238	139.56
410.461	152.56
410.685	129.56
410.908	154.56
411.132	166.56
411.355	141.56
411.578	153.56
411.802	164.56
412.025	145.56
412.249	168.56
412.472	144.56
412.695	151.56
412.919	148.56
413.142	142.56
413.365	165.56
413.589	165.56
413.812	147.56
414.035	156.56
414.258	160.56
414.482	170.56
414.705	155.56
414.928	148.56
415.151	130.56
415.374	136.56
415.597	161.56
415.821	144.56
416.044	148.56
416.267	155.56
416.49	151.56
416.713	158.56
416.936	132.56
417.159	141.56
417.382	148.56
417.605	148.56
417.828	165.56
418.051	142.56
418.274	153.56
418.497	153.56
418.72	150.56
418.943	173.56
419.166	156.56
419.389	154.56
419.611	162.56
419.834	153.56
420.057	180.56
420.28	161.56
420.503	165.56
420.726	146.56
420.948	145.56
421.171	147.56
421.394	138.56
421.617	142.56
421.839	148.56
422.062	152.56
422.285	140.56
422.507	156.56
422.73	167.56
422.953	161.56
423.175	135.56
423.398	148.56
423.621	156.56
423.843	167.56
424.066	168.56
424.288	134.56
424.511	145.56
424.733	158.56
424.956	155.56
425.178	170.56
425.401	188.56
425.623	208.56
425.846	184.56
426.068	168.56
426.291	166.56
426.513	177.56
426.735	163.56
426.958	158.56
427.18	185.56
427.402	223.56
427.625	220.56
427.847	182.56
428.069	166.56
428.292	147.56
428.514	157.56
428.736	126.56
428.958	145.56
429.181	169.56
429.403	149.56
429.625	146.56
429.847	164.56
430.069	151.56
430.292	168.56
430.514	141.56
430.736	147.56
430.958	178.56
431.18	150.56
431.402	137.56
431.624	122.56
431.846	134.56
432.068	154.56
432.29	132.56
432.512	158.56
432.734	187.56
432.956	180.56
433.178	151.56
433.4	132.56
433.622	140.56
433.844	160.56
434.066	162.56
434.287	141.56
434.509	150.56
434.731	148.56
434.953	145.56
435.175	139.56
435.397	182.56
435.618	146.56
435.84	154.56
436.062	149.56
436.284	138.56
436.505	132.56
436.727	145.56
436.949	150.56
437.17	134.56
437.392	154.56
437.614	150.56
437.835	140.56
438.057	154.56
438.278	147.56
438.5	179.56
438.721	190.56
438.943	152.56
439.165	143.56
439.386	143.56
439.608	142.56
439.829	140.56
440.05	149.56
440.272	140.56
440.493	155.56
440.715	166.56
440.936	151.56
441.158	162.56
441.379	144.56
441.6	169.56
441.822	173.56
442.043	160.56
442.264	150.56
442.486	140.56
442.707	150.56
442.928	162.56
443.149	167.56
443.371	149.56
443.592	154.56
443.813	149.56
444.034	146.56
444.255	148.56
444.476	150.56
444.698	134.56
444.919	168.56
445.14	288.56
445.361	233.56
445.582	173.56
445.803	166.56
446.024	166.56
446.245	169.56
446.466	155.56
446.687	140.56
446.908	146.56
447.129	150.56
447.35	156.56
447.571	146.56
447.792	148.56
448.013	126.56
448.234	155.56
448.455	144.56
448.675	142.56
448.896	136.56
449.117	146.56
449.338	133.56
449.559	151.56
449.779	160.56
450	153.56
450.221	150.56
450.442	149.56
450.662	149.56
450.883	141.56
451.104	132.56
451.324	144.56
451.545	139.56
451.766	139.56
451.986	123.56
452.207	124.56
452.428	145.56
452.648	142.56
452.869	154.56
453.089	152.56
453.31	141.56
453.53	156.56
453.751	143.56
453.971	159.56
454.192	135.56
454.412	142.56
454.633	130.56
454.853	142.56
455.073	145.56
455.294	130.56
455.514	143.56
455.734	145.56
455.955	140.56
456.175	139.56
456.395	149.56
456.616	128.56
456.836	128.56
457.056	121.56
457.276	140.56
457.497	132.56
457.717	124.56
457.937	138.56
458.157	138.56
458.377	138.56
458.598	118.56
458.818	142.56
459.038	128.56
459.258	130.56
459.478	140.56
459.698	146.56
459.918	162.56
460.138	154.56
460.358	162.56
460.578	143.56
460.798	155.56
461.018	153.56
461.238	141.56
461.458	156.56
461.678	146.56
461.898	161.56
462.118	150.56
462.338	140.56
462.558	169.56
462.777	156.56
462.997	167.56
463.217	176.56
463.437	156.56
463.657	164.56
463.876	155.56
464.096	152.56
464.316	165.56
464.536	156.56
464.755	192.56
464.975	174.56
465.195	149.56
465.414	166.56
465.634	166.56
465.854	168.56
466.073	162.56
466.293	138.56
466.512	145.56
466.732	169.56
466.951	173.56
467.171	163.56
467.391	171.56
467.61	148.56
467.829	147.56
468.049	152.56
468.268	155.56
468.488	141.56
468.707	158.56
468.927	166.56
469.146	179.56
469.365	158.56
469.585	148.56
469.804	141.56
470.023	173.56
470.243	160.56
470.462	142.56
470.681	144.56
470.901	155.56
471.12	168.56
471.339	160.56
471.558	154.56
471.777	139.56
471.997	162.56
472.216	176.56
472.435	159.56
472.654	153.56
472.873	150.56
473.092	164.56
473.311	166.56
473.53	176.56
473.749	164.56
473.968	169.56
474.187	140.56
474.406	142.56
474.625	169.56
474.844	169.56
475.063	169.56
475.282	171.56
475.501	182.56
475.72	186.56
475.939	187.56
476.158	170.56
476.377	186.56
476.596	210.56
476.814	220.56
477.033	185.56
477.252	159.56
477.471	144.56
477.69	168.56
477.908	168.56
478.127	184.56
478.346	177.56
478.564	207.56
478.783	176.56
479.002	180.56
479.22	193.56
479.439	198.56
479.658	162.56
479.876	165.56
480.095	190.56
480.313	188.56
480.532	188.56
480.751	154.56
480.969	173.56
481.188	183.56
481.406	184.56
481.624	193.56
481.843	178.56
482.061	168.56
482.28	172.56
482.498	229.56
482.717	207.56
482.935	175.56
483.153	195.56
483.372	155.56
483.59	157.56
483.808	156.56
484.027	167.56
484.245	149.56
484.463	156.56
484.681	157.56
484.9	161.56
485.118	166.56
485.336	153.56
485.554	162.56
485.772	170.56
485.99	182.56
486.209	182.56
486.427	197.56
486.645	196.56
486.863	190.56
487.081	173.56
487.299	210.56
487.517	188.56
487.735	190.56
487.953	185.56
488.171	182.56
488.389	175.56
488.607	155.56
488.825	173.56
489.043	191.56
489.261	214.56
489.479	221.56
489.696	192.56
489.914	178.56
490.132	174.56
490.35	170.56
490.568	171.56
490.786	183.56
491.003	174.56
491.221	187.56
491.439	168.56
491.657	167.56
491.874	185.56
492.092	200.56
492.31	249.56
492.527	229.56
492.745	204.56
492.963	186.56
493.18	197.56
493.398	184.56
493.615	188.56
493.833	181.56
494.05	183.56
494.268	176.56
494.485	179.56
494.703	181.56
494.92	172.56
495.138	175.56
495.355	174.56
495.573	186.56
495.79	208.56
496.008	270.56
496.225	220.56
496.442	180.56
496.66	200.56
496.877	184.56
497.094	194.56
497.312	198.56
497.529	190.56
497.746	176.56
497.963	187.56
498.181	211.56
498.398	224.56
498.615	210.56
498.832	232.56
499.049	237.56
499.267	221.56
499.484	214.56
499.701	221.56
499.918	225.56
500.135	256.56
500.352	260.56
500.569	266.56
500.786	249.56
501.003	268.56
501.22	250.56
501.437	240.56
501.654	226.56
501.871	214.56
502.088	204.56
502.305	205.56
502.522	202.56
502.739	204.56
