Data from NickelSpatula.Lamp.E5.5.P2_HRD10591_11-50-52-564.txt Node
Date: Tue Jul 23 11:50:52 EDT 2019
User: cochatt
Spectrometer: HR+D1059
Trigger mode: 1
Integration Time (sec): 1.000000E-1
Scans to average: 1
Electric dark correction enabled: true
Nonlinearity correction enabled: false
Boxcar width: 0
XAxis mode: Wavelengths
Number of Pixels in Spectrum: 2048
>>>>>Begin Spectral Data<<<<<
223.165	-12.25
223.4	-12.25
223.635	-12.25
223.869	-24.25
224.104	-23.25
224.338	-28.25
224.573	-21.25
224.808	-15.25
225.042	-9.25
225.277	7.75
225.511	10.75
225.746	-13.25
225.98	16.75
226.215	18.75
226.449	23.75
226.683	20.75
226.918	26.75
227.152	21.75
227.387	16.75
227.621	47.75
227.856	30.75
228.09	62.75
228.324	53.75
228.559	53.75
228.793	50.75
229.027	88.75
229.262	72.75
229.496	79.75
229.73	82.75
229.964	79.75
230.199	94.75
230.433	94.75
230.667	94.75
230.901	96.75
231.136	95.75
231.37	94.75
231.604	89.75
231.838	93.75
232.072	104.75
232.306	105.75
232.541	99.75
232.775	97.75
233.009	92.75
233.243	100.75
233.477	116.75
233.711	120.75
233.945	112.75
234.179	105.75
234.413	101.75
234.647	113.75
234.881	126.75
235.115	114.75
235.349	113.75
235.583	114.75
235.817	98.75
236.051	98.75
236.285	120.75
236.519	106.75
236.753	122.75
236.987	108.75
237.221	112.75
237.455	110.75
237.689	131.75
237.922	113.75
238.156	128.75
238.39	118.75
238.624	156.75
238.858	150.75
239.091	127.75
239.325	124.75
239.559	128.75
239.793	136.75
240.027	144.75
240.26	143.75
240.494	126.75
240.728	132.75
240.961	172.75
241.195	145.75
241.429	132.75
241.662	136.75
241.896	132.75
242.13	142.75
242.363	134.75
242.597	132.75
242.83	124.75
243.064	135.75
243.298	150.75
243.531	136.75
243.765	151.75
243.998	163.75
244.232	136.75
244.465	130.75
244.699	129.75
244.932	138.75
245.166	146.75
245.399	132.75
245.633	140.75
245.866	143.75
246.099	144.75
246.333	153.75
246.566	160.75
246.8	172.75
247.033	144.75
247.266	142.75
247.5	138.75
247.733	144.75
247.966	146.75
248.2	150.75
248.433	151.75
248.666	158.75
248.899	160.75
249.133	156.75
249.366	178.75
249.599	187.75
249.832	180.75
250.066	182.75
250.299	188.75
250.532	180.75
250.765	183.75
250.998	180.75
251.231	166.75
251.465	151.75
251.698	182.75
251.931	170.75
252.164	176.75
252.397	179.75
252.63	186.75
252.863	204.75
253.096	211.75
253.329	217.75
253.562	200.75
253.795	222.75
254.028	222.75
254.261	241.75
254.494	202.75
254.727	200.75
254.96	204.75
255.193	223.75
255.426	206.75
255.659	184.75
255.892	179.75
256.124	180.75
256.357	204.75
256.59	223.75
256.823	216.75
257.056	190.75
257.289	203.75
257.521	206.75
257.754	229.75
257.987	241.75
258.22	222.75
258.452	196.75
258.685	199.75
258.918	211.75
259.151	216.75
259.383	223.75
259.616	252.75
259.849	263.75
260.081	264.75
260.314	304.75
260.547	263.75
260.779	256.75
261.012	277.75
261.244	277.75
261.477	288.75
261.71	268.75
261.942	238.75
262.175	236.75
262.407	221.75
262.64	211.75
262.872	272.75
263.105	268.75
263.337	295.75
263.57	278.75
263.802	224.75
264.035	190.75
264.267	185.75
264.499	160.75
264.732	164.75
264.964	168.75
265.197	169.75
265.429	174.75
265.661	175.75
265.894	194.75
266.126	210.75
266.358	194.75
266.591	236.75
266.823	272.75
267.055	251.75
267.287	231.75
267.52	246.75
267.752	258.75
267.984	279.75
268.216	245.75
268.448	217.75
268.681	231.75
268.913	228.75
269.145	238.75
269.377	252.75
269.609	262.75
269.841	241.75
270.073	240.75
270.306	256.75
270.538	256.75
270.77	275.75
271.002	300.75
271.234	261.75
271.466	301.75
271.698	263.75
271.93	259.75
272.162	266.75
272.394	243.75
272.626	243.75
272.858	264.75
273.09	260.75
273.322	243.75
273.553	243.75
273.785	252.75
274.017	294.75
274.249	358.75
274.481	370.75
274.713	398.75
274.945	441.75
275.176	467.75
275.408	391.75
275.64	404.75
275.872	396.75
276.104	370.75
276.335	322.75
276.567	319.75
276.799	334.75
277.031	330.75
277.262	286.75
277.494	217.75
277.726	224.75
277.957	225.75
278.189	265.75
278.421	258.75
278.652	248.75
278.884	247.75
279.115	244.75
279.347	228.75
279.579	249.75
279.81	256.75
280.042	241.75
280.273	240.75
280.505	222.75
280.736	204.75
280.968	199.75
281.199	215.75
281.431	241.75
281.662	251.75
281.894	221.75
282.125	248.75
282.356	258.75
282.588	269.75
282.819	246.75
283.051	256.75
283.282	282.75
283.513	309.75
283.745	355.75
283.976	343.75
284.207	335.75
284.439	335.75
284.67	309.75
284.901	304.75
285.132	318.75
285.364	336.75
285.595	324.75
285.826	348.75
286.057	330.75
286.288	319.75
286.52	324.75
286.751	359.75
286.982	350.75
287.213	321.75
287.444	309.75
287.675	313.75
287.906	329.75
288.138	307.75
288.369	273.75
288.6	254.75
288.831	268.75
289.062	300.75
289.293	307.75
289.524	312.75
289.755	296.75
289.986	293.75
290.217	269.75
290.448	235.75
290.679	199.75
290.91	206.75
291.141	192.75
291.371	213.75
291.602	222.75
291.833	210.75
292.064	224.75
292.295	240.75
292.526	244.75
292.757	265.75
292.987	270.75
293.218	302.75
293.449	282.75
293.68	330.75
293.91	319.75
294.141	327.75
294.372	309.75
294.603	281.75
294.833	282.75
295.064	337.75
295.295	318.75
295.525	267.75
295.756	238.75
295.987	203.75
296.217	227.75
296.448	214.75
296.679	225.75
296.909	240.75
297.14	256.75
297.37	284.75
297.601	267.75
297.831	243.75
298.062	248.75
298.292	264.75
298.523	269.75
298.753	323.75
298.984	290.75
299.214	256.75
299.445	231.75
299.675	222.75
299.905	226.75
300.136	201.75
300.366	240.75
300.597	224.75
300.827	209.75
301.057	205.75
301.288	224.75
301.518	234.75
301.748	265.75
301.979	275.75
302.209	267.75
302.439	286.75
302.669	243.75
302.9	253.75
303.13	233.75
303.36	256.75
303.59	225.75
303.82	227.75
304.051	253.75
304.281	264.75
304.511	268.75
304.741	242.75
304.971	255.75
305.201	256.75
305.431	243.75
305.661	219.75
305.891	226.75
306.121	218.75
306.352	215.75
306.582	192.75
306.812	188.75
307.042	205.75
307.272	203.75
307.502	197.75
307.731	211.75
307.961	191.75
308.191	206.75
308.421	176.75
308.651	180.75
308.881	172.75
309.111	184.75
309.341	199.75
309.571	193.75
309.8	194.75
310.03	201.75
310.26	203.75
310.49	196.75
310.72	217.75
310.949	195.75
311.179	200.75
311.409	199.75
311.639	209.75
311.868	257.75
312.098	297.75
312.328	317.75
312.557	321.75
312.787	337.75
313.017	300.75
313.246	300.75
313.476	326.75
313.706	305.75
313.935	233.75
314.165	232.75
314.394	206.75
314.624	219.75
314.853	209.75
315.083	223.75
315.312	221.75
315.542	209.75
315.771	181.75
316.001	186.75
316.23	212.75
316.46	180.75
316.689	196.75
316.919	196.75
317.148	206.75
317.377	199.75
317.607	196.75
317.836	202.75
318.065	220.75
318.295	235.75
318.524	231.75
318.753	216.75
318.983	217.75
319.212	218.75
319.441	217.75
319.67	208.75
319.9	222.75
320.129	219.75
320.358	217.75
320.587	182.75
320.816	217.75
321.046	220.75
321.275	251.75
321.504	229.75
321.733	246.75
321.962	241.75
322.191	234.75
322.42	214.75
322.649	226.75
322.878	247.75
323.108	240.75
323.337	238.75
323.566	221.75
323.795	218.75
324.024	228.75
324.253	218.75
324.482	186.75
324.71	221.75
324.939	236.75
325.168	221.75
325.397	213.75
325.626	220.75
325.855	200.75
326.084	201.75
326.313	213.75
326.542	188.75
326.77	197.75
326.999	191.75
327.228	209.75
327.457	189.75
327.686	221.75
327.914	203.75
328.143	194.75
328.372	201.75
328.6	194.75
328.829	203.75
329.058	217.75
329.287	207.75
329.515	199.75
329.744	210.75
329.972	202.75
330.201	202.75
330.43	196.75
330.658	212.75
330.887	213.75
331.115	216.75
331.344	207.75
331.572	223.75
331.801	195.75
332.03	204.75
332.258	195.75
332.486	211.75
332.715	210.75
332.943	224.75
333.172	225.75
333.4	225.75
333.629	225.75
333.857	242.75
334.085	233.75
334.314	231.75
334.542	241.75
334.771	224.75
334.999	224.75
335.227	200.75
335.455	202.75
335.684	231.75
335.912	242.75
336.14	260.75
336.369	261.75
336.597	246.75
336.825	253.75
337.053	286.75
337.281	268.75
337.51	220.75
337.738	220.75
337.966	214.75
338.194	240.75
338.422	224.75
338.65	225.75
338.878	205.75
339.106	212.75
339.334	214.75
339.562	230.75
339.79	207.75
340.018	214.75
340.246	206.75
340.474	223.75
340.702	243.75
340.93	266.75
341.158	261.75
341.386	244.75
341.614	216.75
341.842	229.75
342.07	202.75
342.298	254.75
342.526	264.75
342.754	250.75
342.981	228.75
343.209	217.75
343.437	225.75
343.665	244.75
343.893	245.75
344.12	270.75
344.348	324.75
344.576	294.75
344.804	235.75
345.031	228.75
345.259	223.75
345.487	208.75
345.714	212.75
345.942	248.75
346.17	219.75
346.397	226.75
346.625	217.75
346.853	223.75
347.08	212.75
347.308	208.75
347.535	216.75
347.763	233.75
347.99	216.75
348.218	215.75
348.445	229.75
348.673	224.75
348.9	226.75
349.128	237.75
349.355	226.75
349.583	231.75
349.81	209.75
350.037	202.75
350.265	198.75
350.492	186.75
350.72	200.75
350.947	211.75
351.174	196.75
351.402	216.75
351.629	228.75
351.856	200.75
352.083	204.75
352.311	206.75
352.538	201.75
352.765	237.75
352.992	219.75
353.22	216.75
353.447	228.75
353.674	217.75
353.901	201.75
354.128	188.75
354.355	213.75
354.583	227.75
354.81	223.75
355.037	257.75
355.264	222.75
355.491	230.75
355.718	240.75
355.945	235.75
356.172	222.75
356.399	231.75
356.626	246.75
356.853	281.75
357.08	330.75
357.307	314.75
357.534	276.75
357.761	270.75
357.988	328.75
358.215	380.75
358.441	351.75
358.668	304.75
358.895	288.75
359.122	237.75
359.349	252.75
359.576	284.75
359.802	241.75
360.029	212.75
360.256	223.75
360.483	254.75
360.709	290.75
360.936	314.75
361.163	285.75
361.39	237.75
361.616	229.75
361.843	239.75
362.07	280.75
362.296	276.75
362.523	218.75
362.749	205.75
362.976	193.75
363.203	239.75
363.429	260.75
363.656	227.75
363.882	213.75
364.109	252.75
364.335	224.75
364.562	216.75
364.788	224.75
365.015	266.75
365.241	236.75
365.468	199.75
365.694	197.75
365.92	193.75
366.147	186.75
366.373	199.75
366.599	180.75
366.826	186.75
367.052	198.75
367.278	191.75
367.505	192.75
367.731	227.75
367.957	221.75
368.184	208.75
368.41	196.75
368.636	210.75
368.862	213.75
369.089	208.75
369.315	213.75
369.541	204.75
369.767	195.75
369.993	207.75
370.219	186.75
370.445	199.75
370.672	218.75
370.898	230.75
371.124	225.75
371.35	198.75
371.576	197.75
371.802	225.75
372.028	245.75
372.254	275.75
372.48	236.75
372.706	230.75
372.932	227.75
373.158	238.75
373.384	264.75
373.61	337.75
373.835	349.75
374.061	265.75
374.287	243.75
374.513	296.75
374.739	326.75
374.965	313.75
375.191	337.75
375.416	254.75
375.642	217.75
375.868	252.75
376.094	268.75
376.319	257.75
376.545	248.75
376.771	273.75
376.997	239.75
377.222	202.75
377.448	191.75
377.674	192.75
377.899	180.75
378.125	179.75
378.35	183.75
378.576	192.75
378.802	185.75
379.027	217.75
379.253	203.75
379.478	217.75
379.704	237.75
379.929	233.75
380.155	217.75
380.38	217.75
380.606	227.75
380.831	237.75
381.057	232.75
381.282	219.75
381.507	248.75
381.733	264.75
381.958	293.75
382.184	316.75
382.409	337.75
382.634	338.75
382.86	336.75
383.085	286.75
383.31	236.75
383.535	263.75
383.761	266.75
383.986	248.75
384.211	276.75
384.436	294.75
384.662	228.75
384.887	238.75
385.112	252.75
385.337	249.75
385.562	223.75
385.787	255.75
386.013	288.75
386.238	286.75
386.463	238.75
386.688	236.75
386.913	225.75
387.138	221.75
387.363	233.75
387.588	227.75
387.813	230.75
388.038	250.75
388.263	228.75
388.488	217.75
388.713	247.75
388.938	268.75
389.163	233.75
389.387	213.75
389.612	227.75
389.837	208.75
390.062	217.75
390.287	230.75
390.512	240.75
390.736	217.75
390.961	204.75
391.186	205.75
391.411	207.75
391.636	201.75
391.86	206.75
392.085	226.75
392.31	253.75
392.534	246.75
392.759	246.75
392.984	225.75
393.208	231.75
393.433	216.75
393.658	201.75
393.882	183.75
394.107	195.75
394.331	204.75
394.556	184.75
394.78	213.75
395.005	196.75
395.229	203.75
395.454	217.75
395.678	228.75
395.903	208.75
396.127	215.75
396.352	209.75
396.576	228.75
396.801	230.75
397.025	246.75
397.249	244.75
397.474	232.75
397.698	218.75
397.922	219.75
398.147	205.75
398.371	212.75
398.595	231.75
398.82	230.75
399.044	238.75
399.268	254.75
399.492	269.75
399.717	293.75
399.941	292.75
400.165	271.75
400.389	249.75
400.613	249.75
400.837	239.75
401.062	225.75
401.286	224.75
401.51	221.75
401.734	224.75
401.958	245.75
402.182	207.75
402.406	227.75
402.63	238.75
402.854	246.75
403.078	280.75
403.302	356.75
403.526	356.75
403.75	340.75
403.974	270.75
404.198	253.75
404.422	303.75
404.645	311.75
404.869	337.75
405.093	281.75
405.317	262.75
405.541	265.75
405.765	271.75
405.988	262.75
406.212	272.75
406.436	285.75
406.66	301.75
406.883	276.75
407.107	276.75
407.331	300.75
407.555	289.75
407.778	284.75
408.002	289.75
408.226	271.75
408.449	272.75
408.673	260.75
408.896	239.75
409.12	241.75
409.344	257.75
409.567	263.75
409.791	258.75
410.014	248.75
410.238	242.75
410.461	256.75
410.685	250.75
410.908	230.75
411.132	224.75
411.355	254.75
411.578	242.75
411.802	236.75
412.025	231.75
412.249	262.75
412.472	233.75
412.695	227.75
412.919	226.75
413.142	230.75
413.365	240.75
413.589	243.75
413.812	225.75
414.035	228.75
414.258	229.75
414.482	241.75
414.705	244.75
414.928	235.75
415.151	224.75
415.374	238.75
415.597	219.75
415.821	216.75
416.044	215.75
416.267	209.75
416.49	234.75
416.713	222.75
416.936	206.75
417.159	220.75
417.382	231.75
417.605	221.75
417.828	223.75
418.051	237.75
418.274	236.75
418.497	236.75
418.72	257.75
418.943	232.75
419.166	240.75
419.389	263.75
419.611	250.75
419.834	244.75
420.057	252.75
420.28	266.75
420.503	258.75
420.726	236.75
420.948	229.75
421.171	240.75
421.394	252.75
421.617	232.75
421.839	225.75
422.062	225.75
422.285	221.75
422.507	234.75
422.73	247.75
422.953	247.75
423.175	230.75
423.398	243.75
423.621	264.75
423.843	256.75
424.066	256.75
424.288	231.75
424.511	228.75
424.733	241.75
424.956	249.75
425.178	271.75
425.401	308.75
425.623	335.75
425.846	286.75
426.068	250.75
426.291	264.75
426.513	254.75
426.735	274.75
426.958	240.75
427.18	261.75
427.402	319.75
427.625	348.75
427.847	288.75
428.069	233.75
428.292	244.75
428.514	221.75
428.736	217.75
428.958	268.75
429.181	294.75
429.403	246.75
429.625	228.75
429.847	218.75
430.069	217.75
430.292	230.75
430.514	224.75
430.736	235.75
430.958	288.75
431.18	270.75
431.402	221.75
431.624	228.75
431.846	219.75
432.068	213.75
432.29	211.75
432.512	237.75
432.734	282.75
432.956	253.75
433.178	217.75
433.4	228.75
433.622	206.75
433.844	224.75
434.066	249.75
434.287	249.75
434.509	256.75
434.731	264.75
434.953	231.75
435.175	245.75
435.397	276.75
435.618	221.75
435.84	215.75
436.062	223.75
436.284	223.75
436.505	202.75
436.727	208.75
436.949	216.75
437.17	211.75
437.392	207.75
437.614	210.75
437.835	223.75
438.057	233.75
438.278	224.75
438.5	313.75
438.721	299.75
438.943	233.75
439.165	214.75
439.386	210.75
439.608	217.75
439.829	200.75
440.05	194.75
440.272	229.75
440.493	253.75
440.715	287.75
440.936	228.75
441.158	221.75
441.379	227.75
441.6	252.75
441.822	250.75
442.043	236.75
442.264	229.75
442.486	222.75
442.707	218.75
442.928	233.75
443.149	231.75
443.371	247.75
443.592	234.75
443.813	234.75
444.034	234.75
444.255	239.75
444.476	232.75
444.698	247.75
444.919	271.75
445.14	366.75
445.361	304.75
445.582	258.75
445.803	232.75
446.024	229.75
446.245	242.75
446.466	243.75
446.687	225.75
446.908	231.75
447.129	202.75
447.35	199.75
447.571	196.75
447.792	205.75
448.013	202.75
448.234	211.75
448.455	201.75
448.675	224.75
448.896	204.75
449.117	211.75
449.338	200.75
449.559	207.75
449.779	214.75
450	206.75
450.221	198.75
450.442	215.75
450.662	191.75
450.883	213.75
451.104	222.75
451.324	219.75
451.545	208.75
451.766	204.75
451.986	198.75
452.207	216.75
452.428	203.75
452.648	211.75
452.869	216.75
453.089	216.75
453.31	212.75
453.53	206.75
453.751	196.75
453.971	208.75
454.192	193.75
454.412	204.75
454.633	192.75
454.853	192.75
455.073	205.75
455.294	216.75
455.514	208.75
455.734	199.75
455.955	217.75
456.175	201.75
456.395	198.75
456.616	180.75
456.836	199.75
457.056	178.75
457.276	182.75
457.497	201.75
457.717	192.75
457.937	196.75
458.157	196.75
458.377	199.75
458.598	183.75
458.818	215.75
459.038	204.75
459.258	213.75
459.478	220.75
459.698	234.75
459.918	249.75
460.138	228.75
460.358	239.75
460.578	220.75
460.798	221.75
461.018	227.75
461.238	228.75
461.458	239.75
461.678	250.75
461.898	248.75
462.118	234.75
462.338	262.75
462.558	244.75
462.777	269.75
462.997	270.75
463.217	280.75
463.437	276.75
463.657	284.75
463.876	248.75
464.096	268.75
464.316	269.75
464.536	274.75
464.755	269.75
464.975	288.75
465.195	265.75
465.414	264.75
465.634	243.75
465.854	230.75
466.073	223.75
466.293	231.75
466.512	215.75
466.732	226.75
466.951	228.75
467.171	224.75
467.391	209.75
467.61	212.75
467.829	216.75
468.049	214.75
468.268	205.75
468.488	223.75
468.707	207.75
468.927	234.75
469.146	233.75
469.365	250.75
469.585	230.75
469.804	236.75
470.023	244.75
470.243	240.75
470.462	229.75
470.681	227.75
470.901	210.75
471.12	239.75
471.339	240.75
471.558	219.75
471.777	225.75
471.997	230.75
472.216	232.75
472.435	245.75
472.654	216.75
472.873	222.75
473.092	236.75
473.311	216.75
473.53	227.75
473.749	210.75
473.968	227.75
474.187	220.75
474.406	202.75
474.625	206.75
474.844	233.75
475.063	245.75
475.282	217.75
475.501	238.75
475.72	256.75
475.939	231.75
476.158	241.75
476.377	267.75
476.596	316.75
476.814	301.75
477.033	266.75
477.252	240.75
477.471	250.75
477.69	244.75
477.908	245.75
478.127	267.75
478.346	237.75
478.564	294.75
478.783	259.75
479.002	260.75
479.22	294.75
479.439	282.75
479.658	271.75
479.876	251.75
480.095	277.75
480.313	288.75
480.532	276.75
480.751	264.75
480.969	265.75
481.188	287.75
481.406	292.75
481.624	266.75
481.843	258.75
482.061	232.75
482.28	253.75
482.498	304.75
482.717	291.75
482.935	249.75
483.153	258.75
483.372	242.75
483.59	254.75
483.808	227.75
484.027	249.75
484.245	244.75
484.463	244.75
484.681	257.75
484.9	254.75
485.118	275.75
485.336	245.75
485.554	258.75
485.772	279.75
485.99	263.75
486.209	283.75
486.427	279.75
486.645	260.75
486.863	271.75
487.081	265.75
487.299	310.75
487.517	287.75
487.735	277.75
487.953	280.75
488.171	265.75
488.389	267.75
488.607	262.75
488.825	281.75
489.043	271.75
489.261	283.75
489.479	298.75
489.696	274.75
489.914	254.75
490.132	233.75
490.35	256.75
490.568	264.75
490.786	254.75
491.003	254.75
491.221	273.75
491.439	268.75
491.657	254.75
491.874	279.75
492.092	286.75
492.31	329.75
492.527	336.75
492.745	315.75
492.963	282.75
493.18	276.75
493.398	262.75
493.615	277.75
493.833	268.75
494.05	287.75
494.268	277.75
494.485	280.75
494.703	270.75
494.92	270.75
495.138	279.75
495.355	260.75
495.573	284.75
495.79	287.75
496.008	344.75
496.225	298.75
496.442	281.75
496.66	280.75
496.877	292.75
497.094	279.75
497.312	284.75
497.529	278.75
497.746	287.75
497.963	305.75
498.181	304.75
498.398	323.75
498.615	331.75
498.832	345.75
499.049	357.75
499.267	348.75
499.484	371.75
499.701	402.75
499.918	434.75
500.135	494.75
500.352	538.75
500.569	561.75
500.786	550.75
501.003	534.75
501.22	450.75
501.437	426.75
501.654	400.75
501.871	381.75
502.088	358.75
502.305	328.75
502.522	345.75
