Data from NickelSpatula.Lamp.E5.5.P2_HRD10591_11-51-42-559.txt Node
Date: Tue Jul 23 11:51:42 EDT 2019
User: cochatt
Spectrometer: HR+D1059
Trigger mode: 1
Integration Time (sec): 1.000000E-1
Scans to average: 1
Electric dark correction enabled: true
Nonlinearity correction enabled: false
Boxcar width: 0
XAxis mode: Wavelengths
Number of Pixels in Spectrum: 2048
>>>>>Begin Spectral Data<<<<<
223.165	-21.19
223.4	-21.19
223.635	-21.19
223.869	-21.19
224.104	-14.19
224.338	-10.19
224.573	-21.19
224.808	-24.19
225.042	10.81
225.277	1.81
225.511	-2.19
225.746	8.81
225.98	2.81
226.215	4.81
226.449	8.81
226.683	28.81
226.918	28.81
227.152	18.81
227.387	17.81
227.621	36.81
227.856	49.81
228.09	46.81
228.324	46.81
228.559	51.81
228.793	58.81
229.027	65.81
229.262	70.81
229.496	76.81
229.73	75.81
229.964	80.81
230.199	95.81
230.433	99.81
230.667	92.81
230.901	96.81
231.136	88.81
231.37	89.81
231.604	88.81
231.838	120.81
232.072	96.81
232.306	108.81
232.541	98.81
232.775	102.81
233.009	112.81
233.243	118.81
233.477	120.81
233.711	109.81
233.945	114.81
234.179	114.81
234.413	114.81
234.647	132.81
234.881	145.81
235.115	130.81
235.349	100.81
235.583	132.81
235.817	125.81
236.051	126.81
236.285	151.81
236.519	131.81
236.753	128.81
236.987	123.81
237.221	122.81
237.455	127.81
237.689	118.81
237.922	114.81
238.156	131.81
238.39	158.81
238.624	154.81
238.858	149.81
239.091	156.81
239.325	158.81
239.559	129.81
239.793	147.81
240.027	178.81
240.26	172.81
240.494	168.81
240.728	149.81
240.961	186.81
241.195	173.81
241.429	190.81
241.662	171.81
241.896	154.81
242.13	150.81
242.363	125.81
242.597	128.81
242.83	169.81
243.064	153.81
243.298	174.81
243.531	153.81
243.765	159.81
243.998	176.81
244.232	157.81
244.465	169.81
244.699	155.81
244.932	171.81
245.166	163.81
245.399	164.81
245.633	138.81
245.866	158.81
246.099	163.81
246.333	169.81
246.566	200.81
246.8	188.81
247.033	173.81
247.266	175.81
247.5	174.81
247.733	163.81
247.966	169.81
248.2	178.81
248.433	190.81
248.666	193.81
248.899	203.81
249.133	203.81
249.366	213.81
249.599	224.81
249.832	221.81
250.066	194.81
250.299	220.81
250.532	204.81
250.765	191.81
250.998	178.81
251.231	190.81
251.465	195.81
251.698	200.81
251.931	176.81
252.164	190.81
252.397	227.81
252.63	239.81
252.863	238.81
253.096	253.81
253.329	247.81
253.562	240.81
253.795	274.81
254.028	302.81
254.261	276.81
254.494	266.81
254.727	245.81
254.96	232.81
255.193	258.81
255.426	245.81
255.659	200.81
255.892	181.81
256.124	217.81
256.357	247.81
256.59	280.81
256.823	255.81
257.056	232.81
257.289	201.81
257.521	226.81
257.754	267.81
257.987	291.81
258.22	260.81
258.452	225.81
258.685	261.81
258.918	309.81
259.151	288.81
259.383	299.81
259.616	327.81
259.849	316.81
260.081	343.81
260.314	386.81
260.547	326.81
260.779	326.81
261.012	359.81
261.244	326.81
261.477	343.81
261.71	319.81
261.942	300.81
262.175	290.81
262.407	262.81
262.64	271.81
262.872	335.81
263.105	334.81
263.337	349.81
263.57	307.81
263.802	251.81
264.035	228.81
264.267	218.81
264.499	204.81
264.732	180.81
264.964	188.81
265.197	190.81
265.429	198.81
265.661	205.81
265.894	208.81
266.126	233.81
266.358	223.81
266.591	273.81
266.823	308.81
267.055	297.81
267.287	267.81
267.52	274.81
267.752	281.81
267.984	316.81
268.216	303.81
268.448	262.81
268.681	236.81
268.913	267.81
269.145	290.81
269.377	293.81
269.609	290.81
269.841	271.81
270.073	268.81
270.306	308.81
270.538	297.81
270.77	312.81
271.002	321.81
271.234	331.81
271.466	324.81
271.698	309.81
271.93	289.81
272.162	302.81
272.394	304.81
272.626	288.81
272.858	295.81
273.09	310.81
273.322	269.81
273.553	262.81
273.785	297.81
274.017	381.81
274.249	460.81
274.481	474.81
274.713	498.81
274.945	597.81
275.176	590.81
275.408	522.81
275.64	502.81
275.872	506.81
276.104	438.81
276.335	388.81
276.567	367.81
276.799	394.81
277.031	414.81
277.262	345.81
277.494	268.81
277.726	269.81
277.957	281.81
278.189	302.81
278.421	313.81
278.652	298.81
278.884	280.81
279.115	273.81
279.347	271.81
279.579	271.81
279.81	273.81
280.042	270.81
280.273	270.81
280.505	256.81
280.736	243.81
280.968	242.81
281.199	243.81
281.431	271.81
281.662	274.81
281.894	269.81
282.125	273.81
282.356	290.81
282.588	289.81
282.819	281.81
283.051	303.81
283.282	340.81
283.513	392.81
283.745	432.81
283.976	409.81
284.207	394.81
284.439	412.81
284.67	404.81
284.901	347.81
285.132	380.81
285.364	402.81
285.595	368.81
285.826	377.81
286.057	392.81
286.288	372.81
286.52	396.81
286.751	395.81
286.982	436.81
287.213	362.81
287.444	370.81
287.675	368.81
287.906	376.81
288.138	345.81
288.369	295.81
288.6	288.81
288.831	299.81
289.062	321.81
289.293	366.81
289.524	349.81
289.755	331.81
289.986	343.81
290.217	309.81
290.448	262.81
290.679	236.81
290.91	206.81
291.141	228.81
291.371	229.81
291.602	236.81
291.833	211.81
292.064	226.81
292.295	258.81
292.526	306.81
292.757	315.81
292.987	328.81
293.218	337.81
293.449	347.81
293.68	354.81
293.91	343.81
294.141	368.81
294.372	349.81
294.603	314.81
294.833	337.81
295.064	388.81
295.295	358.81
295.525	283.81
295.756	264.81
295.987	224.81
296.217	237.81
296.448	228.81
296.679	263.81
296.909	262.81
297.14	284.81
297.37	289.81
297.601	291.81
297.831	255.81
298.062	277.81
298.292	325.81
298.523	337.81
298.753	368.81
298.984	342.81
299.214	293.81
299.445	251.81
299.675	243.81
299.905	234.81
300.136	240.81
300.366	269.81
300.597	263.81
300.827	241.81
301.057	238.81
301.288	235.81
301.518	278.81
301.748	276.81
301.979	286.81
302.209	302.81
302.439	313.81
302.669	284.81
302.9	282.81
303.13	261.81
303.36	260.81
303.59	234.81
303.82	250.81
304.051	267.81
304.281	281.81
304.511	283.81
304.741	248.81
304.971	265.81
305.201	275.81
305.431	286.81
305.661	245.81
305.891	259.81
306.121	245.81
306.352	217.81
306.582	240.81
306.812	211.81
307.042	237.81
307.272	202.81
307.502	181.81
307.731	208.81
307.961	220.81
308.191	200.81
308.421	223.81
308.651	194.81
308.881	187.81
309.111	185.81
309.341	194.81
309.571	241.81
309.8	221.81
310.03	215.81
310.26	228.81
310.49	225.81
310.72	207.81
310.949	215.81
311.179	199.81
311.409	224.81
311.639	238.81
311.868	299.81
312.098	338.81
312.328	390.81
312.557	371.81
312.787	376.81
313.017	336.81
313.246	387.81
313.476	396.81
313.706	327.81
313.935	279.81
314.165	246.81
314.394	226.81
314.624	211.81
314.853	236.81
315.083	234.81
315.312	239.81
315.542	248.81
315.771	235.81
316.001	185.81
316.23	204.81
316.46	199.81
316.689	204.81
316.919	212.81
317.148	212.81
317.377	214.81
317.607	208.81
317.836	215.81
318.065	242.81
318.295	270.81
318.524	260.81
318.753	226.81
318.983	204.81
319.212	210.81
319.441	218.81
319.67	234.81
319.9	250.81
320.129	241.81
320.358	225.81
320.587	220.81
320.816	209.81
321.046	247.81
321.275	272.81
321.504	267.81
321.733	262.81
321.962	268.81
322.191	256.81
322.42	233.81
322.649	247.81
322.878	263.81
323.108	266.81
323.337	252.81
323.566	258.81
323.795	217.81
324.024	229.81
324.253	219.81
324.482	220.81
324.71	255.81
324.939	285.81
325.168	257.81
325.397	219.81
325.626	226.81
325.855	210.81
326.084	219.81
326.313	208.81
326.542	196.81
326.77	217.81
326.999	228.81
327.228	213.81
327.457	213.81
327.686	235.81
327.914	210.81
328.143	214.81
328.372	194.81
328.6	200.81
328.829	191.81
329.058	211.81
329.287	209.81
329.515	228.81
329.744	214.81
329.972	203.81
330.201	195.81
330.43	202.81
330.658	235.81
330.887	252.81
331.115	228.81
331.344	222.81
331.572	232.81
331.801	203.81
332.03	214.81
332.258	223.81
332.486	227.81
332.715	243.81
332.943	225.81
333.172	231.81
333.4	237.81
333.629	246.81
333.857	266.81
334.085	251.81
334.314	274.81
334.542	251.81
334.771	243.81
334.999	239.81
335.227	234.81
335.455	226.81
335.684	251.81
335.912	255.81
336.14	280.81
336.369	286.81
336.597	275.81
336.825	291.81
337.053	326.81
337.281	297.81
337.51	223.81
337.738	222.81
337.966	259.81
338.194	248.81
338.422	251.81
338.65	207.81
338.878	217.81
339.106	214.81
339.334	239.81
339.562	244.81
339.79	227.81
340.018	222.81
340.246	239.81
340.474	266.81
340.702	263.81
340.93	292.81
341.158	274.81
341.386	256.81
341.614	250.81
341.842	244.81
342.07	258.81
342.298	290.81
342.526	298.81
342.754	283.81
342.981	227.81
343.209	240.81
343.437	254.81
343.665	280.81
343.893	283.81
344.12	306.81
344.348	350.81
344.576	341.81
344.804	284.81
345.031	240.81
345.259	244.81
345.487	235.81
345.714	228.81
345.942	254.81
346.17	258.81
346.397	273.81
346.625	236.81
346.853	231.81
347.08	212.81
347.308	233.81
347.535	257.81
347.763	282.81
347.99	244.81
348.218	232.81
348.445	224.81
348.673	234.81
348.9	236.81
349.128	263.81
349.355	256.81
349.583	232.81
349.81	234.81
350.037	210.81
350.265	221.81
350.492	191.81
350.72	204.81
350.947	201.81
351.174	211.81
351.402	210.81
351.629	235.81
351.856	209.81
352.083	208.81
352.311	224.81
352.538	239.81
352.765	244.81
352.992	259.81
353.22	224.81
353.447	230.81
353.674	223.81
353.901	208.81
354.128	236.81
354.355	218.81
354.583	226.81
354.81	239.81
355.037	254.81
355.264	243.81
355.491	260.81
355.718	233.81
355.945	249.81
356.172	260.81
356.399	241.81
356.626	282.81
356.853	331.81
357.08	340.81
357.307	370.81
357.534	306.81
357.761	295.81
357.988	378.81
358.215	436.81
358.441	392.81
358.668	336.81
358.895	318.81
359.122	283.81
359.349	284.81
359.576	318.81
359.802	278.81
360.029	225.81
360.256	248.81
360.483	291.81
360.709	329.81
360.936	357.81
361.163	330.81
361.39	265.81
361.616	243.81
361.843	264.81
362.07	302.81
362.296	279.81
362.523	250.81
362.749	227.81
362.976	235.81
363.203	260.81
363.429	305.81
363.656	257.81
363.882	232.81
364.109	243.81
364.335	230.81
364.562	230.81
364.788	253.81
365.015	287.81
365.241	257.81
365.468	242.81
365.694	219.81
365.92	208.81
366.147	194.81
366.373	198.81
366.599	199.81
366.826	203.81
367.052	199.81
367.278	202.81
367.505	186.81
367.731	223.81
367.957	227.81
368.184	229.81
368.41	224.81
368.636	234.81
368.862	250.81
369.089	245.81
369.315	246.81
369.541	200.81
369.767	210.81
369.993	210.81
370.219	206.81
370.445	233.81
370.672	225.81
370.898	252.81
371.124	244.81
371.35	216.81
371.576	218.81
371.802	232.81
372.028	245.81
372.254	288.81
372.48	258.81
372.706	246.81
372.932	252.81
373.158	264.81
373.384	302.81
373.61	370.81
373.835	378.81
374.061	303.81
374.287	262.81
374.513	325.81
374.739	350.81
374.965	339.81
375.191	372.81
375.416	275.81
375.642	242.81
375.868	261.81
376.094	298.81
376.319	276.81
376.545	296.81
376.771	299.81
376.997	282.81
377.222	227.81
377.448	200.81
377.674	201.81
377.899	198.81
378.125	200.81
378.35	199.81
378.576	217.81
378.802	226.81
379.027	236.81
379.253	232.81
379.478	230.81
379.704	254.81
379.929	260.81
380.155	276.81
380.38	236.81
380.606	226.81
380.831	248.81
381.057	250.81
381.282	245.81
381.507	257.81
381.733	315.81
381.958	319.81
382.184	335.81
382.409	366.81
382.634	347.81
382.86	338.81
383.085	330.81
383.31	276.81
383.535	286.81
383.761	280.81
383.986	269.81
384.211	313.81
384.436	319.81
384.662	256.81
384.887	255.81
385.112	231.81
385.337	272.81
385.562	259.81
385.787	280.81
386.013	288.81
386.238	282.81
386.463	258.81
386.688	240.81
386.913	233.81
387.138	212.81
387.363	229.81
387.588	242.81
387.813	262.81
388.038	259.81
388.263	234.81
388.488	240.81
388.713	258.81
388.938	279.81
389.163	257.81
389.387	225.81
389.612	223.81
389.837	219.81
390.062	244.81
390.287	240.81
390.512	218.81
390.736	219.81
390.961	228.81
391.186	220.81
391.411	227.81
391.636	232.81
391.86	236.81
392.085	265.81
392.31	269.81
392.534	235.81
392.759	240.81
392.984	252.81
393.208	238.81
393.433	235.81
393.658	238.81
393.882	215.81
394.107	224.81
394.331	209.81
394.556	210.81
394.78	222.81
395.005	227.81
395.229	213.81
395.454	217.81
395.678	226.81
395.903	220.81
396.127	208.81
396.352	214.81
396.576	228.81
396.801	256.81
397.025	246.81
397.249	257.81
397.474	237.81
397.698	226.81
397.922	243.81
398.147	221.81
398.371	219.81
398.595	241.81
398.82	244.81
399.044	239.81
399.268	262.81
399.492	290.81
399.717	287.81
399.941	287.81
400.165	274.81
400.389	272.81
400.613	266.81
400.837	244.81
401.062	227.81
401.286	211.81
401.51	227.81
401.734	229.81
401.958	221.81
402.182	226.81
402.406	230.81
402.63	221.81
402.854	256.81
403.078	298.81
403.302	380.81
403.526	389.81
403.75	338.81
403.974	272.81
404.198	275.81
404.422	333.81
404.645	333.81
404.869	364.81
405.093	306.81
405.317	276.81
405.541	259.81
405.765	259.81
405.988	259.81
406.212	277.81
406.436	306.81
406.66	318.81
406.883	280.81
407.107	293.81
407.331	318.81
407.555	310.81
407.778	291.81
408.002	296.81
408.226	279.81
408.449	269.81
408.673	275.81
408.896	239.81
409.12	252.81
409.344	258.81
409.567	255.81
409.791	265.81
410.014	252.81
410.238	262.81
410.461	263.81
410.685	243.81
410.908	252.81
411.132	248.81
411.355	231.81
411.578	232.81
411.802	248.81
412.025	250.81
412.249	259.81
412.472	239.81
412.695	261.81
412.919	258.81
413.142	271.81
413.365	246.81
413.589	277.81
413.812	248.81
414.035	229.81
414.258	218.81
414.482	268.81
414.705	264.81
414.928	236.81
415.151	241.81
415.374	248.81
415.597	240.81
415.821	227.81
416.044	244.81
416.267	224.81
416.49	222.81
416.713	221.81
416.936	235.81
417.159	224.81
417.382	223.81
417.605	239.81
417.828	245.81
418.051	252.81
418.274	261.81
418.497	234.81
418.72	251.81
418.943	246.81
419.166	256.81
419.389	252.81
419.611	260.81
419.834	258.81
420.057	294.81
420.28	274.81
420.503	258.81
420.726	242.81
420.948	235.81
421.171	246.81
421.394	251.81
421.617	229.81
421.839	240.81
422.062	248.81
422.285	246.81
422.507	239.81
422.73	237.81
422.953	247.81
423.175	246.81
423.398	257.81
423.621	278.81
423.843	275.81
424.066	272.81
424.288	245.81
424.511	244.81
424.733	261.81
424.956	267.81
425.178	288.81
425.401	316.81
425.623	356.81
425.846	302.81
426.068	256.81
426.291	274.81
426.513	266.81
426.735	255.81
426.958	262.81
427.18	259.81
427.402	336.81
427.625	373.81
427.847	321.81
428.069	250.81
428.292	233.81
428.514	224.81
428.736	240.81
428.958	250.81
429.181	321.81
429.403	265.81
429.625	246.81
429.847	203.81
430.069	242.81
430.292	226.81
430.514	244.81
430.736	256.81
430.958	286.81
431.18	262.81
431.402	218.81
431.624	227.81
431.846	211.81
432.068	215.81
432.29	227.81
432.512	230.81
432.734	278.81
432.956	254.81
433.178	235.81
433.4	229.81
433.622	240.81
433.844	250.81
434.066	243.81
434.287	240.81
434.509	239.81
434.731	268.81
434.953	241.81
435.175	259.81
435.397	267.81
435.618	248.81
435.84	220.81
436.062	241.81
436.284	244.81
436.505	215.81
436.727	216.81
436.949	218.81
437.17	225.81
437.392	230.81
437.614	232.81
437.835	220.81
438.057	239.81
438.278	245.81
438.5	300.81
438.721	311.81
438.943	231.81
439.165	231.81
439.386	219.81
439.608	211.81
439.829	228.81
440.05	235.81
440.272	220.81
440.493	232.81
440.715	290.81
440.936	244.81
441.158	217.81
441.379	234.81
441.6	267.81
441.822	265.81
442.043	250.81
442.264	244.81
442.486	243.81
442.707	236.81
442.928	236.81
443.149	233.81
443.371	239.81
443.592	240.81
443.813	242.81
444.034	236.81
444.255	238.81
444.476	259.81
444.698	268.81
444.919	254.81
445.14	350.81
445.361	302.81
445.582	265.81
445.803	242.81
446.024	247.81
446.245	279.81
446.466	236.81
446.687	234.81
446.908	240.81
447.129	228.81
447.35	231.81
447.571	209.81
447.792	211.81
448.013	206.81
448.234	200.81
448.455	220.81
448.675	200.81
448.896	223.81
449.117	213.81
449.338	212.81
449.559	225.81
449.779	230.81
450	230.81
450.221	219.81
450.442	224.81
450.662	225.81
450.883	229.81
451.104	222.81
451.324	219.81
451.545	221.81
451.766	221.81
451.986	227.81
452.207	196.81
452.428	212.81
452.648	206.81
452.869	213.81
453.089	232.81
453.31	240.81
453.53	220.81
453.751	218.81
453.971	209.81
454.192	215.81
454.412	222.81
454.633	207.81
454.853	219.81
455.073	208.81
455.294	202.81
455.514	192.81
455.734	216.81
455.955	222.81
456.175	221.81
456.395	208.81
456.616	187.81
456.836	198.81
457.056	198.81
457.276	199.81
457.497	195.81
457.717	185.81
457.937	202.81
458.157	217.81
458.377	230.81
458.598	215.81
458.818	204.81
459.038	212.81
459.258	229.81
459.478	235.81
459.698	230.81
459.918	234.81
460.138	252.81
460.358	250.81
460.578	222.81
460.798	228.81
461.018	248.81
461.238	233.81
461.458	244.81
461.678	256.81
461.898	248.81
462.118	243.81
462.338	259.81
462.558	254.81
462.777	281.81
462.997	302.81
463.217	287.81
463.437	291.81
463.657	289.81
463.876	271.81
464.096	267.81
464.316	295.81
464.536	294.81
464.755	299.81
464.975	297.81
465.195	262.81
465.414	273.81
465.634	238.81
465.854	243.81
466.073	218.81
466.293	225.81
466.512	234.81
466.732	247.81
466.951	256.81
467.171	236.81
467.391	202.81
467.61	227.81
467.829	234.81
468.049	216.81
468.268	229.81
468.488	239.81
468.707	225.81
468.927	259.81
469.146	264.81
469.365	266.81
469.585	234.81
469.804	258.81
470.023	272.81
470.243	257.81
470.462	247.81
470.681	236.81
470.901	228.81
471.12	239.81
471.339	249.81
471.558	231.81
471.777	235.81
471.997	255.81
472.216	256.81
472.435	249.81
472.654	236.81
472.873	227.81
473.092	248.81
473.311	263.81
473.53	244.81
473.749	250.81
473.968	258.81
474.187	242.81
474.406	227.81
474.625	236.81
474.844	234.81
475.063	257.81
475.282	250.81
475.501	269.81
475.72	271.81
475.939	269.81
476.158	265.81
476.377	298.81
476.596	337.81
476.814	342.81
477.033	311.81
477.252	260.81
477.471	258.81
477.69	251.81
477.908	272.81
478.127	287.81
478.346	263.81
478.564	288.81
478.783	273.81
479.002	283.81
479.22	297.81
479.439	332.81
479.658	286.81
479.876	265.81
480.095	283.81
480.313	318.81
480.532	291.81
480.751	284.81
480.969	283.81
481.188	302.81
481.406	304.81
481.624	290.81
481.843	280.81
482.061	265.81
482.28	286.81
482.498	342.81
482.717	355.81
482.935	288.81
483.153	277.81
483.372	252.81
483.59	260.81
483.808	272.81
484.027	265.81
484.245	256.81
484.463	254.81
484.681	255.81
484.9	269.81
485.118	283.81
485.336	262.81
485.554	264.81
485.772	248.81
485.99	282.81
486.209	290.81
486.427	295.81
486.645	293.81
486.863	293.81
487.081	287.81
487.299	303.81
487.517	323.81
487.735	288.81
487.953	272.81
488.171	311.81
488.389	265.81
488.607	264.81
488.825	280.81
489.043	307.81
489.261	310.81
489.479	331.81
489.696	294.81
489.914	274.81
490.132	270.81
490.35	274.81
490.568	257.81
490.786	277.81
491.003	266.81
491.221	268.81
491.439	289.81
491.657	277.81
491.874	298.81
492.092	331.81
492.31	357.81
492.527	361.81
492.745	326.81
492.963	308.81
493.18	292.81
493.398	308.81
493.615	284.81
493.833	289.81
494.05	291.81
494.268	308.81
494.485	298.81
494.703	283.81
494.92	304.81
495.138	264.81
495.355	284.81
495.573	297.81
495.79	316.81
496.008	382.81
496.225	324.81
496.442	314.81
496.66	299.81
496.877	322.81
497.094	328.81
497.312	297.81
497.529	298.81
497.746	303.81
497.963	312.81
498.181	336.81
498.398	369.81
498.615	370.81
498.832	383.81
499.049	413.81
499.267	382.81
499.484	369.81
499.701	403.81
499.918	450.81
500.135	475.81
500.352	551.81
500.569	553.81
500.786	555.81
501.003	537.81
501.22	469.81
501.437	433.81
501.654	402.81
501.871	385.81
502.088	369.81
502.305	353.81
502.522	344.81
