Data from NickelSpatula_HRD10591_16-35-39-126.txt Node
Date: Mon Jul 22 16:35:39 EDT 2019
User: cochatt
Spectrometer: HR+D1059
Trigger mode: 1
Integration Time (sec): 1.000000E-1
Scans to average: 1
Electric dark correction enabled: true
Nonlinearity correction enabled: false
Boxcar width: 0
XAxis mode: Wavelengths
Number of Pixels in Spectrum: 2048
>>>>>Begin Spectral Data<<<<<
223.165	-16.19
223.4	-16.19
223.635	-16.19
223.869	-21.19
224.104	-10.19
224.338	-21.19
224.573	-15.19
224.808	-14.19
225.042	-11.19
225.277	2.81
225.511	8.81
225.746	-8.19
225.98	18.81
226.215	8.81
226.449	12.81
226.683	14.81
226.918	20.81
227.152	29.81
227.387	47.81
227.621	40.81
227.856	45.81
228.09	42.81
228.324	40.81
228.559	48.81
228.793	55.81
229.027	67.81
229.262	71.81
229.496	62.81
229.73	76.81
229.964	89.81
230.199	89.81
230.433	98.81
230.667	100.81
230.901	93.81
231.136	101.81
231.37	82.81
231.604	94.81
231.838	100.81
232.072	97.81
232.306	95.81
232.541	93.81
232.775	107.81
233.009	117.81
233.243	110.81
233.477	97.81
233.711	123.81
233.945	103.81
234.179	107.81
234.413	106.81
234.647	128.81
234.881	128.81
235.115	135.81
235.349	126.81
235.583	118.81
235.817	95.81
236.051	141.81
236.285	107.81
236.519	137.81
236.753	129.81
236.987	128.81
237.221	127.81
237.455	114.81
237.689	135.81
237.922	135.81
238.156	125.81
238.39	146.81
238.624	147.81
238.858	131.81
239.091	140.81
239.325	137.81
239.559	134.81
239.793	151.81
240.027	157.81
240.26	141.81
240.494	159.81
240.728	135.81
240.961	151.81
241.195	142.81
241.429	141.81
241.662	154.81
241.896	128.81
242.13	133.81
242.363	123.81
242.597	130.81
242.83	141.81
243.064	154.81
243.298	162.81
243.531	151.81
243.765	160.81
243.998	163.81
244.232	153.81
244.465	160.81
244.699	140.81
244.932	161.81
245.166	164.81
245.399	141.81
245.633	129.81
245.866	147.81
246.099	154.81
246.333	155.81
246.566	172.81
246.8	195.81
247.033	159.81
247.266	171.81
247.5	168.81
247.733	152.81
247.966	171.81
248.2	146.81
248.433	170.81
248.666	195.81
248.899	184.81
249.133	176.81
249.366	195.81
249.599	207.81
249.832	194.81
250.066	192.81
250.299	187.81
250.532	161.81
250.765	159.81
250.998	171.81
251.231	159.81
251.465	176.81
251.698	179.81
251.931	163.81
252.164	176.81
252.397	194.81
252.63	196.81
252.863	236.81
253.096	210.81
253.329	219.81
253.562	225.81
253.795	261.81
254.028	275.81
254.261	277.81
254.494	253.81
254.727	223.81
254.96	231.81
255.193	212.81
255.426	234.81
255.659	195.81
255.892	201.81
256.124	199.81
256.357	223.81
256.59	251.81
256.823	230.81
257.056	186.81
257.289	200.81
257.521	205.81
257.754	220.81
257.987	249.81
258.22	231.81
258.452	201.81
258.685	230.81
258.918	229.81
259.151	245.81
259.383	265.81
259.616	295.81
259.849	296.81
260.081	300.81
260.314	319.81
260.547	284.81
260.779	287.81
261.012	317.81
261.244	294.81
261.477	298.81
261.71	279.81
261.942	250.81
262.175	244.81
262.407	228.81
262.64	252.81
262.872	291.81
263.105	296.81
263.337	320.81
263.57	273.81
263.802	214.81
264.035	200.81
264.267	208.81
264.499	161.81
264.732	156.81
264.964	155.81
265.197	175.81
265.429	176.81
265.661	193.81
265.894	189.81
266.126	195.81
266.358	213.81
266.591	241.81
266.823	264.81
267.055	263.81
267.287	233.81
267.52	245.81
267.752	271.81
267.984	282.81
268.216	268.81
268.448	232.81
268.681	215.81
268.913	229.81
269.145	255.81
269.377	255.81
269.609	242.81
269.841	257.81
270.073	255.81
270.306	279.81
270.538	289.81
270.77	285.81
271.002	282.81
271.234	288.81
271.466	298.81
271.698	266.81
271.93	263.81
272.162	283.81
272.394	274.81
272.626	269.81
272.858	259.81
273.09	264.81
273.322	253.81
273.553	230.81
273.785	264.81
274.017	330.81
274.249	393.81
274.481	411.81
274.713	416.81
274.945	467.81
275.176	505.81
275.408	476.81
275.64	442.81
275.872	439.81
276.104	378.81
276.335	336.81
276.567	343.81
276.799	343.81
277.031	364.81
277.262	313.81
277.494	229.81
277.726	241.81
277.957	251.81
278.189	265.81
278.421	282.81
278.652	259.81
278.884	264.81
279.115	234.81
279.347	240.81
279.579	244.81
279.81	249.81
280.042	234.81
280.273	245.81
280.505	209.81
280.736	205.81
280.968	207.81
281.199	208.81
281.431	247.81
281.662	221.81
281.894	225.81
282.125	246.81
282.356	263.81
282.588	293.81
282.819	239.81
283.051	245.81
283.282	305.81
283.513	341.81
283.745	373.81
283.976	367.81
284.207	353.81
284.439	375.81
284.67	356.81
284.901	309.81
285.132	324.81
285.364	362.81
285.595	324.81
285.826	353.81
286.057	361.81
286.288	361.81
286.52	349.81
286.751	354.81
286.982	370.81
287.213	333.81
287.444	313.81
287.675	337.81
287.906	348.81
288.138	283.81
288.369	267.81
288.6	235.81
288.831	257.81
289.062	300.81
289.293	313.81
289.524	311.81
289.755	301.81
289.986	307.81
290.217	283.81
290.448	221.81
290.679	202.81
290.91	195.81
291.141	195.81
291.371	189.81
291.602	188.81
291.833	189.81
292.064	203.81
292.295	231.81
292.526	249.81
292.757	259.81
292.987	288.81
293.218	285.81
293.449	303.81
293.68	325.81
293.91	307.81
294.141	305.81
294.372	309.81
294.603	264.81
294.833	295.81
295.064	324.81
295.295	329.81
295.525	250.81
295.756	209.81
295.987	202.81
296.217	215.81
296.448	200.81
296.679	213.81
296.909	190.81
297.14	219.81
297.37	275.81
297.601	248.81
297.831	215.81
298.062	219.81
298.292	255.81
298.523	275.81
298.753	308.81
298.984	284.81
299.214	234.81
299.445	206.81
299.675	195.81
299.905	195.81
300.136	204.81
300.366	203.81
300.597	208.81
300.827	196.81
301.057	186.81
301.288	173.81
301.518	193.81
301.748	227.81
301.979	239.81
302.209	240.81
302.439	225.81
302.669	217.81
302.9	225.81
303.13	217.81
303.36	216.81
303.59	206.81
303.82	204.81
304.051	226.81
304.281	262.81
304.511	239.81
304.741	211.81
304.971	215.81
305.201	213.81
305.431	248.81
305.661	186.81
305.891	184.81
306.121	199.81
306.352	188.81
306.582	180.81
306.812	168.81
307.042	169.81
307.272	160.81
307.502	165.81
307.731	164.81
307.961	177.81
308.191	172.81
308.421	163.81
308.651	166.81
308.881	164.81
309.111	158.81
309.341	160.81
309.571	176.81
309.8	170.81
310.03	167.81
310.26	191.81
310.49	192.81
310.72	164.81
310.949	167.81
311.179	176.81
311.409	180.81
311.639	207.81
311.868	251.81
312.098	315.81
312.328	338.81
312.557	315.81
312.787	320.81
313.017	291.81
313.246	323.81
313.476	327.81
313.706	268.81
313.935	231.81
314.165	204.81
314.394	171.81
314.624	181.81
314.853	193.81
315.083	180.81
315.312	185.81
315.542	201.81
315.771	171.81
316.001	168.81
316.23	159.81
316.46	160.81
316.689	156.81
316.919	164.81
317.148	160.81
317.377	181.81
317.607	161.81
317.836	163.81
318.065	209.81
318.295	227.81
318.524	212.81
318.753	186.81
318.983	171.81
319.212	147.81
319.441	163.81
319.67	185.81
319.9	223.81
320.129	200.81
320.358	187.81
320.587	170.81
320.816	183.81
321.046	199.81
321.275	224.81
321.504	232.81
321.733	218.81
321.962	213.81
322.191	200.81
322.42	191.81
322.649	195.81
322.878	212.81
323.108	220.81
323.337	208.81
323.566	218.81
323.795	196.81
324.024	193.81
324.253	184.81
324.482	171.81
324.71	176.81
324.939	194.81
325.168	192.81
325.397	196.81
325.626	188.81
325.855	177.81
326.084	164.81
326.313	160.81
326.542	166.81
326.77	176.81
326.999	189.81
327.228	183.81
327.457	164.81
327.686	184.81
327.914	173.81
328.143	175.81
328.372	152.81
328.6	154.81
328.829	175.81
329.058	166.81
329.287	161.81
329.515	169.81
329.744	170.81
329.972	161.81
330.201	158.81
330.43	145.81
330.658	175.81
330.887	197.81
331.115	174.81
331.344	191.81
331.572	171.81
331.801	160.81
332.03	179.81
332.258	158.81
332.486	168.81
332.715	187.81
332.943	162.81
333.172	166.81
333.4	191.81
333.629	187.81
333.857	211.81
334.085	197.81
334.314	193.81
334.542	188.81
334.771	187.81
334.999	191.81
335.227	179.81
335.455	177.81
335.684	188.81
335.912	216.81
336.14	225.81
336.369	207.81
336.597	216.81
336.825	237.81
337.053	252.81
337.281	225.81
337.51	181.81
337.738	171.81
337.966	195.81
338.194	216.81
338.422	201.81
338.65	171.81
338.878	164.81
339.106	166.81
339.334	176.81
339.562	187.81
339.79	181.81
340.018	180.81
340.246	194.81
340.474	211.81
340.702	211.81
340.93	225.81
341.158	219.81
341.386	191.81
341.614	182.81
341.842	176.81
342.07	217.81
342.298	247.81
342.526	233.81
342.754	189.81
342.981	199.81
343.209	186.81
343.437	194.81
343.665	223.81
343.893	219.81
344.12	227.81
344.348	275.81
344.576	239.81
344.804	203.81
345.031	189.81
345.259	170.81
345.487	165.81
345.714	178.81
345.942	194.81
346.17	204.81
346.397	219.81
346.625	180.81
346.853	175.81
347.08	179.81
347.308	188.81
347.535	214.81
347.763	203.81
347.99	157.81
348.218	192.81
348.445	197.81
348.673	175.81
348.9	173.81
349.128	205.81
349.355	205.81
349.583	189.81
349.81	186.81
350.037	176.81
350.265	172.81
350.492	164.81
350.72	145.81
350.947	153.81
351.174	172.81
351.402	168.81
351.629	183.81
351.856	168.81
352.083	160.81
352.311	168.81
352.538	203.81
352.765	205.81
352.992	179.81
353.22	185.81
353.447	193.81
353.674	169.81
353.901	184.81
354.128	182.81
354.355	184.81
354.583	181.81
354.81	196.81
355.037	206.81
355.264	189.81
355.491	213.81
355.718	198.81
355.945	195.81
356.172	197.81
356.399	191.81
356.626	219.81
356.853	252.81
357.08	283.81
357.307	291.81
357.534	221.81
357.761	237.81
357.988	280.81
358.215	309.81
358.441	297.81
358.668	279.81
358.895	241.81
359.122	203.81
359.349	193.81
359.576	227.81
359.802	202.81
360.029	156.81
360.256	193.81
360.483	225.81
360.709	258.81
360.936	285.81
361.163	249.81
361.39	204.81
361.616	181.81
361.843	216.81
362.07	225.81
362.296	217.81
362.523	175.81
362.749	177.81
362.976	182.81
363.203	200.81
363.429	209.81
363.656	173.81
363.882	171.81
364.109	175.81
364.335	171.81
364.562	176.81
364.788	193.81
365.015	221.81
365.241	206.81
365.468	161.81
365.694	159.81
365.92	149.81
366.147	162.81
366.373	148.81
366.599	139.81
366.826	140.81
367.052	147.81
367.278	149.81
367.505	171.81
367.731	166.81
367.957	181.81
368.184	191.81
368.41	184.81
368.636	192.81
368.862	192.81
369.089	186.81
369.315	161.81
369.541	172.81
369.767	157.81
369.993	154.81
370.219	155.81
370.445	166.81
370.672	187.81
370.898	193.81
371.124	205.81
371.35	167.81
371.576	175.81
371.802	181.81
372.028	201.81
372.254	211.81
372.48	193.81
372.706	172.81
372.932	184.81
373.158	181.81
373.384	215.81
373.61	266.81
373.835	290.81
374.061	205.81
374.287	181.81
374.513	210.81
374.739	244.81
374.965	274.81
375.191	265.81
375.416	199.81
375.642	187.81
375.868	210.81
376.094	214.81
376.319	207.81
376.545	211.81
376.771	201.81
376.997	200.81
377.222	162.81
377.448	151.81
377.674	157.81
377.899	133.81
378.125	147.81
378.35	146.81
378.576	167.81
378.802	148.81
379.027	172.81
379.253	167.81
379.478	187.81
379.704	189.81
379.929	193.81
380.155	182.81
380.38	168.81
380.606	200.81
380.831	229.81
381.057	204.81
381.282	177.81
381.507	200.81
381.733	239.81
381.958	243.81
382.184	258.81
382.409	273.81
382.634	271.81
382.86	273.81
383.085	213.81
383.31	207.81
383.535	205.81
383.761	206.81
383.986	208.81
384.211	226.81
384.436	230.81
384.662	175.81
384.887	180.81
385.112	186.81
385.337	194.81
385.562	192.81
385.787	203.81
386.013	219.81
386.238	216.81
386.463	190.81
386.688	187.81
386.913	176.81
387.138	175.81
387.363	172.81
387.588	183.81
387.813	183.81
388.038	193.81
388.263	183.81
388.488	169.81
388.713	193.81
388.938	193.81
389.163	214.81
389.387	178.81
389.612	162.81
389.837	180.81
390.062	189.81
390.287	184.81
390.512	192.81
390.736	169.81
390.961	158.81
391.186	162.81
391.411	166.81
391.636	164.81
391.86	178.81
392.085	203.81
392.31	194.81
392.534	181.81
392.759	176.81
392.984	184.81
393.208	181.81
393.433	176.81
393.658	147.81
393.882	147.81
394.107	155.81
394.331	161.81
394.556	145.81
394.78	166.81
395.005	168.81
395.229	159.81
395.454	176.81
395.678	164.81
395.903	165.81
396.127	171.81
396.352	175.81
396.576	177.81
396.801	177.81
397.025	200.81
397.249	204.81
397.474	176.81
397.698	183.81
397.922	189.81
398.147	181.81
398.371	181.81
398.595	188.81
398.82	182.81
399.044	180.81
399.268	198.81
399.492	191.81
399.717	188.81
399.941	194.81
400.165	179.81
400.389	188.81
400.613	189.81
400.837	181.81
401.062	176.81
401.286	164.81
401.51	196.81
401.734	161.81
401.958	166.81
402.182	180.81
402.406	181.81
402.63	172.81
402.854	172.81
403.078	214.81
403.302	271.81
403.526	267.81
403.75	227.81
403.974	202.81
404.198	204.81
404.422	231.81
404.645	247.81
404.869	279.81
405.093	233.81
405.317	192.81
405.541	180.81
405.765	186.81
405.988	189.81
406.212	205.81
406.436	226.81
406.66	229.81
406.883	205.81
407.107	195.81
407.331	225.81
407.555	225.81
407.778	203.81
408.002	194.81
408.226	203.81
408.449	215.81
408.673	195.81
408.896	191.81
409.12	187.81
409.344	185.81
409.567	160.81
409.791	175.81
410.014	159.81
410.238	175.81
410.461	186.81
410.685	172.81
410.908	177.81
411.132	166.81
411.355	170.81
411.578	176.81
411.802	172.81
412.025	175.81
412.249	169.81
412.472	173.81
412.695	189.81
412.919	190.81
413.142	201.81
413.365	195.81
413.589	189.81
413.812	175.81
414.035	185.81
414.258	186.81
414.482	195.81
414.705	194.81
414.928	179.81
415.151	163.81
415.374	182.81
415.597	183.81
415.821	203.81
416.044	172.81
416.267	165.81
416.49	179.81
416.713	161.81
416.936	157.81
417.159	189.81
417.382	171.81
417.605	175.81
417.828	166.81
418.051	183.81
418.274	183.81
418.497	183.81
418.72	190.81
418.943	185.81
419.166	188.81
419.389	187.81
419.611	196.81
419.834	203.81
420.057	204.81
420.28	185.81
420.503	198.81
420.726	185.81
420.948	175.81
421.171	171.81
421.394	180.81
421.617	171.81
421.839	171.81
422.062	177.81
422.285	177.81
422.507	162.81
422.73	172.81
422.953	178.81
423.175	179.81
423.398	182.81
423.621	201.81
423.843	210.81
424.066	191.81
424.288	171.81
424.511	165.81
424.733	158.81
424.956	180.81
425.178	213.81
425.401	213.81
425.623	261.81
425.846	206.81
426.068	192.81
426.291	204.81
426.513	197.81
426.735	185.81
426.958	184.81
427.18	212.81
427.402	269.81
427.625	266.81
427.847	223.81
428.069	189.81
428.292	180.81
428.514	163.81
428.736	173.81
428.958	178.81
429.181	224.81
429.403	193.81
429.625	174.81
429.847	183.81
430.069	184.81
430.292	180.81
430.514	171.81
430.736	207.81
430.958	205.81
431.18	201.81
431.402	167.81
431.624	155.81
431.846	154.81
432.068	157.81
432.29	153.81
432.512	179.81
432.734	203.81
432.956	205.81
433.178	159.81
433.4	165.81
433.622	161.81
433.844	178.81
434.066	192.81
434.287	191.81
434.509	196.81
434.731	205.81
434.953	182.81
435.175	191.81
435.397	218.81
435.618	172.81
435.84	163.81
436.062	160.81
436.284	157.81
436.505	157.81
436.727	147.81
436.949	158.81
437.17	164.81
437.392	170.81
437.614	171.81
437.835	156.81
438.057	155.81
438.278	172.81
438.5	216.81
438.721	242.81
438.943	177.81
439.165	173.81
439.386	172.81
439.608	156.81
439.829	155.81
440.05	149.81
440.272	168.81
440.493	193.81
440.715	208.81
440.936	187.81
441.158	190.81
441.379	178.81
441.6	185.81
441.822	195.81
442.043	178.81
442.264	171.81
442.486	176.81
442.707	163.81
442.928	179.81
443.149	164.81
443.371	166.81
443.592	168.81
443.813	179.81
444.034	185.81
444.255	168.81
444.476	185.81
444.698	182.81
444.919	195.81
445.14	316.81
445.361	273.81
445.582	196.81
445.803	181.81
446.024	199.81
446.245	179.81
446.466	193.81
446.687	186.81
446.908	165.81
447.129	175.81
447.35	197.81
447.571	164.81
447.792	171.81
448.013	165.81
448.234	155.81
448.455	160.81
448.675	162.81
448.896	160.81
449.117	163.81
449.338	165.81
449.559	176.81
449.779	169.81
450	170.81
450.221	163.81
450.442	155.81
450.662	173.81
450.883	169.81
451.104	165.81
451.324	169.81
451.545	171.81
451.766	161.81
451.986	162.81
452.207	154.81
452.428	151.81
452.648	139.81
452.869	169.81
453.089	185.81
453.31	163.81
453.53	164.81
453.751	151.81
453.971	154.81
454.192	183.81
454.412	163.81
454.633	148.81
454.853	139.81
455.073	150.81
455.294	151.81
455.514	162.81
455.734	157.81
455.955	175.81
456.175	169.81
456.395	156.81
456.616	151.81
456.836	151.81
457.056	152.81
457.276	146.81
457.497	139.81
457.717	144.81
457.937	156.81
458.157	160.81
458.377	159.81
458.598	151.81
458.818	159.81
459.038	164.81
459.258	180.81
459.478	170.81
459.698	184.81
459.918	173.81
460.138	179.81
460.358	177.81
460.578	180.81
460.798	188.81
461.018	182.81
461.238	167.81
461.458	167.81
461.678	189.81
461.898	192.81
462.118	181.81
462.338	188.81
462.558	196.81
462.777	198.81
462.997	177.81
463.217	185.81
463.437	197.81
463.657	198.81
463.876	183.81
464.096	192.81
464.316	196.81
464.536	184.81
464.755	217.81
464.975	222.81
465.195	199.81
465.414	212.81
465.634	175.81
465.854	172.81
466.073	183.81
466.293	164.81
466.512	187.81
466.732	171.81
466.951	195.81
467.171	194.81
467.391	161.81
467.61	179.81
467.829	187.81
468.049	180.81
468.268	163.81
468.488	167.81
468.707	181.81
468.927	192.81
469.146	216.81
469.365	189.81
469.585	201.81
469.804	203.81
470.023	204.81
470.243	194.81
470.462	178.81
470.681	163.81
470.901	191.81
471.12	196.81
471.339	186.81
471.558	179.81
471.777	177.81
471.997	203.81
472.216	215.81
472.435	209.81
472.654	216.81
472.873	192.81
473.092	197.81
473.311	207.81
473.53	189.81
473.749	184.81
473.968	193.81
474.187	193.81
474.406	185.81
474.625	176.81
474.844	167.81
475.063	195.81
475.282	185.81
475.501	210.81
475.72	241.81
475.939	212.81
476.158	205.81
476.377	237.81
476.596	276.81
476.814	281.81
477.033	246.81
477.252	199.81
477.471	193.81
477.69	189.81
477.908	215.81
478.127	226.81
478.346	204.81
478.564	249.81
478.783	222.81
479.002	207.81
479.22	232.81
479.439	260.81
479.658	220.81
479.876	209.81
480.095	220.81
480.313	221.81
480.532	205.81
480.751	198.81
480.969	194.81
481.188	227.81
481.406	230.81
481.624	227.81
481.843	212.81
482.061	198.81
482.28	228.81
482.498	285.81
482.717	283.81
482.935	226.81
483.153	225.81
483.372	192.81
483.59	202.81
483.808	190.81
484.027	177.81
484.245	180.81
484.463	163.81
484.681	201.81
484.9	200.81
485.118	230.81
485.336	199.81
485.554	201.81
485.772	198.81
485.99	217.81
486.209	235.81
486.427	221.81
486.645	210.81
486.863	218.81
487.081	218.81
487.299	236.81
487.517	240.81
487.735	228.81
487.953	204.81
488.171	228.81
488.389	222.81
488.607	194.81
488.825	210.81
489.043	209.81
489.261	242.81
489.479	274.81
489.696	232.81
489.914	201.81
490.132	212.81
490.35	223.81
490.568	225.81
490.786	197.81
491.003	191.81
491.221	198.81
491.439	200.81
491.657	208.81
491.874	213.81
492.092	267.81
492.31	303.81
492.527	314.81
492.745	253.81
492.963	237.81
493.18	235.81
493.398	221.81
493.615	221.81
493.833	236.81
494.05	232.81
494.268	232.81
494.485	225.81
494.703	213.81
494.92	202.81
495.138	229.81
495.355	197.81
495.573	232.81
495.79	250.81
496.008	300.81
496.225	251.81
496.442	255.81
496.66	232.81
496.877	237.81
497.094	270.81
497.312	241.81
497.529	226.81
497.746	237.81
497.963	236.81
498.181	233.81
498.398	264.81
498.615	292.81
498.832	290.81
499.049	282.81
499.267	281.81
499.484	283.81
499.701	283.81
499.918	298.81
500.135	332.81
500.352	326.81
500.569	332.81
500.786	345.81
501.003	346.81
501.22	312.81
501.437	295.81
501.654	313.81
501.871	280.81
502.088	280.81
502.305	256.81
502.522	247.81
502.739	247.81
