Data from NickelSpatula_HRD10591_16-36-41-127.txt Node
Date: Mon Jul 22 16:36:41 EDT 2019
User: cochatt
Spectrometer: HR+D1059
Trigger mode: 1
Integration Time (sec): 1.000000E-1
Scans to average: 1
Electric dark correction enabled: true
Nonlinearity correction enabled: false
Boxcar width: 0
XAxis mode: Wavelengths
Number of Pixels in Spectrum: 2048
>>>>>Begin Spectral Data<<<<<
223.165	-8.44
223.4	-8.44
223.635	-8.44
223.869	-10.44
224.104	-28.44
224.338	-24.44
224.573	-23.44
224.808	-19.44
225.042	-17.44
225.277	-4.44
225.511	3.56
225.746	-3.44
225.98	-2.44
226.215	23.56
226.449	12.56
226.683	20.56
226.918	33.56
227.152	48.56
227.387	15.56
227.621	35.56
227.856	32.56
228.09	29.56
228.324	49.56
228.559	41.56
228.793	65.56
229.027	60.56
229.262	68.56
229.496	83.56
229.73	76.56
229.964	71.56
230.199	67.56
230.433	79.56
230.667	76.56
230.901	84.56
231.136	87.56
231.37	77.56
231.604	88.56
231.838	77.56
232.072	84.56
232.306	79.56
232.541	92.56
232.775	94.56
233.009	89.56
233.243	95.56
233.477	84.56
233.711	85.56
233.945	105.56
234.179	95.56
234.413	94.56
234.647	86.56
234.881	97.56
235.115	87.56
235.349	84.56
235.583	93.56
235.817	87.56
236.051	90.56
236.285	90.56
236.519	99.56
236.753	96.56
236.987	95.56
237.221	83.56
237.455	100.56
237.689	93.56
237.922	77.56
238.156	104.56
238.39	91.56
238.624	84.56
238.858	89.56
239.091	105.56
239.325	92.56
239.559	94.56
239.793	91.56
240.027	89.56
240.26	89.56
240.494	94.56
240.728	85.56
240.961	91.56
241.195	91.56
241.429	100.56
241.662	96.56
241.896	74.56
242.13	99.56
242.363	88.56
242.597	92.56
242.83	80.56
243.064	97.56
243.298	107.56
243.531	104.56
243.765	94.56
243.998	109.56
244.232	91.56
244.465	97.56
244.699	87.56
244.932	105.56
245.166	102.56
245.399	89.56
245.633	96.56
245.866	112.56
246.099	101.56
246.333	104.56
246.566	101.56
246.8	90.56
247.033	92.56
247.266	100.56
247.5	100.56
247.733	96.56
247.966	91.56
248.2	111.56
248.433	111.56
248.666	105.56
248.899	117.56
249.133	115.56
249.366	113.56
249.599	104.56
249.832	99.56
250.066	108.56
250.299	104.56
250.532	100.56
250.765	113.56
250.998	98.56
251.231	76.56
251.465	97.56
251.698	114.56
251.931	102.56
252.164	107.56
252.397	105.56
252.63	115.56
252.863	102.56
253.096	109.56
253.329	124.56
253.562	113.56
253.795	115.56
254.028	123.56
254.261	125.56
254.494	113.56
254.727	129.56
254.96	106.56
255.193	127.56
255.426	112.56
255.659	115.56
255.892	108.56
256.124	110.56
256.357	132.56
256.59	121.56
256.823	120.56
257.056	96.56
257.289	114.56
257.521	121.56
257.754	105.56
257.987	113.56
258.22	124.56
258.452	101.56
258.685	120.56
258.918	130.56
259.151	113.56
259.383	121.56
259.616	124.56
259.849	124.56
260.081	136.56
260.314	142.56
260.547	123.56
260.779	127.56
261.012	131.56
261.244	139.56
261.477	124.56
261.71	124.56
261.942	129.56
262.175	138.56
262.407	99.56
262.64	119.56
262.872	129.56
263.105	128.56
263.337	147.56
263.57	131.56
263.802	124.56
264.035	100.56
264.267	103.56
264.499	104.56
264.732	91.56
264.964	105.56
265.197	100.56
265.429	97.56
265.661	104.56
265.894	123.56
266.126	119.56
266.358	128.56
266.591	123.56
266.823	137.56
267.055	116.56
267.287	129.56
267.52	123.56
267.752	131.56
267.984	131.56
268.216	129.56
268.448	117.56
268.681	111.56
268.913	116.56
269.145	123.56
269.377	125.56
269.609	126.56
269.841	146.56
270.073	137.56
270.306	123.56
270.538	134.56
270.77	145.56
271.002	123.56
271.234	124.56
271.466	135.56
271.698	125.56
271.93	132.56
272.162	125.56
272.394	125.56
272.626	124.56
272.858	129.56
273.09	124.56
273.322	125.56
273.553	122.56
273.785	120.56
274.017	155.56
274.249	160.56
274.481	175.56
274.713	162.56
274.945	182.56
275.176	183.56
275.408	183.56
275.64	175.56
275.872	157.56
276.104	158.56
276.335	145.56
276.567	135.56
276.799	140.56
277.031	150.56
277.262	122.56
277.494	123.56
277.726	120.56
277.957	117.56
278.189	112.56
278.421	135.56
278.652	115.56
278.884	116.56
279.115	132.56
279.347	107.56
279.579	125.56
279.81	119.56
280.042	115.56
280.273	114.56
280.505	108.56
280.736	105.56
280.968	108.56
281.199	121.56
281.431	116.56
281.662	128.56
281.894	128.56
282.125	125.56
282.356	128.56
282.588	121.56
282.819	117.56
283.051	130.56
283.282	141.56
283.513	141.56
283.745	156.56
283.976	147.56
284.207	161.56
284.439	148.56
284.67	142.56
284.901	147.56
285.132	159.56
285.364	149.56
285.595	143.56
285.826	146.56
286.057	151.56
286.288	140.56
286.52	149.56
286.751	136.56
286.982	153.56
287.213	132.56
287.444	131.56
287.675	148.56
287.906	148.56
288.138	131.56
288.369	121.56
288.6	122.56
288.831	130.56
289.062	144.56
289.293	140.56
289.524	152.56
289.755	142.56
289.986	133.56
290.217	117.56
290.448	94.56
290.679	116.56
290.91	102.56
291.141	111.56
291.371	121.56
291.602	122.56
291.833	115.56
292.064	115.56
292.295	130.56
292.526	117.56
292.757	133.56
292.987	138.56
293.218	124.56
293.449	126.56
293.68	136.56
293.91	133.56
294.141	143.56
294.372	131.56
294.603	131.56
294.833	134.56
295.064	148.56
295.295	144.56
295.525	121.56
295.756	127.56
295.987	105.56
296.217	111.56
296.448	108.56
296.679	120.56
296.909	117.56
297.14	111.56
297.37	114.56
297.601	106.56
297.831	113.56
298.062	119.56
298.292	125.56
298.523	116.56
298.753	130.56
298.984	140.56
299.214	126.56
299.445	108.56
299.675	121.56
299.905	117.56
300.136	104.56
300.366	105.56
300.597	128.56
300.827	117.56
301.057	111.56
301.288	113.56
301.518	101.56
301.748	114.56
301.979	119.56
302.209	113.56
302.439	115.56
302.669	106.56
302.9	121.56
303.13	114.56
303.36	113.56
303.59	117.56
303.82	116.56
304.051	108.56
304.281	118.56
304.511	113.56
304.741	114.56
304.971	115.56
305.201	125.56
305.431	111.56
305.661	130.56
305.891	102.56
306.121	105.56
306.352	121.56
306.582	115.56
306.812	100.56
307.042	111.56
307.272	103.56
307.502	111.56
307.731	113.56
307.961	125.56
308.191	109.56
308.421	111.56
308.651	93.56
308.881	89.56
309.111	96.56
309.341	93.56
309.571	126.56
309.8	90.56
310.03	105.56
310.26	109.56
310.49	101.56
310.72	122.56
310.949	98.56
311.179	113.56
311.409	105.56
311.639	121.56
311.868	127.56
312.098	130.56
312.328	141.56
312.557	151.56
312.787	135.56
313.017	142.56
313.246	142.56
313.476	150.56
313.706	141.56
313.935	115.56
314.165	104.56
314.394	120.56
314.624	112.56
314.853	102.56
315.083	121.56
315.312	117.56
315.542	113.56
315.771	110.56
316.001	103.56
316.23	96.56
316.46	93.56
316.689	98.56
316.919	98.56
317.148	112.56
317.377	103.56
317.607	118.56
317.836	107.56
318.065	117.56
318.295	113.56
318.524	106.56
318.753	123.56
318.983	111.56
319.212	111.56
319.441	119.56
319.67	115.56
319.9	117.56
320.129	121.56
320.358	92.56
320.587	103.56
320.816	119.56
321.046	109.56
321.275	127.56
321.504	116.56
321.733	122.56
321.962	109.56
322.191	116.56
322.42	91.56
322.649	108.56
322.878	122.56
323.108	115.56
323.337	105.56
323.566	100.56
323.795	104.56
324.024	106.56
324.253	114.56
324.482	104.56
324.71	111.56
324.939	108.56
325.168	114.56
325.397	101.56
325.626	106.56
325.855	111.56
326.084	108.56
326.313	115.56
326.542	99.56
326.77	105.56
326.999	102.56
327.228	118.56
327.457	119.56
327.686	106.56
327.914	97.56
328.143	106.56
328.372	96.56
328.6	107.56
328.829	90.56
329.058	98.56
329.287	109.56
329.515	103.56
329.744	111.56
329.972	103.56
330.201	97.56
330.43	101.56
330.658	102.56
330.887	104.56
331.115	109.56
331.344	107.56
331.572	95.56
331.801	106.56
332.03	110.56
332.258	92.56
332.486	111.56
332.715	108.56
332.943	115.56
333.172	111.56
333.4	108.56
333.629	112.56
333.857	113.56
334.085	96.56
334.314	120.56
334.542	108.56
334.771	115.56
334.999	113.56
335.227	91.56
335.455	100.56
335.684	113.56
335.912	111.56
336.14	128.56
336.369	111.56
336.597	109.56
336.825	139.56
337.053	149.56
337.281	121.56
337.51	105.56
337.738	117.56
337.966	121.56
338.194	116.56
338.422	115.56
338.65	97.56
338.878	96.56
339.106	97.56
339.334	124.56
339.562	120.56
339.79	106.56
340.018	115.56
340.246	106.56
340.474	125.56
340.702	105.56
340.93	125.56
341.158	130.56
341.386	117.56
341.614	115.56
341.842	113.56
342.07	130.56
342.298	131.56
342.526	124.56
342.754	108.56
342.981	110.56
343.209	105.56
343.437	117.56
343.665	108.56
343.893	103.56
344.12	124.56
344.348	133.56
344.576	119.56
344.804	105.56
345.031	117.56
345.259	105.56
345.487	117.56
345.714	108.56
345.942	118.56
346.17	113.56
346.397	129.56
346.625	109.56
346.853	103.56
347.08	116.56
347.308	101.56
347.535	123.56
347.763	114.56
347.99	116.56
348.218	96.56
348.445	105.56
348.673	117.56
348.9	122.56
349.128	111.56
349.355	104.56
349.583	112.56
349.81	104.56
350.037	111.56
350.265	92.56
350.492	117.56
350.72	99.56
350.947	86.56
351.174	108.56
351.402	95.56
351.629	119.56
351.856	115.56
352.083	106.56
352.311	93.56
352.538	107.56
352.765	102.56
352.992	100.56
353.22	132.56
353.447	97.56
353.674	103.56
353.901	97.56
354.128	104.56
354.355	115.56
354.583	107.56
354.81	105.56
355.037	102.56
355.264	102.56
355.491	116.56
355.718	103.56
355.945	112.56
356.172	115.56
356.399	115.56
356.626	113.56
356.853	130.56
357.08	131.56
357.307	128.56
357.534	123.56
357.761	123.56
357.988	128.56
358.215	133.56
358.441	124.56
358.668	126.56
358.895	129.56
359.122	118.56
359.349	113.56
359.576	111.56
359.802	101.56
360.029	108.56
360.256	107.56
360.483	108.56
360.709	134.56
360.936	123.56
361.163	104.56
361.39	119.56
361.616	104.56
361.843	106.56
362.07	121.56
362.296	119.56
362.523	100.56
362.749	123.56
362.976	119.56
363.203	123.56
363.429	123.56
363.656	104.56
363.882	121.56
364.109	128.56
364.335	117.56
364.562	116.56
364.788	114.56
365.015	120.56
365.241	119.56
365.468	120.56
365.694	107.56
365.92	111.56
366.147	112.56
366.373	106.56
366.599	89.56
366.826	115.56
367.052	112.56
367.278	107.56
367.505	103.56
367.731	105.56
367.957	121.56
368.184	124.56
368.41	113.56
368.636	107.56
368.862	113.56
369.089	117.56
369.315	106.56
369.541	119.56
369.767	98.56
369.993	115.56
370.219	102.56
370.445	119.56
370.672	95.56
370.898	129.56
371.124	115.56
371.35	95.56
371.576	97.56
371.802	92.56
372.028	109.56
372.254	95.56
372.48	113.56
372.706	118.56
372.932	119.56
373.158	120.56
373.384	133.56
373.61	130.56
373.835	120.56
374.061	111.56
374.287	119.56
374.513	120.56
374.739	113.56
374.965	135.56
375.191	116.56
375.416	114.56
375.642	108.56
375.868	118.56
376.094	123.56
376.319	105.56
376.545	121.56
376.771	108.56
376.997	113.56
377.222	99.56
377.448	86.56
377.674	99.56
377.899	96.56
378.125	98.56
378.35	116.56
378.576	99.56
378.802	100.56
379.027	123.56
379.253	119.56
379.478	103.56
379.704	102.56
379.929	122.56
380.155	127.56
380.38	119.56
380.606	107.56
380.831	123.56
381.057	110.56
381.282	95.56
381.507	100.56
381.733	127.56
381.958	115.56
382.184	131.56
382.409	123.56
382.634	127.56
382.86	131.56
383.085	123.56
383.31	119.56
383.535	127.56
383.761	111.56
383.986	122.56
384.211	105.56
384.436	104.56
384.662	124.56
384.887	114.56
385.112	113.56
385.337	110.56
385.562	123.56
385.787	118.56
386.013	133.56
386.238	124.56
386.463	131.56
386.688	100.56
386.913	116.56
387.138	122.56
387.363	124.56
387.588	106.56
387.813	105.56
388.038	112.56
388.263	95.56
388.488	89.56
388.713	109.56
388.938	113.56
389.163	116.56
389.387	119.56
389.612	112.56
389.837	104.56
390.062	100.56
390.287	92.56
390.512	114.56
390.736	105.56
390.961	102.56
391.186	104.56
391.411	107.56
391.636	109.56
391.86	114.56
392.085	123.56
392.31	114.56
392.534	109.56
392.759	116.56
392.984	133.56
393.208	124.56
393.433	127.56
393.658	115.56
393.882	116.56
394.107	115.56
394.331	100.56
394.556	96.56
394.78	107.56
395.005	104.56
395.229	97.56
395.454	98.56
395.678	111.56
395.903	116.56
396.127	120.56
396.352	113.56
396.576	113.56
396.801	108.56
397.025	111.56
397.249	125.56
397.474	131.56
397.698	116.56
397.922	115.56
398.147	115.56
398.371	104.56
398.595	105.56
398.82	114.56
399.044	105.56
399.268	114.56
399.492	115.56
399.717	116.56
399.941	123.56
400.165	115.56
400.389	113.56
400.613	117.56
400.837	111.56
401.062	127.56
401.286	116.56
401.51	111.56
401.734	111.56
401.958	97.56
402.182	111.56
402.406	104.56
402.63	120.56
402.854	119.56
403.078	118.56
403.302	134.56
403.526	133.56
403.75	128.56
403.974	107.56
404.198	121.56
404.422	127.56
404.645	128.56
404.869	129.56
405.093	123.56
405.317	115.56
405.541	106.56
405.765	116.56
405.988	112.56
406.212	106.56
406.436	123.56
406.66	118.56
406.883	116.56
407.107	127.56
407.331	115.56
407.555	114.56
407.778	124.56
408.002	110.56
408.226	107.56
408.449	108.56
408.673	118.56
408.896	116.56
409.12	115.56
409.344	109.56
409.567	115.56
409.791	105.56
410.014	111.56
410.238	109.56
410.461	116.56
410.685	118.56
410.908	116.56
411.132	117.56
411.355	91.56
411.578	113.56
411.802	116.56
412.025	108.56
412.249	117.56
412.472	117.56
412.695	112.56
412.919	127.56
413.142	100.56
413.365	108.56
413.589	118.56
413.812	102.56
414.035	106.56
414.258	110.56
414.482	117.56
414.705	113.56
414.928	104.56
415.151	115.56
415.374	107.56
415.597	100.56
415.821	119.56
416.044	104.56
416.267	105.56
416.49	106.56
416.713	123.56
416.936	103.56
417.159	105.56
417.382	106.56
417.605	120.56
417.828	109.56
418.051	106.56
418.274	121.56
418.497	127.56
418.72	111.56
418.943	121.56
419.166	112.56
419.389	104.56
419.611	119.56
419.834	102.56
420.057	107.56
420.28	124.56
420.503	116.56
420.726	113.56
420.948	104.56
421.171	118.56
421.394	115.56
421.617	114.56
421.839	118.56
422.062	121.56
422.285	121.56
422.507	119.56
422.73	113.56
422.953	119.56
423.175	114.56
423.398	125.56
423.621	122.56
423.843	115.56
424.066	117.56
424.288	111.56
424.511	112.56
424.733	98.56
424.956	121.56
425.178	122.56
425.401	121.56
425.623	132.56
425.846	120.56
426.068	107.56
426.291	116.56
426.513	109.56
426.735	113.56
426.958	107.56
427.18	111.56
427.402	111.56
427.625	140.56
427.847	126.56
428.069	126.56
428.292	113.56
428.514	117.56
428.736	103.56
428.958	120.56
429.181	133.56
429.403	114.56
429.625	120.56
429.847	100.56
430.069	113.56
430.292	115.56
430.514	98.56
430.736	117.56
430.958	122.56
431.18	110.56
431.402	104.56
431.624	106.56
431.846	100.56
432.068	107.56
432.29	99.56
432.512	116.56
432.734	115.56
432.956	112.56
433.178	113.56
433.4	107.56
433.622	107.56
433.844	112.56
434.066	137.56
434.287	120.56
434.509	108.56
434.731	111.56
434.953	108.56
435.175	120.56
435.397	116.56
435.618	119.56
435.84	122.56
436.062	109.56
436.284	123.56
436.505	114.56
436.727	115.56
436.949	107.56
437.17	115.56
437.392	99.56
437.614	120.56
437.835	107.56
438.057	105.56
438.278	102.56
438.5	147.56
438.721	116.56
438.943	117.56
439.165	109.56
439.386	121.56
439.608	99.56
439.829	105.56
440.05	104.56
440.272	115.56
440.493	119.56
440.715	124.56
440.936	106.56
441.158	95.56
441.379	97.56
441.6	100.56
441.822	123.56
442.043	112.56
442.264	117.56
442.486	123.56
442.707	99.56
442.928	113.56
443.149	113.56
443.371	108.56
443.592	114.56
443.813	125.56
444.034	105.56
444.255	108.56
444.476	113.56
444.698	111.56
444.919	116.56
445.14	233.56
445.361	181.56
445.582	120.56
445.803	107.56
446.024	121.56
446.245	121.56
446.466	124.56
446.687	120.56
446.908	117.56
447.129	120.56
447.35	109.56
447.571	126.56
447.792	87.56
448.013	113.56
448.234	110.56
448.455	117.56
448.675	109.56
448.896	121.56
449.117	97.56
449.338	109.56
449.559	101.56
449.779	103.56
450	109.56
450.221	100.56
450.442	106.56
450.662	111.56
450.883	111.56
451.104	103.56
451.324	103.56
451.545	100.56
451.766	125.56
451.986	111.56
452.207	119.56
452.428	113.56
452.648	105.56
452.869	114.56
453.089	92.56
453.31	108.56
453.53	115.56
453.751	111.56
453.971	108.56
454.192	108.56
454.412	107.56
454.633	103.56
454.853	112.56
455.073	102.56
455.294	101.56
455.514	101.56
455.734	97.56
455.955	114.56
456.175	117.56
456.395	97.56
456.616	106.56
456.836	102.56
457.056	96.56
457.276	100.56
457.497	101.56
457.717	106.56
457.937	122.56
458.157	95.56
458.377	104.56
458.598	99.56
458.818	103.56
459.038	114.56
459.258	109.56
459.478	123.56
459.698	101.56
459.918	116.56
460.138	112.56
460.358	109.56
460.578	116.56
460.798	123.56
461.018	112.56
461.238	117.56
461.458	132.56
461.678	111.56
461.898	127.56
462.118	122.56
462.338	109.56
462.558	109.56
462.777	117.56
462.997	116.56
463.217	108.56
463.437	119.56
463.657	111.56
463.876	123.56
464.096	114.56
464.316	119.56
464.536	116.56
464.755	119.56
464.975	118.56
465.195	121.56
465.414	102.56
465.634	115.56
465.854	115.56
466.073	103.56
466.293	103.56
466.512	134.56
466.732	129.56
466.951	123.56
467.171	125.56
467.391	112.56
467.61	111.56
467.829	106.56
468.049	109.56
468.268	105.56
468.488	112.56
468.707	119.56
468.927	122.56
469.146	127.56
469.365	98.56
469.585	115.56
469.804	120.56
470.023	121.56
470.243	106.56
470.462	109.56
470.681	121.56
470.901	129.56
471.12	120.56
471.339	130.56
471.558	103.56
471.777	118.56
471.997	113.56
472.216	135.56
472.435	123.56
472.654	123.56
472.873	120.56
473.092	104.56
473.311	122.56
473.53	102.56
473.749	115.56
473.968	125.56
474.187	112.56
474.406	108.56
474.625	118.56
474.844	123.56
475.063	121.56
475.282	133.56
475.501	120.56
475.72	110.56
475.939	123.56
476.158	123.56
476.377	120.56
476.596	124.56
476.814	144.56
477.033	115.56
477.252	98.56
477.471	101.56
477.69	129.56
477.908	118.56
478.127	127.56
478.346	116.56
478.564	119.56
478.783	117.56
479.002	135.56
479.22	135.56
479.439	129.56
479.658	122.56
479.876	123.56
480.095	115.56
480.313	118.56
480.532	125.56
480.751	128.56
480.969	115.56
481.188	124.56
481.406	118.56
481.624	119.56
481.843	116.56
482.061	120.56
482.28	124.56
482.498	143.56
482.717	133.56
482.935	119.56
483.153	121.56
483.372	113.56
483.59	126.56
483.808	129.56
484.027	125.56
484.245	107.56
484.463	132.56
484.681	127.56
484.9	112.56
485.118	114.56
485.336	118.56
485.554	112.56
485.772	123.56
485.99	124.56
486.209	130.56
486.427	127.56
486.645	125.56
486.863	106.56
487.081	123.56
487.299	135.56
487.517	131.56
487.735	129.56
487.953	130.56
488.171	108.56
488.389	131.56
488.607	123.56
488.825	121.56
489.043	130.56
489.261	124.56
489.479	134.56
489.696	111.56
489.914	122.56
490.132	119.56
490.35	129.56
490.568	117.56
490.786	136.56
491.003	119.56
491.221	117.56
491.439	125.56
491.657	121.56
491.874	131.56
492.092	123.56
492.31	128.56
492.527	154.56
492.745	130.56
492.963	124.56
493.18	134.56
493.398	144.56
493.615	135.56
493.833	139.56
494.05	135.56
494.268	138.56
494.485	131.56
494.703	107.56
494.92	132.56
495.138	129.56
495.355	122.56
495.573	120.56
495.79	124.56
496.008	150.56
496.225	140.56
496.442	145.56
496.66	139.56
496.877	130.56
497.094	131.56
497.312	130.56
497.529	133.56
497.746	129.56
497.963	138.56
498.181	137.56
498.398	135.56
498.615	153.56
498.832	145.56
499.049	147.56
499.267	106.56
499.484	137.56
499.701	145.56
499.918	159.56
500.135	162.56
500.352	163.56
500.569	161.56
500.786	152.56
501.003	150.56
501.22	140.56
501.437	147.56
501.654	136.56
501.871	137.56
502.088	135.56
502.305	127.56
502.522	124.56
502.739	123.56
502.956	137.56
503.172	128.56
503.389	124.56
503.606	145.56
503.823	122.56
504.04	133.56
504.256	118.56
504.473	125.56
