Data from NickelSpatula_HRD10591_16-36-14-126.txt Node
Date: Mon Jul 22 16:36:14 EDT 2019
User: cochatt
Spectrometer: HR+D1059
Trigger mode: 1
Integration Time (sec): 1.000000E-1
Scans to average: 1
Electric dark correction enabled: true
Nonlinearity correction enabled: false
Boxcar width: 0
XAxis mode: Wavelengths
Number of Pixels in Spectrum: 2048
>>>>>Begin Spectral Data<<<<<
223.165	-17.69
223.4	-17.69
223.635	-17.69
223.869	-10.69
224.104	-22.69
224.338	-0.69
224.573	-13.69
224.808	-11.69
225.042	-17.69
225.277	-7.69
225.511	4.31
225.746	0.31
225.98	-8.69
226.215	12.31
226.449	14.31
226.683	16.31
226.918	17.31
227.152	46.31
227.387	31.31
227.621	36.31
227.856	47.31
228.09	40.31
228.324	38.31
228.559	53.31
228.793	56.31
229.027	64.31
229.262	69.31
229.496	74.31
229.73	72.31
229.964	83.31
230.199	95.31
230.433	82.31
230.667	82.31
230.901	90.31
231.136	86.31
231.37	84.31
231.604	82.31
231.838	90.31
232.072	84.31
232.306	83.31
232.541	85.31
232.775	107.31
233.009	88.31
233.243	120.31
233.477	117.31
233.711	93.31
233.945	91.31
234.179	100.31
234.413	96.31
234.647	101.31
234.881	110.31
235.115	112.31
235.349	114.31
235.583	103.31
235.817	93.31
236.051	100.31
236.285	103.31
236.519	93.31
236.753	111.31
236.987	109.31
237.221	107.31
237.455	97.31
237.689	100.31
237.922	116.31
238.156	98.31
238.39	114.31
238.624	128.31
238.858	123.31
239.091	108.31
239.325	120.31
239.559	118.31
239.793	116.31
240.027	123.31
240.26	114.31
240.494	99.31
240.728	114.31
240.961	122.31
241.195	131.31
241.429	121.31
241.662	130.31
241.896	123.31
242.13	100.31
242.363	111.31
242.597	110.31
242.83	112.31
243.064	108.31
243.298	119.31
243.531	112.31
243.765	120.31
243.998	120.31
244.232	123.31
244.465	123.31
244.699	125.31
244.932	121.31
245.166	119.31
245.399	115.31
245.633	120.31
245.866	120.31
246.099	113.31
246.333	116.31
246.566	126.31
246.8	137.31
247.033	146.31
247.266	130.31
247.5	133.31
247.733	116.31
247.966	115.31
248.2	136.31
248.433	139.31
248.666	148.31
248.899	132.31
249.133	133.31
249.366	132.31
249.599	150.31
249.832	136.31
250.066	128.31
250.299	140.31
250.532	134.31
250.765	126.31
250.998	121.31
251.231	125.31
251.465	126.31
251.698	127.31
251.931	148.31
252.164	148.31
252.397	152.31
252.63	154.31
252.863	158.31
253.096	163.31
253.329	171.31
253.562	157.31
253.795	173.31
254.028	163.31
254.261	195.31
254.494	174.31
254.727	161.31
254.96	163.31
255.193	166.31
255.426	159.31
255.659	144.31
255.892	143.31
256.124	140.31
256.357	170.31
256.59	163.31
256.823	167.31
257.056	156.31
257.289	158.31
257.521	161.31
257.754	158.31
257.987	166.31
258.22	178.31
258.452	145.31
258.685	154.31
258.918	161.31
259.151	185.31
259.383	186.31
259.616	192.31
259.849	200.31
260.081	214.31
260.314	210.31
260.547	194.31
260.779	200.31
261.012	214.31
261.244	206.31
261.477	194.31
261.71	186.31
261.942	173.31
262.175	157.31
262.407	173.31
262.64	172.31
262.872	203.31
263.105	207.31
263.337	210.31
263.57	188.31
263.802	166.31
264.035	155.31
264.267	133.31
264.499	148.31
264.732	118.31
264.964	124.31
265.197	124.31
265.429	133.31
265.661	144.31
265.894	132.31
266.126	157.31
266.358	153.31
266.591	180.31
266.823	193.31
267.055	197.31
267.287	192.31
267.52	188.31
267.752	203.31
267.984	193.31
268.216	188.31
268.448	171.31
268.681	163.31
268.913	179.31
269.145	174.31
269.377	180.31
269.609	172.31
269.841	168.31
270.073	180.31
270.306	205.31
270.538	197.31
270.77	201.31
271.002	184.31
271.234	195.31
271.466	186.31
271.698	190.31
271.93	180.31
272.162	182.31
272.394	202.31
272.626	188.31
272.858	165.31
273.09	176.31
273.322	183.31
273.553	171.31
273.785	176.31
274.017	226.31
274.249	245.31
274.481	262.31
274.713	281.31
274.945	297.31
275.176	314.31
275.408	301.31
275.64	249.31
275.872	271.31
276.104	240.31
276.335	244.31
276.567	225.31
276.799	230.31
277.031	229.31
277.262	197.31
277.494	185.31
277.726	168.31
277.957	187.31
278.189	207.31
278.421	194.31
278.652	183.31
278.884	181.31
279.115	171.31
279.347	176.31
279.579	178.31
279.81	179.31
280.042	173.31
280.273	180.31
280.505	166.31
280.736	160.31
280.968	150.31
281.199	182.31
281.431	174.31
281.662	180.31
281.894	162.31
282.125	176.31
282.356	177.31
282.588	186.31
282.819	178.31
283.051	185.31
283.282	203.31
283.513	231.31
283.745	228.31
283.976	243.31
284.207	232.31
284.439	243.31
284.67	226.31
284.901	219.31
285.132	235.31
285.364	230.31
285.595	240.31
285.826	237.31
286.057	240.31
286.288	226.31
286.52	234.31
286.751	244.31
286.982	228.31
287.213	211.31
287.444	219.31
287.675	212.31
287.906	223.31
288.138	195.31
288.369	183.31
288.6	182.31
288.831	188.31
289.062	207.31
289.293	224.31
289.524	213.31
289.755	206.31
289.986	197.31
290.217	188.31
290.448	154.31
290.679	152.31
290.91	159.31
291.141	150.31
291.371	141.31
291.602	152.31
291.833	148.31
292.064	163.31
292.295	169.31
292.526	180.31
292.757	182.31
292.987	195.31
293.218	194.31
293.449	231.31
293.68	217.31
293.91	196.31
294.141	193.31
294.372	202.31
294.603	201.31
294.833	207.31
295.064	229.31
295.295	216.31
295.525	157.31
295.756	156.31
295.987	145.31
296.217	143.31
296.448	138.31
296.679	152.31
296.909	164.31
297.14	181.31
297.37	179.31
297.601	169.31
297.831	165.31
298.062	162.31
298.292	197.31
298.523	197.31
298.753	218.31
298.984	197.31
299.214	173.31
299.445	146.31
299.675	161.31
299.905	155.31
300.136	171.31
300.366	161.31
300.597	150.31
300.827	138.31
301.057	135.31
301.288	154.31
301.518	171.31
301.748	151.31
301.979	175.31
302.209	181.31
302.439	164.31
302.669	155.31
302.9	160.31
303.13	171.31
303.36	174.31
303.59	148.31
303.82	161.31
304.051	175.31
304.281	192.31
304.511	177.31
304.741	158.31
304.971	172.31
305.201	181.31
305.431	157.31
305.661	153.31
305.891	150.31
306.121	134.31
306.352	110.31
306.582	128.31
306.812	132.31
307.042	150.31
307.272	132.31
307.502	133.31
307.731	132.31
307.961	140.31
308.191	125.31
308.421	126.31
308.651	140.31
308.881	118.31
309.111	128.31
309.341	141.31
309.571	129.31
309.8	128.31
310.03	142.31
310.26	132.31
310.49	137.31
310.72	125.31
310.949	117.31
311.179	137.31
311.409	139.31
311.639	152.31
311.868	188.31
312.098	211.31
312.328	227.31
312.557	221.31
312.787	246.31
313.017	198.31
313.246	215.31
313.476	226.31
313.706	202.31
313.935	169.31
314.165	140.31
314.394	133.31
314.624	144.31
314.853	152.31
315.083	129.31
315.312	140.31
315.542	146.31
315.771	140.31
316.001	132.31
316.23	129.31
316.46	125.31
316.689	133.31
316.919	134.31
317.148	137.31
317.377	141.31
317.607	130.31
317.836	138.31
318.065	143.31
318.295	161.31
318.524	158.31
318.753	142.31
318.983	143.31
319.212	128.31
319.441	138.31
319.67	148.31
319.9	156.31
320.129	140.31
320.358	141.31
320.587	132.31
320.816	141.31
321.046	168.31
321.275	180.31
321.504	161.31
321.733	152.31
321.962	162.31
322.191	161.31
322.42	137.31
322.649	155.31
322.878	157.31
323.108	149.31
323.337	164.31
323.566	147.31
323.795	140.31
324.024	159.31
324.253	136.31
324.482	127.31
324.71	145.31
324.939	173.31
325.168	152.31
325.397	141.31
325.626	135.31
325.855	139.31
326.084	136.31
326.313	149.31
326.542	134.31
326.77	128.31
326.999	130.31
327.228	137.31
327.457	128.31
327.686	149.31
327.914	129.31
328.143	131.31
328.372	114.31
328.6	130.31
328.829	138.31
329.058	112.31
329.287	128.31
329.515	115.31
329.744	134.31
329.972	132.31
330.201	135.31
330.43	129.31
330.658	148.31
330.887	141.31
331.115	144.31
331.344	152.31
331.572	138.31
331.801	156.31
332.03	142.31
332.258	140.31
332.486	133.31
332.715	132.31
332.943	137.31
333.172	121.31
333.4	142.31
333.629	164.31
333.857	146.31
334.085	151.31
334.314	144.31
334.542	136.31
334.771	133.31
334.999	122.31
335.227	136.31
335.455	150.31
335.684	159.31
335.912	154.31
336.14	178.31
336.369	182.31
336.597	160.31
336.825	174.31
337.053	177.31
337.281	166.31
337.51	135.31
337.738	142.31
337.966	150.31
338.194	161.31
338.422	148.31
338.65	140.31
338.878	126.31
339.106	136.31
339.334	148.31
339.562	159.31
339.79	142.31
340.018	130.31
340.246	154.31
340.474	156.31
340.702	153.31
340.93	147.31
341.158	160.31
341.386	157.31
341.614	139.31
341.842	148.31
342.07	148.31
342.298	169.31
342.526	176.31
342.754	164.31
342.981	138.31
343.209	137.31
343.437	166.31
343.665	160.31
343.893	161.31
344.12	180.31
344.348	196.31
344.576	182.31
344.804	156.31
345.031	122.31
345.259	127.31
345.487	144.31
345.714	146.31
345.942	176.31
346.17	182.31
346.397	144.31
346.625	154.31
346.853	133.31
347.08	123.31
347.308	145.31
347.535	152.31
347.763	155.31
347.99	152.31
348.218	152.31
348.445	142.31
348.673	144.31
348.9	132.31
349.128	148.31
349.355	150.31
349.583	151.31
349.81	146.31
350.037	130.31
350.265	138.31
350.492	118.31
350.72	133.31
350.947	138.31
351.174	130.31
351.402	124.31
351.629	128.31
351.856	136.31
352.083	116.31
352.311	146.31
352.538	142.31
352.765	168.31
352.992	148.31
353.22	129.31
353.447	152.31
353.674	126.31
353.901	160.31
354.128	147.31
354.355	136.31
354.583	155.31
354.81	149.31
355.037	169.31
355.264	138.31
355.491	155.31
355.718	163.31
355.945	145.31
356.172	146.31
356.399	157.31
356.626	185.31
356.853	198.31
357.08	206.31
357.307	205.31
357.534	181.31
357.761	179.31
357.988	217.31
358.215	248.31
358.441	217.31
358.668	204.31
358.895	189.31
359.122	178.31
359.349	168.31
359.576	179.31
359.802	164.31
360.029	139.31
360.256	149.31
360.483	185.31
360.709	196.31
360.936	208.31
361.163	184.31
361.39	161.31
361.616	134.31
361.843	163.31
362.07	177.31
362.296	170.31
362.523	146.31
362.749	138.31
362.976	136.31
363.203	180.31
363.429	166.31
363.656	154.31
363.882	143.31
364.109	153.31
364.335	152.31
364.562	148.31
364.788	136.31
365.015	160.31
365.241	159.31
365.468	146.31
365.694	126.31
365.92	154.31
366.147	126.31
366.373	135.31
366.599	146.31
366.826	128.31
367.052	126.31
367.278	121.31
367.505	125.31
367.731	120.31
367.957	156.31
368.184	150.31
368.41	140.31
368.636	158.31
368.862	153.31
369.089	136.31
369.315	134.31
369.541	148.31
369.767	136.31
369.993	145.31
370.219	134.31
370.445	148.31
370.672	146.31
370.898	160.31
371.124	134.31
371.35	121.31
371.576	143.31
371.802	142.31
372.028	150.31
372.254	170.31
372.48	136.31
372.706	133.31
372.932	140.31
373.158	156.31
373.384	190.31
373.61	188.31
373.835	207.31
374.061	164.31
374.287	158.31
374.513	172.31
374.739	182.31
374.965	187.31
375.191	184.31
375.416	158.31
375.642	150.31
375.868	166.31
376.094	180.31
376.319	154.31
376.545	180.31
376.771	182.31
376.997	161.31
377.222	145.31
377.448	130.31
377.674	138.31
377.899	130.31
378.125	128.31
378.35	123.31
378.576	128.31
378.802	138.31
379.027	144.31
379.253	140.31
379.478	144.31
379.704	158.31
379.929	165.31
380.155	161.31
380.38	148.31
380.606	148.31
380.831	170.31
381.057	180.31
381.282	142.31
381.507	180.31
381.733	201.31
381.958	193.31
382.184	195.31
382.409	206.31
382.634	201.31
382.86	206.31
383.085	184.31
383.31	159.31
383.535	170.31
383.761	173.31
383.986	172.31
384.211	179.31
384.436	169.31
384.662	160.31
384.887	138.31
385.112	172.31
385.337	163.31
385.562	137.31
385.787	159.31
386.013	182.31
386.238	158.31
386.463	150.31
386.688	159.31
386.913	149.31
387.138	139.31
387.363	146.31
387.588	148.31
387.813	151.31
388.038	164.31
388.263	145.31
388.488	152.31
388.713	160.31
388.938	165.31
389.163	141.31
389.387	143.31
389.612	145.31
389.837	137.31
390.062	157.31
390.287	152.31
390.512	143.31
390.736	132.31
390.961	132.31
391.186	128.31
391.411	133.31
391.636	138.31
391.86	132.31
392.085	162.31
392.31	139.31
392.534	144.31
392.759	140.31
392.984	147.31
393.208	130.31
393.433	139.31
393.658	131.31
393.882	132.31
394.107	142.31
394.331	124.31
394.556	124.31
394.78	128.31
395.005	128.31
395.229	129.31
395.454	129.31
395.678	131.31
395.903	133.31
396.127	149.31
396.352	129.31
396.576	163.31
396.801	159.31
397.025	154.31
397.249	165.31
397.474	143.31
397.698	158.31
397.922	140.31
398.147	141.31
398.371	148.31
398.595	164.31
398.82	148.31
399.044	154.31
399.268	158.31
399.492	158.31
399.717	147.31
399.941	158.31
400.165	155.31
400.389	160.31
400.613	162.31
400.837	137.31
401.062	126.31
401.286	152.31
401.51	147.31
401.734	124.31
401.958	162.31
402.182	141.31
402.406	135.31
402.63	149.31
402.854	152.31
403.078	157.31
403.302	196.31
403.526	197.31
403.75	189.31
403.974	157.31
404.198	171.31
404.422	180.31
404.645	197.31
404.869	200.31
405.093	171.31
405.317	165.31
405.541	163.31
405.765	151.31
405.988	151.31
406.212	178.31
406.436	165.31
406.66	196.31
406.883	154.31
407.107	171.31
407.331	180.31
407.555	160.31
407.778	151.31
408.002	148.31
408.226	171.31
408.449	153.31
408.673	153.31
408.896	138.31
409.12	121.31
409.344	152.31
409.567	138.31
409.791	147.31
410.014	138.31
410.238	138.31
410.461	126.31
410.685	141.31
410.908	133.31
411.132	139.31
411.355	142.31
411.578	132.31
411.802	138.31
412.025	134.31
412.249	143.31
412.472	143.31
412.695	151.31
412.919	132.31
413.142	155.31
413.365	154.31
413.589	149.31
413.812	147.31
414.035	147.31
414.258	142.31
414.482	162.31
414.705	145.31
414.928	137.31
415.151	145.31
415.374	149.31
415.597	130.31
415.821	143.31
416.044	141.31
416.267	161.31
416.49	145.31
416.713	144.31
416.936	123.31
417.159	148.31
417.382	122.31
417.605	142.31
417.828	162.31
418.051	142.31
418.274	150.31
418.497	144.31
418.72	149.31
418.943	157.31
419.166	130.31
419.389	141.31
419.611	149.31
419.834	163.31
420.057	162.31
420.28	160.31
420.503	159.31
420.726	135.31
420.948	135.31
421.171	143.31
421.394	154.31
421.617	145.31
421.839	137.31
422.062	143.31
422.285	158.31
422.507	157.31
422.73	151.31
422.953	148.31
423.175	151.31
423.398	142.31
423.621	158.31
423.843	145.31
424.066	139.31
424.288	153.31
424.511	149.31
424.733	159.31
424.956	146.31
425.178	153.31
425.401	173.31
425.623	198.31
425.846	172.31
426.068	159.31
426.291	184.31
426.513	147.31
426.735	146.31
426.958	164.31
427.18	174.31
427.402	192.31
427.625	192.31
427.847	168.31
428.069	156.31
428.292	153.31
428.514	160.31
428.736	134.31
428.958	152.31
429.181	160.31
429.403	143.31
429.625	138.31
429.847	150.31
430.069	144.31
430.292	134.31
430.514	140.31
430.736	148.31
430.958	184.31
431.18	162.31
431.402	140.31
431.624	129.31
431.846	124.31
432.068	142.31
432.29	151.31
432.512	142.31
432.734	171.31
432.956	154.31
433.178	144.31
433.4	143.31
433.622	145.31
433.844	158.31
434.066	180.31
434.287	140.31
434.509	135.31
434.731	145.31
434.953	138.31
435.175	141.31
435.397	161.31
435.618	157.31
435.84	135.31
436.062	128.31
436.284	136.31
436.505	122.31
436.727	121.31
436.949	147.31
437.17	136.31
437.392	133.31
437.614	125.31
437.835	133.31
438.057	129.31
438.278	139.31
438.5	168.31
438.721	167.31
438.943	130.31
439.165	140.31
439.386	122.31
439.608	137.31
439.829	123.31
440.05	124.31
440.272	134.31
440.493	164.31
440.715	170.31
440.936	160.31
441.158	135.31
441.379	129.31
441.6	143.31
441.822	149.31
442.043	147.31
442.264	147.31
442.486	151.31
442.707	141.31
442.928	132.31
443.149	137.31
443.371	143.31
443.592	148.31
443.813	140.31
444.034	150.31
444.255	135.31
444.476	142.31
444.698	142.31
444.919	142.31
445.14	285.31
445.361	205.31
445.582	152.31
445.803	161.31
446.024	152.31
446.245	170.31
446.466	164.31
446.687	142.31
446.908	141.31
447.129	124.31
447.35	130.31
447.571	150.31
447.792	145.31
448.013	134.31
448.234	133.31
448.455	142.31
448.675	142.31
448.896	139.31
449.117	132.31
449.338	144.31
449.559	132.31
449.779	162.31
450	152.31
450.221	160.31
450.442	141.31
450.662	130.31
450.883	126.31
451.104	121.31
451.324	140.31
451.545	136.31
451.766	132.31
451.986	136.31
452.207	128.31
452.428	121.31
452.648	148.31
452.869	144.31
453.089	140.31
453.31	126.31
453.53	130.31
453.751	140.31
453.971	134.31
454.192	141.31
454.412	137.31
454.633	112.31
454.853	124.31
455.073	124.31
455.294	134.31
455.514	143.31
455.734	146.31
455.955	136.31
456.175	138.31
456.395	139.31
456.616	138.31
456.836	126.31
457.056	125.31
457.276	116.31
457.497	132.31
457.717	132.31
457.937	127.31
458.157	124.31
458.377	129.31
458.598	138.31
458.818	140.31
459.038	120.31
459.258	141.31
459.478	138.31
459.698	143.31
459.918	146.31
460.138	129.31
460.358	139.31
460.578	136.31
460.798	150.31
461.018	150.31
461.238	129.31
461.458	139.31
461.678	144.31
461.898	150.31
462.118	130.31
462.338	150.31
462.558	143.31
462.777	150.31
462.997	149.31
463.217	145.31
463.437	144.31
463.657	138.31
463.876	130.31
464.096	139.31
464.316	155.31
464.536	141.31
464.755	151.31
464.975	164.31
465.195	161.31
465.414	151.31
465.634	128.31
465.854	133.31
466.073	133.31
466.293	143.31
466.512	137.31
466.732	152.31
466.951	172.31
467.171	153.31
467.391	144.31
467.61	136.31
467.829	144.31
468.049	137.31
468.268	144.31
468.488	130.31
468.707	123.31
468.927	156.31
469.146	164.31
469.365	149.31
469.585	152.31
469.804	133.31
470.023	158.31
470.243	156.31
470.462	144.31
470.681	138.31
470.901	167.31
471.12	162.31
471.339	154.31
471.558	141.31
471.777	146.31
471.997	146.31
472.216	173.31
472.435	147.31
472.654	161.31
472.873	145.31
473.092	152.31
473.311	152.31
473.53	150.31
473.749	156.31
473.968	142.31
474.187	149.31
474.406	141.31
474.625	141.31
474.844	145.31
475.063	146.31
475.282	152.31
475.501	162.31
475.72	196.31
475.939	172.31
476.158	160.31
476.377	195.31
476.596	207.31
476.814	213.31
477.033	200.31
477.252	158.31
477.471	165.31
477.69	148.31
477.908	154.31
478.127	156.31
478.346	163.31
478.564	194.31
478.783	168.31
479.002	167.31
479.22	185.31
479.439	181.31
479.658	162.31
479.876	151.31
480.095	162.31
480.313	154.31
480.532	154.31
480.751	157.31
480.969	148.31
481.188	171.31
481.406	163.31
481.624	156.31
481.843	162.31
482.061	150.31
482.28	172.31
482.498	204.31
482.717	207.31
482.935	180.31
483.153	154.31
483.372	152.31
483.59	141.31
483.808	144.31
484.027	152.31
484.245	154.31
484.463	145.31
484.681	144.31
484.9	153.31
485.118	155.31
485.336	152.31
485.554	149.31
485.772	148.31
485.99	157.31
486.209	183.31
486.427	175.31
486.645	148.31
486.863	180.31
487.081	172.31
487.299	186.31
487.517	174.31
487.735	158.31
487.953	164.31
488.171	158.31
488.389	168.31
488.607	166.31
488.825	161.31
489.043	178.31
489.261	184.31
489.479	195.31
489.696	165.31
489.914	156.31
490.132	151.31
490.35	161.31
490.568	152.31
490.786	148.31
491.003	139.31
491.221	168.31
491.439	171.31
491.657	157.31
491.874	170.31
492.092	204.31
492.31	230.31
492.527	228.31
492.745	190.31
492.963	154.31
493.18	181.31
493.398	163.31
493.615	161.31
493.833	176.31
494.05	164.31
494.268	170.31
494.485	165.31
494.703	152.31
494.92	166.31
495.138	162.31
495.355	161.31
495.573	171.31
495.79	179.31
496.008	240.31
496.225	211.31
496.442	166.31
496.66	177.31
496.877	188.31
497.094	170.31
497.312	173.31
497.529	161.31
497.746	181.31
497.963	168.31
498.181	188.31
498.398	189.31
498.615	202.31
498.832	184.31
499.049	191.31
499.267	201.31
499.484	189.31
499.701	190.31
499.918	209.31
500.135	222.31
500.352	228.31
500.569	231.31
500.786	241.31
501.003	242.31
501.22	212.31
501.437	222.31
501.654	212.31
501.871	204.31
502.088	216.31
502.305	196.31
502.522	180.31
502.739	185.31
