Data from NickelSpatula_HRD10591_16-33-51-125.txt Node
Date: Mon Jul 22 16:33:51 EDT 2019
User: cochatt
Spectrometer: HR+D1059
Trigger mode: 1
Integration Time (sec): 1.000000E-1
Scans to average: 1
Electric dark correction enabled: true
Nonlinearity correction enabled: false
Boxcar width: 0
XAxis mode: Wavelengths
Number of Pixels in Spectrum: 2048
>>>>>Begin Spectral Data<<<<<
223.165	-13.19
223.4	-13.19
223.635	-13.19
223.869	-1.19
224.104	-22.19
224.338	-8.19
224.573	-20.19
224.808	-8.19
225.042	-9.19
225.277	-10.19
225.511	-12.19
225.746	-1.19
225.98	2.81
226.215	5.81
226.449	14.81
226.683	21.81
226.918	28.81
227.152	31.81
227.387	32.81
227.621	38.81
227.856	45.81
228.09	46.81
228.324	53.81
228.559	57.81
228.793	56.81
229.027	72.81
229.262	65.81
229.496	75.81
229.73	98.81
229.964	90.81
230.199	83.81
230.433	97.81
230.667	101.81
230.901	84.81
231.136	100.81
231.37	105.81
231.604	96.81
231.838	115.81
232.072	95.81
232.306	98.81
232.541	95.81
232.775	94.81
233.009	107.81
233.243	103.81
233.477	104.81
233.711	115.81
233.945	113.81
234.179	100.81
234.413	112.81
234.647	115.81
234.881	150.81
235.115	128.81
235.349	124.81
235.583	134.81
235.817	118.81
236.051	116.81
236.285	102.81
236.519	128.81
236.753	128.81
236.987	139.81
237.221	123.81
237.455	115.81
237.689	129.81
237.922	117.81
238.156	130.81
238.39	138.81
238.624	133.81
238.858	136.81
239.091	143.81
239.325	138.81
239.559	125.81
239.793	139.81
240.027	150.81
240.26	160.81
240.494	139.81
240.728	163.81
240.961	165.81
241.195	144.81
241.429	160.81
241.662	149.81
241.896	140.81
242.13	122.81
242.363	132.81
242.597	123.81
242.83	135.81
243.064	147.81
243.298	137.81
243.531	141.81
243.765	162.81
243.998	161.81
244.232	156.81
244.465	154.81
244.699	164.81
244.932	169.81
245.166	156.81
245.399	160.81
245.633	146.81
245.866	138.81
246.099	150.81
246.333	154.81
246.566	179.81
246.8	166.81
247.033	166.81
247.266	160.81
247.5	176.81
247.733	163.81
247.966	167.81
248.2	180.81
248.433	174.81
248.666	163.81
248.899	184.81
249.133	181.81
249.366	208.81
249.599	228.81
249.832	220.81
250.066	184.81
250.299	200.81
250.532	186.81
250.765	170.81
250.998	155.81
251.231	156.81
251.465	187.81
251.698	181.81
251.931	192.81
252.164	182.81
252.397	199.81
252.63	198.81
252.863	243.81
253.096	258.81
253.329	215.81
253.562	230.81
253.795	258.81
254.028	272.81
254.261	289.81
254.494	266.81
254.727	253.81
254.96	232.81
255.193	240.81
255.426	245.81
255.659	202.81
255.892	194.81
256.124	196.81
256.357	220.81
256.59	252.81
256.823	230.81
257.056	220.81
257.289	187.81
257.521	213.81
257.754	224.81
257.987	267.81
258.22	217.81
258.452	178.81
258.685	222.81
258.918	249.81
259.151	243.81
259.383	265.81
259.616	309.81
259.849	291.81
260.081	324.81
260.314	336.81
260.547	282.81
260.779	294.81
261.012	336.81
261.244	326.81
261.477	319.81
261.71	310.81
261.942	261.81
262.175	259.81
262.407	251.81
262.64	239.81
262.872	274.81
263.105	318.81
263.337	320.81
263.57	315.81
263.802	208.81
264.035	204.81
264.267	212.81
264.499	177.81
264.732	166.81
264.964	180.81
265.197	167.81
265.429	195.81
265.661	182.81
265.894	190.81
266.126	201.81
266.358	226.81
266.591	266.81
266.823	285.81
267.055	292.81
267.287	268.81
267.52	272.81
267.752	252.81
267.984	296.81
268.216	272.81
268.448	240.81
268.681	229.81
268.913	244.81
269.145	259.81
269.377	293.81
269.609	250.81
269.841	260.81
270.073	261.81
270.306	286.81
270.538	292.81
270.77	270.81
271.002	289.81
271.234	303.81
271.466	305.81
271.698	290.81
271.93	274.81
272.162	279.81
272.394	269.81
272.626	279.81
272.858	274.81
273.09	280.81
273.322	253.81
273.553	235.81
273.785	272.81
274.017	352.81
274.249	417.81
274.481	414.81
274.713	476.81
274.945	545.81
275.176	547.81
275.408	498.81
275.64	455.81
275.872	464.81
276.104	402.81
276.335	346.81
276.567	350.81
276.799	361.81
277.031	362.81
277.262	318.81
277.494	253.81
277.726	235.81
277.957	248.81
278.189	299.81
278.421	290.81
278.652	295.81
278.884	265.81
279.115	249.81
279.347	234.81
279.579	223.81
279.81	245.81
280.042	244.81
280.273	230.81
280.505	223.81
280.736	222.81
280.968	223.81
281.199	241.81
281.431	270.81
281.662	246.81
281.894	220.81
282.125	245.81
282.356	285.81
282.588	275.81
282.819	254.81
283.051	271.81
283.282	310.81
283.513	320.81
283.745	387.81
283.976	393.81
284.207	355.81
284.439	372.81
284.67	370.81
284.901	321.81
285.132	328.81
285.364	360.81
285.595	331.81
285.826	344.81
286.057	383.81
286.288	367.81
286.52	367.81
286.751	382.81
286.982	369.81
287.213	343.81
287.444	334.81
287.675	343.81
287.906	345.81
288.138	313.81
288.369	263.81
288.6	250.81
288.831	261.81
289.062	308.81
289.293	339.81
289.524	312.81
289.755	304.81
289.986	317.81
290.217	275.81
290.448	235.81
290.679	191.81
290.91	182.81
291.141	199.81
291.371	213.81
291.602	216.81
291.833	211.81
292.064	218.81
292.295	231.81
292.526	259.81
292.757	280.81
292.987	291.81
293.218	302.81
293.449	298.81
293.68	339.81
293.91	292.81
294.141	348.81
294.372	304.81
294.603	294.81
294.833	308.81
295.064	345.81
295.295	331.81
295.525	262.81
295.756	239.81
295.987	210.81
296.217	216.81
296.448	218.81
296.679	238.81
296.909	232.81
297.14	234.81
297.37	277.81
297.601	265.81
297.831	226.81
298.062	248.81
298.292	268.81
298.523	294.81
298.753	313.81
298.984	285.81
299.214	256.81
299.445	235.81
299.675	224.81
299.905	222.81
300.136	212.81
300.366	221.81
300.597	227.81
300.827	218.81
301.057	202.81
301.288	211.81
301.518	214.81
301.748	232.81
301.979	265.81
302.209	258.81
302.439	255.81
302.669	233.81
302.9	252.81
303.13	231.81
303.36	238.81
303.59	200.81
303.82	200.81
304.051	240.81
304.281	260.81
304.511	245.81
304.741	246.81
304.971	241.81
305.201	256.81
305.431	258.81
305.661	209.81
305.891	217.81
306.121	228.81
306.352	186.81
306.582	194.81
306.812	194.81
307.042	174.81
307.272	169.81
307.502	199.81
307.731	184.81
307.961	177.81
308.191	178.81
308.421	158.81
308.651	157.81
308.881	181.81
309.111	176.81
309.341	183.81
309.571	194.81
309.8	193.81
310.03	188.81
310.26	191.81
310.49	206.81
310.72	177.81
310.949	196.81
311.179	184.81
311.409	193.81
311.639	196.81
311.868	252.81
312.098	308.81
312.328	336.81
312.557	334.81
312.787	330.81
313.017	307.81
313.246	327.81
313.476	338.81
313.706	292.81
313.935	246.81
314.165	210.81
314.394	213.81
314.624	187.81
314.853	192.81
315.083	217.81
315.312	187.81
315.542	201.81
315.771	195.81
316.001	193.81
316.23	195.81
316.46	187.81
316.689	192.81
316.919	186.81
317.148	180.81
317.377	179.81
317.607	176.81
317.836	188.81
318.065	224.81
318.295	208.81
318.524	227.81
318.753	204.81
318.983	199.81
319.212	193.81
319.441	188.81
319.67	218.81
319.9	229.81
320.129	231.81
320.358	185.81
320.587	197.81
320.816	193.81
321.046	220.81
321.275	243.81
321.504	244.81
321.733	235.81
321.962	223.81
322.191	219.81
322.42	198.81
322.649	219.81
322.878	243.81
323.108	232.81
323.337	203.81
323.566	228.81
323.795	201.81
324.024	211.81
324.253	207.81
324.482	200.81
324.71	195.81
324.939	223.81
325.168	203.81
325.397	186.81
325.626	198.81
325.855	183.81
326.084	197.81
326.313	187.81
326.542	174.81
326.77	172.81
326.999	182.81
327.228	180.81
327.457	206.81
327.686	196.81
327.914	183.81
328.143	169.81
328.372	177.81
328.6	192.81
328.829	185.81
329.058	181.81
329.287	186.81
329.515	200.81
329.744	185.81
329.972	156.81
330.201	174.81
330.43	165.81
330.658	213.81
330.887	205.81
331.115	192.81
331.344	203.81
331.572	206.81
331.801	208.81
332.03	188.81
332.258	170.81
332.486	206.81
332.715	190.81
332.943	203.81
333.172	210.81
333.4	197.81
333.629	192.81
333.857	231.81
334.085	223.81
334.314	217.81
334.542	204.81
334.771	193.81
334.999	184.81
335.227	183.81
335.455	192.81
335.684	217.81
335.912	238.81
336.14	256.81
336.369	250.81
336.597	226.81
336.825	249.81
337.053	293.81
337.281	241.81
337.51	195.81
337.738	186.81
337.966	187.81
338.194	224.81
338.422	204.81
338.65	191.81
338.878	177.81
339.106	188.81
339.334	205.81
339.562	232.81
339.79	210.81
340.018	200.81
340.246	194.81
340.474	209.81
340.702	226.81
340.93	233.81
341.158	256.81
341.386	217.81
341.614	203.81
341.842	212.81
342.07	215.81
342.298	218.81
342.526	252.81
342.754	227.81
342.981	215.81
343.209	198.81
343.437	229.81
343.665	240.81
343.893	222.81
344.12	258.81
344.348	302.81
344.576	288.81
344.804	207.81
345.031	206.81
345.259	203.81
345.487	193.81
345.714	190.81
345.942	192.81
346.17	239.81
346.397	227.81
346.625	188.81
346.853	184.81
347.08	193.81
347.308	205.81
347.535	220.81
347.763	230.81
347.99	204.81
348.218	178.81
348.445	187.81
348.673	185.81
348.9	167.81
349.128	204.81
349.355	197.81
349.583	190.81
349.81	187.81
350.037	183.81
350.265	170.81
350.492	171.81
350.72	174.81
350.947	163.81
351.174	178.81
351.402	178.81
351.629	186.81
351.856	192.81
352.083	168.81
352.311	190.81
352.538	196.81
352.765	213.81
352.992	217.81
353.22	195.81
353.447	201.81
353.674	191.81
353.901	186.81
354.128	180.81
354.355	179.81
354.583	192.81
354.81	198.81
355.037	202.81
355.264	208.81
355.491	201.81
355.718	223.81
355.945	210.81
356.172	182.81
356.399	202.81
356.626	222.81
356.853	263.81
357.08	300.81
357.307	299.81
357.534	234.81
357.761	244.81
357.988	293.81
358.215	310.81
358.441	316.81
358.668	283.81
358.895	258.81
359.122	223.81
359.349	229.81
359.576	224.81
359.802	209.81
360.029	188.81
360.256	192.81
360.483	216.81
360.709	254.81
360.936	286.81
361.163	254.81
361.39	219.81
361.616	190.81
361.843	211.81
362.07	254.81
362.296	236.81
362.523	195.81
362.749	186.81
362.976	184.81
363.203	213.81
363.429	242.81
363.656	204.81
363.882	186.81
364.109	195.81
364.335	187.81
364.562	169.81
364.788	215.81
365.015	236.81
365.241	229.81
365.468	179.81
365.694	169.81
365.92	165.81
366.147	166.81
366.373	163.81
366.599	149.81
366.826	162.81
367.052	172.81
367.278	159.81
367.505	169.81
367.731	182.81
367.957	188.81
368.184	204.81
368.41	192.81
368.636	192.81
368.862	207.81
369.089	180.81
369.315	191.81
369.541	178.81
369.767	182.81
369.993	178.81
370.219	178.81
370.445	181.81
370.672	187.81
370.898	214.81
371.124	202.81
371.35	189.81
371.576	190.81
371.802	191.81
372.028	193.81
372.254	231.81
372.48	213.81
372.706	193.81
372.932	217.81
373.158	210.81
373.384	224.81
373.61	293.81
373.835	296.81
374.061	242.81
374.287	205.81
374.513	229.81
374.739	263.81
374.965	295.81
375.191	292.81
375.416	227.81
375.642	192.81
375.868	199.81
376.094	223.81
376.319	197.81
376.545	219.81
376.771	237.81
376.997	227.81
377.222	157.81
377.448	177.81
377.674	156.81
377.899	159.81
378.125	162.81
378.35	163.81
378.576	161.81
378.802	160.81
379.027	182.81
379.253	169.81
379.478	186.81
379.704	190.81
379.929	220.81
380.155	214.81
380.38	181.81
380.606	197.81
380.831	208.81
381.057	200.81
381.282	195.81
381.507	216.81
381.733	256.81
381.958	252.81
382.184	255.81
382.409	289.81
382.634	280.81
382.86	286.81
383.085	247.81
383.31	213.81
383.535	222.81
383.761	215.81
383.986	205.81
384.211	254.81
384.436	241.81
384.662	203.81
384.887	204.81
385.112	194.81
385.337	197.81
385.562	188.81
385.787	218.81
386.013	225.81
386.238	244.81
386.463	207.81
386.688	193.81
386.913	190.81
387.138	178.81
387.363	200.81
387.588	198.81
387.813	190.81
388.038	220.81
388.263	190.81
388.488	189.81
388.713	225.81
388.938	245.81
389.163	188.81
389.387	173.81
389.612	197.81
389.837	199.81
390.062	190.81
390.287	199.81
390.512	186.81
390.736	192.81
390.961	188.81
391.186	174.81
391.411	164.81
391.636	175.81
391.86	178.81
392.085	220.81
392.31	197.81
392.534	203.81
392.759	199.81
392.984	181.81
393.208	190.81
393.433	202.81
393.658	178.81
393.882	173.81
394.107	157.81
394.331	156.81
394.556	170.81
394.78	159.81
395.005	167.81
395.229	171.81
395.454	182.81
395.678	184.81
395.903	184.81
396.127	194.81
396.352	183.81
396.576	175.81
396.801	194.81
397.025	209.81
397.249	218.81
397.474	204.81
397.698	196.81
397.922	200.81
398.147	190.81
398.371	202.81
398.595	198.81
398.82	186.81
399.044	184.81
399.268	224.81
399.492	228.81
399.717	243.81
399.941	211.81
400.165	224.81
400.389	203.81
400.613	210.81
400.837	194.81
401.062	184.81
401.286	195.81
401.51	180.81
401.734	197.81
401.958	200.81
402.182	200.81
402.406	208.81
402.63	181.81
402.854	191.81
403.078	210.81
403.302	268.81
403.526	288.81
403.75	242.81
403.974	216.81
404.198	239.81
404.422	242.81
404.645	243.81
404.869	293.81
405.093	238.81
405.317	204.81
405.541	211.81
405.765	196.81
405.988	208.81
406.212	222.81
406.436	214.81
406.66	259.81
406.883	216.81
407.107	209.81
407.331	258.81
407.555	250.81
407.778	217.81
408.002	226.81
408.226	220.81
408.449	213.81
408.673	227.81
408.896	206.81
409.12	172.81
409.344	181.81
409.567	185.81
409.791	192.81
410.014	189.81
410.238	188.81
410.461	182.81
410.685	193.81
410.908	195.81
411.132	206.81
411.355	184.81
411.578	193.81
411.802	184.81
412.025	201.81
412.249	205.81
412.472	198.81
412.695	197.81
412.919	203.81
413.142	192.81
413.365	202.81
413.589	201.81
413.812	230.81
414.035	195.81
414.258	207.81
414.482	226.81
414.705	209.81
414.928	195.81
415.151	201.81
415.374	178.81
415.597	186.81
415.821	191.81
416.044	178.81
416.267	192.81
416.49	191.81
416.713	189.81
416.936	188.81
417.159	177.81
417.382	183.81
417.605	191.81
417.828	182.81
418.051	185.81
418.274	200.81
418.497	187.81
418.72	201.81
418.943	204.81
419.166	204.81
419.389	206.81
419.611	197.81
419.834	210.81
420.057	212.81
420.28	209.81
420.503	225.81
420.726	185.81
420.948	178.81
421.171	206.81
421.394	194.81
421.617	179.81
421.839	179.81
422.062	190.81
422.285	184.81
422.507	199.81
422.73	191.81
422.953	197.81
423.175	183.81
423.398	207.81
423.621	201.81
423.843	220.81
424.066	197.81
424.288	202.81
424.511	188.81
424.733	201.81
424.956	185.81
425.178	215.81
425.401	244.81
425.623	251.81
425.846	228.81
426.068	206.81
426.291	215.81
426.513	201.81
426.735	203.81
426.958	203.81
427.18	217.81
427.402	267.81
427.625	282.81
427.847	229.81
428.069	189.81
428.292	180.81
428.514	201.81
428.736	165.81
428.958	193.81
429.181	225.81
429.403	211.81
429.625	187.81
429.847	185.81
430.069	191.81
430.292	190.81
430.514	165.81
430.736	161.81
430.958	212.81
431.18	216.81
431.402	178.81
431.624	166.81
431.846	188.81
432.068	164.81
432.29	180.81
432.512	186.81
432.734	228.81
432.956	216.81
433.178	193.81
433.4	170.81
433.622	173.81
433.844	184.81
434.066	192.81
434.287	199.81
434.509	201.81
434.731	204.81
434.953	194.81
435.175	194.81
435.397	207.81
435.618	188.81
435.84	179.81
436.062	192.81
436.284	178.81
436.505	166.81
436.727	159.81
436.949	171.81
437.17	177.81
437.392	185.81
437.614	171.81
437.835	178.81
438.057	178.81
438.278	186.81
438.5	257.81
438.721	258.81
438.943	196.81
439.165	164.81
439.386	194.81
439.608	179.81
439.829	165.81
440.05	167.81
440.272	176.81
440.493	197.81
440.715	233.81
440.936	193.81
441.158	179.81
441.379	180.81
441.6	203.81
441.822	215.81
442.043	196.81
442.264	182.81
442.486	189.81
442.707	193.81
442.928	183.81
443.149	188.81
443.371	184.81
443.592	198.81
443.813	176.81
444.034	184.81
444.255	191.81
444.476	197.81
444.698	182.81
444.919	193.81
445.14	332.81
445.361	263.81
445.582	208.81
445.803	199.81
446.024	199.81
446.245	204.81
446.466	181.81
446.687	191.81
446.908	172.81
447.129	181.81
447.35	170.81
447.571	160.81
447.792	155.81
448.013	170.81
448.234	162.81
448.455	176.81
448.675	179.81
448.896	152.81
449.117	165.81
449.338	174.81
449.559	189.81
449.779	160.81
450	187.81
450.221	178.81
450.442	184.81
450.662	184.81
450.883	180.81
451.104	170.81
451.324	158.81
451.545	175.81
451.766	176.81
451.986	163.81
452.207	160.81
452.428	153.81
452.648	179.81
452.869	186.81
453.089	191.81
453.31	191.81
453.53	168.81
453.751	175.81
453.971	161.81
454.192	179.81
454.412	175.81
454.633	163.81
454.853	184.81
455.073	167.81
455.294	158.81
455.514	148.81
455.734	163.81
455.955	169.81
456.175	188.81
456.395	148.81
456.616	145.81
456.836	147.81
457.056	166.81
457.276	155.81
457.497	149.81
457.717	163.81
457.937	162.81
458.157	156.81
458.377	163.81
458.598	158.81
458.818	159.81
459.038	157.81
459.258	172.81
459.478	175.81
459.698	195.81
459.918	185.81
460.138	193.81
460.358	183.81
460.578	200.81
460.798	198.81
461.018	187.81
461.238	191.81
461.458	193.81
461.678	185.81
461.898	193.81
462.118	173.81
462.338	187.81
462.558	203.81
462.777	217.81
462.997	222.81
463.217	212.81
463.437	206.81
463.657	213.81
463.876	201.81
464.096	192.81
464.316	210.81
464.536	211.81
464.755	229.81
464.975	219.81
465.195	196.81
465.414	196.81
465.634	201.81
465.854	186.81
466.073	184.81
466.293	175.81
466.512	187.81
466.732	189.81
466.951	213.81
467.171	182.81
467.391	188.81
467.61	170.81
467.829	179.81
468.049	190.81
468.268	188.81
468.488	191.81
468.707	192.81
468.927	209.81
469.146	213.81
469.365	211.81
469.585	194.81
469.804	201.81
470.023	212.81
470.243	216.81
470.462	195.81
470.681	198.81
470.901	185.81
471.12	198.81
471.339	198.81
471.558	182.81
471.777	187.81
471.997	206.81
472.216	215.81
472.435	210.81
472.654	180.81
472.873	226.81
473.092	208.81
473.311	211.81
473.53	191.81
473.749	183.81
473.968	199.81
474.187	206.81
474.406	193.81
474.625	178.81
474.844	185.81
475.063	204.81
475.282	195.81
475.501	222.81
475.72	249.81
475.939	220.81
476.158	223.81
476.377	248.81
476.596	266.81
476.814	281.81
477.033	241.81
477.252	196.81
477.471	185.81
477.69	191.81
477.908	212.81
478.127	204.81
478.346	219.81
478.564	246.81
478.783	213.81
479.002	196.81
479.22	234.81
479.439	256.81
479.658	245.81
479.876	216.81
480.095	233.81
480.313	217.81
480.532	235.81
480.751	223.81
480.969	217.81
481.188	227.81
481.406	245.81
481.624	236.81
481.843	211.81
482.061	203.81
482.28	224.81
482.498	287.81
482.717	270.81
482.935	218.81
483.153	219.81
483.372	214.81
483.59	202.81
483.808	192.81
484.027	209.81
484.245	196.81
484.463	185.81
484.681	205.81
484.9	198.81
485.118	226.81
485.336	195.81
485.554	194.81
485.772	210.81
485.99	219.81
486.209	239.81
486.427	242.81
486.645	238.81
486.863	231.81
487.081	221.81
487.299	262.81
487.517	264.81
487.735	250.81
487.953	223.81
488.171	230.81
488.389	218.81
488.607	216.81
488.825	219.81
489.043	235.81
489.261	270.81
489.479	265.81
489.696	238.81
489.914	209.81
490.132	204.81
490.35	199.81
490.568	210.81
490.786	199.81
491.003	211.81
491.221	230.81
491.439	227.81
491.657	206.81
491.874	223.81
492.092	296.81
492.31	315.81
492.527	298.81
492.745	253.81
492.963	236.81
493.18	223.81
493.398	229.81
493.615	230.81
493.833	223.81
494.05	227.81
494.268	229.81
494.485	253.81
494.703	218.81
494.92	223.81
495.138	235.81
495.355	225.81
495.573	241.81
495.79	240.81
496.008	318.81
496.225	251.81
496.442	257.81
496.66	252.81
496.877	242.81
497.094	234.81
497.312	227.81
497.529	235.81
497.746	229.81
497.963	259.81
498.181	274.81
498.398	291.81
498.615	287.81
498.832	303.81
499.049	309.81
499.267	313.81
499.484	282.81
499.701	313.81
499.918	332.81
500.135	357.81
500.352	364.81
500.569	403.81
500.786	402.81
501.003	387.81
501.22	361.81
501.437	314.81
501.654	306.81
501.871	292.81
502.088	290.81
502.305	278.81
502.522	276.81
502.739	292.81
