Data from NickelSpatula_HRD10591_16-34-03-125.txt Node
Date: Mon Jul 22 16:34:03 EDT 2019
User: cochatt
Spectrometer: HR+D1059
Trigger mode: 1
Integration Time (sec): 1.000000E-1
Scans to average: 1
Electric dark correction enabled: true
Nonlinearity correction enabled: false
Boxcar width: 0
XAxis mode: Wavelengths
Number of Pixels in Spectrum: 2048
>>>>>Begin Spectral Data<<<<<
223.165	-4.44
223.4	-4.44
223.635	-4.44
223.869	-11.44
224.104	-21.44
224.338	-26.44
224.573	-15.44
224.808	-15.44
225.042	-3.44
225.277	-4.44
225.511	9.56
225.746	-2.44
225.98	9.56
226.215	4.56
226.449	14.56
226.683	15.56
226.918	24.56
227.152	26.56
227.387	27.56
227.621	36.56
227.856	42.56
228.09	45.56
228.324	52.56
228.559	65.56
228.793	64.56
229.027	78.56
229.262	86.56
229.496	78.56
229.73	80.56
229.964	89.56
230.199	100.56
230.433	104.56
230.667	93.56
230.901	93.56
231.136	105.56
231.37	101.56
231.604	91.56
231.838	98.56
232.072	102.56
232.306	109.56
232.541	107.56
232.775	109.56
233.009	119.56
233.243	115.56
233.477	103.56
233.711	121.56
233.945	122.56
234.179	126.56
234.413	106.56
234.647	130.56
234.881	129.56
235.115	133.56
235.349	120.56
235.583	103.56
235.817	114.56
236.051	112.56
236.285	121.56
236.519	122.56
236.753	108.56
236.987	111.56
237.221	118.56
237.455	128.56
237.689	110.56
237.922	144.56
238.156	143.56
238.39	151.56
238.624	162.56
238.858	146.56
239.091	127.56
239.325	134.56
239.559	147.56
239.793	132.56
240.027	164.56
240.26	158.56
240.494	157.56
240.728	150.56
240.961	161.56
241.195	168.56
241.429	161.56
241.662	166.56
241.896	131.56
242.13	134.56
242.363	133.56
242.597	131.56
242.83	152.56
243.064	152.56
243.298	147.56
243.531	172.56
243.765	166.56
243.998	159.56
244.232	156.56
244.465	160.56
244.699	152.56
244.932	165.56
245.166	173.56
245.399	156.56
245.633	160.56
245.866	152.56
246.099	146.56
246.333	172.56
246.566	190.56
246.8	194.56
247.033	165.56
247.266	165.56
247.5	167.56
247.733	164.56
247.966	155.56
248.2	170.56
248.433	157.56
248.666	180.56
248.899	194.56
249.133	178.56
249.366	227.56
249.599	233.56
249.832	204.56
250.066	202.56
250.299	197.56
250.532	198.56
250.765	181.56
250.998	186.56
251.231	169.56
251.465	192.56
251.698	201.56
251.931	177.56
252.164	192.56
252.397	206.56
252.63	222.56
252.863	225.56
253.096	266.56
253.329	238.56
253.562	245.56
253.795	252.56
254.028	296.56
254.261	294.56
254.494	270.56
254.727	243.56
254.96	241.56
255.193	260.56
255.426	246.56
255.659	198.56
255.892	185.56
256.124	197.56
256.357	236.56
256.59	277.56
256.823	236.56
257.056	205.56
257.289	204.56
257.521	221.56
257.754	263.56
257.987	296.56
258.22	225.56
258.452	234.56
258.685	248.56
258.918	300.56
259.151	270.56
259.383	273.56
259.616	331.56
259.849	328.56
260.081	336.56
260.314	395.56
260.547	320.56
260.779	317.56
261.012	368.56
261.244	330.56
261.477	350.56
261.71	308.56
261.942	265.56
262.175	269.56
262.407	234.56
262.64	270.56
262.872	306.56
263.105	336.56
263.337	346.56
263.57	338.56
263.802	236.56
264.035	211.56
264.267	205.56
264.499	189.56
264.732	178.56
264.964	164.56
265.197	181.56
265.429	200.56
265.661	198.56
265.894	202.56
266.126	224.56
266.358	207.56
266.591	266.56
266.823	330.56
267.055	317.56
267.287	274.56
267.52	274.56
267.752	277.56
267.984	325.56
268.216	311.56
268.448	270.56
268.681	244.56
268.913	272.56
269.145	275.56
269.377	291.56
269.609	278.56
269.841	260.56
270.073	290.56
270.306	299.56
270.538	297.56
270.77	292.56
271.002	305.56
271.234	315.56
271.466	337.56
271.698	312.56
271.93	313.56
272.162	290.56
272.394	294.56
272.626	289.56
272.858	295.56
273.09	292.56
273.322	266.56
273.553	267.56
273.785	292.56
274.017	393.56
274.249	418.56
274.481	467.56
274.713	508.56
274.945	563.56
275.176	613.56
275.408	543.56
275.64	489.56
275.872	493.56
276.104	436.56
276.335	357.56
276.567	369.56
276.799	394.56
277.031	404.56
277.262	329.56
277.494	268.56
277.726	261.56
277.957	284.56
278.189	299.56
278.421	312.56
278.652	286.56
278.884	268.56
279.115	268.56
279.347	270.56
279.579	250.56
279.81	265.56
280.042	245.56
280.273	265.56
280.505	261.56
280.736	230.56
280.968	223.56
281.199	241.56
281.431	276.56
281.662	260.56
281.894	250.56
282.125	268.56
282.356	280.56
282.588	276.56
282.819	273.56
283.051	280.56
283.282	324.56
283.513	378.56
283.745	410.56
283.976	430.56
284.207	383.56
284.439	403.56
284.67	396.56
284.901	366.56
285.132	360.56
285.364	374.56
285.595	356.56
285.826	386.56
286.057	374.56
286.288	371.56
286.52	376.56
286.751	390.56
286.982	418.56
287.213	350.56
287.444	320.56
287.675	372.56
287.906	373.56
288.138	328.56
288.369	303.56
288.6	278.56
288.831	304.56
289.062	332.56
289.293	342.56
289.524	323.56
289.755	323.56
289.986	325.56
290.217	332.56
290.448	241.56
290.679	227.56
290.91	210.56
291.141	204.56
291.371	228.56
291.602	216.56
291.833	206.56
292.064	233.56
292.295	255.56
292.526	268.56
292.757	288.56
292.987	315.56
293.218	316.56
293.449	334.56
293.68	359.56
293.91	349.56
294.141	325.56
294.372	341.56
294.603	291.56
294.833	317.56
295.064	368.56
295.295	378.56
295.525	283.56
295.756	264.56
295.987	225.56
296.217	239.56
296.448	216.56
296.679	215.56
296.909	254.56
297.14	260.56
297.37	269.56
297.601	278.56
297.831	249.56
298.062	250.56
298.292	289.56
298.523	306.56
298.753	331.56
298.984	306.56
299.214	258.56
299.445	238.56
299.675	219.56
299.905	213.56
300.136	224.56
300.366	256.56
300.597	257.56
300.827	215.56
301.057	206.56
301.288	217.56
301.518	230.56
301.748	238.56
301.979	244.56
302.209	270.56
302.439	293.56
302.669	249.56
302.9	254.56
303.13	244.56
303.36	242.56
303.59	229.56
303.82	243.56
304.051	254.56
304.281	273.56
304.511	272.56
304.741	241.56
304.971	230.56
305.201	262.56
305.431	256.56
305.661	212.56
305.891	212.56
306.121	225.56
306.352	208.56
306.582	194.56
306.812	198.56
307.042	186.56
307.272	187.56
307.502	173.56
307.731	179.56
307.961	200.56
308.191	205.56
308.421	182.56
308.651	199.56
308.881	185.56
309.111	166.56
309.341	184.56
309.571	203.56
309.8	211.56
310.03	212.56
310.26	199.56
310.49	219.56
310.72	198.56
310.949	182.56
311.179	189.56
311.409	202.56
311.639	222.56
311.868	275.56
312.098	344.56
312.328	373.56
312.557	356.56
312.787	360.56
313.017	308.56
313.246	348.56
313.476	369.56
313.706	322.56
313.935	242.56
314.165	234.56
314.394	222.56
314.624	199.56
314.853	226.56
315.083	227.56
315.312	210.56
315.542	201.56
315.771	216.56
316.001	178.56
316.23	186.56
316.46	176.56
316.689	193.56
316.919	188.56
317.148	185.56
317.377	210.56
317.607	187.56
317.836	201.56
318.065	227.56
318.295	249.56
318.524	219.56
318.753	187.56
318.983	205.56
319.212	187.56
319.441	191.56
319.67	228.56
319.9	241.56
320.129	229.56
320.358	210.56
320.587	216.56
320.816	203.56
321.046	228.56
321.275	233.56
321.504	275.56
321.733	230.56
321.962	214.56
322.191	227.56
322.42	215.56
322.649	239.56
322.878	244.56
323.108	251.56
323.337	230.56
323.566	208.56
323.795	226.56
324.024	216.56
324.253	193.56
324.482	192.56
324.71	205.56
324.939	233.56
325.168	222.56
325.397	203.56
325.626	207.56
325.855	206.56
326.084	198.56
326.313	191.56
326.542	192.56
326.77	204.56
326.999	193.56
327.228	201.56
327.457	210.56
327.686	211.56
327.914	198.56
328.143	189.56
328.372	194.56
328.6	185.56
328.829	198.56
329.058	189.56
329.287	192.56
329.515	188.56
329.744	202.56
329.972	183.56
330.201	171.56
330.43	187.56
330.658	219.56
330.887	227.56
331.115	213.56
331.344	196.56
331.572	214.56
331.801	186.56
332.03	173.56
332.258	189.56
332.486	196.56
332.715	213.56
332.943	213.56
333.172	213.56
333.4	196.56
333.629	208.56
333.857	249.56
334.085	219.56
334.314	233.56
334.542	228.56
334.771	204.56
334.999	205.56
335.227	202.56
335.455	199.56
335.684	217.56
335.912	229.56
336.14	269.56
336.369	246.56
336.597	232.56
336.825	267.56
337.053	307.56
337.281	256.56
337.51	203.56
337.738	192.56
337.966	212.56
338.194	229.56
338.422	234.56
338.65	206.56
338.878	182.56
339.106	203.56
339.334	229.56
339.562	204.56
339.79	205.56
340.018	203.56
340.246	206.56
340.474	222.56
340.702	251.56
340.93	263.56
341.158	267.56
341.386	234.56
341.614	234.56
341.842	226.56
342.07	234.56
342.298	269.56
342.526	276.56
342.754	235.56
342.981	217.56
343.209	203.56
343.437	233.56
343.665	251.56
343.893	266.56
344.12	256.56
344.348	330.56
344.576	285.56
344.804	229.56
345.031	210.56
345.259	216.56
345.487	219.56
345.714	197.56
345.942	228.56
346.17	243.56
346.397	228.56
346.625	204.56
346.853	184.56
347.08	199.56
347.308	205.56
347.535	234.56
347.763	233.56
347.99	195.56
348.218	191.56
348.445	201.56
348.673	207.56
348.9	214.56
349.128	212.56
349.355	224.56
349.583	219.56
349.81	192.56
350.037	186.56
350.265	169.56
350.492	183.56
350.72	176.56
350.947	170.56
351.174	190.56
351.402	200.56
351.629	196.56
351.856	181.56
352.083	192.56
352.311	206.56
352.538	217.56
352.765	226.56
352.992	216.56
353.22	211.56
353.447	210.56
353.674	203.56
353.901	205.56
354.128	201.56
354.355	210.56
354.583	208.56
354.81	206.56
355.037	226.56
355.264	216.56
355.491	216.56
355.718	213.56
355.945	232.56
356.172	224.56
356.399	219.56
356.626	250.56
356.853	292.56
357.08	317.56
357.307	323.56
357.534	270.56
357.761	273.56
357.988	319.56
358.215	345.56
358.441	336.56
358.668	276.56
358.895	281.56
359.122	241.56
359.349	233.56
359.576	252.56
359.802	220.56
360.029	193.56
360.256	204.56
360.483	243.56
360.709	292.56
360.936	310.56
361.163	265.56
361.39	213.56
361.616	202.56
361.843	218.56
362.07	261.56
362.296	257.56
362.523	207.56
362.749	193.56
362.976	211.56
363.203	236.56
363.429	253.56
363.656	208.56
363.882	201.56
364.109	204.56
364.335	210.56
364.562	208.56
364.788	219.56
365.015	254.56
365.241	214.56
365.468	195.56
365.694	165.56
365.92	179.56
366.147	171.56
366.373	178.56
366.599	166.56
366.826	165.56
367.052	166.56
367.278	184.56
367.505	171.56
367.731	187.56
367.957	209.56
368.184	217.56
368.41	204.56
368.636	209.56
368.862	201.56
369.089	207.56
369.315	192.56
369.541	197.56
369.767	202.56
369.993	181.56
370.219	185.56
370.445	181.56
370.672	205.56
370.898	216.56
371.124	208.56
371.35	188.56
371.576	180.56
371.802	194.56
372.028	216.56
372.254	249.56
372.48	214.56
372.706	210.56
372.932	214.56
373.158	216.56
373.384	234.56
373.61	311.56
373.835	320.56
374.061	248.56
374.287	228.56
374.513	254.56
374.739	284.56
374.965	304.56
375.191	298.56
375.416	224.56
375.642	209.56
375.868	239.56
376.094	254.56
376.319	235.56
376.545	247.56
376.771	259.56
376.997	220.56
377.222	200.56
377.448	174.56
377.674	160.56
377.899	176.56
378.125	178.56
378.35	167.56
378.576	164.56
378.802	198.56
379.027	206.56
379.253	177.56
379.478	193.56
379.704	206.56
379.929	221.56
380.155	219.56
380.38	188.56
380.606	201.56
380.831	228.56
381.057	213.56
381.282	188.56
381.507	216.56
381.733	265.56
381.958	259.56
382.184	293.56
382.409	291.56
382.634	305.56
382.86	311.56
383.085	263.56
383.31	212.56
383.535	243.56
383.761	237.56
383.986	224.56
384.211	261.56
384.436	271.56
384.662	220.56
384.887	206.56
385.112	232.56
385.337	232.56
385.562	211.56
385.787	203.56
386.013	244.56
386.238	245.56
386.463	202.56
386.688	202.56
386.913	198.56
387.138	193.56
387.363	196.56
387.588	225.56
387.813	221.56
388.038	225.56
388.263	210.56
388.488	197.56
388.713	230.56
388.938	244.56
389.163	216.56
389.387	197.56
389.612	202.56
389.837	199.56
390.062	204.56
390.287	210.56
390.512	211.56
390.736	218.56
390.961	188.56
391.186	213.56
391.411	200.56
391.636	186.56
391.86	188.56
392.085	229.56
392.31	211.56
392.534	195.56
392.759	206.56
392.984	220.56
393.208	211.56
393.433	187.56
393.658	189.56
393.882	183.56
394.107	185.56
394.331	172.56
394.556	162.56
394.78	179.56
395.005	194.56
395.229	202.56
395.454	194.56
395.678	193.56
395.903	202.56
396.127	203.56
396.352	196.56
396.576	206.56
396.801	210.56
397.025	229.56
397.249	244.56
397.474	195.56
397.698	182.56
397.922	198.56
398.147	198.56
398.371	207.56
398.595	224.56
398.82	198.56
399.044	220.56
399.268	234.56
399.492	243.56
399.717	246.56
399.941	232.56
400.165	228.56
400.389	217.56
400.613	217.56
400.837	234.56
401.062	213.56
401.286	197.56
401.51	194.56
401.734	201.56
401.958	199.56
402.182	227.56
402.406	200.56
402.63	221.56
402.854	209.56
403.078	244.56
403.302	278.56
403.526	310.56
403.75	264.56
403.974	215.56
404.198	235.56
404.422	266.56
404.645	270.56
404.869	302.56
405.093	260.56
405.317	225.56
405.541	214.56
405.765	220.56
405.988	211.56
406.212	237.56
406.436	240.56
406.66	280.56
406.883	225.56
407.107	231.56
407.331	267.56
407.555	252.56
407.778	218.56
408.002	228.56
408.226	231.56
408.449	232.56
408.673	221.56
408.896	207.56
409.12	218.56
409.344	201.56
409.567	196.56
409.791	226.56
410.014	210.56
410.238	199.56
410.461	193.56
410.685	194.56
410.908	196.56
411.132	210.56
411.355	203.56
411.578	211.56
411.802	192.56
412.025	198.56
412.249	201.56
412.472	213.56
412.695	212.56
412.919	204.56
413.142	199.56
413.365	211.56
413.589	226.56
413.812	196.56
414.035	221.56
414.258	200.56
414.482	239.56
414.705	227.56
414.928	211.56
415.151	211.56
415.374	198.56
415.597	213.56
415.821	185.56
416.044	196.56
416.267	197.56
416.49	190.56
416.713	193.56
416.936	176.56
417.159	193.56
417.382	195.56
417.605	186.56
417.828	198.56
418.051	199.56
418.274	180.56
418.497	189.56
418.72	205.56
418.943	214.56
419.166	214.56
419.389	212.56
419.611	218.56
419.834	218.56
420.057	223.56
420.28	235.56
420.503	233.56
420.726	207.56
420.948	194.56
421.171	201.56
421.394	208.56
421.617	197.56
421.839	204.56
422.062	217.56
422.285	205.56
422.507	206.56
422.73	213.56
422.953	226.56
423.175	218.56
423.398	210.56
423.621	242.56
423.843	240.56
424.066	229.56
424.288	201.56
424.511	206.56
424.733	188.56
424.956	224.56
425.178	228.56
425.401	260.56
425.623	295.56
425.846	253.56
426.068	206.56
426.291	238.56
426.513	203.56
426.735	211.56
426.958	213.56
427.18	226.56
427.402	283.56
427.625	288.56
427.847	260.56
428.069	197.56
428.292	211.56
428.514	193.56
428.736	191.56
428.958	201.56
429.181	257.56
429.403	212.56
429.625	193.56
429.847	184.56
430.069	206.56
430.292	190.56
430.514	193.56
430.736	190.56
430.958	219.56
431.18	227.56
431.402	176.56
431.624	177.56
431.846	170.56
432.068	180.56
432.29	194.56
432.512	185.56
432.734	245.56
432.956	234.56
433.178	188.56
433.4	192.56
433.622	196.56
433.844	193.56
434.066	213.56
434.287	226.56
434.509	196.56
434.731	213.56
434.953	194.56
435.175	224.56
435.397	229.56
435.618	212.56
435.84	169.56
436.062	177.56
436.284	181.56
436.505	191.56
436.727	172.56
436.949	181.56
437.17	211.56
437.392	200.56
437.614	189.56
437.835	208.56
438.057	203.56
438.278	193.56
438.5	270.56
438.721	277.56
438.943	196.56
439.165	188.56
439.386	178.56
439.608	161.56
439.829	186.56
440.05	193.56
440.272	185.56
440.493	217.56
440.715	234.56
440.936	203.56
441.158	199.56
441.379	196.56
441.6	194.56
441.822	225.56
442.043	206.56
442.264	192.56
442.486	179.56
442.707	206.56
442.928	185.56
443.149	206.56
443.371	196.56
443.592	192.56
443.813	204.56
444.034	199.56
444.255	195.56
444.476	212.56
444.698	200.56
444.919	214.56
445.14	343.56
445.361	266.56
445.582	208.56
445.803	210.56
446.024	211.56
446.245	211.56
446.466	228.56
446.687	189.56
446.908	210.56
447.129	195.56
447.35	199.56
447.571	188.56
447.792	181.56
448.013	184.56
448.234	176.56
448.455	187.56
448.675	185.56
448.896	187.56
449.117	192.56
449.338	194.56
449.559	179.56
449.779	188.56
450	184.56
450.221	173.56
450.442	181.56
450.662	181.56
450.883	180.56
451.104	187.56
451.324	177.56
451.545	179.56
451.766	178.56
451.986	180.56
452.207	180.56
452.428	167.56
452.648	169.56
452.869	177.56
453.089	202.56
453.31	211.56
453.53	176.56
453.751	185.56
453.971	170.56
454.192	178.56
454.412	193.56
454.633	186.56
454.853	184.56
455.073	161.56
455.294	148.56
455.514	150.56
455.734	157.56
455.955	175.56
456.175	182.56
456.395	181.56
456.616	178.56
456.836	155.56
457.056	166.56
457.276	169.56
457.497	167.56
457.717	158.56
457.937	169.56
458.157	179.56
458.377	180.56
458.598	176.56
458.818	166.56
459.038	172.56
459.258	179.56
459.478	184.56
459.698	195.56
459.918	196.56
460.138	195.56
460.358	204.56
460.578	198.56
460.798	197.56
461.018	196.56
461.238	184.56
461.458	211.56
461.678	204.56
461.898	220.56
462.118	211.56
462.338	212.56
462.558	212.56
462.777	229.56
462.997	249.56
463.217	243.56
463.437	237.56
463.657	230.56
463.876	219.56
464.096	233.56
464.316	212.56
464.536	213.56
464.755	249.56
464.975	233.56
465.195	198.56
465.414	219.56
465.634	227.56
465.854	217.56
466.073	194.56
466.293	182.56
466.512	207.56
466.732	214.56
466.951	222.56
467.171	191.56
467.391	199.56
467.61	193.56
467.829	180.56
468.049	197.56
468.268	186.56
468.488	190.56
468.707	180.56
468.927	199.56
469.146	225.56
469.365	209.56
469.585	203.56
469.804	217.56
470.023	228.56
470.243	231.56
470.462	190.56
470.681	189.56
470.901	196.56
471.12	228.56
471.339	210.56
471.558	195.56
471.777	204.56
471.997	208.56
472.216	219.56
472.435	219.56
472.654	201.56
472.873	210.56
473.092	204.56
473.311	229.56
473.53	208.56
473.749	185.56
473.968	229.56
474.187	220.56
474.406	197.56
474.625	205.56
474.844	207.56
475.063	209.56
475.282	212.56
475.501	233.56
475.72	249.56
475.939	234.56
476.158	240.56
476.377	258.56
476.596	284.56
476.814	302.56
477.033	273.56
477.252	230.56
477.471	217.56
477.69	210.56
477.908	213.56
478.127	246.56
478.346	228.56
478.564	277.56
478.783	224.56
479.002	218.56
479.22	250.56
479.439	294.56
479.658	265.56
479.876	218.56
480.095	224.56
480.313	242.56
480.532	217.56
480.751	222.56
480.969	235.56
481.188	262.56
481.406	266.56
481.624	242.56
481.843	230.56
482.061	214.56
482.28	241.56
482.498	305.56
482.717	295.56
482.935	260.56
483.153	240.56
483.372	212.56
483.59	241.56
483.808	224.56
484.027	209.56
484.245	212.56
484.463	212.56
484.681	206.56
484.9	234.56
485.118	235.56
485.336	226.56
485.554	214.56
485.772	215.56
485.99	253.56
486.209	260.56
486.427	244.56
486.645	237.56
486.863	245.56
487.081	220.56
487.299	250.56
487.517	274.56
487.735	250.56
487.953	239.56
488.171	243.56
488.389	230.56
488.607	197.56
488.825	226.56
489.043	249.56
489.261	290.56
489.479	311.56
489.696	260.56
489.914	234.56
490.132	215.56
490.35	230.56
490.568	251.56
490.786	227.56
491.003	231.56
491.221	232.56
491.439	221.56
491.657	214.56
491.874	232.56
492.092	292.56
492.31	338.56
492.527	317.56
492.745	280.56
492.963	263.56
493.18	240.56
493.398	252.56
493.615	249.56
493.833	258.56
494.05	238.56
494.268	256.56
494.485	225.56
494.703	230.56
494.92	233.56
495.138	234.56
495.355	234.56
495.573	242.56
495.79	260.56
496.008	338.56
496.225	295.56
496.442	287.56
496.66	256.56
496.877	282.56
497.094	265.56
497.312	241.56
497.529	260.56
497.746	264.56
497.963	260.56
498.181	285.56
498.398	295.56
498.615	318.56
498.832	338.56
499.049	355.56
499.267	328.56
499.484	318.56
499.701	350.56
499.918	361.56
500.135	398.56
500.352	381.56
500.569	437.56
500.786	450.56
501.003	436.56
501.22	381.56
501.437	361.56
501.654	338.56
501.871	325.56
502.088	311.56
502.305	295.56
502.522	294.56
502.739	288.56
