Data from NickelSpatula_HRD10591_16-36-39-126.txt Node
Date: Mon Jul 22 16:36:39 EDT 2019
User: cochatt
Spectrometer: HR+D1059
Trigger mode: 1
Integration Time (sec): 1.000000E-1
Scans to average: 1
Electric dark correction enabled: true
Nonlinearity correction enabled: false
Boxcar width: 0
XAxis mode: Wavelengths
Number of Pixels in Spectrum: 2048
>>>>>Begin Spectral Data<<<<<
223.165	-9.75
223.4	-9.75
223.635	-9.75
223.869	-17.75
224.104	-14.75
224.338	-9.75
224.573	-11.75
224.808	-10.75
225.042	-17.75
225.277	-2.75
225.511	1.25
225.746	4.25
225.98	10.25
226.215	5.25
226.449	13.25
226.683	10.25
226.918	21.25
227.152	29.25
227.387	34.25
227.621	56.25
227.856	60.25
228.09	55.25
228.324	57.25
228.559	60.25
228.793	66.25
229.027	65.25
229.262	69.25
229.496	79.25
229.73	78.25
229.964	82.25
230.199	87.25
230.433	75.25
230.667	74.25
230.901	96.25
231.136	78.25
231.37	90.25
231.604	82.25
231.838	80.25
232.072	82.25
232.306	93.25
232.541	89.25
232.775	105.25
233.009	84.25
233.243	81.25
233.477	89.25
233.711	100.25
233.945	78.25
234.179	95.25
234.413	102.25
234.647	80.25
234.881	105.25
235.115	113.25
235.349	101.25
235.583	87.25
235.817	108.25
236.051	85.25
236.285	106.25
236.519	87.25
236.753	103.25
236.987	109.25
237.221	80.25
237.455	94.25
237.689	104.25
237.922	111.25
238.156	90.25
238.39	92.25
238.624	99.25
238.858	103.25
239.091	111.25
239.325	94.25
239.559	87.25
239.793	100.25
240.027	114.25
240.26	113.25
240.494	95.25
240.728	113.25
240.961	102.25
241.195	99.25
241.429	111.25
241.662	97.25
241.896	93.25
242.13	94.25
242.363	101.25
242.597	101.25
242.83	98.25
243.064	104.25
243.298	94.25
243.531	107.25
243.765	99.25
243.998	90.25
244.232	97.25
244.465	107.25
244.699	101.25
244.932	110.25
245.166	95.25
245.399	98.25
245.633	106.25
245.866	108.25
246.099	104.25
246.333	106.25
246.566	99.25
246.8	122.25
247.033	110.25
247.266	95.25
247.5	102.25
247.733	97.25
247.966	102.25
248.2	97.25
248.433	110.25
248.666	102.25
248.899	131.25
249.133	119.25
249.366	125.25
249.599	130.25
249.832	123.25
250.066	118.25
250.299	125.25
250.532	111.25
250.765	104.25
250.998	99.25
251.231	104.25
251.465	100.25
251.698	110.25
251.931	97.25
252.164	119.25
252.397	123.25
252.63	117.25
252.863	114.25
253.096	132.25
253.329	117.25
253.562	121.25
253.795	119.25
254.028	138.25
254.261	139.25
254.494	124.25
254.727	123.25
254.96	131.25
255.193	135.25
255.426	122.25
255.659	101.25
255.892	97.25
256.124	116.25
256.357	115.25
256.59	114.25
256.823	119.25
257.056	124.25
257.289	108.25
257.521	131.25
257.754	116.25
257.987	126.25
258.22	125.25
258.452	121.25
258.685	122.25
258.918	125.25
259.151	132.25
259.383	127.25
259.616	137.25
259.849	140.25
260.081	154.25
260.314	144.25
260.547	146.25
260.779	151.25
261.012	154.25
261.244	137.25
261.477	150.25
261.71	125.25
261.942	126.25
262.175	137.25
262.407	143.25
262.64	132.25
262.872	132.25
263.105	160.25
263.337	156.25
263.57	137.25
263.802	127.25
264.035	126.25
264.267	103.25
264.499	107.25
264.732	102.25
264.964	113.25
265.197	105.25
265.429	103.25
265.661	121.25
265.894	116.25
266.126	118.25
266.358	119.25
266.591	113.25
266.823	139.25
267.055	140.25
267.287	131.25
267.52	125.25
267.752	135.25
267.984	140.25
268.216	141.25
268.448	131.25
268.681	122.25
268.913	152.25
269.145	118.25
269.377	133.25
269.609	129.25
269.841	123.25
270.073	133.25
270.306	143.25
270.538	130.25
270.77	147.25
271.002	135.25
271.234	160.25
271.466	142.25
271.698	147.25
271.93	131.25
272.162	140.25
272.394	135.25
272.626	137.25
272.858	139.25
273.09	149.25
273.322	148.25
273.553	131.25
273.785	147.25
274.017	152.25
274.249	174.25
274.481	169.25
274.713	166.25
274.945	196.25
275.176	203.25
275.408	205.25
275.64	186.25
275.872	178.25
276.104	170.25
276.335	150.25
276.567	154.25
276.799	161.25
277.031	169.25
277.262	149.25
277.494	128.25
277.726	121.25
277.957	139.25
278.189	135.25
278.421	143.25
278.652	143.25
278.884	117.25
279.115	125.25
279.347	128.25
279.579	139.25
279.81	122.25
280.042	134.25
280.273	117.25
280.505	118.25
280.736	112.25
280.968	115.25
281.199	123.25
281.431	119.25
281.662	130.25
281.894	140.25
282.125	133.25
282.356	136.25
282.588	127.25
282.819	107.25
283.051	134.25
283.282	144.25
283.513	156.25
283.745	149.25
283.976	161.25
284.207	163.25
284.439	164.25
284.67	160.25
284.901	147.25
285.132	157.25
285.364	166.25
285.595	157.25
285.826	149.25
286.057	152.25
286.288	141.25
286.52	155.25
286.751	163.25
286.982	154.25
287.213	154.25
287.444	152.25
287.675	168.25
287.906	153.25
288.138	133.25
288.369	133.25
288.6	128.25
288.831	123.25
289.062	144.25
289.293	140.25
289.524	136.25
289.755	145.25
289.986	149.25
290.217	131.25
290.448	120.25
290.679	119.25
290.91	115.25
291.141	118.25
291.371	121.25
291.602	129.25
291.833	135.25
292.064	122.25
292.295	133.25
292.526	142.25
292.757	135.25
292.987	143.25
293.218	144.25
293.449	147.25
293.68	148.25
293.91	134.25
294.141	135.25
294.372	143.25
294.603	132.25
294.833	153.25
295.064	163.25
295.295	165.25
295.525	135.25
295.756	122.25
295.987	108.25
296.217	118.25
296.448	117.25
296.679	135.25
296.909	117.25
297.14	121.25
297.37	121.25
297.601	142.25
297.831	121.25
298.062	131.25
298.292	137.25
298.523	137.25
298.753	133.25
298.984	138.25
299.214	124.25
299.445	114.25
299.675	122.25
299.905	113.25
300.136	130.25
300.366	119.25
300.597	131.25
300.827	115.25
301.057	121.25
301.288	121.25
301.518	126.25
301.748	119.25
301.979	118.25
302.209	152.25
302.439	136.25
302.669	123.25
302.9	121.25
303.13	125.25
303.36	109.25
303.59	114.25
303.82	131.25
304.051	141.25
304.281	131.25
304.511	118.25
304.741	108.25
304.971	139.25
305.201	125.25
305.431	101.25
305.661	127.25
305.891	122.25
306.121	110.25
306.352	110.25
306.582	118.25
306.812	106.25
307.042	106.25
307.272	111.25
307.502	93.25
307.731	118.25
307.961	107.25
308.191	111.25
308.421	118.25
308.651	122.25
308.881	116.25
309.111	114.25
309.341	103.25
309.571	101.25
309.8	113.25
310.03	117.25
310.26	117.25
310.49	125.25
310.72	119.25
310.949	109.25
311.179	113.25
311.409	100.25
311.639	125.25
311.868	149.25
312.098	154.25
312.328	150.25
312.557	153.25
312.787	151.25
313.017	140.25
313.246	139.25
313.476	146.25
313.706	131.25
313.935	121.25
314.165	111.25
314.394	121.25
314.624	121.25
314.853	126.25
315.083	110.25
315.312	110.25
315.542	117.25
315.771	113.25
316.001	106.25
316.23	121.25
316.46	116.25
316.689	118.25
316.919	116.25
317.148	119.25
317.377	117.25
317.607	109.25
317.836	107.25
318.065	114.25
318.295	133.25
318.524	120.25
318.753	118.25
318.983	134.25
319.212	122.25
319.441	97.25
319.67	108.25
319.9	110.25
320.129	116.25
320.358	122.25
320.587	98.25
320.816	117.25
321.046	129.25
321.275	126.25
321.504	121.25
321.733	126.25
321.962	118.25
322.191	121.25
322.42	124.25
322.649	121.25
322.878	116.25
323.108	121.25
323.337	121.25
323.566	114.25
323.795	106.25
324.024	103.25
324.253	117.25
324.482	121.25
324.71	114.25
324.939	125.25
325.168	119.25
325.397	93.25
325.626	96.25
325.855	113.25
326.084	106.25
326.313	113.25
326.542	102.25
326.77	109.25
326.999	118.25
327.228	117.25
327.457	107.25
327.686	123.25
327.914	109.25
328.143	110.25
328.372	117.25
328.6	101.25
328.829	117.25
329.058	102.25
329.287	108.25
329.515	109.25
329.744	104.25
329.972	127.25
330.201	106.25
330.43	106.25
330.658	112.25
330.887	116.25
331.115	116.25
331.344	121.25
331.572	113.25
331.801	103.25
332.03	102.25
332.258	108.25
332.486	121.25
332.715	105.25
332.943	98.25
333.172	114.25
333.4	111.25
333.629	113.25
333.857	111.25
334.085	126.25
334.314	108.25
334.542	110.25
334.771	122.25
334.999	103.25
335.227	110.25
335.455	105.25
335.684	124.25
335.912	101.25
336.14	109.25
336.369	136.25
336.597	137.25
336.825	117.25
337.053	135.25
337.281	121.25
337.51	116.25
337.738	118.25
337.966	112.25
338.194	108.25
338.422	113.25
338.65	106.25
338.878	100.25
339.106	110.25
339.334	119.25
339.562	121.25
339.79	105.25
340.018	92.25
340.246	101.25
340.474	119.25
340.702	131.25
340.93	128.25
341.158	137.25
341.386	120.25
341.614	121.25
341.842	114.25
342.07	114.25
342.298	119.25
342.526	133.25
342.754	108.25
342.981	122.25
343.209	118.25
343.437	132.25
343.665	119.25
343.893	117.25
344.12	140.25
344.348	128.25
344.576	130.25
344.804	120.25
345.031	109.25
345.259	116.25
345.487	111.25
345.714	97.25
345.942	139.25
346.17	117.25
346.397	115.25
346.625	124.25
346.853	114.25
347.08	110.25
347.308	114.25
347.535	109.25
347.763	104.25
347.99	101.25
348.218	104.25
348.445	120.25
348.673	119.25
348.9	104.25
349.128	129.25
349.355	126.25
349.583	100.25
349.81	110.25
350.037	124.25
350.265	121.25
350.492	111.25
350.72	100.25
350.947	109.25
351.174	113.25
351.402	113.25
351.629	102.25
351.856	115.25
352.083	111.25
352.311	120.25
352.538	118.25
352.765	107.25
352.992	117.25
353.22	117.25
353.447	108.25
353.674	113.25
353.901	113.25
354.128	130.25
354.355	118.25
354.583	102.25
354.81	117.25
355.037	103.25
355.264	106.25
355.491	125.25
355.718	117.25
355.945	112.25
356.172	102.25
356.399	113.25
356.626	116.25
356.853	135.25
357.08	139.25
357.307	136.25
357.534	139.25
357.761	120.25
357.988	140.25
358.215	147.25
358.441	141.25
358.668	133.25
358.895	115.25
359.122	129.25
359.349	118.25
359.576	126.25
359.802	122.25
360.029	110.25
360.256	120.25
360.483	125.25
360.709	141.25
360.936	144.25
361.163	133.25
361.39	114.25
361.616	118.25
361.843	118.25
362.07	123.25
362.296	125.25
362.523	115.25
362.749	114.25
362.976	116.25
363.203	121.25
363.429	123.25
363.656	122.25
363.882	113.25
364.109	108.25
364.335	133.25
364.562	120.25
364.788	120.25
365.015	133.25
365.241	122.25
365.468	110.25
365.694	117.25
365.92	114.25
366.147	87.25
366.373	105.25
366.599	102.25
366.826	91.25
367.052	116.25
367.278	102.25
367.505	113.25
367.731	113.25
367.957	120.25
368.184	103.25
368.41	103.25
368.636	113.25
368.862	117.25
369.089	95.25
369.315	115.25
369.541	102.25
369.767	100.25
369.993	109.25
370.219	111.25
370.445	115.25
370.672	107.25
370.898	120.25
371.124	113.25
371.35	102.25
371.576	100.25
371.802	110.25
372.028	121.25
372.254	122.25
372.48	103.25
372.706	111.25
372.932	125.25
373.158	122.25
373.384	131.25
373.61	142.25
373.835	121.25
374.061	130.25
374.287	112.25
374.513	129.25
374.739	131.25
374.965	126.25
375.191	129.25
375.416	107.25
375.642	119.25
375.868	113.25
376.094	123.25
376.319	129.25
376.545	125.25
376.771	131.25
376.997	126.25
377.222	91.25
377.448	106.25
377.674	107.25
377.899	113.25
378.125	99.25
378.35	106.25
378.576	88.25
378.802	115.25
379.027	108.25
379.253	99.25
379.478	113.25
379.704	122.25
379.929	114.25
380.155	113.25
380.38	92.25
380.606	113.25
380.831	122.25
381.057	111.25
381.282	111.25
381.507	109.25
381.733	118.25
381.958	131.25
382.184	138.25
382.409	130.25
382.634	137.25
382.86	135.25
383.085	126.25
383.31	125.25
383.535	135.25
383.761	130.25
383.986	123.25
384.211	134.25
384.436	130.25
384.662	125.25
384.887	108.25
385.112	104.25
385.337	110.25
385.562	126.25
385.787	130.25
386.013	130.25
386.238	118.25
386.463	115.25
386.688	123.25
386.913	111.25
387.138	122.25
387.363	101.25
387.588	119.25
387.813	115.25
388.038	110.25
388.263	125.25
388.488	108.25
388.713	115.25
388.938	113.25
389.163	118.25
389.387	119.25
389.612	124.25
389.837	124.25
390.062	130.25
390.287	123.25
390.512	126.25
390.736	120.25
390.961	125.25
391.186	107.25
391.411	103.25
391.636	103.25
391.86	96.25
392.085	138.25
392.31	123.25
392.534	129.25
392.759	125.25
392.984	129.25
393.208	123.25
393.433	136.25
393.658	121.25
393.882	117.25
394.107	110.25
394.331	117.25
394.556	102.25
394.78	111.25
395.005	108.25
395.229	97.25
395.454	117.25
395.678	108.25
395.903	99.25
396.127	91.25
396.352	115.25
396.576	121.25
396.801	127.25
397.025	137.25
397.249	135.25
397.474	128.25
397.698	120.25
397.922	117.25
398.147	106.25
398.371	114.25
398.595	120.25
398.82	123.25
399.044	125.25
399.268	112.25
399.492	111.25
399.717	107.25
399.941	119.25
400.165	125.25
400.389	107.25
400.613	121.25
400.837	118.25
401.062	107.25
401.286	113.25
401.51	103.25
401.734	98.25
401.958	121.25
402.182	106.25
402.406	102.25
402.63	125.25
402.854	106.25
403.078	119.25
403.302	126.25
403.526	141.25
403.75	126.25
403.974	117.25
404.198	118.25
404.422	131.25
404.645	120.25
404.869	134.25
405.093	118.25
405.317	133.25
405.541	110.25
405.765	133.25
405.988	125.25
406.212	119.25
406.436	103.25
406.66	125.25
406.883	115.25
407.107	121.25
407.331	134.25
407.555	125.25
407.778	114.25
408.002	113.25
408.226	119.25
408.449	127.25
408.673	125.25
408.896	116.25
409.12	110.25
409.344	120.25
409.567	123.25
409.791	121.25
410.014	114.25
410.238	102.25
410.461	110.25
410.685	113.25
410.908	105.25
411.132	131.25
411.355	118.25
411.578	121.25
411.802	110.25
412.025	132.25
412.249	115.25
412.472	107.25
412.695	115.25
412.919	118.25
413.142	122.25
413.365	127.25
413.589	110.25
413.812	118.25
414.035	99.25
414.258	113.25
414.482	125.25
414.705	124.25
414.928	115.25
415.151	125.25
415.374	109.25
415.597	115.25
415.821	117.25
416.044	113.25
416.267	114.25
416.49	126.25
416.713	104.25
416.936	102.25
417.159	113.25
417.382	110.25
417.605	119.25
417.828	118.25
418.051	103.25
418.274	103.25
418.497	121.25
418.72	133.25
418.943	122.25
419.166	106.25
419.389	127.25
419.611	121.25
419.834	123.25
420.057	108.25
420.28	125.25
420.503	125.25
420.726	110.25
420.948	110.25
421.171	103.25
421.394	115.25
421.617	114.25
421.839	111.25
422.062	123.25
422.285	115.25
422.507	120.25
422.73	115.25
422.953	116.25
423.175	113.25
423.398	106.25
423.621	119.25
423.843	119.25
424.066	121.25
424.288	124.25
424.511	104.25
424.733	125.25
424.956	117.25
425.178	118.25
425.401	133.25
425.623	126.25
425.846	117.25
426.068	117.25
426.291	112.25
426.513	122.25
426.735	119.25
426.958	125.25
427.18	127.25
427.402	133.25
427.625	134.25
427.847	133.25
428.069	126.25
428.292	125.25
428.514	128.25
428.736	109.25
428.958	117.25
429.181	127.25
429.403	109.25
429.625	122.25
429.847	91.25
430.069	125.25
430.292	117.25
430.514	103.25
430.736	105.25
430.958	129.25
431.18	115.25
431.402	131.25
431.624	109.25
431.846	114.25
432.068	108.25
432.29	129.25
432.512	124.25
432.734	119.25
432.956	109.25
433.178	108.25
433.4	109.25
433.622	121.25
433.844	108.25
434.066	100.25
434.287	122.25
434.509	128.25
434.731	117.25
434.953	118.25
435.175	120.25
435.397	120.25
435.618	116.25
435.84	117.25
436.062	122.25
436.284	121.25
436.505	103.25
436.727	105.25
436.949	113.25
437.17	125.25
437.392	115.25
437.614	117.25
437.835	106.25
438.057	118.25
438.278	126.25
438.5	144.25
438.721	123.25
438.943	125.25
439.165	98.25
439.386	104.25
439.608	114.25
439.829	99.25
440.05	113.25
440.272	102.25
440.493	116.25
440.715	116.25
440.936	120.25
441.158	109.25
441.379	119.25
441.6	123.25
441.822	115.25
442.043	122.25
442.264	131.25
442.486	108.25
442.707	109.25
442.928	122.25
443.149	113.25
443.371	109.25
443.592	116.25
443.813	125.25
444.034	118.25
444.255	115.25
444.476	115.25
444.698	109.25
444.919	122.25
445.14	241.25
445.361	176.25
445.582	115.25
445.803	122.25
446.024	122.25
446.245	121.25
446.466	113.25
446.687	101.25
446.908	120.25
447.129	115.25
447.35	97.25
447.571	109.25
447.792	102.25
448.013	108.25
448.234	107.25
448.455	109.25
448.675	119.25
448.896	112.25
449.117	123.25
449.338	117.25
449.559	129.25
449.779	123.25
450	125.25
450.221	101.25
450.442	106.25
450.662	118.25
450.883	105.25
451.104	98.25
451.324	103.25
451.545	111.25
451.766	121.25
451.986	128.25
452.207	122.25
452.428	103.25
452.648	123.25
452.869	110.25
453.089	115.25
453.31	113.25
453.53	107.25
453.751	123.25
453.971	120.25
454.192	114.25
454.412	111.25
454.633	109.25
454.853	128.25
455.073	111.25
455.294	105.25
455.514	115.25
455.734	103.25
455.955	135.25
456.175	121.25
456.395	119.25
456.616	105.25
456.836	100.25
457.056	115.25
457.276	104.25
457.497	106.25
457.717	99.25
457.937	106.25
458.157	99.25
458.377	113.25
458.598	121.25
458.818	107.25
459.038	122.25
459.258	105.25
459.478	109.25
459.698	115.25
459.918	122.25
460.138	119.25
460.358	112.25
460.578	121.25
460.798	106.25
461.018	116.25
461.238	108.25
461.458	112.25
461.678	113.25
461.898	120.25
462.118	121.25
462.338	124.25
462.558	116.25
462.777	125.25
462.997	139.25
463.217	123.25
463.437	113.25
463.657	119.25
463.876	113.25
464.096	104.25
464.316	135.25
464.536	105.25
464.755	104.25
464.975	120.25
465.195	127.25
465.414	142.25
465.634	116.25
465.854	114.25
466.073	113.25
466.293	123.25
466.512	120.25
466.732	113.25
466.951	127.25
467.171	121.25
467.391	109.25
467.61	103.25
467.829	122.25
468.049	118.25
468.268	125.25
468.488	126.25
468.707	110.25
468.927	127.25
469.146	127.25
469.365	132.25
469.585	108.25
469.804	129.25
470.023	123.25
470.243	119.25
470.462	125.25
470.681	122.25
470.901	115.25
471.12	121.25
471.339	133.25
471.558	115.25
471.777	107.25
471.997	137.25
472.216	129.25
472.435	132.25
472.654	119.25
472.873	126.25
473.092	108.25
473.311	122.25
473.53	113.25
473.749	113.25
473.968	120.25
474.187	122.25
474.406	110.25
474.625	129.25
474.844	133.25
475.063	120.25
475.282	127.25
475.501	116.25
475.72	141.25
475.939	136.25
476.158	124.25
476.377	131.25
476.596	116.25
476.814	141.25
477.033	133.25
477.252	118.25
477.471	96.25
477.69	118.25
477.908	123.25
478.127	137.25
478.346	134.25
478.564	124.25
478.783	109.25
479.002	119.25
479.22	127.25
479.439	156.25
479.658	122.25
479.876	131.25
480.095	142.25
480.313	125.25
480.532	121.25
480.751	119.25
480.969	121.25
481.188	126.25
481.406	137.25
481.624	122.25
481.843	119.25
482.061	119.25
482.28	128.25
482.498	149.25
482.717	136.25
482.935	139.25
483.153	127.25
483.372	125.25
483.59	122.25
483.808	124.25
484.027	127.25
484.245	116.25
484.463	123.25
484.681	133.25
484.9	127.25
485.118	125.25
485.336	119.25
485.554	130.25
485.772	124.25
485.99	143.25
486.209	141.25
486.427	145.25
486.645	125.25
486.863	124.25
487.081	129.25
487.299	147.25
487.517	123.25
487.735	126.25
487.953	135.25
488.171	129.25
488.389	119.25
488.607	123.25
488.825	125.25
489.043	137.25
489.261	140.25
489.479	147.25
489.696	119.25
489.914	133.25
490.132	131.25
490.35	129.25
490.568	110.25
490.786	122.25
491.003	123.25
491.221	121.25
491.439	132.25
491.657	126.25
491.874	120.25
492.092	150.25
492.31	153.25
492.527	163.25
492.745	133.25
492.963	132.25
493.18	133.25
493.398	131.25
493.615	129.25
493.833	129.25
494.05	136.25
494.268	136.25
494.485	141.25
494.703	126.25
494.92	127.25
495.138	141.25
495.355	130.25
495.573	119.25
495.79	153.25
496.008	173.25
496.225	139.25
496.442	139.25
496.66	138.25
496.877	130.25
497.094	142.25
497.312	133.25
497.529	136.25
497.746	137.25
497.963	126.25
498.181	137.25
498.398	156.25
498.615	165.25
498.832	150.25
499.049	153.25
499.267	140.25
499.484	132.25
499.701	141.25
499.918	141.25
500.135	161.25
500.352	157.25
500.569	169.25
500.786	162.25
501.003	144.25
501.22	161.25
501.437	152.25
501.654	140.25
501.871	153.25
502.088	150.25
502.305	144.25
502.522	150.25
502.739	136.25
502.956	131.25
503.172	148.25
503.389	134.25
503.606	138.25
