Data from NickelSpatula.Lamp.E5.5.P2_HRD10591_11-51-26-560.txt Node
Date: Tue Jul 23 11:51:26 EDT 2019
User: cochatt
Spectrometer: HR+D1059
Trigger mode: 1
Integration Time (sec): 1.000000E-1
Scans to average: 1
Electric dark correction enabled: true
Nonlinearity correction enabled: false
Boxcar width: 0
XAxis mode: Wavelengths
Number of Pixels in Spectrum: 2048
>>>>>Begin Spectral Data<<<<<
223.165	-17.38
223.4	-17.38
223.635	-17.38
223.869	-11.38
224.104	-25.38
224.338	-16.38
224.573	-22.38
224.808	-11.38
225.042	-7.38
225.277	-3.38
225.511	7.62
225.746	-0.38
225.98	0.62
226.215	19.62
226.449	16.62
226.683	12.62
226.918	22.62
227.152	35.62
227.387	50.62
227.621	38.62
227.856	44.62
228.09	51.62
228.324	47.62
228.559	56.62
228.793	58.62
229.027	71.62
229.262	78.62
229.496	87.62
229.73	78.62
229.964	96.62
230.199	101.62
230.433	75.62
230.667	90.62
230.901	100.62
231.136	105.62
231.37	108.62
231.604	104.62
231.838	100.62
232.072	105.62
232.306	116.62
232.541	105.62
232.775	99.62
233.009	111.62
233.243	112.62
233.477	132.62
233.711	125.62
233.945	127.62
234.179	121.62
234.413	122.62
234.647	128.62
234.881	148.62
235.115	133.62
235.349	124.62
235.583	126.62
235.817	125.62
236.051	121.62
236.285	135.62
236.519	153.62
236.753	128.62
236.987	131.62
237.221	122.62
237.455	129.62
237.689	135.62
237.922	136.62
238.156	130.62
238.39	149.62
238.624	171.62
238.858	172.62
239.091	157.62
239.325	158.62
239.559	131.62
239.793	145.62
240.027	173.62
240.26	163.62
240.494	143.62
240.728	169.62
240.961	180.62
241.195	169.62
241.429	156.62
241.662	155.62
241.896	160.62
242.13	136.62
242.363	121.62
242.597	138.62
242.83	142.62
243.064	144.62
243.298	171.62
243.531	139.62
243.765	184.62
243.998	179.62
244.232	155.62
244.465	164.62
244.699	168.62
244.932	179.62
245.166	157.62
245.399	152.62
245.633	150.62
245.866	144.62
246.099	149.62
246.333	187.62
246.566	195.62
246.8	196.62
247.033	191.62
247.266	187.62
247.5	179.62
247.733	176.62
247.966	168.62
248.2	165.62
248.433	184.62
248.666	196.62
248.899	202.62
249.133	202.62
249.366	224.62
249.599	242.62
249.832	233.62
250.066	213.62
250.299	197.62
250.532	180.62
250.765	176.62
250.998	173.62
251.231	175.62
251.465	210.62
251.698	198.62
251.931	188.62
252.164	186.62
252.397	218.62
252.63	236.62
252.863	258.62
253.096	264.62
253.329	259.62
253.562	234.62
253.795	275.62
254.028	291.62
254.261	306.62
254.494	280.62
254.727	257.62
254.96	250.62
255.193	264.62
255.426	249.62
255.659	193.62
255.892	203.62
256.124	196.62
256.357	224.62
256.59	256.62
256.823	247.62
257.056	213.62
257.289	209.62
257.521	223.62
257.754	277.62
257.987	296.62
258.22	241.62
258.452	226.62
258.685	250.62
258.918	300.62
259.151	258.62
259.383	282.62
259.616	352.62
259.849	338.62
260.081	375.62
260.314	405.62
260.547	320.62
260.779	326.62
261.012	372.62
261.244	363.62
261.477	345.62
261.71	323.62
261.942	276.62
262.175	295.62
262.407	265.62
262.64	273.62
262.872	300.62
263.105	342.62
263.337	391.62
263.57	335.62
263.802	235.62
264.035	228.62
264.267	228.62
264.499	176.62
264.732	187.62
264.964	169.62
265.197	171.62
265.429	187.62
265.661	199.62
265.894	202.62
266.126	206.62
266.358	235.62
266.591	292.62
266.823	325.62
267.055	305.62
267.287	264.62
267.52	281.62
267.752	278.62
267.984	303.62
268.216	301.62
268.448	267.62
268.681	258.62
268.913	280.62
269.145	281.62
269.377	281.62
269.609	290.62
269.841	287.62
270.073	284.62
270.306	296.62
270.538	308.62
270.77	329.62
271.002	300.62
271.234	313.62
271.466	311.62
271.698	308.62
271.93	298.62
272.162	311.62
272.394	283.62
272.626	284.62
272.858	277.62
273.09	310.62
273.322	282.62
273.553	256.62
273.785	295.62
274.017	380.62
274.249	456.62
274.481	494.62
274.713	493.62
274.945	589.62
275.176	608.62
275.408	535.62
275.64	515.62
275.872	484.62
276.104	435.62
276.335	379.62
276.567	374.62
276.799	396.62
277.031	415.62
277.262	341.62
277.494	256.62
277.726	266.62
277.957	275.62
278.189	314.62
278.421	301.62
278.652	320.62
278.884	305.62
279.115	276.62
279.347	261.62
279.579	278.62
279.81	284.62
280.042	263.62
280.273	261.62
280.505	261.62
280.736	228.62
280.968	243.62
281.199	243.62
281.431	278.62
281.662	269.62
281.894	260.62
282.125	283.62
282.356	289.62
282.588	279.62
282.819	269.62
283.051	283.62
283.282	341.62
283.513	393.62
283.745	436.62
283.976	409.62
284.207	387.62
284.439	403.62
284.67	415.62
284.901	358.62
285.132	389.62
285.364	412.62
285.595	369.62
285.826	390.62
286.057	395.62
286.288	387.62
286.52	388.62
286.751	433.62
286.982	412.62
287.213	369.62
287.444	373.62
287.675	387.62
287.906	361.62
288.138	330.62
288.369	299.62
288.6	273.62
288.831	309.62
289.062	323.62
289.293	351.62
289.524	341.62
289.755	346.62
289.986	339.62
290.217	303.62
290.448	259.62
290.679	232.62
290.91	205.62
291.141	215.62
291.371	224.62
291.602	232.62
291.833	214.62
292.064	233.62
292.295	266.62
292.526	297.62
292.757	305.62
292.987	338.62
293.218	327.62
293.449	344.62
293.68	370.62
293.91	346.62
294.141	359.62
294.372	339.62
294.603	311.62
294.833	329.62
295.064	376.62
295.295	377.62
295.525	293.62
295.756	251.62
295.987	238.62
296.217	242.62
296.448	236.62
296.679	247.62
296.909	255.62
297.14	275.62
297.37	295.62
297.601	283.62
297.831	254.62
298.062	280.62
298.292	291.62
298.523	323.62
298.753	353.62
298.984	337.62
299.214	275.62
299.445	256.62
299.675	230.62
299.905	220.62
300.136	234.62
300.366	242.62
300.597	235.62
300.827	235.62
301.057	245.62
301.288	242.62
301.518	249.62
301.748	289.62
301.979	284.62
302.209	303.62
302.439	308.62
302.669	280.62
302.9	275.62
303.13	260.62
303.36	265.62
303.59	242.62
303.82	257.62
304.051	270.62
304.281	306.62
304.511	295.62
304.741	250.62
304.971	276.62
305.201	293.62
305.431	281.62
305.661	238.62
305.891	232.62
306.121	237.62
306.352	209.62
306.582	196.62
306.812	202.62
307.042	199.62
307.272	188.62
307.502	197.62
307.731	213.62
307.961	208.62
308.191	191.62
308.421	202.62
308.651	192.62
308.881	198.62
309.111	198.62
309.341	200.62
309.571	218.62
309.8	204.62
310.03	203.62
310.26	223.62
310.49	220.62
310.72	214.62
310.949	203.62
311.179	210.62
311.409	225.62
311.639	226.62
311.868	271.62
312.098	358.62
312.328	399.62
312.557	373.62
312.787	367.62
313.017	343.62
313.246	365.62
313.476	376.62
313.706	337.62
313.935	282.62
314.165	226.62
314.394	225.62
314.624	220.62
314.853	230.62
315.083	231.62
315.312	225.62
315.542	236.62
315.771	209.62
316.001	199.62
316.23	207.62
316.46	196.62
316.689	200.62
316.919	205.62
317.148	234.62
317.377	206.62
317.607	199.62
317.836	223.62
318.065	232.62
318.295	274.62
318.524	245.62
318.753	230.62
318.983	203.62
319.212	205.62
319.441	210.62
319.67	242.62
319.9	243.62
320.129	226.62
320.358	219.62
320.587	191.62
320.816	215.62
321.046	233.62
321.275	273.62
321.504	251.62
321.733	245.62
321.962	267.62
322.191	236.62
322.42	234.62
322.649	227.62
322.878	252.62
323.108	257.62
323.337	242.62
323.566	229.62
323.795	244.62
324.024	219.62
324.253	218.62
324.482	229.62
324.71	226.62
324.939	266.62
325.168	255.62
325.397	228.62
325.626	218.62
325.855	215.62
326.084	211.62
326.313	209.62
326.542	205.62
326.77	211.62
326.999	216.62
327.228	218.62
327.457	217.62
327.686	228.62
327.914	214.62
328.143	197.62
328.372	198.62
328.6	209.62
328.829	205.62
329.058	217.62
329.287	205.62
329.515	187.62
329.744	217.62
329.972	205.62
330.201	204.62
330.43	203.62
330.658	211.62
330.887	223.62
331.115	227.62
331.344	218.62
331.572	207.62
331.801	209.62
332.03	213.62
332.258	215.62
332.486	218.62
332.715	228.62
332.943	225.62
333.172	222.62
333.4	221.62
333.629	243.62
333.857	245.62
334.085	261.62
334.314	258.62
334.542	262.62
334.771	225.62
334.999	220.62
335.227	231.62
335.455	223.62
335.684	226.62
335.912	265.62
336.14	284.62
336.369	283.62
336.597	276.62
336.825	299.62
337.053	326.62
337.281	261.62
337.51	244.62
337.738	220.62
337.966	248.62
338.194	255.62
338.422	233.62
338.65	212.62
338.878	204.62
339.106	206.62
339.334	217.62
339.562	235.62
339.79	228.62
340.018	207.62
340.246	220.62
340.474	243.62
340.702	267.62
340.93	269.62
341.158	290.62
341.386	247.62
341.614	241.62
341.842	246.62
342.07	266.62
342.298	293.62
342.526	298.62
342.754	255.62
342.981	239.62
343.209	230.62
343.437	261.62
343.665	272.62
343.893	274.62
344.12	295.62
344.348	346.62
344.576	299.62
344.804	244.62
345.031	249.62
345.259	220.62
345.487	235.62
345.714	232.62
345.942	232.62
346.17	243.62
346.397	259.62
346.625	222.62
346.853	215.62
347.08	226.62
347.308	218.62
347.535	248.62
347.763	256.62
347.99	245.62
348.218	214.62
348.445	229.62
348.673	227.62
348.9	226.62
349.128	236.62
349.355	233.62
349.583	245.62
349.81	216.62
350.037	231.62
350.265	202.62
350.492	191.62
350.72	202.62
350.947	181.62
351.174	200.62
351.402	225.62
351.629	212.62
351.856	224.62
352.083	216.62
352.311	227.62
352.538	225.62
352.765	247.62
352.992	233.62
353.22	208.62
353.447	219.62
353.674	215.62
353.901	222.62
354.128	215.62
354.355	215.62
354.583	216.62
354.81	242.62
355.037	229.62
355.264	235.62
355.491	232.62
355.718	266.62
355.945	251.62
356.172	242.62
356.399	239.62
356.626	274.62
356.853	298.62
357.08	339.62
357.307	359.62
357.534	292.62
357.761	279.62
357.988	353.62
358.215	390.62
358.441	379.62
358.668	310.62
358.895	314.62
359.122	259.62
359.349	283.62
359.576	300.62
359.802	250.62
360.029	234.62
360.256	254.62
360.483	268.62
360.709	332.62
360.936	341.62
361.163	299.62
361.39	228.62
361.616	234.62
361.843	250.62
362.07	327.62
362.296	292.62
362.523	238.62
362.749	213.62
362.976	217.62
363.203	263.62
363.429	291.62
363.656	241.62
363.882	229.62
364.109	235.62
364.335	229.62
364.562	220.62
364.788	239.62
365.015	285.62
365.241	233.62
365.468	221.62
365.694	215.62
365.92	200.62
366.147	193.62
366.373	195.62
366.599	192.62
366.826	193.62
367.052	207.62
367.278	187.62
367.505	196.62
367.731	199.62
367.957	222.62
368.184	231.62
368.41	222.62
368.636	222.62
368.862	239.62
369.089	231.62
369.315	199.62
369.541	191.62
369.767	198.62
369.993	209.62
370.219	206.62
370.445	199.62
370.672	240.62
370.898	243.62
371.124	249.62
371.35	209.62
371.576	208.62
371.802	226.62
372.028	259.62
372.254	292.62
372.48	275.62
372.706	236.62
372.932	243.62
373.158	263.62
373.384	292.62
373.61	357.62
373.835	368.62
374.061	271.62
374.287	253.62
374.513	281.62
374.739	340.62
374.965	356.62
375.191	360.62
375.416	245.62
375.642	230.62
375.868	262.62
376.094	299.62
376.319	253.62
376.545	284.62
376.771	288.62
376.997	252.62
377.222	211.62
377.448	184.62
377.674	187.62
377.899	178.62
378.125	196.62
378.35	183.62
378.576	183.62
378.802	194.62
379.027	207.62
379.253	221.62
379.478	213.62
379.704	242.62
379.929	241.62
380.155	242.62
380.38	227.62
380.606	220.62
380.831	269.62
381.057	216.62
381.282	219.62
381.507	239.62
381.733	304.62
381.958	312.62
382.184	341.62
382.409	331.62
382.634	332.62
382.86	340.62
383.085	303.62
383.31	263.62
383.535	288.62
383.761	281.62
383.986	268.62
384.211	303.62
384.436	304.62
384.662	245.62
384.887	231.62
385.112	243.62
385.337	254.62
385.562	227.62
385.787	251.62
386.013	279.62
386.238	300.62
386.463	257.62
386.688	247.62
386.913	242.62
387.138	230.62
387.363	236.62
387.588	247.62
387.813	246.62
388.038	241.62
388.263	259.62
388.488	231.62
388.713	275.62
388.938	268.62
389.163	245.62
389.387	232.62
389.612	220.62
389.837	235.62
390.062	238.62
390.287	257.62
390.512	243.62
390.736	206.62
390.961	211.62
391.186	205.62
391.411	202.62
391.636	201.62
391.86	217.62
392.085	251.62
392.31	239.62
392.534	254.62
392.759	236.62
392.984	237.62
393.208	223.62
393.433	223.62
393.658	194.62
393.882	232.62
394.107	212.62
394.331	198.62
394.556	204.62
394.78	189.62
395.005	210.62
395.229	224.62
395.454	205.62
395.678	224.62
395.903	218.62
396.127	217.62
396.352	225.62
396.576	231.62
396.801	227.62
397.025	256.62
397.249	267.62
397.474	231.62
397.698	233.62
397.922	230.62
398.147	224.62
398.371	237.62
398.595	237.62
398.82	243.62
399.044	234.62
399.268	247.62
399.492	267.62
399.717	281.62
399.941	301.62
400.165	272.62
400.389	262.62
400.613	256.62
400.837	227.62
401.062	218.62
401.286	201.62
401.51	215.62
401.734	218.62
401.958	245.62
402.182	213.62
402.406	225.62
402.63	253.62
402.854	248.62
403.078	290.62
403.302	354.62
403.526	372.62
403.75	332.62
403.974	274.62
404.198	293.62
404.422	312.62
404.645	315.62
404.869	363.62
405.093	284.62
405.317	233.62
405.541	255.62
405.765	274.62
405.988	243.62
406.212	267.62
406.436	288.62
406.66	310.62
406.883	259.62
407.107	278.62
407.331	304.62
407.555	317.62
407.778	286.62
408.002	281.62
408.226	276.62
408.449	268.62
408.673	251.62
408.896	243.62
409.12	239.62
409.344	242.62
409.567	226.62
409.791	246.62
410.014	241.62
410.238	265.62
410.461	234.62
410.685	249.62
410.908	215.62
411.132	224.62
411.355	246.62
411.578	249.62
411.802	225.62
412.025	265.62
412.249	252.62
412.472	233.62
412.695	241.62
412.919	247.62
413.142	229.62
413.365	253.62
413.589	252.62
413.812	231.62
414.035	218.62
414.258	236.62
414.482	241.62
414.705	255.62
414.928	239.62
415.151	214.62
415.374	226.62
415.597	220.62
415.821	238.62
416.044	232.62
416.267	211.62
416.49	227.62
416.713	225.62
416.936	215.62
417.159	225.62
417.382	217.62
417.605	226.62
417.828	216.62
418.051	247.62
418.274	265.62
418.497	239.62
418.72	225.62
418.943	252.62
419.166	247.62
419.389	256.62
419.611	259.62
419.834	235.62
420.057	242.62
420.28	260.62
420.503	228.62
420.726	241.62
420.948	229.62
421.171	236.62
421.394	226.62
421.617	221.62
421.839	225.62
422.062	231.62
422.285	214.62
422.507	225.62
422.73	239.62
422.953	234.62
423.175	245.62
423.398	251.62
423.621	280.62
423.843	263.62
424.066	276.62
424.288	239.62
424.511	227.62
424.733	241.62
424.956	235.62
425.178	263.62
425.401	303.62
425.623	350.62
425.846	313.62
426.068	244.62
426.291	271.62
426.513	229.62
426.735	238.62
426.958	261.62
427.18	253.62
427.402	312.62
427.625	347.62
427.847	319.62
428.069	239.62
428.292	244.62
428.514	223.62
428.736	219.62
428.958	236.62
429.181	311.62
429.403	266.62
429.625	209.62
429.847	246.62
430.069	229.62
430.292	223.62
430.514	221.62
430.736	236.62
430.958	267.62
431.18	251.62
431.402	227.62
431.624	219.62
431.846	225.62
432.068	212.62
432.29	223.62
432.512	221.62
432.734	277.62
432.956	266.62
433.178	246.62
433.4	236.62
433.622	229.62
433.844	226.62
434.066	263.62
434.287	249.62
434.509	237.62
434.731	254.62
434.953	234.62
435.175	246.62
435.397	284.62
435.618	225.62
435.84	217.62
436.062	227.62
436.284	224.62
436.505	198.62
436.727	213.62
436.949	211.62
437.17	208.62
437.392	223.62
437.614	214.62
437.835	218.62
438.057	219.62
438.278	240.62
438.5	318.62
438.721	300.62
438.943	235.62
439.165	211.62
439.386	218.62
439.608	223.62
439.829	209.62
440.05	212.62
440.272	221.62
440.493	237.62
440.715	275.62
440.936	250.62
441.158	221.62
441.379	221.62
441.6	242.62
441.822	256.62
442.043	232.62
442.264	221.62
442.486	236.62
442.707	224.62
442.928	239.62
443.149	246.62
443.371	226.62
443.592	244.62
443.813	219.62
444.034	234.62
444.255	243.62
444.476	249.62
444.698	238.62
444.919	268.62
445.14	333.62
445.361	292.62
445.582	262.62
445.803	241.62
446.024	255.62
446.245	254.62
446.466	229.62
446.687	222.62
446.908	224.62
447.129	223.62
447.35	240.62
447.571	199.62
447.792	212.62
448.013	223.62
448.234	191.62
448.455	205.62
448.675	199.62
448.896	199.62
449.117	205.62
449.338	221.62
449.559	210.62
449.779	221.62
450	230.62
450.221	219.62
450.442	199.62
450.662	205.62
450.883	214.62
451.104	217.62
451.324	223.62
451.545	218.62
451.766	219.62
451.986	204.62
452.207	207.62
452.428	195.62
452.648	206.62
452.869	220.62
453.089	225.62
453.31	231.62
453.53	211.62
453.751	204.62
453.971	207.62
454.192	214.62
454.412	215.62
454.633	200.62
454.853	212.62
455.073	204.62
455.294	196.62
455.514	195.62
455.734	205.62
455.955	215.62
456.175	210.62
456.395	201.62
456.616	207.62
456.836	188.62
457.056	200.62
457.276	177.62
457.497	185.62
457.717	182.62
457.937	189.62
458.157	194.62
458.377	185.62
458.598	195.62
458.818	201.62
459.038	207.62
459.258	217.62
459.478	227.62
459.698	236.62
459.918	248.62
460.138	238.62
460.358	258.62
460.578	227.62
460.798	222.62
461.018	216.62
461.238	231.62
461.458	228.62
461.678	241.62
461.898	261.62
462.118	231.62
462.338	246.62
462.558	264.62
462.777	272.62
462.997	287.62
463.217	293.62
463.437	288.62
463.657	277.62
463.876	268.62
464.096	257.62
464.316	250.62
464.536	280.62
464.755	275.62
464.975	257.62
465.195	250.62
465.414	259.62
465.634	244.62
465.854	236.62
466.073	209.62
466.293	227.62
466.512	235.62
466.732	251.62
466.951	261.62
467.171	241.62
467.391	220.62
467.61	210.62
467.829	227.62
468.049	226.62
468.268	209.62
468.488	211.62
468.707	225.62
468.927	251.62
469.146	269.62
469.365	231.62
469.585	241.62
469.804	239.62
470.023	257.62
470.243	233.62
470.462	232.62
470.681	228.62
470.901	233.62
471.12	225.62
471.339	229.62
471.558	229.62
471.777	249.62
471.997	236.62
472.216	267.62
472.435	255.62
472.654	251.62
472.873	228.62
473.092	247.62
473.311	251.62
473.53	243.62
473.749	217.62
473.968	224.62
474.187	234.62
474.406	231.62
474.625	218.62
474.844	236.62
475.063	248.62
475.282	236.62
475.501	251.62
475.72	279.62
475.939	262.62
476.158	253.62
476.377	297.62
476.596	333.62
476.814	346.62
477.033	307.62
477.252	247.62
477.471	263.62
477.69	232.62
477.908	257.62
478.127	269.62
478.346	261.62
478.564	296.62
478.783	273.62
479.002	289.62
479.22	296.62
479.439	328.62
479.658	285.62
479.876	281.62
480.095	290.62
480.313	297.62
480.532	277.62
480.751	277.62
480.969	248.62
481.188	295.62
481.406	310.62
481.624	286.62
481.843	276.62
482.061	252.62
482.28	283.62
482.498	355.62
482.717	355.62
482.935	266.62
483.153	264.62
483.372	252.62
483.59	252.62
483.808	248.62
484.027	253.62
484.245	240.62
484.463	244.62
484.681	255.62
484.9	273.62
485.118	281.62
485.336	272.62
485.554	249.62
485.772	257.62
485.99	272.62
486.209	305.62
486.427	281.62
486.645	276.62
486.863	282.62
487.081	276.62
487.299	296.62
487.517	294.62
487.735	268.62
487.953	287.62
488.171	292.62
488.389	269.62
488.607	249.62
488.825	269.62
489.043	280.62
489.261	314.62
489.479	323.62
489.696	295.62
489.914	283.62
490.132	255.62
490.35	241.62
490.568	272.62
490.786	241.62
491.003	261.62
491.221	268.62
491.439	249.62
491.657	270.62
491.874	277.62
492.092	332.62
492.31	369.62
492.527	361.62
492.745	321.62
492.963	299.62
493.18	300.62
493.398	274.62
493.615	297.62
493.833	292.62
494.05	297.62
494.268	286.62
494.485	277.62
494.703	283.62
494.92	274.62
495.138	266.62
495.355	288.62
495.573	261.62
495.79	303.62
496.008	372.62
496.225	319.62
496.442	303.62
496.66	283.62
496.877	301.62
497.094	287.62
497.312	284.62
497.529	303.62
497.746	281.62
497.963	278.62
498.181	320.62
498.398	343.62
498.615	367.62
498.832	381.62
499.049	370.62
499.267	384.62
499.484	393.62
499.701	402.62
499.918	445.62
500.135	474.62
500.352	511.62
500.569	525.62
500.786	528.62
501.003	524.62
501.22	472.62
501.437	417.62
501.654	366.62
501.871	377.62
502.088	349.62
502.305	334.62
