Data from NickelSpatula.Lamp.E10.P2_HRD10591_11-58-36-527.txt Node
Date: Tue Jul 23 11:58:36 EDT 2019
User: cochatt
Spectrometer: HR+D1059
Trigger mode: 1
Integration Time (sec): 1.000000E-1
Scans to average: 1
Electric dark correction enabled: true
Nonlinearity correction enabled: false
Boxcar width: 0
XAxis mode: Wavelengths
Number of Pixels in Spectrum: 2048
>>>>>Begin Spectral Data<<<<<
223.165	-26.69
223.4	-26.69
223.635	-26.69
223.869	7.31
224.104	-17.69
224.338	-17.69
224.573	-24.69
224.808	-9.69
225.042	1.31
225.277	-14.69
225.511	-14.69
225.746	0.31
225.98	5.31
226.215	21.31
226.449	10.31
226.683	14.31
226.918	34.31
227.152	31.31
227.387	39.31
227.621	44.31
227.856	52.31
228.09	31.31
228.324	74.31
228.559	54.31
228.793	82.31
229.027	140.31
229.262	169.31
229.496	174.31
229.73	172.31
229.964	191.31
230.199	226.31
230.433	230.31
230.667	207.31
230.901	220.31
231.136	200.31
231.37	209.31
231.604	226.31
231.838	245.31
232.072	255.31
232.306	227.31
232.541	237.31
232.775	263.31
233.009	270.31
233.243	281.31
233.477	318.31
233.711	342.31
233.945	339.31
234.179	341.31
234.413	365.31
234.647	397.31
234.881	461.31
235.115	420.31
235.349	390.31
235.583	353.31
235.817	370.31
236.051	372.31
236.285	421.31
236.519	477.31
236.753	426.31
236.987	419.31
237.221	409.31
237.455	430.31
237.689	445.31
237.922	461.31
238.156	500.31
238.39	547.31
238.624	634.31
238.858	576.31
239.091	495.31
239.325	501.31
239.559	485.31
239.793	531.31
240.027	655.31
240.26	596.31
240.494	591.31
240.728	589.31
240.961	679.31
241.195	667.31
241.429	643.31
241.662	629.31
241.896	512.31
242.13	475.31
242.363	462.31
242.597	489.31
242.83	549.31
243.064	539.31
243.298	604.31
243.531	630.31
243.765	645.31
243.998	650.31
244.232	618.31
244.465	602.31
244.699	612.31
244.932	677.31
245.166	627.31
245.399	558.31
245.633	537.31
245.866	572.31
246.099	604.31
246.333	724.31
246.566	777.31
246.8	770.31
247.033	745.31
247.266	704.31
247.5	683.31
247.733	670.31
247.966	662.31
248.2	694.31
248.433	769.31
248.666	814.31
248.899	855.31
249.133	874.31
249.366	988.31
249.599	1057.31
249.832	957.31
250.066	851.31
250.299	857.31
250.532	812.31
250.765	797.31
250.998	739.31
251.231	730.31
251.465	789.31
251.698	829.31
251.931	824.31
252.164	846.31
252.397	940.31
252.63	1033.31
252.863	1151.31
253.096	1237.31
253.329	1137.31
253.562	1112.31
253.795	1222.31
254.028	1351.31
254.261	1394.31
254.494	1235.31
254.727	1190.31
254.96	1121.31
255.193	1191.31
255.426	1133.31
255.659	872.31
255.892	799.31
256.124	871.31
256.357	1014.31
256.59	1205.31
256.823	1153.31
257.056	956.31
257.289	933.31
257.521	957.31
257.754	1128.31
257.987	1253.31
258.22	1113.31
258.452	1000.31
258.685	1156.31
258.918	1271.31
259.151	1228.31
259.383	1307.31
259.616	1514.31
259.849	1557.31
260.081	1721.31
260.314	1867.31
260.547	1467.31
260.779	1456.31
261.012	1707.31
261.244	1613.31
261.477	1611.31
261.71	1564.31
261.942	1308.31
262.175	1277.31
262.407	1230.31
262.64	1244.31
262.872	1487.31
263.105	1642.31
263.337	1703.31
263.57	1530.31
263.802	1059.31
264.035	929.31
264.267	907.31
264.499	782.31
264.732	702.31
264.964	701.31
265.197	710.31
265.429	772.31
265.661	795.31
265.894	841.31
266.126	928.31
266.358	1035.31
266.591	1263.31
266.823	1509.31
267.055	1396.31
267.287	1243.31
267.52	1262.31
267.752	1329.31
267.984	1429.31
268.216	1383.31
268.448	1116.31
268.681	1108.31
268.913	1215.31
269.145	1265.31
269.377	1304.31
269.609	1314.31
269.841	1241.31
270.073	1286.31
270.306	1386.31
270.538	1341.31
270.77	1424.31
271.002	1405.31
271.234	1487.31
271.466	1507.31
271.698	1424.31
271.93	1410.31
272.162	1421.31
272.394	1417.31
272.626	1405.31
272.858	1440.31
273.09	1497.31
273.322	1325.31
273.553	1276.31
273.785	1519.31
274.017	1973.31
274.249	2469.31
274.481	2512.31
274.713	2677.31
274.945	3075.31
275.176	3225.31
275.408	2842.31
275.64	2633.31
275.872	2602.31
276.104	2220.31
276.335	1893.31
276.567	1871.31
276.799	1956.31
277.031	2043.31
277.262	1589.31
277.494	1247.31
277.726	1217.31
277.957	1297.31
278.189	1482.31
278.421	1473.31
278.652	1438.31
278.884	1377.31
279.115	1285.31
279.347	1236.31
279.579	1187.31
279.81	1183.31
280.042	1201.31
280.273	1249.31
280.505	1135.31
280.736	1022.31
280.968	1022.31
281.199	1088.31
281.431	1257.31
281.662	1205.31
281.894	1171.31
282.125	1214.31
282.356	1339.31
282.588	1364.31
282.819	1274.31
283.051	1389.31
283.282	1661.31
283.513	1943.31
283.745	2132.31
283.976	2199.31
284.207	2066.31
284.439	2066.31
284.67	1981.31
284.901	1781.31
285.132	1914.31
285.364	2003.31
285.595	1864.31
285.826	1985.31
286.057	2024.31
286.288	1967.31
286.52	1995.31
286.751	2108.31
286.982	2067.31
287.213	1807.31
287.444	1702.31
287.675	1829.31
287.906	1806.31
288.138	1555.31
288.369	1340.31
288.6	1285.31
288.831	1347.31
289.062	1546.31
289.293	1665.31
289.524	1599.31
289.755	1585.31
289.986	1656.31
290.217	1420.31
290.448	1134.31
290.679	968.31
290.91	947.31
291.141	953.31
291.371	983.31
291.602	974.31
291.833	993.31
292.064	1063.31
292.295	1211.31
292.526	1414.31
292.757	1481.31
292.987	1571.31
293.218	1561.31
293.449	1592.31
293.68	1722.31
293.91	1570.31
294.141	1603.31
294.372	1493.31
294.603	1415.31
294.833	1580.31
295.064	1875.31
295.295	1707.31
295.525	1336.31
295.756	1177.31
295.987	1003.31
296.217	1025.31
296.448	1045.31
296.679	1116.31
296.909	1255.31
297.14	1300.31
297.37	1445.31
297.601	1375.31
297.831	1196.31
298.062	1242.31
298.292	1411.31
298.523	1543.31
298.753	1745.31
298.984	1571.31
299.214	1265.31
299.445	1068.31
299.675	1038.31
299.905	1022.31
300.136	1063.31
300.366	1205.31
300.597	1161.31
300.827	1012.31
301.057	998.31
301.288	985.31
301.518	1073.31
301.748	1217.31
301.979	1337.31
302.209	1431.31
302.439	1455.31
302.669	1213.31
302.9	1270.31
303.13	1154.31
303.36	1102.31
303.59	1042.31
303.82	1094.31
304.051	1225.31
304.281	1336.31
304.511	1301.31
304.741	1150.31
304.971	1198.31
305.201	1289.31
305.431	1218.31
305.661	1071.31
305.891	1082.31
306.121	1097.31
306.352	933.31
306.582	865.31
306.812	853.31
307.042	852.31
307.272	810.31
307.502	817.31
307.731	901.31
307.961	940.31
308.191	868.31
308.421	799.31
308.651	815.31
308.881	774.31
309.111	780.31
309.341	852.31
309.571	872.31
309.8	934.31
310.03	964.31
310.26	1008.31
310.49	998.31
310.72	856.31
310.949	859.31
311.179	896.31
311.409	931.31
311.639	1112.31
311.868	1377.31
312.098	1786.31
312.328	1919.31
312.557	1844.31
312.787	1893.31
313.017	1654.31
313.246	1825.31
313.476	1964.31
313.706	1580.31
313.935	1292.31
314.165	1031.31
314.394	957.31
314.624	964.31
314.853	1025.31
315.083	1068.31
315.312	1029.31
315.542	1025.31
315.771	957.31
316.001	870.31
316.23	826.31
316.46	870.31
316.689	856.31
316.919	890.31
317.148	916.31
317.377	894.31
317.607	879.31
317.836	973.31
318.065	1094.31
318.295	1219.31
318.524	1146.31
318.753	995.31
318.983	929.31
319.212	928.31
319.441	1010.31
319.67	1121.31
319.9	1236.31
320.129	1134.31
320.358	996.31
320.587	935.31
320.816	1049.31
321.046	1171.31
321.275	1317.31
321.504	1356.31
321.733	1266.31
321.962	1222.31
322.191	1181.31
322.42	1128.31
322.649	1129.31
322.878	1218.31
323.108	1226.31
323.337	1095.31
323.566	1106.31
323.795	1100.31
324.024	997.31
324.253	1001.31
324.482	982.31
324.71	1095.31
324.939	1209.31
325.168	1103.31
325.397	949.31
325.626	931.31
325.855	901.31
326.084	952.31
326.313	892.31
326.542	860.31
326.77	869.31
326.999	878.31
327.228	961.31
327.457	1001.31
327.686	1012.31
327.914	885.31
328.143	853.31
328.372	831.31
328.6	840.31
328.829	889.31
329.058	890.31
329.287	903.31
329.515	921.31
329.744	892.31
329.972	840.31
330.201	783.31
330.43	825.31
330.658	973.31
330.887	1111.31
331.115	1049.31
331.344	975.31
331.572	969.31
331.801	870.31
332.03	858.31
332.258	882.31
332.486	986.31
332.715	1000.31
332.943	929.31
333.172	919.31
333.4	933.31
333.629	1018.31
333.857	1130.31
334.085	1082.31
334.314	1095.31
334.542	1063.31
334.771	969.31
334.999	981.31
335.227	934.31
335.455	941.31
335.684	1040.31
335.912	1203.31
336.14	1298.31
336.369	1258.31
336.597	1238.31
336.825	1373.31
337.053	1533.31
337.281	1233.31
337.51	995.31
337.738	986.31
337.966	1056.31
338.194	1172.31
338.422	1127.31
338.65	983.31
338.878	879.31
339.106	895.31
339.334	1014.31
339.562	1119.31
339.79	1023.31
340.018	966.31
340.246	1085.31
340.474	1207.31
340.702	1254.31
340.93	1329.31
341.158	1317.31
341.386	1118.31
341.614	1105.31
341.842	1138.31
342.07	1151.31
342.298	1330.31
342.526	1365.31
342.754	1202.31
342.981	1117.31
343.209	1037.31
343.437	1139.31
343.665	1205.31
343.893	1161.31
344.12	1372.31
344.348	1574.31
344.576	1411.31
344.804	1195.31
345.031	1034.31
345.259	993.31
345.487	1007.31
345.714	1028.31
345.942	1088.31
346.17	1198.31
346.397	1139.31
346.625	987.31
346.853	970.31
347.08	957.31
347.308	1034.31
347.535	1103.31
347.763	1139.31
347.99	1000.31
348.218	939.31
348.445	941.31
348.673	987.31
348.9	978.31
349.128	1065.31
349.355	1106.31
349.583	1077.31
349.81	1011.31
350.037	920.31
350.265	859.31
350.492	822.31
350.72	788.31
350.947	839.31
351.174	922.31
351.402	948.31
351.629	996.31
351.856	929.31
352.083	895.31
352.311	987.31
352.538	1096.31
352.765	1157.31
352.992	1031.31
353.22	991.31
353.447	1024.31
353.674	1002.31
353.901	958.31
354.128	981.31
354.355	1022.31
354.583	973.31
354.81	983.31
355.037	1015.31
355.264	997.31
355.491	1054.31
355.718	1194.31
355.945	1180.31
356.172	1075.31
356.399	1103.31
356.626	1339.31
356.853	1634.31
357.08	1725.31
357.307	1745.31
357.534	1390.31
357.761	1398.31
357.988	1745.31
358.215	2035.31
358.441	1912.31
358.668	1658.31
358.895	1513.31
359.122	1211.31
359.349	1186.31
359.576	1339.31
359.802	1141.31
360.029	938.31
360.256	1057.31
360.483	1276.31
360.709	1594.31
360.936	1662.31
361.163	1463.31
361.39	1158.31
361.616	1045.31
361.843	1231.31
362.07	1528.31
362.296	1358.31
362.523	1109.31
362.749	951.31
362.976	977.31
363.203	1190.31
363.429	1361.31
363.656	1090.31
363.882	987.31
364.109	1031.31
364.335	1019.31
364.562	999.31
364.788	1130.31
365.015	1309.31
365.241	1161.31
365.468	944.31
365.694	837.31
365.92	799.31
366.147	807.31
366.373	779.31
366.599	807.31
366.826	819.31
367.052	835.31
367.278	841.31
367.505	835.31
367.731	886.31
367.957	1018.31
368.184	1067.31
368.41	992.31
368.636	1006.31
368.862	1084.31
369.089	1048.31
369.315	924.31
369.541	891.31
369.767	874.31
369.993	858.31
370.219	866.31
370.445	929.31
370.672	1001.31
370.898	1115.31
371.124	1105.31
371.35	947.31
371.576	910.31
371.802	959.31
372.028	1130.31
372.254	1345.31
372.48	1153.31
372.706	1040.31
372.932	1121.31
373.158	1148.31
373.384	1354.31
373.61	1815.31
373.835	1829.31
374.061	1387.31
374.287	1161.31
374.513	1407.31
374.739	1642.31
374.965	1697.31
375.191	1638.31
375.416	1185.31
375.642	1035.31
375.868	1225.31
376.094	1364.31
376.319	1151.31
376.545	1287.31
376.771	1357.31
376.997	1154.31
377.222	870.31
377.448	775.31
377.674	737.31
377.899	728.31
378.125	763.31
378.35	744.31
378.576	777.31
378.802	887.31
379.027	945.31
379.253	893.31
379.478	949.31
379.704	1026.31
379.929	1093.31
380.155	1102.31
380.38	972.31
380.606	1003.31
380.831	1121.31
381.057	1023.31
381.282	985.31
381.507	1191.31
381.733	1467.31
381.958	1506.31
382.184	1588.31
382.409	1660.31
382.634	1637.31
382.86	1717.31
383.085	1448.31
383.31	1134.31
383.535	1187.31
383.761	1220.31
383.986	1133.31
384.211	1435.31
384.436	1377.31
384.662	1050.31
384.887	1012.31
385.112	1037.31
385.337	1049.31
385.562	993.31
385.787	1103.31
386.013	1228.31
386.238	1268.31
386.463	1049.31
386.688	1021.31
386.913	980.31
387.138	918.31
387.363	959.31
387.588	986.31
387.813	986.31
388.038	1093.31
388.263	995.31
388.488	970.31
388.713	1131.31
388.938	1213.31
389.163	1049.31
389.387	921.31
389.612	929.31
389.837	977.31
390.062	987.31
390.287	1006.31
390.512	1009.31
390.736	965.31
390.961	881.31
391.186	883.31
391.411	855.31
391.636	846.31
391.86	917.31
392.085	1029.31
392.31	1020.31
392.534	988.31
392.759	945.31
392.984	1008.31
393.208	986.31
393.433	868.31
393.658	805.31
393.882	788.31
394.107	793.31
394.331	815.31
394.556	802.31
394.78	813.31
395.005	870.31
395.229	857.31
395.454	897.31
395.678	877.31
395.903	934.31
396.127	874.31
396.352	907.31
396.576	1003.31
396.801	1014.31
397.025	1128.31
397.249	1116.31
397.474	915.31
397.698	909.31
397.922	963.31
398.147	909.31
398.371	917.31
398.595	975.31
398.82	963.31
399.044	956.31
399.268	1038.31
399.492	1048.31
399.717	1052.31
399.941	1088.31
400.165	1074.31
400.389	1057.31
400.613	1068.31
400.837	1060.31
401.062	942.31
401.286	933.31
401.51	907.31
401.734	891.31
401.958	906.31
402.182	908.31
402.406	920.31
402.63	873.31
402.854	956.31
403.078	1069.31
403.302	1303.31
403.526	1332.31
403.75	1197.31
403.974	1059.31
404.198	1117.31
404.422	1253.31
404.645	1425.31
404.869	1577.31
405.093	1164.31
405.317	975.31
405.541	1005.31
405.765	999.31
405.988	1031.31
406.212	1081.31
406.436	1304.31
406.66	1415.31
406.883	1147.31
407.107	1194.31
407.331	1375.31
407.555	1259.31
407.778	1079.31
408.002	1033.31
408.226	1087.31
408.449	1066.31
408.673	1002.31
408.896	932.31
409.12	907.31
409.344	919.31
409.567	897.31
409.791	895.31
410.014	921.31
410.238	895.31
410.461	887.31
410.685	894.31
410.908	929.31
411.132	929.31
411.355	956.31
411.578	936.31
411.802	939.31
412.025	999.31
412.249	1004.31
412.472	971.31
412.695	978.31
412.919	943.31
413.142	1002.31
413.365	1079.31
413.589	1082.31
413.812	951.31
414.035	918.31
414.258	944.31
414.482	1060.31
414.705	1062.31
414.928	928.31
415.151	862.31
415.374	895.31
415.597	957.31
415.821	927.31
416.044	900.31
416.267	893.31
416.49	865.31
416.713	852.31
416.936	851.31
417.159	863.31
417.382	899.31
417.605	907.31
417.828	908.31
418.051	906.31
418.274	953.31
418.497	922.31
418.72	907.31
418.943	978.31
419.166	983.31
419.389	1069.31
419.611	992.31
419.834	1023.31
420.057	1113.31
420.28	1123.31
420.503	1039.31
420.726	917.31
420.948	902.31
421.171	874.31
421.394	905.31
421.617	845.31
421.839	873.31
422.062	930.31
422.285	909.31
422.507	937.31
422.73	946.31
422.953	949.31
423.175	938.31
423.398	957.31
423.621	1021.31
423.843	1050.31
424.066	986.31
424.288	952.31
424.511	934.31
424.733	912.31
424.956	960.31
425.178	1101.31
425.401	1239.31
425.623	1385.31
425.846	1158.31
426.068	1049.31
426.291	1114.31
426.513	1048.31
426.735	950.31
426.958	1009.31
427.18	1173.31
427.402	1526.31
427.625	1484.31
427.847	1203.31
428.069	894.31
428.292	905.31
428.514	920.31
428.736	856.31
428.958	972.31
429.181	1123.31
429.403	977.31
429.625	917.31
429.847	874.31
430.069	931.31
430.292	915.31
430.514	879.31
430.736	939.31
430.958	1181.31
431.18	1095.31
431.402	843.31
431.624	805.31
431.846	807.31
432.068	805.31
432.29	828.31
432.512	947.31
432.734	1235.31
432.956	1131.31
433.178	872.31
433.4	844.31
433.622	875.31
433.844	912.31
434.066	956.31
434.287	927.31
434.509	897.31
434.731	916.31
434.953	885.31
435.175	893.31
435.397	1048.31
435.618	890.31
435.84	837.31
436.062	825.31
436.284	831.31
436.505	819.31
436.727	783.31
436.949	808.31
437.17	852.31
437.392	840.31
437.614	858.31
437.835	853.31
438.057	862.31
438.278	989.31
438.5	1417.31
438.721	1380.31
438.943	924.31
439.165	831.31
439.386	791.31
439.608	810.31
439.829	783.31
440.05	806.31
440.272	874.31
440.493	1007.31
440.715	1222.31
440.936	1007.31
441.158	846.31
441.379	875.31
441.6	968.31
441.822	1010.31
442.043	866.31
442.264	854.31
442.486	870.31
442.707	881.31
442.928	884.31
443.149	894.31
443.371	898.31
443.592	929.31
443.813	936.31
444.034	900.31
444.255	914.31
444.476	979.31
444.698	960.31
444.919	949.31
445.14	1038.31
445.361	1014.31
445.582	976.31
445.803	940.31
446.024	962.31
446.245	941.31
446.466	919.31
446.687	907.31
446.908	884.31
447.129	857.31
447.35	819.31
447.571	845.31
447.792	832.31
448.013	781.31
448.234	779.31
448.455	791.31
448.675	796.31
448.896	831.31
449.117	792.31
449.338	839.31
449.559	838.31
449.779	868.31
450	863.31
450.221	846.31
450.442	827.31
450.662	801.31
450.883	793.31
451.104	819.31
451.324	812.31
451.545	799.31
451.766	789.31
451.986	821.31
452.207	782.31
452.428	788.31
452.648	773.31
452.869	823.31
453.089	852.31
453.31	844.31
453.53	776.31
453.751	776.31
453.971	719.31
454.192	799.31
454.412	779.31
454.633	755.31
454.853	739.31
455.073	730.31
455.294	718.31
455.514	732.31
455.734	767.31
455.955	817.31
456.175	836.31
456.395	770.31
456.616	707.31
456.836	701.31
457.056	704.31
457.276	711.31
457.497	739.31
457.717	718.31
457.937	725.31
458.157	764.31
458.377	732.31
458.598	772.31
458.818	783.31
459.038	805.31
459.258	800.31
459.478	859.31
459.698	897.31
459.918	891.31
460.138	891.31
460.358	898.31
460.578	890.31
460.798	898.31
461.018	879.31
461.238	864.31
461.458	867.31
461.678	890.31
461.898	951.31
462.118	931.31
462.338	955.31
462.558	964.31
462.777	1009.31
462.997	1025.31
463.217	1015.31
463.437	1051.31
463.657	1019.31
463.876	999.31
464.096	974.31
464.316	958.31
464.536	992.31
464.755	1033.31
464.975	1011.31
465.195	989.31
465.414	1038.31
465.634	947.31
465.854	947.31
466.073	878.31
466.293	869.31
466.512	945.31
466.732	1038.31
466.951	1043.31
467.171	935.31
467.391	891.31
467.61	870.31
467.829	950.31
468.049	962.31
468.268	899.31
468.488	883.31
468.707	900.31
468.927	1087.31
469.146	1150.31
469.365	1023.31
469.585	932.31
469.804	1021.31
470.023	1072.31
470.243	968.31
470.462	971.31
470.681	901.31
470.901	938.31
471.12	966.31
471.339	964.31
471.558	935.31
471.777	955.31
471.997	1000.31
472.216	1121.31
472.435	1052.31
472.654	998.31
472.873	961.31
473.092	1000.31
473.311	1064.31
473.53	969.31
473.749	987.31
473.968	991.31
474.187	990.31
474.406	941.31
474.625	925.31
474.844	979.31
475.063	1057.31
475.282	1048.31
475.501	1094.31
475.72	1132.31
475.939	1094.31
476.158	1109.31
476.377	1258.31
476.596	1467.31
476.814	1502.31
477.033	1261.31
477.252	1106.31
477.471	990.31
477.69	1021.31
477.908	1148.31
478.127	1159.31
478.346	1057.31
478.564	1163.31
478.783	1082.31
479.002	1131.31
479.22	1275.31
479.439	1417.31
479.658	1248.31
479.876	1110.31
480.095	1211.31
480.313	1233.31
480.532	1130.31
480.751	1090.31
480.969	1118.31
481.188	1283.31
481.406	1323.31
481.624	1205.31
481.843	1151.31
482.061	1101.31
482.28	1217.31
482.498	1471.31
482.717	1430.31
482.935	1201.31
483.153	1153.31
483.372	1102.31
483.59	1069.31
483.808	1069.31
484.027	1050.31
484.245	1013.31
484.463	1001.31
484.681	1033.31
484.9	1136.31
485.118	1209.31
485.336	1124.31
485.554	1037.31
485.772	1123.31
485.99	1181.31
486.209	1234.31
486.427	1235.31
486.645	1198.31
486.863	1270.31
487.081	1255.31
487.299	1389.31
487.517	1366.31
487.735	1200.31
487.953	1235.31
488.171	1253.31
488.389	1164.31
488.607	1125.31
488.825	1174.31
489.043	1278.31
489.261	1470.31
489.479	1583.31
489.696	1300.31
489.914	1185.31
490.132	1112.31
490.35	1106.31
490.568	1147.31
490.786	1114.31
491.003	1150.31
491.221	1185.31
491.439	1119.31
491.657	1148.31
491.874	1217.31
492.092	1483.31
492.31	1797.31
492.527	1783.31
492.745	1530.31
492.963	1340.31
493.18	1325.31
493.398	1306.31
493.615	1300.31
493.833	1267.31
494.05	1243.31
