Data from NickelSpatula.Lamp.E10.P2_HRD10591_11-58-01-530.txt Node
Date: Tue Jul 23 11:58:01 EDT 2019
User: cochatt
Spectrometer: HR+D1059
Trigger mode: 1
Integration Time (sec): 1.000000E-1
Scans to average: 1
Electric dark correction enabled: true
Nonlinearity correction enabled: false
Boxcar width: 0
XAxis mode: Wavelengths
Number of Pixels in Spectrum: 2048
>>>>>Begin Spectral Data<<<<<
223.165	-28.19
223.4	-28.19
223.635	-28.19
223.869	-5.19
224.104	-13.19
224.338	-26.19
224.573	-23.19
224.808	-7.19
225.042	-5.19
225.277	-16.19
225.511	6.81
225.746	4.81
225.98	9.81
226.215	8.81
226.449	18.81
226.683	14.81
226.918	21.81
227.152	38.81
227.387	13.81
227.621	34.81
227.856	40.81
228.09	42.81
228.324	32.81
228.559	47.81
228.793	71.81
229.027	132.81
229.262	128.81
229.496	160.81
229.73	169.81
229.964	183.81
230.199	204.81
230.433	200.81
230.667	203.81
230.901	192.81
231.136	186.81
231.37	187.81
231.604	227.81
231.838	236.81
232.072	248.81
232.306	259.81
232.541	255.81
232.775	267.81
233.009	268.81
233.243	305.81
233.477	286.81
233.711	344.81
233.945	329.81
234.179	348.81
234.413	351.81
234.647	399.81
234.881	445.81
235.115	404.81
235.349	391.81
235.583	353.81
235.817	361.81
236.051	377.81
236.285	407.81
236.519	442.81
236.753	410.81
236.987	432.81
237.221	395.81
237.455	412.81
237.689	404.81
237.922	446.81
238.156	470.81
238.39	544.81
238.624	641.81
238.858	578.81
239.091	477.81
239.325	502.81
239.559	467.81
239.793	540.81
240.027	649.81
240.26	576.81
240.494	564.81
240.728	584.81
240.961	686.81
241.195	644.81
241.429	621.81
241.662	598.81
241.896	518.81
242.13	464.81
242.363	440.81
242.597	462.81
242.83	539.81
243.064	530.81
243.298	570.81
243.531	615.81
243.765	650.81
243.998	641.81
244.232	578.81
244.465	570.81
244.699	583.81
244.932	639.81
245.166	605.81
245.399	563.81
245.633	536.81
245.866	578.81
246.099	594.81
246.333	682.81
246.566	748.81
246.8	761.81
247.033	752.81
247.266	673.81
247.5	672.81
247.733	672.81
247.966	647.81
248.2	670.81
248.433	749.81
248.666	814.81
248.899	833.81
249.133	845.81
249.366	965.81
249.599	1032.81
249.832	917.81
250.066	793.81
250.299	852.81
250.532	804.81
250.765	793.81
250.998	728.81
251.231	682.81
251.465	773.81
251.698	800.81
251.931	792.81
252.164	825.81
252.397	906.81
252.63	1049.81
252.863	1121.81
253.096	1186.81
253.329	1136.81
253.562	1085.81
253.795	1203.81
254.028	1320.81
254.261	1354.81
254.494	1215.81
254.727	1128.81
254.96	1118.81
255.193	1142.81
255.426	1102.81
255.659	849.81
255.892	775.81
256.124	820.81
256.357	1004.81
256.59	1218.81
256.823	1116.81
257.056	946.81
257.289	890.81
257.521	922.81
257.754	1123.81
257.987	1284.81
258.22	1116.81
258.452	991.81
258.685	1106.81
258.918	1298.81
259.151	1256.81
259.383	1246.81
259.616	1489.81
259.849	1540.81
260.081	1695.81
260.314	1875.81
260.547	1458.81
260.779	1464.81
261.012	1685.81
261.244	1597.81
261.477	1630.81
261.71	1518.81
261.942	1272.81
262.175	1277.81
262.407	1245.81
262.64	1249.81
262.872	1448.81
263.105	1631.81
263.337	1690.81
263.57	1512.81
263.802	1004.81
264.035	880.81
264.267	846.81
264.499	750.81
264.732	714.81
264.964	658.81
265.197	708.81
265.429	772.81
265.661	820.81
265.894	837.81
266.126	908.81
266.358	1016.81
266.591	1223.81
266.823	1457.81
267.055	1402.81
267.287	1228.81
267.52	1221.81
267.752	1305.81
267.984	1400.81
268.216	1364.81
268.448	1137.81
268.681	1093.81
268.913	1178.81
269.145	1247.81
269.377	1277.81
269.609	1277.81
269.841	1203.81
270.073	1267.81
270.306	1362.81
270.538	1349.81
270.77	1394.81
271.002	1398.81
271.234	1422.81
271.466	1498.81
271.698	1396.81
271.93	1393.81
272.162	1379.81
272.394	1414.81
272.626	1344.81
272.858	1429.81
273.09	1450.81
273.322	1312.81
273.553	1240.81
273.785	1482.81
274.017	1936.81
274.249	2388.81
274.481	2502.81
274.713	2732.81
274.945	3121.81
275.176	3262.81
275.408	2836.81
275.64	2616.81
275.872	2606.81
276.104	2229.81
276.335	1885.81
276.567	1851.81
276.799	1930.81
277.031	2030.81
277.262	1605.81
277.494	1183.81
277.726	1195.81
277.957	1282.81
278.189	1450.81
278.421	1444.81
278.652	1395.81
278.884	1323.81
279.115	1220.81
279.347	1164.81
279.579	1180.81
279.81	1167.81
280.042	1156.81
280.273	1204.81
280.505	1121.81
280.736	972.81
280.968	982.81
281.199	1071.81
281.431	1207.81
281.662	1196.81
281.894	1131.81
282.125	1200.81
282.356	1356.81
282.588	1333.81
282.819	1243.81
283.051	1360.81
283.282	1654.81
283.513	1860.81
283.745	2170.81
283.976	2186.81
284.207	1941.81
284.439	2054.81
284.67	1988.81
284.901	1766.81
285.132	1929.81
285.364	1976.81
285.595	1848.81
285.826	1941.81
286.057	1992.81
286.288	1940.81
286.52	1973.81
286.751	2099.81
286.982	2069.81
287.213	1760.81
287.444	1712.81
287.675	1819.81
287.906	1769.81
288.138	1513.81
288.369	1326.81
288.6	1235.81
288.831	1310.81
289.062	1509.81
289.293	1670.81
289.524	1553.81
289.755	1601.81
289.986	1658.81
290.217	1410.81
290.448	1096.81
290.679	927.81
290.91	896.81
291.141	899.81
291.371	954.81
291.602	970.81
291.833	960.81
292.064	1040.81
292.295	1160.81
292.526	1324.81
292.757	1397.81
292.987	1526.81
293.218	1519.81
293.449	1590.81
293.68	1668.81
293.91	1561.81
294.141	1601.81
294.372	1486.81
294.603	1393.81
294.833	1557.81
295.064	1774.81
295.295	1714.81
295.525	1286.81
295.756	1115.81
295.987	958.81
296.217	973.81
296.448	976.81
296.679	1086.81
296.909	1210.81
297.14	1262.81
297.37	1417.81
297.601	1311.81
297.831	1154.81
298.062	1237.81
298.292	1416.81
298.523	1529.81
298.753	1744.81
298.984	1571.81
299.214	1228.81
299.445	1058.81
299.675	997.81
299.905	992.81
300.136	1025.81
300.366	1100.81
300.597	1101.81
300.827	1002.81
301.057	970.81
301.288	980.81
301.518	1051.81
301.748	1177.81
301.979	1290.81
302.209	1345.81
302.439	1360.81
302.669	1185.81
302.9	1182.81
303.13	1098.81
303.36	1070.81
303.59	1018.81
303.82	1065.81
304.051	1228.81
304.281	1307.81
304.511	1234.81
304.741	1126.81
304.971	1156.81
305.201	1216.81
305.431	1172.81
305.661	1032.81
305.891	1004.81
306.121	1027.81
306.352	926.81
306.582	857.81
306.812	846.81
307.042	822.81
307.272	794.81
307.502	810.81
307.731	832.81
307.961	907.81
308.191	848.81
308.421	790.81
308.651	798.81
308.881	763.81
309.111	785.81
309.341	803.81
309.571	863.81
309.8	915.81
310.03	910.81
310.26	952.81
310.49	939.81
310.72	849.81
310.949	842.81
311.179	858.81
311.409	916.81
311.639	1058.81
311.868	1365.81
312.098	1740.81
312.328	1874.81
312.557	1801.81
312.787	1818.81
313.017	1638.81
313.246	1804.81
313.476	1906.81
313.706	1610.81
313.935	1266.81
314.165	1051.81
314.394	920.81
314.624	934.81
314.853	1028.81
315.083	1012.81
315.312	975.81
315.542	978.81
315.771	897.81
316.001	855.81
316.23	822.81
316.46	819.81
316.689	847.81
316.919	852.81
317.148	873.81
317.377	872.81
317.607	865.81
317.836	948.81
318.065	1091.81
318.295	1183.81
318.524	1119.81
318.753	970.81
318.983	906.81
319.212	884.81
319.441	992.81
319.67	1070.81
319.9	1156.81
320.129	1060.81
320.358	954.81
320.587	923.81
320.816	981.81
321.046	1115.81
321.275	1246.81
321.504	1286.81
321.733	1241.81
321.962	1158.81
322.191	1100.81
322.42	1049.81
322.649	1077.81
322.878	1163.81
323.108	1141.81
323.337	1082.81
323.566	1049.81
323.795	1040.81
324.024	974.81
324.253	940.81
324.482	964.81
324.71	1072.81
324.939	1191.81
325.168	1081.81
325.397	916.81
325.626	868.81
325.855	908.81
326.084	894.81
326.313	845.81
326.542	809.81
326.77	820.81
326.999	890.81
327.228	936.81
327.457	980.81
327.686	987.81
327.914	845.81
328.143	797.81
328.372	805.81
328.6	805.81
328.829	851.81
329.058	895.81
329.287	891.81
329.515	866.81
329.744	837.81
329.972	804.81
330.201	813.81
330.43	851.81
330.658	916.81
330.887	1075.81
331.115	993.81
331.344	944.81
331.572	931.81
331.801	878.81
332.03	841.81
332.258	862.81
332.486	930.81
332.715	962.81
332.943	875.81
333.172	878.81
333.4	934.81
333.629	1000.81
333.857	1080.81
334.085	1092.81
334.314	1084.81
334.542	1027.81
334.771	950.81
334.999	934.81
335.227	932.81
335.455	937.81
335.684	1003.81
335.912	1159.81
336.14	1288.81
336.369	1236.81
336.597	1177.81
336.825	1337.81
337.053	1492.81
337.281	1182.81
337.51	962.81
337.738	959.81
337.966	1034.81
338.194	1137.81
338.422	1081.81
338.65	912.81
338.878	888.81
339.106	898.81
339.334	1020.81
339.562	1058.81
339.79	959.81
340.018	958.81
340.246	1006.81
340.474	1160.81
340.702	1246.81
340.93	1268.81
341.158	1290.81
341.386	1064.81
341.614	1077.81
341.842	1077.81
342.07	1123.81
342.298	1296.81
342.526	1332.81
342.754	1154.81
342.981	1066.81
343.209	1055.81
343.437	1095.81
343.665	1146.81
343.893	1159.81
344.12	1315.81
344.348	1517.81
344.576	1368.81
344.804	1148.81
345.031	973.81
345.259	950.81
345.487	947.81
345.714	1005.81
345.942	1039.81
346.17	1145.81
346.397	1093.81
346.625	954.81
346.853	936.81
347.08	911.81
347.308	974.81
347.535	1087.81
347.763	1123.81
347.99	985.81
348.218	869.81
348.445	937.81
348.673	958.81
348.9	953.81
349.128	1021.81
349.355	1072.81
349.583	1013.81
349.81	965.81
350.037	933.81
350.265	816.81
350.492	772.81
350.72	783.81
350.947	822.81
351.174	876.81
351.402	896.81
351.629	931.81
351.856	912.81
352.083	867.81
352.311	956.81
352.538	1045.81
352.765	1079.81
352.992	976.81
353.22	947.81
353.447	961.81
353.674	927.81
353.901	916.81
354.128	942.81
354.355	968.81
354.583	967.81
354.81	955.81
355.037	975.81
355.264	961.81
355.491	1005.81
355.718	1117.81
355.945	1064.81
356.172	1043.81
356.399	1047.81
356.626	1243.81
356.853	1534.81
357.08	1615.81
357.307	1660.81
357.534	1320.81
357.761	1337.81
357.988	1639.81
358.215	1938.81
358.441	1876.81
358.668	1550.81
358.895	1441.81
359.122	1169.81
359.349	1186.81
359.576	1248.81
359.802	1048.81
360.029	918.81
360.256	985.81
360.483	1207.81
360.709	1516.81
360.936	1568.81
361.163	1348.81
361.39	1060.81
361.616	1018.81
361.843	1186.81
362.07	1456.81
362.296	1298.81
362.523	1028.81
362.749	911.81
362.976	960.81
363.203	1144.81
363.429	1305.81
363.656	1024.81
363.882	956.81
364.109	958.81
364.335	931.81
364.562	956.81
364.788	1048.81
365.015	1275.81
365.241	1124.81
365.468	925.81
365.694	811.81
365.92	793.81
366.147	783.81
366.373	782.81
366.599	738.81
366.826	771.81
367.052	822.81
367.278	810.81
367.505	802.81
367.731	884.81
367.957	948.81
368.184	988.81
368.41	955.81
368.636	975.81
368.862	978.81
369.089	969.81
369.315	876.81
369.541	847.81
369.767	867.81
369.993	818.81
370.219	817.81
370.445	874.81
370.672	957.81
370.898	1030.81
371.124	1032.81
371.35	932.81
371.576	870.81
371.802	942.81
372.028	1102.81
372.254	1292.81
372.48	1075.81
372.706	978.81
372.932	1037.81
373.158	1081.81
373.384	1300.81
373.61	1714.81
373.835	1750.81
374.061	1297.81
374.287	1135.81
374.513	1324.81
374.739	1572.81
374.965	1621.81
375.191	1570.81
375.416	1140.81
375.642	1016.81
375.868	1187.81
376.094	1280.81
376.319	1123.81
376.545	1243.81
376.771	1281.81
376.997	1120.81
377.222	845.81
377.448	716.81
377.674	720.81
377.899	734.81
378.125	741.81
378.35	736.81
378.576	750.81
378.802	833.81
379.027	895.81
379.253	844.81
379.478	884.81
379.704	1010.81
379.929	1050.81
380.155	1038.81
380.38	921.81
380.606	944.81
380.831	1063.81
381.057	972.81
381.282	930.81
381.507	1112.81
381.733	1350.81
381.958	1458.81
382.184	1542.81
382.409	1565.81
382.634	1565.81
382.86	1627.81
383.085	1352.81
383.31	1104.81
383.535	1162.81
383.761	1162.81
383.986	1111.81
384.211	1309.81
384.436	1300.81
384.662	1021.81
384.887	987.81
385.112	1003.81
385.337	997.81
385.562	938.81
385.787	1064.81
386.013	1179.81
386.238	1223.81
386.463	1017.81
386.688	970.81
386.913	948.81
387.138	895.81
387.363	919.81
387.588	943.81
387.813	952.81
388.038	1039.81
388.263	967.81
388.488	950.81
388.713	1102.81
388.938	1146.81
389.163	971.81
389.387	858.81
389.612	894.81
389.837	928.81
390.062	906.81
390.287	949.81
390.512	974.81
390.736	924.81
390.961	882.81
391.186	834.81
391.411	843.81
391.636	833.81
391.86	925.81
392.085	953.81
392.31	966.81
392.534	930.81
392.759	940.81
392.984	958.81
393.208	910.81
393.433	862.81
393.658	781.81
393.882	791.81
394.107	774.81
394.331	788.81
394.556	784.81
394.78	793.81
395.005	822.81
395.229	832.81
395.454	844.81
395.678	852.81
395.903	901.81
396.127	845.81
396.352	869.81
396.576	956.81
396.801	995.81
397.025	1090.81
397.249	1086.81
397.474	924.81
397.698	926.81
397.922	945.81
398.147	890.81
398.371	894.81
398.595	939.81
398.82	939.81
399.044	948.81
399.268	957.81
399.492	1018.81
399.717	1048.81
399.941	1078.81
400.165	1048.81
400.389	1016.81
400.613	1047.81
400.837	1022.81
401.062	930.81
401.286	878.81
401.51	864.81
401.734	889.81
401.958	904.81
402.182	925.81
402.406	899.81
402.63	888.81
402.854	933.81
403.078	1082.81
403.302	1267.81
403.526	1306.81
403.75	1162.81
403.974	1020.81
404.198	1093.81
404.422	1154.81
404.645	1410.81
404.869	1494.81
405.093	1141.81
405.317	962.81
405.541	977.81
405.765	986.81
405.988	980.81
406.212	1048.81
406.436	1234.81
406.66	1362.81
406.883	1087.81
407.107	1176.81
407.331	1317.81
407.555	1250.81
407.778	1074.81
408.002	1026.81
408.226	1029.81
408.449	1026.81
408.673	1010.81
408.896	938.81
409.12	885.81
409.344	900.81
409.567	876.81
409.791	892.81
410.014	860.81
410.238	839.81
410.461	880.81
410.685	861.81
410.908	880.81
411.132	938.81
411.355	917.81
411.578	954.81
411.802	946.81
412.025	957.81
412.249	962.81
412.472	940.81
412.695	946.81
412.919	928.81
413.142	943.81
413.365	1016.81
413.589	1018.81
413.812	951.81
414.035	901.81
414.258	922.81
414.482	1016.81
414.705	1029.81
414.928	881.81
415.151	859.81
415.374	886.81
415.597	900.81
415.821	899.81
416.044	873.81
416.267	844.81
416.49	876.81
416.713	836.81
416.936	863.81
417.159	838.81
417.382	850.81
417.605	884.81
417.828	888.81
418.051	890.81
418.274	912.81
418.497	906.81
418.72	911.81
418.943	933.81
419.166	964.81
419.389	986.81
419.611	976.81
419.834	1021.81
420.057	1082.81
420.28	1094.81
420.503	1003.81
420.726	883.81
420.948	853.81
421.171	886.81
421.394	867.81
421.617	858.81
421.839	868.81
422.062	931.81
422.285	932.81
422.507	929.81
422.73	930.81
422.953	954.81
423.175	922.81
423.398	935.81
423.621	964.81
423.843	1024.81
424.066	945.81
424.288	947.81
424.511	886.81
424.733	895.81
424.956	940.81
425.178	1041.81
425.401	1164.81
425.623	1332.81
425.846	1098.81
426.068	951.81
426.291	1066.81
426.513	1006.81
426.735	949.81
426.958	981.81
427.18	1116.81
427.402	1462.81
427.625	1431.81
427.847	1146.81
428.069	899.81
428.292	864.81
428.514	886.81
428.736	860.81
428.958	932.81
429.181	1106.81
429.403	949.81
429.625	872.81
429.847	851.81
430.069	882.81
430.292	892.81
430.514	856.81
430.736	911.81
430.958	1156.81
431.18	1042.81
431.402	880.81
431.624	792.81
431.846	824.81
432.068	789.81
432.29	799.81
432.512	899.81
432.734	1146.81
432.956	1090.81
433.178	868.81
433.4	840.81
433.622	818.81
433.844	849.81
434.066	909.81
434.287	894.81
434.509	841.81
434.731	902.81
434.953	835.81
435.175	916.81
435.397	1002.81
435.618	882.81
435.84	803.81
436.062	797.81
436.284	818.81
436.505	804.81
436.727	780.81
436.949	802.81
437.17	827.81
437.392	837.81
437.614	798.81
437.835	810.81
438.057	823.81
438.278	962.81
438.5	1316.81
438.721	1305.81
438.943	937.81
439.165	800.81
439.386	753.81
439.608	782.81
439.829	786.81
440.05	781.81
440.272	828.81
440.493	981.81
440.715	1214.81
440.936	945.81
441.158	831.81
441.379	848.81
441.6	954.81
441.822	1008.81
442.043	882.81
442.264	879.81
442.486	852.81
442.707	862.81
442.928	861.81
443.149	879.81
443.371	876.81
443.592	911.81
443.813	915.81
444.034	889.81
444.255	884.81
444.476	943.81
444.698	929.81
444.919	932.81
445.14	1014.81
445.361	1006.81
445.582	951.81
445.803	916.81
446.024	938.81
446.245	920.81
446.466	894.81
446.687	850.81
446.908	878.81
447.129	827.81
447.35	796.81
447.571	793.81
447.792	768.81
448.013	802.81
448.234	778.81
448.455	789.81
448.675	799.81
448.896	774.81
449.117	804.81
449.338	785.81
449.559	818.81
449.779	858.81
450	858.81
450.221	820.81
450.442	794.81
450.662	784.81
450.883	806.81
451.104	805.81
451.324	786.81
451.545	810.81
451.766	795.81
451.986	780.81
452.207	723.81
452.428	757.81
452.648	758.81
452.869	800.81
453.089	840.81
453.31	824.81
453.53	738.81
453.751	723.81
453.971	735.81
454.192	734.81
454.412	767.81
454.633	753.81
454.853	749.81
455.073	718.81
455.294	720.81
455.514	744.81
455.734	781.81
455.955	800.81
456.175	817.81
456.395	744.81
456.616	732.81
456.836	710.81
457.056	673.81
457.276	706.81
457.497	690.81
457.717	720.81
457.937	709.81
458.157	708.81
458.377	725.81
458.598	734.81
458.818	746.81
459.038	810.81
459.258	818.81
459.478	834.81
459.698	894.81
459.918	894.81
460.138	886.81
460.358	878.81
460.578	835.81
460.798	904.81
461.018	879.81
461.238	837.81
461.458	883.81
461.678	872.81
461.898	912.81
462.118	905.81
462.338	938.81
462.558	930.81
462.777	970.81
462.997	1001.81
463.217	995.81
463.437	1038.81
463.657	1024.81
463.876	962.81
464.096	943.81
464.316	953.81
464.536	1000.81
464.755	989.81
464.975	997.81
465.195	940.81
465.414	1000.81
465.634	931.81
465.854	933.81
466.073	885.81
466.293	848.81
466.512	897.81
466.732	1022.81
466.951	1002.81
467.171	891.81
467.391	846.81
467.61	868.81
467.829	900.81
468.049	890.81
468.268	896.81
468.488	893.81
468.707	914.81
468.927	1018.81
469.146	1085.81
469.365	1020.81
469.585	919.81
469.804	996.81
470.023	1076.81
470.243	981.81
470.462	913.81
470.681	898.81
470.901	902.81
471.12	952.81
471.339	956.81
471.558	895.81
471.777	908.81
471.997	1005.81
472.216	1102.81
472.435	1062.81
472.654	960.81
472.873	942.81
473.092	970.81
473.311	1051.81
473.53	942.81
473.749	907.81
473.968	966.81
474.187	958.81
474.406	917.81
474.625	928.81
474.844	923.81
475.063	1000.81
475.282	989.81
475.501	1078.81
475.72	1124.81
475.939	1074.81
476.158	1049.81
476.377	1199.81
476.596	1432.81
476.814	1492.81
477.033	1241.81
477.252	1042.81
477.471	967.81
477.69	992.81
477.908	1086.81
478.127	1120.81
478.346	1047.81
478.564	1148.81
478.783	1074.81
479.002	1079.81
479.22	1251.81
479.439	1422.81
479.658	1257.81
479.876	1091.81
480.095	1215.81
480.313	1200.81
480.532	1092.81
480.751	1100.81
480.969	1105.81
481.188	1248.81
481.406	1271.81
481.624	1201.81
481.843	1111.81
482.061	1045.81
482.28	1204.81
482.498	1412.81
482.717	1358.81
482.935	1202.81
483.153	1116.81
483.372	1053.81
483.59	1042.81
483.808	1046.81
484.027	989.81
484.245	997.81
484.463	963.81
484.681	996.81
484.9	1080.81
485.118	1184.81
485.336	1102.81
485.554	1031.81
485.772	1045.81
485.99	1171.81
486.209	1182.81
486.427	1185.81
486.645	1147.81
486.863	1230.81
487.081	1180.81
487.299	1345.81
487.517	1292.81
487.735	1214.81
487.953	1221.81
488.171	1267.81
488.389	1189.81
488.607	1090.81
488.825	1141.81
489.043	1238.81
489.261	1438.81
489.479	1511.81
489.696	1278.81
489.914	1162.81
490.132	1089.81
490.35	1114.81
490.568	1131.81
490.786	1118.81
491.003	1140.81
491.221	1174.81
491.439	1123.81
491.657	1105.81
491.874	1188.81
492.092	1464.81
492.31	1753.81
492.527	1702.81
492.745	1518.81
492.963	1300.81
493.18	1293.81
493.398	1271.81
493.615	1281.81
493.833	1218.81
494.05	1209.81
494.268	1249.81
494.485	1244.81
494.703	1164.81
494.92	1232.81
