Data from NickelSpatula.Lamp.E5.5.P2_HRD10591_11-50-53-564.txt Node
Date: Tue Jul 23 11:50:53 EDT 2019
User: cochatt
Spectrometer: HR+D1059
Trigger mode: 1
Integration Time (sec): 1.000000E-1
Scans to average: 1
Electric dark correction enabled: true
Nonlinearity correction enabled: false
Boxcar width: 0
XAxis mode: Wavelengths
Number of Pixels in Spectrum: 2048
>>>>>Begin Spectral Data<<<<<
223.165	-13.06
223.4	-13.06
223.635	-13.06
223.869	-24.06
224.104	-19.06
224.338	-18.06
224.573	-21.06
224.808	-10.06
225.042	6.94
225.277	-19.06
225.511	-6.06
225.746	9.94
225.98	14.94
226.215	11.94
226.449	20.94
226.683	24.94
226.918	17.94
227.152	22.94
227.387	34.94
227.621	27.94
227.856	37.94
228.09	48.94
228.324	42.94
228.559	42.94
228.793	49.94
229.027	61.94
229.262	81.94
229.496	74.94
229.73	66.94
229.964	73.94
230.199	74.94
230.433	85.94
230.667	89.94
230.901	89.94
231.136	79.94
231.37	101.94
231.604	85.94
231.838	108.94
232.072	96.94
232.306	95.94
232.541	101.94
232.775	97.94
233.009	123.94
233.243	107.94
233.477	114.94
233.711	110.94
233.945	116.94
234.179	94.94
234.413	110.94
234.647	117.94
234.881	128.94
235.115	116.94
235.349	116.94
235.583	95.94
235.817	111.94
236.051	112.94
236.285	127.94
236.519	144.94
236.753	124.94
236.987	121.94
237.221	117.94
237.455	111.94
237.689	115.94
237.922	116.94
238.156	120.94
238.39	137.94
238.624	139.94
238.858	130.94
239.091	131.94
239.325	113.94
239.559	132.94
239.793	131.94
240.027	154.94
240.26	132.94
240.494	128.94
240.728	128.94
240.961	151.94
241.195	151.94
241.429	136.94
241.662	139.94
241.896	132.94
242.13	132.94
242.363	118.94
242.597	124.94
242.83	133.94
243.064	124.94
243.298	128.94
243.531	157.94
243.765	138.94
243.998	165.94
244.232	154.94
244.465	132.94
244.699	144.94
244.932	143.94
245.166	149.94
245.399	140.94
245.633	127.94
245.866	128.94
246.099	141.94
246.333	178.94
246.566	164.94
246.8	164.94
247.033	157.94
247.266	141.94
247.5	145.94
247.733	142.94
247.966	125.94
248.2	148.94
248.433	156.94
248.666	175.94
248.899	163.94
249.133	165.94
249.366	168.94
249.599	189.94
249.832	174.94
250.066	177.94
250.299	175.94
250.532	172.94
250.765	152.94
250.998	143.94
251.231	145.94
251.465	161.94
251.698	166.94
251.931	153.94
252.164	190.94
252.397	174.94
252.63	206.94
252.863	223.94
253.096	221.94
253.329	213.94
253.562	191.94
253.795	214.94
254.028	220.94
254.261	239.94
254.494	236.94
254.727	205.94
254.96	204.94
255.193	214.94
255.426	224.94
255.659	168.94
255.892	169.94
256.124	172.94
256.357	198.94
256.59	222.94
256.823	234.94
257.056	206.94
257.289	193.94
257.521	196.94
257.754	228.94
257.987	258.94
258.22	229.94
258.452	188.94
258.685	230.94
258.918	225.94
259.151	234.94
259.383	260.94
259.616	274.94
259.849	270.94
260.081	275.94
260.314	302.94
260.547	251.94
260.779	261.94
261.012	310.94
261.244	290.94
261.477	275.94
261.71	279.94
261.942	249.94
262.175	248.94
262.407	250.94
262.64	217.94
262.872	257.94
263.105	261.94
263.337	302.94
263.57	270.94
263.802	217.94
264.035	193.94
264.267	215.94
264.499	170.94
264.732	163.94
264.964	165.94
265.197	170.94
265.429	179.94
265.661	183.94
265.894	182.94
266.126	206.94
266.358	179.94
266.591	254.94
266.823	257.94
267.055	285.94
267.287	237.94
267.52	244.94
267.752	263.94
267.984	269.94
268.216	253.94
268.448	226.94
268.681	212.94
268.913	229.94
269.145	233.94
269.377	236.94
269.609	257.94
269.841	249.94
270.073	254.94
270.306	274.94
270.538	261.94
270.77	293.94
271.002	289.94
271.234	269.94
271.466	293.94
271.698	253.94
271.93	251.94
272.162	258.94
272.394	261.94
272.626	259.94
272.858	264.94
273.09	265.94
273.322	229.94
273.553	239.94
273.785	269.94
274.017	308.94
274.249	360.94
274.481	372.94
274.713	393.94
274.945	465.94
275.176	498.94
275.408	410.94
275.64	399.94
275.872	398.94
276.104	386.94
276.335	340.94
276.567	309.94
276.799	318.94
277.031	345.94
277.262	291.94
277.494	249.94
277.726	241.94
277.957	247.94
278.189	268.94
278.421	269.94
278.652	273.94
278.884	270.94
279.115	243.94
279.347	237.94
279.579	224.94
279.81	238.94
280.042	250.94
280.273	265.94
280.505	236.94
280.736	215.94
280.968	179.94
281.199	232.94
281.431	228.94
281.662	220.94
281.894	230.94
282.125	244.94
282.356	271.94
282.588	261.94
282.819	233.94
283.051	258.94
283.282	285.94
283.513	331.94
283.745	360.94
283.976	358.94
284.207	356.94
284.439	345.94
284.67	346.94
284.901	319.94
285.132	321.94
285.364	351.94
285.595	316.94
285.826	339.94
286.057	336.94
286.288	336.94
286.52	338.94
286.751	358.94
286.982	362.94
287.213	348.94
287.444	310.94
287.675	309.94
287.906	315.94
288.138	282.94
288.369	277.94
288.6	258.94
288.831	281.94
289.062	303.94
289.293	310.94
289.524	300.94
289.755	286.94
289.986	295.94
290.217	290.94
290.448	234.94
290.679	203.94
290.91	196.94
291.141	198.94
291.371	183.94
291.602	197.94
291.833	217.94
292.064	217.94
292.295	239.94
292.526	264.94
292.757	271.94
292.987	280.94
293.218	284.94
293.449	294.94
293.68	347.94
293.91	318.94
294.141	316.94
294.372	313.94
294.603	274.94
294.833	281.94
295.064	339.94
295.295	330.94
295.525	255.94
295.756	224.94
295.987	216.94
296.217	202.94
296.448	202.94
296.679	217.94
296.909	230.94
297.14	263.94
297.37	297.94
297.601	270.94
297.831	252.94
298.062	244.94
298.292	291.94
298.523	290.94
298.753	322.94
298.984	303.94
299.214	247.94
299.445	232.94
299.675	229.94
299.905	208.94
300.136	218.94
300.366	222.94
300.597	210.94
300.827	220.94
301.057	224.94
301.288	215.94
301.518	232.94
301.748	269.94
301.979	269.94
302.209	297.94
302.439	286.94
302.669	258.94
302.9	253.94
303.13	223.94
303.36	225.94
303.59	207.94
303.82	242.94
304.051	225.94
304.281	261.94
304.511	256.94
304.741	237.94
304.971	244.94
305.201	235.94
305.431	243.94
305.661	225.94
305.891	222.94
306.121	229.94
306.352	212.94
306.582	187.94
306.812	178.94
307.042	191.94
307.272	176.94
307.502	184.94
307.731	190.94
307.961	198.94
308.191	195.94
308.421	194.94
308.651	185.94
308.881	163.94
309.111	192.94
309.341	185.94
309.571	199.94
309.8	188.94
310.03	188.94
310.26	195.94
310.49	185.94
310.72	185.94
310.949	178.94
311.179	186.94
311.409	185.94
311.639	202.94
311.868	250.94
312.098	318.94
312.328	345.94
312.557	331.94
312.787	335.94
313.017	294.94
313.246	298.94
313.476	350.94
313.706	304.94
313.935	263.94
314.165	232.94
314.394	194.94
314.624	208.94
314.853	219.94
315.083	208.94
315.312	214.94
315.542	210.94
315.771	198.94
316.001	195.94
316.23	196.94
316.46	178.94
316.689	191.94
316.919	197.94
317.148	178.94
317.377	200.94
317.607	183.94
317.836	189.94
318.065	230.94
318.295	232.94
318.524	211.94
318.753	197.94
318.983	197.94
319.212	207.94
319.441	200.94
319.67	214.94
319.9	232.94
320.129	234.94
320.358	195.94
320.587	189.94
320.816	195.94
321.046	219.94
321.275	223.94
321.504	248.94
321.733	226.94
321.962	239.94
322.191	213.94
322.42	216.94
322.649	227.94
322.878	238.94
323.108	233.94
323.337	208.94
323.566	210.94
323.795	218.94
324.024	211.94
324.253	205.94
324.482	200.94
324.71	224.94
324.939	240.94
325.168	233.94
325.397	195.94
325.626	202.94
325.855	188.94
326.084	193.94
326.313	196.94
326.542	190.94
326.77	189.94
326.999	190.94
327.228	217.94
327.457	211.94
327.686	214.94
327.914	201.94
328.143	199.94
328.372	189.94
328.6	180.94
328.829	200.94
329.058	195.94
329.287	182.94
329.515	183.94
329.744	190.94
329.972	190.94
330.201	173.94
330.43	192.94
330.658	187.94
330.887	227.94
331.115	208.94
331.344	210.94
331.572	204.94
331.801	212.94
332.03	191.94
332.258	205.94
332.486	197.94
332.715	215.94
332.943	215.94
333.172	200.94
333.4	227.94
333.629	232.94
333.857	227.94
334.085	241.94
334.314	228.94
334.542	233.94
334.771	220.94
334.999	217.94
335.227	196.94
335.455	216.94
335.684	209.94
335.912	241.94
336.14	261.94
336.369	258.94
336.597	248.94
336.825	286.94
337.053	297.94
337.281	259.94
337.51	218.94
337.738	224.94
337.966	217.94
338.194	225.94
338.422	227.94
338.65	196.94
338.878	195.94
339.106	187.94
339.334	216.94
339.562	233.94
339.79	196.94
340.018	197.94
340.246	205.94
340.474	227.94
340.702	230.94
340.93	253.94
341.158	257.94
341.386	224.94
341.614	229.94
341.842	206.94
342.07	210.94
342.298	264.94
342.526	257.94
342.754	259.94
342.981	219.94
343.209	204.94
343.437	245.94
343.665	252.94
343.893	248.94
344.12	301.94
344.348	336.94
344.576	285.94
344.804	248.94
345.031	234.94
345.259	199.94
345.487	206.94
345.714	221.94
345.942	215.94
346.17	226.94
346.397	236.94
346.625	217.94
346.853	222.94
347.08	201.94
347.308	211.94
347.535	219.94
347.763	234.94
347.99	212.94
348.218	195.94
348.445	212.94
348.673	211.94
348.9	220.94
349.128	233.94
349.355	211.94
349.583	224.94
349.81	203.94
350.037	218.94
350.265	200.94
350.492	171.94
350.72	200.94
350.947	206.94
351.174	203.94
351.402	197.94
351.629	214.94
351.856	220.94
352.083	196.94
352.311	194.94
352.538	205.94
352.765	222.94
352.992	220.94
353.22	215.94
353.447	228.94
353.674	220.94
353.901	196.94
354.128	197.94
354.355	197.94
354.583	206.94
354.81	219.94
355.037	229.94
355.264	205.94
355.491	222.94
355.718	221.94
355.945	229.94
356.172	219.94
356.399	216.94
356.626	252.94
356.853	298.94
357.08	309.94
357.307	317.94
357.534	261.94
357.761	253.94
357.988	328.94
358.215	384.94
358.441	341.94
358.668	302.94
358.895	287.94
359.122	252.94
359.349	240.94
359.576	270.94
359.802	226.94
360.029	225.94
360.256	208.94
360.483	255.94
360.709	308.94
360.936	316.94
361.163	273.94
361.39	216.94
361.616	228.94
361.843	228.94
362.07	285.94
362.296	254.94
362.523	236.94
362.749	209.94
362.976	196.94
363.203	233.94
363.429	263.94
363.656	222.94
363.882	206.94
364.109	232.94
364.335	211.94
364.562	210.94
364.788	225.94
365.015	253.94
365.241	223.94
365.468	200.94
365.694	186.94
365.92	181.94
366.147	176.94
366.373	179.94
366.599	193.94
366.826	186.94
367.052	182.94
367.278	179.94
367.505	188.94
367.731	202.94
367.957	210.94
368.184	208.94
368.41	226.94
368.636	216.94
368.862	237.94
369.089	211.94
369.315	194.94
369.541	196.94
369.767	216.94
369.993	186.94
370.219	193.94
370.445	195.94
370.672	229.94
370.898	236.94
371.124	231.94
371.35	219.94
371.576	211.94
371.802	211.94
372.028	223.94
372.254	252.94
372.48	254.94
372.706	221.94
372.932	219.94
373.158	227.94
373.384	282.94
373.61	330.94
373.835	362.94
374.061	260.94
374.287	256.94
374.513	270.94
374.739	325.94
374.965	332.94
375.191	340.94
375.416	250.94
375.642	212.94
375.868	258.94
376.094	283.94
376.319	222.94
376.545	240.94
376.771	246.94
376.997	254.94
377.222	177.94
377.448	180.94
377.674	186.94
377.899	191.94
378.125	177.94
378.35	174.94
378.576	172.94
378.802	197.94
379.027	217.94
379.253	217.94
379.478	204.94
379.704	222.94
379.929	215.94
380.155	217.94
380.38	215.94
380.606	210.94
380.831	245.94
381.057	208.94
381.282	221.94
381.507	242.94
381.733	261.94
381.958	276.94
382.184	300.94
382.409	315.94
382.634	315.94
382.86	340.94
383.085	304.94
383.31	249.94
383.535	258.94
383.761	256.94
383.986	244.94
384.211	290.94
384.436	250.94
384.662	215.94
384.887	236.94
385.112	232.94
385.337	237.94
385.562	223.94
385.787	246.94
386.013	264.94
386.238	260.94
386.463	230.94
386.688	238.94
386.913	232.94
387.138	232.94
387.363	224.94
387.588	230.94
387.813	205.94
388.038	252.94
388.263	232.94
388.488	221.94
388.713	238.94
388.938	279.94
389.163	228.94
389.387	194.94
389.612	194.94
389.837	224.94
390.062	222.94
390.287	221.94
390.512	235.94
390.736	198.94
390.961	208.94
391.186	204.94
391.411	203.94
391.636	196.94
391.86	215.94
392.085	249.94
392.31	239.94
392.534	217.94
392.759	229.94
392.984	232.94
393.208	234.94
393.433	210.94
393.658	211.94
393.882	198.94
394.107	197.94
394.331	202.94
394.556	193.94
394.78	206.94
395.005	221.94
395.229	209.94
395.454	212.94
395.678	213.94
395.903	219.94
396.127	201.94
396.352	225.94
396.576	218.94
396.801	243.94
397.025	259.94
397.249	257.94
397.474	222.94
397.698	220.94
397.922	226.94
398.147	208.94
398.371	198.94
398.595	229.94
398.82	206.94
399.044	236.94
399.268	243.94
399.492	259.94
399.717	281.94
399.941	305.94
400.165	259.94
400.389	260.94
400.613	267.94
400.837	245.94
401.062	211.94
401.286	228.94
401.51	215.94
401.734	235.94
401.958	250.94
402.182	212.94
402.406	211.94
402.63	225.94
402.854	242.94
403.078	271.94
403.302	353.94
403.526	373.94
403.75	335.94
403.974	273.94
404.198	263.94
404.422	284.94
404.645	303.94
404.869	322.94
405.093	280.94
405.317	271.94
405.541	250.94
405.765	259.94
405.988	240.94
406.212	256.94
406.436	268.94
406.66	305.94
406.883	262.94
407.107	274.94
407.331	305.94
407.555	301.94
407.778	258.94
408.002	253.94
408.226	267.94
408.449	258.94
408.673	260.94
408.896	224.94
409.12	228.94
409.344	219.94
409.567	223.94
409.791	223.94
410.014	241.94
410.238	237.94
410.461	231.94
410.685	243.94
410.908	234.94
411.132	228.94
411.355	226.94
411.578	230.94
411.802	240.94
412.025	232.94
412.249	244.94
412.472	214.94
412.695	237.94
412.919	229.94
413.142	225.94
413.365	244.94
413.589	222.94
413.812	227.94
414.035	245.94
414.258	234.94
414.482	230.94
414.705	234.94
414.928	212.94
415.151	232.94
415.374	209.94
415.597	227.94
415.821	213.94
416.044	228.94
416.267	227.94
416.49	206.94
416.713	208.94
416.936	213.94
417.159	220.94
417.382	224.94
417.605	222.94
417.828	224.94
418.051	220.94
418.274	234.94
418.497	228.94
418.72	226.94
418.943	237.94
419.166	248.94
419.389	261.94
419.611	248.94
419.834	242.94
420.057	253.94
420.28	253.94
420.503	262.94
420.726	213.94
420.948	226.94
421.171	227.94
421.394	225.94
421.617	213.94
421.839	218.94
422.062	233.94
422.285	252.94
422.507	232.94
422.73	220.94
422.953	252.94
423.175	239.94
423.398	236.94
423.621	249.94
423.843	247.94
424.066	244.94
424.288	226.94
424.511	235.94
424.733	223.94
424.956	231.94
425.178	251.94
425.401	293.94
425.623	340.94
425.846	281.94
426.068	255.94
426.291	246.94
426.513	242.94
426.735	220.94
426.958	245.94
427.18	252.94
427.402	316.94
427.625	337.94
427.847	284.94
428.069	233.94
428.292	218.94
428.514	216.94
428.736	213.94
428.958	235.94
429.181	289.94
429.403	257.94
429.625	225.94
429.847	211.94
430.069	220.94
430.292	208.94
430.514	201.94
430.736	226.94
430.958	276.94
431.18	231.94
431.402	219.94
431.624	201.94
431.846	198.94
432.068	209.94
432.29	223.94
432.512	227.94
432.734	273.94
432.956	256.94
433.178	230.94
433.4	217.94
433.622	205.94
433.844	218.94
434.066	235.94
434.287	226.94
434.509	224.94
434.731	261.94
434.953	238.94
435.175	237.94
435.397	235.94
435.618	224.94
435.84	202.94
436.062	215.94
436.284	209.94
436.505	201.94
436.727	183.94
436.949	206.94
437.17	202.94
437.392	213.94
437.614	209.94
437.835	204.94
438.057	208.94
438.278	225.94
438.5	296.94
438.721	305.94
438.943	230.94
439.165	217.94
439.386	199.94
439.608	187.94
439.829	194.94
440.05	210.94
440.272	205.94
440.493	227.94
440.715	269.94
440.936	250.94
441.158	209.94
441.379	229.94
441.6	236.94
441.822	256.94
442.043	236.94
442.264	216.94
442.486	208.94
442.707	223.94
442.928	216.94
443.149	220.94
443.371	214.94
443.592	228.94
443.813	233.94
444.034	224.94
444.255	223.94
444.476	235.94
444.698	260.94
444.919	241.94
445.14	354.94
445.361	302.94
445.582	254.94
445.803	230.94
446.024	240.94
446.245	235.94
446.466	238.94
446.687	204.94
446.908	221.94
447.129	208.94
447.35	204.94
447.571	205.94
447.792	203.94
448.013	200.94
448.234	217.94
448.455	195.94
448.675	196.94
448.896	202.94
449.117	203.94
449.338	200.94
449.559	205.94
449.779	201.94
450	216.94
450.221	199.94
450.442	213.94
450.662	206.94
450.883	208.94
451.104	223.94
451.324	210.94
451.545	203.94
451.766	190.94
451.986	198.94
452.207	199.94
452.428	198.94
452.648	190.94
452.869	203.94
453.089	198.94
453.31	210.94
453.53	182.94
453.751	194.94
453.971	211.94
454.192	204.94
454.412	187.94
454.633	181.94
454.853	208.94
455.073	192.94
455.294	196.94
455.514	197.94
455.734	194.94
455.955	180.94
456.175	202.94
456.395	200.94
456.616	185.94
456.836	195.94
457.056	183.94
457.276	179.94
457.497	174.94
457.717	177.94
457.937	193.94
458.157	187.94
458.377	201.94
458.598	175.94
458.818	197.94
459.038	195.94
459.258	197.94
459.478	213.94
459.698	214.94
459.918	208.94
460.138	242.94
460.358	238.94
460.578	203.94
460.798	224.94
461.018	219.94
461.238	221.94
461.458	216.94
461.678	235.94
461.898	249.94
462.118	229.94
462.338	236.94
462.558	239.94
462.777	262.94
462.997	272.94
463.217	290.94
463.437	274.94
463.657	280.94
463.876	262.94
464.096	238.94
464.316	254.94
464.536	257.94
464.755	272.94
464.975	256.94
465.195	256.94
465.414	275.94
465.634	226.94
465.854	234.94
466.073	215.94
466.293	221.94
466.512	206.94
466.732	240.94
466.951	250.94
467.171	245.94
467.391	207.94
467.61	193.94
467.829	211.94
468.049	199.94
468.268	205.94
468.488	213.94
468.707	211.94
468.927	228.94
469.146	236.94
469.365	236.94
469.585	229.94
469.804	217.94
470.023	236.94
470.243	227.94
470.462	228.94
470.681	217.94
470.901	211.94
471.12	229.94
471.339	233.94
471.558	232.94
471.777	225.94
471.997	233.94
472.216	236.94
472.435	226.94
472.654	217.94
472.873	211.94
473.092	242.94
473.311	227.94
473.53	219.94
473.749	233.94
473.968	220.94
474.187	234.94
474.406	210.94
474.625	218.94
474.844	234.94
475.063	233.94
475.282	230.94
475.501	235.94
475.72	263.94
475.939	245.94
476.158	257.94
476.377	264.94
476.596	302.94
476.814	304.94
477.033	276.94
477.252	252.94
477.471	233.94
477.69	221.94
477.908	263.94
478.127	240.94
478.346	243.94
478.564	257.94
478.783	251.94
479.002	246.94
479.22	285.94
479.439	293.94
479.658	254.94
479.876	249.94
480.095	274.94
480.313	280.94
480.532	254.94
480.751	272.94
480.969	261.94
481.188	270.94
481.406	287.94
481.624	265.94
481.843	241.94
482.061	254.94
482.28	257.94
482.498	288.94
482.717	314.94
482.935	264.94
483.153	266.94
483.372	265.94
483.59	244.94
483.808	243.94
484.027	254.94
484.245	233.94
484.463	229.94
484.681	220.94
484.9	240.94
485.118	261.94
485.336	265.94
485.554	236.94
485.772	254.94
485.99	265.94
486.209	267.94
486.427	265.94
486.645	255.94
486.863	268.94
487.081	268.94
487.299	289.94
487.517	276.94
487.735	244.94
487.953	268.94
488.171	285.94
488.389	264.94
488.607	241.94
488.825	252.94
489.043	293.94
489.261	304.94
489.479	312.94
489.696	284.94
489.914	260.94
490.132	252.94
490.35	229.94
490.568	229.94
490.786	253.94
491.003	255.94
491.221	252.94
491.439	261.94
491.657	251.94
491.874	253.94
492.092	290.94
492.31	339.94
492.527	317.94
492.745	293.94
492.963	277.94
493.18	277.94
493.398	281.94
493.615	261.94
493.833	243.94
494.05	285.94
494.268	268.94
494.485	268.94
494.703	265.94
494.92	270.94
495.138	266.94
495.355	248.94
495.573	278.94
495.79	294.94
496.008	340.94
496.225	288.94
496.442	276.94
496.66	265.94
496.877	292.94
497.094	292.94
497.312	269.94
497.529	281.94
497.746	271.94
497.963	291.94
498.181	283.94
498.398	325.94
498.615	334.94
498.832	350.94
499.049	377.94
499.267	369.94
499.484	369.94
499.701	396.94
499.918	421.94
500.135	478.94
500.352	535.94
500.569	536.94
500.786	545.94
501.003	515.94
501.22	465.94
501.437	436.94
501.654	388.94
501.871	381.94
502.088	349.94
502.305	324.94
502.522	310.94
