Data from NickelSpatula_HRD10591_16-33-43-126.txt Node
Date: Mon Jul 22 16:33:43 EDT 2019
User: cochatt
Spectrometer: HR+D1059
Trigger mode: 1
Integration Time (sec): 1.000000E-1
Scans to average: 1
Electric dark correction enabled: true
Nonlinearity correction enabled: false
Boxcar width: 0
XAxis mode: Wavelengths
Number of Pixels in Spectrum: 2048
>>>>>Begin Spectral Data<<<<<
223.165	-6.75
223.4	-6.75
223.635	-6.75
223.869	5.25
224.104	-13.75
224.338	-18.75
224.573	-17.75
224.808	-13.75
225.042	-15.75
225.277	-9.75
225.511	-5.75
225.746	0.25
225.98	2.25
226.215	28.25
226.449	22.25
226.683	11.25
226.918	18.25
227.152	14.25
227.387	18.25
227.621	34.25
227.856	35.25
228.09	37.25
228.324	42.25
228.559	60.25
228.793	56.25
229.027	52.25
229.262	72.25
229.496	75.25
229.73	78.25
229.964	96.25
230.199	91.25
230.433	86.25
230.667	92.25
230.901	93.25
231.136	101.25
231.37	92.25
231.604	90.25
231.838	94.25
232.072	108.25
232.306	112.25
232.541	99.25
232.775	114.25
233.009	108.25
233.243	111.25
233.477	112.25
233.711	122.25
233.945	120.25
234.179	115.25
234.413	124.25
234.647	126.25
234.881	126.25
235.115	129.25
235.349	116.25
235.583	120.25
235.817	110.25
236.051	119.25
236.285	128.25
236.519	138.25
236.753	128.25
236.987	129.25
237.221	126.25
237.455	124.25
237.689	114.25
237.922	141.25
238.156	136.25
238.39	152.25
238.624	166.25
238.858	149.25
239.091	136.25
239.325	148.25
239.559	133.25
239.793	140.25
240.027	166.25
240.26	160.25
240.494	144.25
240.728	153.25
240.961	171.25
241.195	152.25
241.429	160.25
241.662	137.25
241.896	145.25
242.13	132.25
242.363	138.25
242.597	144.25
242.83	160.25
243.064	155.25
243.298	164.25
243.531	161.25
243.765	176.25
243.998	153.25
244.232	168.25
244.465	148.25
244.699	162.25
244.932	180.25
245.166	168.25
245.399	143.25
245.633	138.25
245.866	158.25
246.099	162.25
246.333	177.25
246.566	196.25
246.8	195.25
247.033	200.25
247.266	177.25
247.5	175.25
247.733	174.25
247.966	175.25
248.2	166.25
248.433	168.25
248.666	194.25
248.899	188.25
249.133	209.25
249.366	221.25
249.599	235.25
249.832	210.25
250.066	187.25
250.299	202.25
250.532	206.25
250.765	194.25
250.998	193.25
251.231	198.25
251.465	191.25
251.698	195.25
251.931	197.25
252.164	193.25
252.397	221.25
252.63	236.25
252.863	245.25
253.096	273.25
253.329	264.25
253.562	237.25
253.795	279.25
254.028	311.25
254.261	286.25
254.494	266.25
254.727	264.25
254.96	255.25
255.193	290.25
255.426	264.25
255.659	216.25
255.892	201.25
256.124	232.25
256.357	242.25
256.59	272.25
256.823	264.25
257.056	225.25
257.289	213.25
257.521	238.25
257.754	274.25
257.987	294.25
258.22	273.25
258.452	230.25
258.685	253.25
258.918	292.25
259.151	298.25
259.383	291.25
259.616	356.25
259.849	358.25
260.081	350.25
260.314	378.25
260.547	320.25
260.779	329.25
261.012	385.25
261.244	354.25
261.477	356.25
261.71	319.25
261.942	290.25
262.175	304.25
262.407	288.25
262.64	279.25
262.872	318.25
263.105	367.25
263.337	356.25
263.57	337.25
263.802	254.25
264.035	219.25
264.267	213.25
264.499	202.25
264.732	186.25
264.964	166.25
265.197	187.25
265.429	195.25
265.661	212.25
265.894	222.25
266.126	221.25
266.358	240.25
266.591	282.25
266.823	360.25
267.055	336.25
267.287	294.25
267.52	310.25
267.752	311.25
267.984	333.25
268.216	320.25
268.448	277.25
268.681	266.25
268.913	288.25
269.145	306.25
269.377	325.25
269.609	326.25
269.841	288.25
270.073	310.25
270.306	322.25
270.538	329.25
270.77	318.25
271.002	339.25
271.234	351.25
271.466	351.25
271.698	337.25
271.93	320.25
272.162	318.25
272.394	293.25
272.626	300.25
272.858	314.25
273.09	327.25
273.322	290.25
273.553	268.25
273.785	297.25
274.017	398.25
274.249	466.25
274.481	487.25
274.713	551.25
274.945	602.25
275.176	593.25
275.408	553.25
275.64	513.25
275.872	510.25
276.104	456.25
276.335	415.25
276.567	400.25
276.799	421.25
277.031	433.25
277.262	370.25
277.494	293.25
277.726	258.25
277.957	285.25
278.189	335.25
278.421	320.25
278.652	311.25
278.884	310.25
279.115	294.25
279.347	265.25
279.579	281.25
279.81	295.25
280.042	278.25
280.273	304.25
280.505	264.25
280.736	222.25
280.968	252.25
281.199	263.25
281.431	290.25
281.662	306.25
281.894	277.25
282.125	288.25
282.356	293.25
282.588	312.25
282.819	284.25
283.051	282.25
283.282	365.25
283.513	410.25
283.745	473.25
283.976	464.25
284.207	435.25
284.439	438.25
284.67	408.25
284.901	375.25
285.132	398.25
285.364	409.25
285.595	397.25
285.826	407.25
286.057	427.25
286.288	398.25
286.52	423.25
286.751	470.25
286.982	446.25
287.213	392.25
287.444	381.25
287.675	407.25
287.906	408.25
288.138	353.25
288.369	329.25
288.6	301.25
288.831	312.25
289.062	342.25
289.293	399.25
289.524	361.25
289.755	354.25
289.986	366.25
290.217	353.25
290.448	263.25
290.679	230.25
290.91	221.25
291.141	188.25
291.371	224.25
291.602	227.25
291.833	243.25
292.064	230.25
292.295	281.25
292.526	313.25
292.757	305.25
292.987	341.25
293.218	349.25
293.449	353.25
293.68	388.25
293.91	345.25
294.141	386.25
294.372	347.25
294.603	307.25
294.833	336.25
295.064	412.25
295.295	412.25
295.525	320.25
295.756	257.25
295.987	230.25
296.217	207.25
296.448	236.25
296.679	234.25
296.909	259.25
297.14	286.25
297.37	310.25
297.601	306.25
297.831	247.25
298.062	287.25
298.292	288.25
298.523	326.25
298.753	370.25
298.984	331.25
299.214	276.25
299.445	249.25
299.675	233.25
299.905	229.25
300.136	223.25
300.366	240.25
300.597	240.25
300.827	207.25
301.057	207.25
301.288	226.25
301.518	254.25
301.748	259.25
301.979	259.25
302.209	289.25
302.439	296.25
302.669	266.25
302.9	267.25
303.13	269.25
303.36	242.25
303.59	247.25
303.82	266.25
304.051	287.25
304.281	304.25
304.511	302.25
304.741	250.25
304.971	260.25
305.201	296.25
305.431	265.25
305.661	237.25
305.891	224.25
306.121	239.25
306.352	205.25
306.582	201.25
306.812	193.25
307.042	188.25
307.272	193.25
307.502	182.25
307.731	188.25
307.961	198.25
308.191	184.25
308.421	185.25
308.651	192.25
308.881	180.25
309.111	179.25
309.341	185.25
309.571	207.25
309.8	205.25
310.03	203.25
310.26	218.25
310.49	211.25
310.72	195.25
310.949	205.25
311.179	207.25
311.409	196.25
311.639	240.25
311.868	292.25
312.098	378.25
312.328	440.25
312.557	397.25
312.787	392.25
313.017	347.25
313.246	364.25
313.476	416.25
313.706	341.25
313.935	292.25
314.165	229.25
314.394	219.25
314.624	211.25
314.853	232.25
315.083	229.25
315.312	208.25
315.542	198.25
315.771	206.25
316.001	205.25
316.23	187.25
316.46	187.25
316.689	205.25
316.919	204.25
317.148	203.25
317.377	197.25
317.607	208.25
317.836	189.25
318.065	239.25
318.295	256.25
318.524	262.25
318.753	201.25
318.983	192.25
319.212	186.25
319.441	217.25
319.67	248.25
319.9	252.25
320.129	239.25
320.358	216.25
320.587	208.25
320.816	203.25
321.046	238.25
321.275	289.25
321.504	268.25
321.733	250.25
321.962	254.25
322.191	272.25
322.42	230.25
322.649	222.25
322.878	252.25
323.108	248.25
323.337	213.25
323.566	236.25
323.795	216.25
324.024	215.25
324.253	205.25
324.482	207.25
324.71	237.25
324.939	228.25
325.168	239.25
325.397	206.25
325.626	193.25
325.855	202.25
326.084	196.25
326.313	212.25
326.542	188.25
326.77	196.25
326.999	190.25
327.228	196.25
327.457	216.25
327.686	208.25
327.914	205.25
328.143	173.25
328.372	180.25
328.6	182.25
328.829	174.25
329.058	191.25
329.287	194.25
329.515	209.25
329.744	199.25
329.972	186.25
330.201	185.25
330.43	186.25
330.658	215.25
330.887	213.25
331.115	241.25
331.344	212.25
331.572	200.25
331.801	203.25
332.03	189.25
332.258	192.25
332.486	196.25
332.715	218.25
332.943	195.25
333.172	195.25
333.4	192.25
333.629	225.25
333.857	256.25
334.085	227.25
334.314	246.25
334.542	232.25
334.771	224.25
334.999	215.25
335.227	222.25
335.455	211.25
335.684	217.25
335.912	246.25
336.14	275.25
336.369	278.25
336.597	247.25
336.825	286.25
337.053	321.25
337.281	273.25
337.51	210.25
337.738	221.25
337.966	212.25
338.194	240.25
338.422	238.25
338.65	193.25
338.878	196.25
339.106	191.25
339.334	217.25
339.562	222.25
339.79	225.25
340.018	207.25
340.246	209.25
340.474	253.25
340.702	259.25
340.93	250.25
341.158	273.25
341.386	222.25
341.614	218.25
341.842	238.25
342.07	227.25
342.298	267.25
342.526	304.25
342.754	265.25
342.981	226.25
343.209	233.25
343.437	250.25
343.665	242.25
343.893	241.25
344.12	283.25
344.348	329.25
344.576	315.25
344.804	256.25
345.031	213.25
345.259	198.25
345.487	213.25
345.714	217.25
345.942	240.25
346.17	260.25
346.397	238.25
346.625	204.25
346.853	202.25
347.08	196.25
347.308	208.25
347.535	253.25
347.763	259.25
347.99	221.25
348.218	197.25
348.445	221.25
348.673	223.25
348.9	219.25
349.128	219.25
349.355	213.25
349.583	239.25
349.81	212.25
350.037	201.25
350.265	178.25
350.492	167.25
350.72	160.25
350.947	185.25
351.174	198.25
351.402	201.25
351.629	195.25
351.856	200.25
352.083	193.25
352.311	196.25
352.538	216.25
352.765	240.25
352.992	233.25
353.22	206.25
353.447	220.25
353.674	208.25
353.901	215.25
354.128	200.25
354.355	206.25
354.583	207.25
354.81	221.25
355.037	231.25
355.264	223.25
355.491	218.25
355.718	254.25
355.945	260.25
356.172	223.25
356.399	205.25
356.626	276.25
356.853	318.25
357.08	343.25
357.307	365.25
357.534	280.25
357.761	276.25
357.988	328.25
358.215	375.25
358.441	370.25
358.668	342.25
358.895	313.25
359.122	257.25
359.349	249.25
359.576	262.25
359.802	244.25
360.029	207.25
360.256	200.25
360.483	240.25
360.709	307.25
360.936	335.25
361.163	288.25
361.39	236.25
361.616	204.25
361.843	236.25
362.07	301.25
362.296	279.25
362.523	232.25
362.749	188.25
362.976	193.25
363.203	234.25
363.429	275.25
363.656	231.25
363.882	192.25
364.109	193.25
364.335	215.25
364.562	208.25
364.788	221.25
365.015	255.25
365.241	243.25
365.468	207.25
365.694	180.25
365.92	173.25
366.147	168.25
366.373	162.25
366.599	181.25
366.826	185.25
367.052	178.25
367.278	179.25
367.505	175.25
367.731	182.25
367.957	193.25
368.184	196.25
368.41	226.25
368.636	202.25
368.862	227.25
369.089	228.25
369.315	187.25
369.541	184.25
369.767	200.25
369.993	192.25
370.219	184.25
370.445	193.25
370.672	200.25
370.898	220.25
371.124	231.25
371.35	215.25
371.576	197.25
371.802	209.25
372.028	212.25
372.254	254.25
372.48	223.25
372.706	197.25
372.932	200.25
373.158	233.25
373.384	258.25
373.61	325.25
373.835	347.25
374.061	264.25
374.287	233.25
374.513	264.25
374.739	312.25
374.965	308.25
375.191	309.25
375.416	224.25
375.642	221.25
375.868	230.25
376.094	258.25
376.319	212.25
376.545	246.25
376.771	264.25
376.997	239.25
377.222	180.25
377.448	167.25
377.674	172.25
377.899	161.25
378.125	152.25
378.35	159.25
378.576	181.25
378.802	182.25
379.027	195.25
379.253	200.25
379.478	213.25
379.704	208.25
379.929	221.25
380.155	209.25
380.38	196.25
380.606	206.25
380.831	236.25
381.057	226.25
381.282	200.25
381.507	225.25
381.733	265.25
381.958	275.25
382.184	304.25
382.409	307.25
382.634	317.25
382.86	319.25
383.085	291.25
383.31	225.25
383.535	240.25
383.761	251.25
383.986	236.25
384.211	290.25
384.436	269.25
384.662	220.25
384.887	196.25
385.112	209.25
385.337	213.25
385.562	227.25
385.787	227.25
386.013	242.25
386.238	246.25
386.463	209.25
386.688	196.25
386.913	210.25
387.138	188.25
387.363	204.25
387.588	220.25
387.813	214.25
388.038	232.25
388.263	220.25
388.488	213.25
388.713	249.25
388.938	269.25
389.163	206.25
389.387	192.25
389.612	196.25
389.837	206.25
390.062	201.25
390.287	210.25
390.512	202.25
390.736	205.25
390.961	187.25
391.186	181.25
391.411	184.25
391.636	193.25
391.86	202.25
392.085	240.25
392.31	221.25
392.534	217.25
392.759	196.25
392.984	212.25
393.208	205.25
393.433	208.25
393.658	202.25
393.882	173.25
394.107	175.25
394.331	171.25
394.556	176.25
394.78	188.25
395.005	196.25
395.229	185.25
395.454	189.25
395.678	177.25
395.903	182.25
396.127	214.25
396.352	193.25
396.576	208.25
396.801	212.25
397.025	230.25
397.249	239.25
397.474	211.25
397.698	206.25
397.922	218.25
398.147	182.25
398.371	186.25
398.595	214.25
398.82	203.25
399.044	209.25
399.268	238.25
399.492	218.25
399.717	242.25
399.941	233.25
400.165	220.25
400.389	224.25
400.613	219.25
400.837	227.25
401.062	197.25
401.286	195.25
401.51	203.25
401.734	190.25
401.958	202.25
402.182	190.25
402.406	188.25
402.63	200.25
402.854	215.25
403.078	230.25
403.302	291.25
403.526	298.25
403.75	278.25
403.974	236.25
404.198	237.25
404.422	260.25
404.645	285.25
404.869	302.25
405.093	266.25
405.317	218.25
405.541	226.25
405.765	237.25
405.988	221.25
406.212	228.25
406.436	246.25
406.66	270.25
406.883	241.25
407.107	254.25
407.331	263.25
407.555	256.25
407.778	242.25
408.002	239.25
408.226	237.25
408.449	243.25
408.673	222.25
408.896	206.25
409.12	207.25
409.344	212.25
409.567	184.25
409.791	206.25
410.014	185.25
410.238	183.25
410.461	197.25
410.685	208.25
410.908	200.25
411.132	200.25
411.355	192.25
411.578	205.25
411.802	196.25
412.025	205.25
412.249	206.25
412.472	215.25
412.695	215.25
412.919	208.25
413.142	210.25
413.365	230.25
413.589	230.25
413.812	203.25
414.035	199.25
414.258	196.25
414.482	231.25
414.705	218.25
414.928	187.25
415.151	194.25
415.374	206.25
415.597	192.25
415.821	197.25
416.044	204.25
416.267	201.25
416.49	196.25
416.713	197.25
416.936	180.25
417.159	194.25
417.382	195.25
417.605	196.25
417.828	189.25
418.051	205.25
418.274	213.25
418.497	201.25
418.72	224.25
418.943	208.25
419.166	213.25
419.389	234.25
419.611	224.25
419.834	221.25
420.057	234.25
420.28	210.25
420.503	213.25
420.726	189.25
420.948	193.25
421.171	180.25
421.394	185.25
421.617	170.25
421.839	198.25
422.062	215.25
422.285	185.25
422.507	196.25
422.73	209.25
422.953	206.25
423.175	198.25
423.398	210.25
423.621	217.25
423.843	232.25
424.066	215.25
424.288	200.25
424.511	197.25
424.733	190.25
424.956	196.25
425.178	238.25
425.401	259.25
425.623	292.25
425.846	253.25
426.068	230.25
426.291	246.25
426.513	218.25
426.735	223.25
426.958	213.25
427.18	247.25
427.402	304.25
427.625	304.25
427.847	252.25
428.069	199.25
428.292	209.25
428.514	216.25
428.736	187.25
428.958	201.25
429.181	224.25
429.403	214.25
429.625	195.25
429.847	197.25
430.069	191.25
430.292	206.25
430.514	183.25
430.736	196.25
430.958	233.25
431.18	240.25
431.402	186.25
431.624	184.25
431.846	159.25
432.068	179.25
432.29	172.25
432.512	193.25
432.734	248.25
432.956	229.25
433.178	190.25
433.4	207.25
433.622	190.25
433.844	197.25
434.066	230.25
434.287	216.25
434.509	210.25
434.731	225.25
434.953	188.25
435.175	210.25
435.397	236.25
435.618	206.25
435.84	192.25
436.062	168.25
436.284	174.25
436.505	178.25
436.727	177.25
436.949	175.25
437.17	173.25
437.392	187.25
437.614	190.25
437.835	179.25
438.057	194.25
438.278	192.25
438.5	276.25
438.721	288.25
438.943	204.25
439.165	190.25
439.386	174.25
439.608	175.25
439.829	172.25
440.05	183.25
440.272	190.25
440.493	211.25
440.715	255.25
440.936	232.25
441.158	188.25
441.379	176.25
441.6	213.25
441.822	231.25
442.043	186.25
442.264	189.25
442.486	211.25
442.707	190.25
442.928	187.25
443.149	186.25
443.371	206.25
443.592	184.25
443.813	198.25
444.034	203.25
444.255	195.25
444.476	196.25
444.698	196.25
444.919	224.25
445.14	323.25
445.361	288.25
445.582	236.25
445.803	213.25
446.024	230.25
446.245	216.25
446.466	209.25
446.687	196.25
446.908	203.25
447.129	187.25
447.35	161.25
447.571	180.25
447.792	174.25
448.013	189.25
448.234	165.25
448.455	179.25
448.675	182.25
448.896	182.25
449.117	186.25
449.338	179.25
449.559	180.25
449.779	200.25
450	201.25
450.221	183.25
450.442	181.25
450.662	166.25
450.883	174.25
451.104	197.25
451.324	185.25
451.545	181.25
451.766	185.25
451.986	198.25
452.207	177.25
452.428	166.25
452.648	178.25
452.869	192.25
453.089	212.25
453.31	191.25
453.53	184.25
453.751	178.25
453.971	180.25
454.192	182.25
454.412	179.25
454.633	150.25
454.853	185.25
455.073	162.25
455.294	147.25
455.514	164.25
455.734	170.25
455.955	185.25
456.175	191.25
456.395	177.25
456.616	165.25
456.836	175.25
457.056	157.25
457.276	152.25
457.497	183.25
457.717	175.25
457.937	177.25
458.157	177.25
458.377	163.25
458.598	152.25
458.818	175.25
459.038	181.25
459.258	173.25
459.478	174.25
459.698	195.25
459.918	197.25
460.138	200.25
460.358	208.25
460.578	194.25
460.798	199.25
461.018	198.25
461.238	185.25
461.458	188.25
461.678	200.25
461.898	220.25
462.118	197.25
462.338	216.25
462.558	201.25
462.777	220.25
462.997	244.25
463.217	231.25
463.437	225.25
463.657	224.25
463.876	210.25
464.096	220.25
464.316	214.25
464.536	216.25
464.755	224.25
464.975	227.25
465.195	211.25
465.414	233.25
465.634	215.25
465.854	214.25
466.073	209.25
466.293	184.25
466.512	204.25
466.732	215.25
466.951	224.25
467.171	197.25
467.391	192.25
467.61	181.25
467.829	196.25
468.049	193.25
468.268	182.25
468.488	190.25
468.707	186.25
468.927	202.25
469.146	214.25
469.365	229.25
469.585	215.25
469.804	200.25
470.023	239.25
470.243	199.25
470.462	193.25
470.681	201.25
470.901	199.25
471.12	205.25
471.339	197.25
471.558	196.25
471.777	188.25
471.997	206.25
472.216	240.25
472.435	208.25
472.654	210.25
472.873	207.25
473.092	221.25
473.311	230.25
473.53	199.25
473.749	192.25
473.968	202.25
474.187	222.25
474.406	190.25
474.625	202.25
474.844	202.25
475.063	199.25
475.282	202.25
475.501	238.25
475.72	257.25
475.939	251.25
476.158	233.25
476.377	286.25
476.596	280.25
476.814	311.25
477.033	265.25
477.252	223.25
477.471	201.25
477.69	208.25
477.908	237.25
478.127	245.25
478.346	214.25
478.564	262.25
478.783	259.25
479.002	236.25
479.22	243.25
479.439	266.25
479.658	232.25
479.876	209.25
480.095	227.25
480.313	257.25
480.532	221.25
480.751	229.25
480.969	238.25
481.188	227.25
481.406	252.25
481.624	248.25
481.843	225.25
482.061	219.25
482.28	228.25
482.498	313.25
482.717	324.25
482.935	263.25
483.153	223.25
483.372	215.25
483.59	205.25
483.808	193.25
484.027	222.25
484.245	216.25
484.463	195.25
484.681	194.25
484.9	204.25
485.118	239.25
485.336	224.25
485.554	197.25
485.772	226.25
485.99	241.25
486.209	230.25
486.427	257.25
486.645	227.25
486.863	244.25
487.081	232.25
487.299	280.25
487.517	261.25
487.735	249.25
487.953	241.25
488.171	251.25
488.389	248.25
488.607	214.25
488.825	240.25
489.043	261.25
489.261	302.25
489.479	320.25
489.696	272.25
489.914	224.25
490.132	231.25
490.35	232.25
490.568	257.25
490.786	225.25
491.003	225.25
491.221	220.25
491.439	217.25
491.657	221.25
491.874	233.25
492.092	286.25
492.31	369.25
492.527	344.25
492.745	293.25
492.963	247.25
493.18	253.25
493.398	256.25
493.615	251.25
493.833	248.25
494.05	246.25
494.268	230.25
494.485	249.25
494.703	237.25
494.92	239.25
495.138	234.25
495.355	256.25
495.573	238.25
495.79	256.25
496.008	382.25
496.225	300.25
496.442	264.25
496.66	257.25
496.877	275.25
497.094	262.25
497.312	242.25
497.529	256.25
497.746	259.25
497.963	241.25
498.181	273.25
498.398	286.25
498.615	315.25
498.832	318.25
499.049	338.25
499.267	298.25
499.484	312.25
499.701	304.25
499.918	342.25
500.135	394.25
500.352	395.25
500.569	423.25
500.786	425.25
501.003	418.25
501.22	370.25
501.437	354.25
501.654	338.25
501.871	316.25
502.088	328.25
502.305	280.25
502.522	301.25
502.739	304.25
