Data from NickelSpatula.Lamp.E10.P2_HRD10591_11-57-02-534.txt Node
Date: Tue Jul 23 11:57:02 EDT 2019
User: cochatt
Spectrometer: HR+D1059
Trigger mode: 1
Integration Time (sec): 1.000000E-1
Scans to average: 1
Electric dark correction enabled: true
Nonlinearity correction enabled: false
Boxcar width: 0
XAxis mode: Wavelengths
Number of Pixels in Spectrum: 2048
>>>>>Begin Spectral Data<<<<<
223.165	-12
223.4	-12
223.635	-12
223.869	-16
224.104	-12
224.338	-20
224.573	-14
224.808	-7
225.042	-9
225.277	0
225.511	-6
225.746	12
225.98	1
226.215	15
226.449	5
226.683	16
226.918	22
227.152	25
227.387	33
227.621	43
227.856	45
228.09	30
228.324	48
228.559	52
228.793	84
229.027	140
229.262	143
229.496	171
229.73	164
229.964	191
230.199	197
230.433	200
230.667	193
230.901	185
231.136	197
231.37	207
231.604	229
231.838	224
232.072	237
232.306	239
232.541	239
232.775	226
233.009	240
233.243	289
233.477	291
233.711	339
233.945	315
234.179	321
234.413	328
234.647	388
234.881	447
235.115	424
235.349	385
235.583	350
235.817	330
236.051	366
236.285	397
236.519	444
236.753	422
236.987	399
237.221	379
237.455	393
237.689	419
237.922	452
238.156	468
238.39	536
238.624	633
238.858	543
239.091	453
239.325	479
239.559	471
239.793	510
240.027	616
240.26	583
240.494	543
240.728	574
240.961	645
241.195	610
241.429	618
241.662	576
241.896	510
242.13	472
242.363	433
242.597	456
242.83	517
243.064	517
243.298	576
243.531	591
243.765	624
243.998	601
244.232	600
244.465	568
244.699	564
244.932	624
245.166	595
245.399	539
245.633	522
245.866	551
246.099	593
246.333	680
246.566	707
246.8	730
247.033	687
247.266	652
247.5	658
247.733	639
247.966	637
248.2	643
248.433	714
248.666	788
248.899	789
249.133	820
249.366	932
249.599	1004
249.832	923
250.066	775
250.299	779
250.532	779
250.765	775
250.998	695
251.231	676
251.465	739
251.698	783
251.931	785
252.164	789
252.397	856
252.63	994
252.863	1128
253.096	1126
253.329	1067
253.562	1018
253.795	1168
254.028	1283
254.261	1299
254.494	1168
254.727	1089
254.96	1062
255.193	1101
255.426	1057
255.659	839
255.892	783
256.124	824
256.357	991
256.59	1164
256.823	1112
257.056	931
257.289	892
257.521	915
257.754	1080
257.987	1248
258.22	1069
258.452	982
258.685	1089
258.918	1197
259.151	1205
259.383	1304
259.616	1425
259.849	1492
260.081	1639
260.314	1806
260.547	1395
260.779	1442
261.012	1622
261.244	1546
261.477	1556
261.71	1455
261.942	1233
262.175	1231
262.407	1181
262.64	1207
262.872	1416
263.105	1556
263.337	1626
263.57	1463
263.802	1021
264.035	895
264.267	847
264.499	745
264.732	681
264.964	667
265.197	692
265.429	751
265.661	806
265.894	839
266.126	862
266.358	981
266.591	1199
266.823	1395
267.055	1364
267.287	1210
267.52	1240
267.752	1263
267.984	1408
268.216	1331
268.448	1128
268.681	1086
268.913	1175
269.145	1235
269.377	1239
269.609	1260
269.841	1220
270.073	1239
270.306	1302
270.538	1371
270.77	1401
271.002	1356
271.234	1395
271.466	1447
271.698	1348
271.93	1319
272.162	1353
272.394	1361
272.626	1315
272.858	1389
273.09	1405
273.322	1233
273.553	1206
273.785	1371
274.017	1867
274.249	2255
274.481	2358
274.713	2548
274.945	2937
275.176	3015
275.408	2681
275.64	2472
275.872	2468
276.104	2104
276.335	1824
276.567	1813
276.799	1849
277.031	1966
277.262	1532
277.494	1182
277.726	1149
277.957	1287
278.189	1434
278.421	1407
278.652	1371
278.884	1315
279.115	1186
279.347	1165
279.579	1128
279.81	1155
280.042	1154
280.273	1178
280.505	1116
280.736	982
280.968	981
281.199	1059
281.431	1189
281.662	1157
281.894	1158
282.125	1213
282.356	1295
282.588	1357
282.819	1180
283.051	1374
283.282	1629
283.513	1858
283.745	2077
283.976	2107
284.207	1907
284.439	2007
284.67	1911
284.901	1713
285.132	1837
285.364	1927
285.595	1794
285.826	1892
286.057	1894
286.288	1875
286.52	1895
286.751	2022
286.982	1992
287.213	1759
287.444	1659
287.675	1764
287.906	1737
288.138	1462
288.369	1303
288.6	1259
288.831	1328
289.062	1527
289.293	1643
289.524	1565
289.755	1551
289.986	1590
290.217	1415
290.448	1105
290.679	944
290.91	875
291.141	875
291.371	915
291.602	946
291.833	913
292.064	1009
292.295	1128
292.526	1317
292.757	1419
292.987	1501
293.218	1517
293.449	1538
293.68	1671
293.91	1564
294.141	1593
294.372	1523
294.603	1359
294.833	1479
295.064	1742
295.295	1647
295.525	1283
295.756	1086
295.987	951
296.217	970
296.448	1003
296.679	1036
296.909	1125
297.14	1218
297.37	1374
297.601	1289
297.831	1112
298.062	1197
298.292	1335
298.523	1422
298.753	1655
298.984	1492
299.214	1175
299.445	1015
299.675	953
299.905	920
300.136	949
300.366	1052
300.597	1061
300.827	950
301.057	916
301.288	956
301.518	1033
301.748	1129
301.979	1181
302.209	1262
302.439	1297
302.669	1135
302.9	1172
303.13	1091
303.36	1069
303.59	1000
303.82	1062
304.051	1140
304.281	1281
304.511	1211
304.741	1077
304.971	1145
305.201	1221
305.431	1163
305.661	1017
305.891	1013
306.121	987
306.352	893
306.582	812
306.812	784
307.042	811
307.272	766
307.502	759
307.731	838
307.961	869
308.191	826
308.421	785
308.651	751
308.881	748
309.111	727
309.341	793
309.571	877
309.8	872
310.03	879
310.26	877
310.49	884
310.72	834
310.949	827
311.179	851
311.409	909
311.639	1039
311.868	1328
312.098	1682
312.328	1836
312.557	1757
312.787	1789
313.017	1605
313.246	1670
313.476	1865
313.706	1530
313.935	1219
314.165	1017
314.394	917
314.624	963
314.853	991
315.083	995
315.312	985
315.542	972
315.771	887
316.001	807
316.23	807
316.46	825
316.689	811
316.919	847
317.148	867
317.377	829
317.607	853
317.836	867
318.065	1033
318.295	1182
318.524	1082
318.753	934
318.983	881
319.212	865
319.441	929
319.67	1057
319.9	1132
320.129	1040
320.358	932
320.587	881
320.816	908
321.046	1112
321.275	1218
321.504	1204
321.733	1180
321.962	1126
322.191	1051
322.42	980
322.649	1009
322.878	1107
323.108	1075
323.337	1039
323.566	1027
323.795	980
324.024	965
324.253	932
324.482	877
324.71	979
324.939	1090
325.168	1035
325.397	886
325.626	881
325.855	899
326.084	876
326.313	847
326.542	804
326.77	826
326.999	866
327.228	909
327.457	929
327.686	976
327.914	865
328.143	781
328.372	824
328.6	795
328.829	813
329.058	839
329.287	822
329.515	861
329.744	833
329.972	800
330.201	780
330.43	813
330.658	895
330.887	1003
331.115	969
331.344	959
331.572	920
331.801	858
332.03	800
332.258	835
332.486	907
332.715	951
332.943	869
333.172	899
333.4	903
333.629	979
333.857	1081
334.085	1076
334.314	1051
334.542	991
334.771	913
334.999	887
335.227	870
335.455	895
335.684	987
335.912	1139
336.14	1283
336.369	1213
336.597	1168
336.825	1312
337.053	1382
337.281	1162
337.51	941
337.738	919
337.966	986
338.194	1126
338.422	1032
338.65	896
338.878	813
339.106	872
339.334	958
339.562	991
339.79	925
340.018	916
340.246	977
340.474	1103
340.702	1193
340.93	1197
341.158	1184
341.386	1031
341.614	1058
341.842	1041
342.07	1073
342.298	1252
342.526	1279
342.754	1102
342.981	1032
343.209	993
343.437	1045
343.665	1120
343.893	1097
344.12	1287
344.348	1446
344.576	1311
344.804	1061
345.031	973
345.259	915
345.487	939
345.714	941
345.942	1010
346.17	1121
346.397	1063
346.625	918
346.853	916
347.08	883
347.308	898
347.535	1069
347.763	1033
347.99	907
348.218	895
348.445	923
348.673	928
348.9	937
349.128	971
349.355	981
349.583	987
349.81	923
350.037	906
350.265	804
350.492	749
350.72	748
350.947	775
351.174	837
351.402	883
351.629	895
351.856	879
352.083	825
352.311	890
352.538	971
352.765	1036
352.992	944
353.22	893
353.447	932
353.674	870
353.901	860
354.128	900
354.355	881
354.583	915
354.81	909
355.037	968
355.264	928
355.491	967
355.718	1020
355.945	980
356.172	1012
356.399	996
356.626	1169
356.853	1406
357.08	1489
357.307	1495
357.534	1189
357.761	1243
357.988	1470
358.215	1764
358.441	1651
358.668	1407
358.895	1317
359.122	1069
359.349	1077
359.576	1137
359.802	985
360.029	887
360.256	912
360.483	1158
360.709	1405
360.936	1437
361.163	1236
361.39	1027
361.616	987
361.843	1091
362.07	1305
362.296	1193
362.523	951
362.749	861
362.976	884
363.203	1069
363.429	1163
363.656	973
363.882	923
364.109	939
364.335	928
364.562	897
364.788	1023
365.015	1142
365.241	1028
365.468	875
365.694	775
365.92	776
366.147	752
366.373	748
366.599	747
366.826	787
367.052	762
367.278	794
367.505	778
367.731	827
367.957	913
368.184	932
368.41	911
368.636	926
368.862	975
369.089	915
369.315	853
369.541	815
369.767	816
369.993	797
370.219	819
370.445	823
370.672	918
370.898	979
371.124	969
371.35	886
371.576	849
371.802	909
372.028	1056
372.254	1176
372.48	1015
372.706	943
372.932	998
373.158	1017
373.384	1172
373.61	1552
373.835	1601
374.061	1187
374.287	1021
374.513	1219
374.739	1435
374.965	1477
375.191	1421
375.416	1059
375.642	935
375.868	1064
376.094	1184
376.319	1059
376.545	1135
376.771	1215
376.997	1023
377.222	788
377.448	710
377.674	708
377.899	713
378.125	722
378.35	737
378.576	751
378.802	791
379.027	853
379.253	815
379.478	827
379.704	919
379.929	975
380.155	946
380.38	873
380.606	923
380.831	991
381.057	944
381.282	903
381.507	1041
381.733	1259
381.958	1352
382.184	1394
382.409	1451
382.634	1463
382.86	1524
383.085	1274
383.31	1007
383.535	1051
383.761	1136
383.986	1043
384.211	1233
384.436	1213
384.662	950
384.887	930
385.112	940
385.337	980
385.562	905
385.787	1003
386.013	1091
386.238	1127
386.463	945
386.688	902
386.913	858
387.138	843
387.363	895
387.588	911
387.813	904
388.038	992
388.263	884
388.488	884
388.713	1008
388.938	1086
389.163	949
389.387	855
389.612	876
389.837	911
390.062	895
390.287	925
390.512	927
390.736	864
390.961	880
391.186	807
391.411	805
391.636	808
391.86	875
392.085	938
392.31	960
392.534	895
392.759	876
392.984	911
393.208	926
393.433	828
393.658	787
393.882	780
394.107	794
394.331	788
394.556	785
394.78	806
395.005	806
395.229	838
395.454	836
395.678	866
395.903	866
396.127	836
396.352	848
396.576	896
396.801	911
397.025	1031
397.249	1027
397.474	906
397.698	887
397.922	911
398.147	871
398.371	888
398.595	931
398.82	931
399.044	911
399.268	972
399.492	1019
399.717	1024
399.941	1054
400.165	1011
400.389	1007
400.613	984
400.837	1014
401.062	911
401.286	867
401.51	869
401.734	870
401.958	885
402.182	884
402.406	877
402.63	926
402.854	950
403.078	1046
403.302	1244
403.526	1275
403.75	1132
403.974	998
404.198	1054
404.422	1146
404.645	1305
404.869	1379
405.093	1095
405.317	940
405.541	980
405.765	970
405.988	985
406.212	1024
406.436	1151
406.66	1298
406.883	1057
407.107	1133
407.331	1248
407.555	1217
407.778	1081
408.002	1051
408.226	1006
408.449	1017
408.673	997
408.896	921
409.12	909
409.344	889
409.567	893
409.791	880
410.014	882
410.238	893
410.461	888
410.685	884
410.908	896
411.132	896
411.355	897
411.578	917
411.802	905
412.025	948
412.249	955
412.472	936
412.695	921
412.919	904
413.142	920
413.365	987
413.589	992
413.812	935
414.035	896
414.258	926
414.482	994
414.705	963
414.928	889
415.151	865
415.374	871
415.597	902
415.821	914
416.044	876
416.267	845
416.49	872
416.713	829
416.936	815
417.159	827
417.382	840
417.605	871
417.828	895
418.051	875
418.274	858
418.497	895
418.72	868
418.943	911
419.166	939
419.389	990
419.611	993
419.834	960
420.057	1065
420.28	1047
420.503	955
420.726	885
420.948	864
421.171	856
421.394	860
421.617	847
421.839	851
422.062	901
422.285	893
422.507	915
422.73	921
422.953	891
423.175	903
423.398	916
423.621	949
423.843	974
424.066	915
424.288	904
424.511	920
424.733	905
424.956	935
425.178	1028
425.401	1154
425.623	1268
425.846	1072
426.068	943
426.291	1028
426.513	974
426.735	918
426.958	947
427.18	1093
427.402	1319
427.625	1335
427.847	1123
428.069	867
428.292	885
428.514	848
428.736	861
428.958	929
429.181	1052
429.403	934
429.625	885
429.847	821
430.069	861
430.292	876
430.514	845
430.736	899
430.958	1070
431.18	1053
431.402	841
431.624	788
431.846	780
432.068	786
432.29	797
432.512	876
432.734	1123
432.956	1028
433.178	847
433.4	822
433.622	818
433.844	870
434.066	896
434.287	885
434.509	839
434.731	909
434.953	857
435.175	900
435.397	969
435.618	873
435.84	808
436.062	802
436.284	800
436.505	783
436.727	791
436.949	796
437.17	808
437.392	839
437.614	820
437.835	797
438.057	838
438.278	918
438.5	1247
438.721	1213
438.943	900
439.165	797
439.386	798
439.608	785
439.829	769
440.05	785
440.272	828
440.493	945
440.715	1142
440.936	910
441.158	848
441.379	873
441.6	933
441.822	945
442.043	845
442.264	855
442.486	851
442.707	865
442.928	861
443.149	850
443.371	896
443.592	929
443.813	907
444.034	909
444.255	901
444.476	927
444.698	921
444.919	925
445.14	1005
445.361	992
445.582	940
445.803	931
446.024	940
446.245	897
446.466	911
446.687	889
446.908	867
447.129	844
447.35	815
447.571	782
447.792	755
448.013	765
448.234	777
448.455	790
448.675	784
448.896	772
449.117	795
449.338	784
449.559	830
449.779	857
450	853
450.221	823
450.442	817
450.662	791
450.883	797
451.104	789
451.324	772
451.545	821
451.766	792
451.986	787
452.207	732
452.428	748
452.648	764
452.869	803
453.089	803
453.31	793
453.53	733
453.751	734
453.971	719
454.192	756
454.412	775
454.633	753
454.853	699
455.073	707
455.294	727
455.514	726
455.734	766
455.955	779
456.175	839
456.395	748
456.616	699
456.836	722
457.056	682
457.276	696
457.497	689
457.717	723
457.937	717
458.157	723
458.377	706
458.598	735
458.818	736
459.038	792
459.258	809
459.478	805
459.698	884
459.918	900
460.138	841
460.358	851
460.578	833
460.798	872
461.018	880
461.238	819
461.458	857
461.678	876
461.898	900
462.118	910
462.338	912
462.558	944
462.777	951
462.997	1009
463.217	994
463.437	1011
463.657	995
463.876	964
464.096	949
464.316	952
464.536	994
464.755	1001
464.975	994
465.195	954
465.414	990
465.634	945
465.854	891
466.073	853
466.293	856
466.512	927
466.732	983
466.951	992
467.171	909
467.391	863
467.61	866
467.829	899
468.049	931
468.268	851
468.488	858
468.707	897
468.927	1016
469.146	1099
469.365	967
469.585	914
469.804	965
470.023	1072
470.243	934
470.462	909
470.681	911
470.901	895
471.12	953
471.339	951
471.558	909
471.777	910
471.997	960
472.216	1101
472.435	1037
472.654	970
472.873	950
473.092	965
473.311	1007
473.53	936
473.749	884
473.968	950
474.187	917
474.406	906
474.625	896
474.844	906
475.063	996
475.282	1017
475.501	1035
475.72	1088
475.939	1075
476.158	1059
476.377	1222
476.596	1382
476.814	1444
477.033	1199
477.252	1041
477.471	971
477.69	987
477.908	1081
478.127	1086
478.346	1038
478.564	1118
478.783	1054
479.002	1104
479.22	1247
479.439	1376
479.658	1197
479.876	1099
480.095	1187
480.313	1207
480.532	1122
480.751	1056
480.969	1117
481.188	1239
481.406	1238
481.624	1204
481.843	1103
482.061	1049
482.28	1171
482.498	1430
482.717	1335
482.935	1163
483.153	1099
483.372	1013
483.59	1030
483.808	1054
484.027	1009
484.245	965
484.463	928
484.681	1030
484.9	1074
485.118	1136
485.336	1075
485.554	1016
485.772	1055
485.99	1122
486.209	1185
486.427	1183
486.645	1171
486.863	1193
487.081	1187
487.299	1279
487.517	1247
487.735	1147
487.953	1191
488.171	1238
488.389	1147
488.607	1088
488.825	1104
489.043	1199
489.261	1326
489.479	1423
489.696	1274
489.914	1137
490.132	1105
490.35	1109
490.568	1102
490.786	1094
491.003	1119
491.221	1140
491.439	1134
491.657	1119
491.874	1220
492.092	1403
492.31	1597
492.527	1608
492.745	1430
492.963	1276
493.18	1252
493.398	1268
493.615	1258
493.833	1224
494.05	1192
494.268	1213
494.485	1231
494.703	1189
494.92	1222
495.138	1157
495.355	1156
495.573	1216
495.79	1316
496.008	1605
496.225	1429
496.442	1299
496.66	1302
496.877	1347
497.094	1373
497.312	1276
497.529	1279
497.746	1259
497.963	1336
498.181	1424
498.398	1485
498.615	1548
498.832	1616
499.049	1633
499.267	1516
499.484	1528
499.701	1596
499.918	1722
500.135	1839
500.352	1856
500.569	1891
500.786	1957
501.003	1948
501.22	1782
501.437	1689
501.654	1605
501.871	1583
502.088	1605
502.305	1462
502.522	1449
502.739	1461
502.956	1358
503.172	1363
503.389	1289
503.606	1268
503.823	1234
504.04	1292
504.256	1293
504.473	1312
504.69	1347
504.907	1339
505.123	1330
505.34	1405
505.557	1378
505.773	1268
505.99	1261
506.207	1330
506.423	1208
506.64	1149
506.856	1203
507.073	1329
507.289	1327
507.506	1299
507.722	1375
507.939	1366
508.155	1412
508.372	1238
508.588	1220
508.805	1199
509.021	1147
509.238	1111
509.454	1143
509.67	1137
509.887	1133
510.103	1280
510.319	1244
510.536	1124
510.752	1060
510.968	1038
511.184	1004
511.401	991
511.617	1002
511.833	1013
512.049	1056
512.265	1077
512.481	1099
512.698	1192
512.914	1311
513.13	1198
513.346	1095
513.562	1159
513.778	1139
513.994	1083
514.21	1143
514.426	1120
514.642	1103
514.858	1103
515.074	1154
515.29	1229
515.506	1383
515.721	1276
515.937	1187
516.153	1112
516.369	1149
516.585	1184
516.801	1295
517.016	1477
517.232	1445
517.448	1453
517.664	1321
517.879	1290
518.095	1240
518.311	1237
518.527	1272
518.742	1349
518.958	1413
519.173	1375
519.389	1311
519.605	1338
519.82	1443
520.036	1630
520.251	1641
520.467	1513
520.682	2183
520.898	2587
521.113	2443
521.329	1620
521.544	1488
521.76	1412
521.975	1273
522.19	1232
522.406	1271
522.621	1405
522.836	1395
523.052	1429
523.267	1231
523.482	1185
523.698	1316
523.913	1279
524.128	1171
524.343	1152
524.559	1149
524.774	1087
524.989	1115
525.204	1175
525.419	1262
525.634	1200
525.849	1219
526.064	1204
526.28	1225
526.495	1445
526.71	1426
526.925	1230
527.14	1274
527.355	1244
527.57	1109
527.785	1172
527.999	1119
528.214	1073
528.429	1019
528.644	1059
528.859	999
529.074	975
529.289	984
529.503	976
529.718	1007
529.933	1115
530.148	1152
530.363	1017
530.577	979
530.792	975
531.007	989
531.221	953
531.436	981
531.651	992
531.865	971
532.08	983
532.295	977
532.509	992
532.724	1129
532.938	1250
533.153	1389
533.367	1143
533.582	1163
533.796	1077
534.011	1019
534.225	1019
534.44	1052
534.654	1079
534.868	1219
535.083	1082
535.297	989
535.511	1003
535.726	1105
535.94	1022
536.154	1018
536.369	975
536.583	944
536.797	970
537.011	961
537.225	1063
537.44	1089
537.654	985
537.868	1004
538.082	967
538.296	963
538.51	1042
538.724	1077
538.938	1016
539.153	960
539.367	919
539.581	961
539.795	992
540.009	1100
540.222	1024
540.436	990
540.65	1079
540.864	1094
541.078	1114
541.292	1248
541.506	1051
541.72	998
541.934	989
542.147	994
542.361	1012
542.575	1039
542.789	1004
543.002	936
543.216	1006
543.43	926
543.644	916
543.857	888
544.071	928
544.285	908
544.498	904
544.712	902
544.925	949
545.139	925
545.352	900
545.566	909
545.779	992
545.993	934
546.206	864
546.42	840
546.633	870
546.847	832
547.06	841
547.274	833
547.487	880
547.7	923
547.914	971
548.127	1045
548.34	1040
548.554	926
548.767	998
548.98	1032
549.193	953
549.407	988
549.62	1127
549.833	1087
550.046	1127
550.259	1136
550.473	972
550.686	932
550.899	984
551.112	951
551.325	1016
551.538	1031
551.751	916
551.964	891
552.177	904
552.39	857
552.603	829
552.816	925
553.029	875
