Data from NickelSpatula.Lamp.E10.P2_HRD10591_11-58-02-529.txt Node
Date: Tue Jul 23 11:58:02 EDT 2019
User: cochatt
Spectrometer: HR+D1059
Trigger mode: 1
Integration Time (sec): 1.000000E-1
Scans to average: 1
Electric dark correction enabled: true
Nonlinearity correction enabled: false
Boxcar width: 0
XAxis mode: Wavelengths
Number of Pixels in Spectrum: 2048
>>>>>Begin Spectral Data<<<<<
223.165	-13.19
223.4	-13.19
223.635	-13.19
223.869	-13.19
224.104	-14.19
224.338	-4.19
224.573	-34.19
224.808	-9.19
225.042	1.81
225.277	4.81
225.511	-1.19
225.746	0.81
225.98	-8.19
226.215	-1.19
226.449	9.81
226.683	18.81
226.918	23.81
227.152	38.81
227.387	36.81
227.621	27.81
227.856	43.81
228.09	39.81
228.324	37.81
228.559	56.81
228.793	65.81
229.027	140.81
229.262	161.81
229.496	158.81
229.73	159.81
229.964	178.81
230.199	208.81
230.433	203.81
230.667	192.81
230.901	195.81
231.136	197.81
231.37	205.81
231.604	218.81
231.838	234.81
232.072	238.81
232.306	227.81
232.541	247.81
232.775	244.81
233.009	263.81
233.243	282.81
233.477	303.81
233.711	346.81
233.945	330.81
234.179	312.81
234.413	343.81
234.647	369.81
234.881	458.81
235.115	436.81
235.349	383.81
235.583	354.81
235.817	337.81
236.051	365.81
236.285	392.81
236.519	455.81
236.753	431.81
236.987	413.81
237.221	383.81
237.455	414.81
237.689	430.81
237.922	452.81
238.156	444.81
238.39	506.81
238.624	641.81
238.858	573.81
239.091	482.81
239.325	517.81
239.559	481.81
239.793	532.81
240.027	623.81
240.26	599.81
240.494	573.81
240.728	589.81
240.961	646.81
241.195	619.81
241.429	630.81
241.662	604.81
241.896	517.81
242.13	467.81
242.363	447.81
242.597	477.81
242.83	545.81
243.064	521.81
243.298	592.81
243.531	624.81
243.765	614.81
243.998	601.81
244.232	592.81
244.465	599.81
244.699	574.81
244.932	636.81
245.166	599.81
245.399	550.81
245.633	535.81
245.866	561.81
246.099	597.81
246.333	694.81
246.566	736.81
246.8	748.81
247.033	731.81
247.266	680.81
247.5	687.81
247.733	650.81
247.966	641.81
248.2	678.81
248.433	762.81
248.666	822.81
248.899	823.81
249.133	817.81
249.366	970.81
249.599	1031.81
249.832	950.81
250.066	802.81
250.299	820.81
250.532	795.81
250.765	812.81
250.998	728.81
251.231	693.81
251.465	764.81
251.698	798.81
251.931	802.81
252.164	823.81
252.397	910.81
252.63	1028.81
252.863	1123.81
253.096	1160.81
253.329	1121.81
253.562	1078.81
253.795	1195.81
254.028	1318.81
254.261	1282.81
254.494	1194.81
254.727	1142.81
254.96	1112.81
255.193	1141.81
255.426	1092.81
255.659	861.81
255.892	794.81
256.124	892.81
256.357	1006.81
256.59	1192.81
256.823	1124.81
257.056	952.81
257.289	918.81
257.521	948.81
257.754	1089.81
257.987	1250.81
258.22	1088.81
258.452	1007.81
258.685	1118.81
258.918	1273.81
259.151	1203.81
259.383	1298.81
259.616	1474.81
259.849	1515.81
260.081	1658.81
260.314	1846.81
260.547	1475.81
260.779	1470.81
261.012	1674.81
261.244	1563.81
261.477	1627.81
261.71	1489.81
261.942	1276.81
262.175	1262.81
262.407	1220.81
262.64	1279.81
262.872	1475.81
263.105	1602.81
263.337	1707.81
263.57	1530.81
263.802	1029.81
264.035	874.81
264.267	853.81
264.499	740.81
264.732	695.81
264.964	692.81
265.197	708.81
265.429	763.81
265.661	812.81
265.894	825.81
266.126	916.81
266.358	1026.81
266.591	1214.81
266.823	1452.81
267.055	1359.81
267.287	1210.81
267.52	1251.81
267.752	1298.81
267.984	1426.81
268.216	1324.81
268.448	1101.81
268.681	1091.81
268.913	1204.81
269.145	1254.81
269.377	1286.81
269.609	1286.81
269.841	1183.81
270.073	1260.81
270.306	1343.81
270.538	1356.81
270.77	1372.81
271.002	1369.81
271.234	1467.81
271.466	1498.81
271.698	1402.81
271.93	1363.81
272.162	1388.81
272.394	1371.81
272.626	1367.81
272.858	1420.81
273.09	1446.81
273.322	1262.81
273.553	1264.81
273.785	1487.81
274.017	1918.81
274.249	2394.81
274.481	2440.81
274.713	2663.81
274.945	3080.81
275.176	3259.81
275.408	2825.81
275.64	2589.81
275.872	2616.81
276.104	2164.81
276.335	1835.81
276.567	1847.81
276.799	1927.81
277.031	2034.81
277.262	1552.81
277.494	1207.81
277.726	1171.81
277.957	1298.81
278.189	1432.81
278.421	1428.81
278.652	1393.81
278.884	1338.81
279.115	1239.81
279.347	1182.81
279.579	1196.81
279.81	1182.81
280.042	1166.81
280.273	1183.81
280.505	1108.81
280.736	998.81
280.968	994.81
281.199	1095.81
281.431	1209.81
281.662	1178.81
281.894	1158.81
282.125	1248.81
282.356	1318.81
282.588	1367.81
282.819	1223.81
283.051	1377.81
283.282	1643.81
283.513	1941.81
283.745	2178.81
283.976	2104.81
284.207	1975.81
284.439	2057.81
284.67	1954.81
284.901	1758.81
285.132	1904.81
285.364	1975.81
285.595	1880.81
285.826	1920.81
286.057	2032.81
286.288	1948.81
286.52	1927.81
286.751	2093.81
286.982	2060.81
287.213	1742.81
287.444	1718.81
287.675	1798.81
287.906	1741.81
288.138	1476.81
288.369	1355.81
288.6	1245.81
288.831	1349.81
289.062	1536.81
289.293	1657.81
289.524	1552.81
289.755	1563.81
289.986	1593.81
290.217	1426.81
290.448	1126.81
290.679	917.81
290.91	883.81
291.141	901.81
291.371	962.81
291.602	957.81
291.833	942.81
292.064	1044.81
292.295	1184.81
292.526	1375.81
292.757	1445.81
292.987	1527.81
293.218	1511.81
293.449	1572.81
293.68	1662.81
293.91	1558.81
294.141	1571.81
294.372	1488.81
294.603	1406.81
294.833	1508.81
295.064	1807.81
295.295	1693.81
295.525	1282.81
295.756	1140.81
295.987	994.81
296.217	972.81
296.448	1025.81
296.679	1066.81
296.909	1199.81
297.14	1233.81
297.37	1364.81
297.601	1278.81
297.831	1126.81
298.062	1210.81
298.292	1374.81
298.523	1520.81
298.753	1742.81
298.984	1549.81
299.214	1243.81
299.445	1026.81
299.675	1008.81
299.905	976.81
300.136	1031.81
300.366	1118.81
300.597	1106.81
300.827	1002.81
301.057	944.81
301.288	976.81
301.518	1069.81
301.748	1205.81
301.979	1270.81
302.209	1327.81
302.439	1372.81
302.669	1206.81
302.9	1202.81
303.13	1127.81
303.36	1061.81
303.59	1011.81
303.82	1081.81
304.051	1209.81
304.281	1255.81
304.511	1274.81
304.741	1095.81
304.971	1169.81
305.201	1262.81
305.431	1186.81
305.661	1025.81
305.891	1036.81
306.121	1007.81
306.352	920.81
306.582	845.81
306.812	836.81
307.042	822.81
307.272	767.81
307.502	786.81
307.731	838.81
307.961	879.81
308.191	824.81
308.421	765.81
308.651	777.81
308.881	731.81
309.111	742.81
309.341	789.81
309.571	857.81
309.8	910.81
310.03	883.81
310.26	955.81
310.49	934.81
310.72	853.81
310.949	869.81
311.179	865.81
311.409	934.81
311.639	1044.81
311.868	1376.81
312.098	1738.81
312.328	1902.81
312.557	1810.81
312.787	1822.81
313.017	1634.81
313.246	1765.81
313.476	1927.81
313.706	1582.81
313.935	1237.81
314.165	993.81
314.394	923.81
314.624	940.81
314.853	963.81
315.083	1016.81
315.312	977.81
315.542	970.81
315.771	879.81
316.001	855.81
316.23	849.81
316.46	812.81
316.689	834.81
316.919	852.81
317.148	883.81
317.377	854.81
317.607	866.81
317.836	933.81
318.065	1082.81
318.295	1221.81
318.524	1123.81
318.753	927.81
318.983	914.81
319.212	902.81
319.441	945.81
319.67	1080.81
319.9	1144.81
320.129	1098.81
320.358	928.81
320.587	889.81
320.816	967.81
321.046	1126.81
321.275	1273.81
321.504	1283.81
321.733	1215.81
321.962	1175.81
322.191	1130.81
322.42	1066.81
322.649	1091.81
322.878	1154.81
323.108	1160.81
323.337	1058.81
323.566	1030.81
323.795	1026.81
324.024	974.81
324.253	958.81
324.482	938.81
324.71	1029.81
324.939	1162.81
325.168	1063.81
325.397	880.81
325.626	844.81
325.855	862.81
326.084	904.81
326.313	863.81
326.542	820.81
326.77	827.81
326.999	863.81
327.228	958.81
327.457	976.81
327.686	959.81
327.914	872.81
328.143	807.81
328.372	820.81
328.6	829.81
328.829	852.81
329.058	855.81
329.287	875.81
329.515	874.81
329.744	837.81
329.972	822.81
330.201	795.81
330.43	808.81
330.658	907.81
330.887	1050.81
331.115	974.81
331.344	974.81
331.572	945.81
331.801	879.81
332.03	842.81
332.258	846.81
332.486	938.81
332.715	944.81
332.943	888.81
333.172	876.81
333.4	926.81
333.629	1008.81
333.857	1086.81
334.085	1072.81
334.314	1071.81
334.542	1025.81
334.771	946.81
334.999	900.81
335.227	919.81
335.455	911.81
335.684	981.81
335.912	1165.81
336.14	1272.81
336.369	1219.81
336.597	1174.81
336.825	1342.81
337.053	1428.81
337.281	1207.81
337.51	955.81
337.738	963.81
337.966	1025.81
338.194	1129.81
338.422	1087.81
338.65	937.81
338.878	850.81
339.106	894.81
339.334	981.81
339.562	1026.81
339.79	942.81
340.018	957.81
340.246	1008.81
340.474	1143.81
340.702	1230.81
340.93	1275.81
341.158	1274.81
341.386	1041.81
341.614	1091.81
341.842	1066.81
342.07	1116.81
342.298	1264.81
342.526	1345.81
342.754	1162.81
342.981	1056.81
343.209	1022.81
343.437	1077.81
343.665	1143.81
343.893	1143.81
344.12	1307.81
344.348	1510.81
344.576	1373.81
344.804	1115.81
345.031	975.81
345.259	941.81
345.487	974.81
345.714	999.81
345.942	1068.81
346.17	1148.81
346.397	1068.81
346.625	952.81
346.853	925.81
347.08	908.81
347.308	972.81
347.535	1089.81
347.763	1104.81
347.99	956.81
348.218	922.81
348.445	922.81
348.673	993.81
348.9	936.81
349.128	1033.81
349.355	1025.81
349.583	1031.81
349.81	952.81
350.037	884.81
350.265	830.81
350.492	780.81
350.72	773.81
350.947	809.81
351.174	840.81
351.402	903.81
351.629	938.81
351.856	901.81
352.083	869.81
352.311	920.81
352.538	1050.81
352.765	1107.81
352.992	988.81
353.22	910.81
353.447	938.81
353.674	907.81
353.901	907.81
354.128	917.81
354.355	952.81
354.583	935.81
354.81	955.81
355.037	963.81
355.264	959.81
355.491	1010.81
355.718	1088.81
355.945	1070.81
356.172	1047.81
356.399	1053.81
356.626	1248.81
356.853	1479.81
357.08	1598.81
357.307	1627.81
357.534	1289.81
357.761	1306.81
357.988	1649.81
358.215	1940.81
358.441	1808.81
358.668	1542.81
358.895	1415.81
359.122	1171.81
359.349	1186.81
359.576	1238.81
359.802	1076.81
360.029	905.81
360.256	967.81
360.483	1180.81
360.709	1474.81
360.936	1557.81
361.163	1357.81
361.39	1072.81
361.616	987.81
361.843	1180.81
362.07	1422.81
362.296	1274.81
362.523	1005.81
362.749	914.81
362.976	924.81
363.203	1153.81
363.429	1267.81
363.656	1029.81
363.882	932.81
364.109	951.81
364.335	934.81
364.562	942.81
364.788	1068.81
365.015	1266.81
365.241	1083.81
365.468	911.81
365.694	792.81
365.92	769.81
366.147	746.81
366.373	773.81
366.599	760.81
366.826	764.81
367.052	769.81
367.278	813.81
367.505	790.81
367.731	869.81
367.957	981.81
368.184	964.81
368.41	992.81
368.636	979.81
368.862	969.81
369.089	952.81
369.315	858.81
369.541	881.81
369.767	843.81
369.993	800.81
370.219	828.81
370.445	867.81
370.672	960.81
370.898	1036.81
371.124	1018.81
371.35	916.81
371.576	886.81
371.802	941.81
372.028	1107.81
372.254	1302.81
372.48	1079.81
372.706	960.81
372.932	1053.81
373.158	1061.81
373.384	1299.81
373.61	1673.81
373.835	1759.81
374.061	1314.81
374.287	1121.81
374.513	1302.81
374.739	1537.81
374.965	1603.81
375.191	1583.81
375.416	1141.81
375.642	983.81
375.868	1142.81
376.094	1240.81
376.319	1106.81
376.545	1212.81
376.771	1294.81
376.997	1083.81
377.222	807.81
377.448	750.81
377.674	724.81
377.899	735.81
378.125	754.81
378.35	754.81
378.576	742.81
378.802	811.81
379.027	884.81
379.253	836.81
379.478	899.81
379.704	976.81
379.929	1003.81
380.155	1026.81
380.38	902.81
380.606	937.81
380.831	1058.81
381.057	996.81
381.282	902.81
381.507	1116.81
381.733	1364.81
381.958	1446.81
382.184	1522.81
382.409	1594.81
382.634	1544.81
382.86	1634.81
383.085	1348.81
383.31	1064.81
383.535	1136.81
383.761	1154.81
383.986	1119.81
384.211	1336.81
384.436	1306.81
384.662	1003.81
384.887	956.81
385.112	982.81
385.337	985.81
385.562	968.81
385.787	1026.81
386.013	1155.81
386.238	1183.81
386.463	1003.81
386.688	947.81
386.913	890.81
387.138	881.81
387.363	926.81
387.588	956.81
387.813	971.81
388.038	1034.81
388.263	926.81
388.488	920.81
388.713	1069.81
388.938	1161.81
389.163	986.81
389.387	890.81
389.612	868.81
389.837	900.81
390.062	918.81
390.287	958.81
390.512	967.81
390.736	878.81
390.961	842.81
391.186	824.81
391.411	783.81
391.636	826.81
391.86	896.81
392.085	973.81
392.31	989.81
392.534	915.81
392.759	862.81
392.984	937.81
393.208	961.81
393.433	856.81
393.658	819.81
393.882	784.81
394.107	779.81
394.331	791.81
394.556	787.81
394.78	810.81
395.005	838.81
395.229	845.81
395.454	859.81
395.678	862.81
395.903	903.81
396.127	863.81
396.352	850.81
396.576	962.81
396.801	967.81
397.025	1058.81
397.249	1084.81
397.474	926.81
397.698	902.81
397.922	947.81
398.147	877.81
398.371	890.81
398.595	942.81
398.82	938.81
399.044	919.81
399.268	988.81
399.492	1003.81
399.717	1024.81
399.941	1076.81
400.165	1020.81
400.389	986.81
400.613	1038.81
400.837	998.81
401.062	910.81
401.286	914.81
401.51	877.81
401.734	873.81
401.958	867.81
402.182	870.81
402.406	892.81
402.63	886.81
402.854	924.81
403.078	1030.81
403.302	1257.81
403.526	1294.81
403.75	1156.81
403.974	1014.81
404.198	1061.81
404.422	1197.81
404.645	1373.81
404.869	1530.81
405.093	1130.81
405.317	995.81
405.541	958.81
405.765	966.81
405.988	972.81
406.212	1057.81
406.436	1259.81
406.66	1359.81
406.883	1100.81
407.107	1132.81
407.331	1312.81
407.555	1240.81
407.778	1117.81
408.002	1018.81
408.226	994.81
408.449	1044.81
408.673	981.81
408.896	918.81
409.12	870.81
409.344	898.81
409.567	875.81
409.791	886.81
410.014	872.81
410.238	869.81
410.461	896.81
410.685	887.81
410.908	891.81
411.132	889.81
411.355	913.81
411.578	916.81
411.802	882.81
412.025	965.81
412.249	944.81
412.472	931.81
412.695	928.81
412.919	928.81
413.142	934.81
413.365	998.81
413.589	1012.81
413.812	932.81
414.035	915.81
414.258	905.81
414.482	980.81
414.705	1035.81
414.928	878.81
415.151	866.81
415.374	854.81
415.597	852.81
415.821	880.81
416.044	834.81
416.267	852.81
416.49	874.81
416.713	856.81
416.936	833.81
417.159	827.81
417.382	869.81
417.605	884.81
417.828	871.81
418.051	886.81
418.274	923.81
418.497	922.81
418.72	902.81
418.943	931.81
419.166	968.81
419.389	1000.81
419.611	982.81
419.834	1009.81
420.057	1063.81
420.28	1059.81
420.503	982.81
420.726	892.81
420.948	846.81
421.171	868.81
421.394	874.81
421.617	854.81
421.839	892.81
422.062	892.81
422.285	910.81
422.507	915.81
422.73	921.81
422.953	940.81
423.175	913.81
423.398	897.81
423.621	992.81
423.843	995.81
424.066	936.81
424.288	919.81
424.511	883.81
424.733	892.81
424.956	929.81
425.178	1042.81
425.401	1203.81
425.623	1335.81
425.846	1099.81
426.068	1005.81
426.291	1042.81
426.513	984.81
426.735	935.81
426.958	987.81
427.18	1116.81
427.402	1406.81
427.625	1425.81
427.847	1152.81
428.069	877.81
428.292	902.81
428.514	887.81
428.736	864.81
428.958	947.81
429.181	1071.81
429.403	958.81
429.625	853.81
429.847	840.81
430.069	855.81
430.292	883.81
430.514	846.81
430.736	912.81
430.958	1157.81
431.18	1030.81
431.402	828.81
431.624	775.81
431.846	776.81
432.068	775.81
432.29	803.81
432.512	887.81
432.734	1174.81
432.956	1111.81
433.178	870.81
433.4	858.81
433.622	819.81
433.844	851.81
434.066	907.81
434.287	877.81
434.509	871.81
434.731	900.81
434.953	826.81
435.175	911.81
435.397	977.81
435.618	887.81
435.84	807.81
436.062	839.81
436.284	829.81
436.505	766.81
436.727	766.81
436.949	775.81
437.17	795.81
437.392	822.81
437.614	796.81
437.835	818.81
438.057	828.81
438.278	942.81
438.5	1326.81
438.721	1302.81
438.943	913.81
439.165	816.81
439.386	770.81
439.608	749.81
439.829	763.81
440.05	771.81
440.272	804.81
440.493	962.81
440.715	1186.81
440.936	986.81
441.158	844.81
441.379	836.81
441.6	961.81
441.822	1005.81
442.043	876.81
442.264	865.81
442.486	840.81
442.707	836.81
442.928	816.81
443.149	862.81
443.371	863.81
443.592	897.81
443.813	898.81
444.034	858.81
444.255	893.81
444.476	940.81
444.698	910.81
444.919	917.81
445.14	1027.81
445.361	971.81
445.582	943.81
445.803	919.81
446.024	912.81
446.245	920.81
446.466	897.81
446.687	861.81
446.908	850.81
447.129	812.81
447.35	794.81
447.571	758.81
447.792	790.81
448.013	781.81
448.234	766.81
448.455	734.81
448.675	774.81
448.896	788.81
449.117	782.81
449.338	793.81
449.559	801.81
449.779	835.81
450	854.81
450.221	824.81
450.442	800.81
450.662	772.81
450.883	794.81
451.104	786.81
451.324	789.81
451.545	786.81
451.766	813.81
451.986	782.81
452.207	753.81
452.428	772.81
452.648	736.81
452.869	796.81
453.089	820.81
453.31	800.81
453.53	732.81
453.751	724.81
453.971	718.81
454.192	743.81
454.412	783.81
454.633	723.81
454.853	752.81
455.073	719.81
455.294	699.81
455.514	746.81
455.734	772.81
455.955	771.81
456.175	805.81
456.395	717.81
456.616	698.81
456.836	676.81
457.056	676.81
457.276	652.81
457.497	673.81
457.717	690.81
457.937	693.81
458.157	718.81
458.377	724.81
458.598	737.81
458.818	756.81
459.038	790.81
459.258	827.81
459.478	850.81
459.698	844.81
459.918	911.81
460.138	874.81
460.358	876.81
460.578	856.81
460.798	898.81
461.018	910.81
461.238	833.81
461.458	847.81
461.678	863.81
461.898	902.81
462.118	898.81
462.338	942.81
462.558	954.81
462.777	983.81
462.997	962.81
463.217	982.81
463.437	987.81
463.657	1012.81
463.876	940.81
464.096	963.81
464.316	934.81
464.536	954.81
464.755	988.81
464.975	1015.81
465.195	945.81
465.414	976.81
465.634	950.81
465.854	912.81
466.073	858.81
466.293	867.81
466.512	900.81
466.732	976.81
466.951	1030.81
467.171	906.81
467.391	842.81
467.61	878.81
467.829	906.81
468.049	918.81
468.268	844.81
468.488	841.81
468.707	908.81
468.927	1059.81
469.146	1130.81
469.365	1014.81
469.585	934.81
469.804	1013.81
470.023	1103.81
470.243	950.81
470.462	905.81
470.681	890.81
470.901	886.81
471.12	956.81
471.339	978.81
471.558	912.81
471.777	918.81
471.997	1000.81
472.216	1107.81
472.435	1068.81
472.654	982.81
472.873	917.81
473.092	978.81
473.311	1021.81
473.53	956.81
473.749	922.81
473.968	968.81
474.187	957.81
474.406	942.81
474.625	901.81
474.844	944.81
475.063	1016.81
475.282	989.81
475.501	1040.81
475.72	1109.81
475.939	1073.81
476.158	1089.81
476.377	1225.81
476.596	1404.81
476.814	1480.81
477.033	1215.81
477.252	1059.81
477.471	991.81
477.69	976.81
477.908	1083.81
478.127	1117.81
478.346	1038.81
478.564	1084.81
478.783	1060.81
479.002	1074.81
479.22	1231.81
479.439	1391.81
479.658	1194.81
479.876	1104.81
480.095	1186.81
480.313	1197.81
480.532	1117.81
480.751	1054.81
480.969	1126.81
481.188	1243.81
481.406	1307.81
481.624	1222.81
481.843	1093.81
482.061	1049.81
482.28	1178.81
482.498	1452.81
482.717	1350.81
482.935	1170.81
483.153	1068.81
483.372	1034.81
483.59	1052.81
483.808	1043.81
484.027	1032.81
484.245	979.81
484.463	962.81
484.681	996.81
484.9	1078.81
485.118	1158.81
485.336	1099.81
485.554	1038.81
485.772	1056.81
485.99	1133.81
486.209	1177.81
486.427	1182.81
486.645	1175.81
486.863	1220.81
487.081	1210.81
487.299	1298.81
487.517	1268.81
487.735	1190.81
487.953	1188.81
488.171	1220.81
488.389	1183.81
488.607	1084.81
488.825	1137.81
489.043	1230.81
489.261	1415.81
489.479	1500.81
489.696	1301.81
489.914	1152.81
490.132	1109.81
490.35	1084.81
490.568	1120.81
490.786	1087.81
491.003	1122.81
491.221	1136.81
491.439	1086.81
491.657	1106.81
491.874	1216.81
492.092	1468.81
492.31	1691.81
492.527	1717.81
492.745	1475.81
492.963	1277.81
493.18	1252.81
493.398	1283.81
493.615	1255.81
493.833	1227.81
494.05	1208.81
494.268	1241.81
494.485	1232.81
494.703	1190.81
494.92	1207.81
495.138	1196.81
