Data from NickelSpatula.Lamp.E5.5.P2_HRD10591_11-52-33-554.txt Node
Date: Tue Jul 23 11:52:33 EDT 2019
User: cochatt
Spectrometer: HR+D1059
Trigger mode: 1
Integration Time (sec): 1.000000E-1
Scans to average: 1
Electric dark correction enabled: true
Nonlinearity correction enabled: false
Boxcar width: 0
XAxis mode: Wavelengths
Number of Pixels in Spectrum: 2048
>>>>>Begin Spectral Data<<<<<
223.165	-11.56
223.4	-11.56
223.635	-11.56
223.869	-35.56
224.104	-16.56
224.338	-20.56
224.573	0.44
224.808	-12.56
225.042	-2.56
225.277	0.44
225.511	-4.56
225.746	8.44
225.98	-8.56
226.215	8.44
226.449	10.44
226.683	21.44
226.918	30.44
227.152	32.44
227.387	51.44
227.621	37.44
227.856	52.44
228.09	46.44
228.324	54.44
228.559	58.44
228.793	75.44
229.027	80.44
229.262	83.44
229.496	81.44
229.73	77.44
229.964	81.44
230.199	89.44
230.433	107.44
230.667	104.44
230.901	98.44
231.136	98.44
231.37	105.44
231.604	102.44
231.838	114.44
232.072	120.44
232.306	121.44
232.541	98.44
232.775	102.44
233.009	115.44
233.243	122.44
233.477	134.44
233.711	132.44
233.945	114.44
234.179	123.44
234.413	136.44
234.647	134.44
234.881	144.44
235.115	146.44
235.349	139.44
235.583	134.44
235.817	129.44
236.051	118.44
236.285	130.44
236.519	155.44
236.753	144.44
236.987	155.44
237.221	134.44
237.455	141.44
237.689	136.44
237.922	131.44
238.156	149.44
238.39	170.44
238.624	175.44
238.858	160.44
239.091	152.44
239.325	134.44
239.559	133.44
239.793	148.44
240.027	174.44
240.26	163.44
240.494	162.44
240.728	164.44
240.961	170.44
241.195	181.44
241.429	185.44
241.662	170.44
241.896	150.44
242.13	144.44
242.363	156.44
242.597	136.44
242.83	161.44
243.064	160.44
243.298	163.44
243.531	166.44
243.765	177.44
243.998	187.44
244.232	176.44
244.465	175.44
244.699	166.44
244.932	188.44
245.166	178.44
245.399	150.44
245.633	172.44
245.866	159.44
246.099	175.44
246.333	179.44
246.566	190.44
246.8	187.44
247.033	187.44
247.266	187.44
247.5	178.44
247.733	188.44
247.966	186.44
248.2	188.44
248.433	197.44
248.666	209.44
248.899	194.44
249.133	207.44
249.366	224.44
249.599	257.44
249.832	246.44
250.066	211.44
250.299	223.44
250.532	189.44
250.765	204.44
250.998	196.44
251.231	208.44
251.465	196.44
251.698	201.44
251.931	196.44
252.164	207.44
252.397	239.44
252.63	250.44
252.863	263.44
253.096	264.44
253.329	263.44
253.562	260.44
253.795	300.44
254.028	315.44
254.261	310.44
254.494	284.44
254.727	283.44
254.96	247.44
255.193	280.44
255.426	289.44
255.659	209.44
255.892	215.44
256.124	228.44
256.357	249.44
256.59	278.44
256.823	291.44
257.056	259.44
257.289	229.44
257.521	228.44
257.754	275.44
257.987	314.44
258.22	282.44
258.452	241.44
258.685	297.44
258.918	304.44
259.151	278.44
259.383	295.44
259.616	342.44
259.849	362.44
260.081	362.44
260.314	393.44
260.547	332.44
260.779	339.44
261.012	397.44
261.244	366.44
261.477	351.44
261.71	347.44
261.942	296.44
262.175	298.44
262.407	297.44
262.64	297.44
262.872	344.44
263.105	386.44
263.337	386.44
263.57	355.44
263.802	260.44
264.035	246.44
264.267	235.44
264.499	207.44
264.732	200.44
264.964	182.44
265.197	200.44
265.429	215.44
265.661	200.44
265.894	224.44
266.126	238.44
266.358	252.44
266.591	288.44
266.823	339.44
267.055	326.44
267.287	303.44
267.52	303.44
267.752	336.44
267.984	335.44
268.216	315.44
268.448	281.44
268.681	266.44
268.913	296.44
269.145	316.44
269.377	318.44
269.609	318.44
269.841	290.44
270.073	314.44
270.306	338.44
270.538	318.44
270.77	347.44
271.002	338.44
271.234	355.44
271.466	351.44
271.698	338.44
271.93	317.44
272.162	322.44
272.394	339.44
272.626	332.44
272.858	323.44
273.09	347.44
273.322	299.44
273.553	273.44
273.785	324.44
274.017	388.44
274.249	504.44
274.481	512.44
274.713	543.44
274.945	632.44
275.176	635.44
275.408	586.44
275.64	530.44
275.872	533.44
276.104	472.44
276.335	412.44
276.567	411.44
276.799	422.44
277.031	454.44
277.262	365.44
277.494	295.44
277.726	274.44
277.957	299.44
278.189	348.44
278.421	321.44
278.652	320.44
278.884	309.44
279.115	281.44
279.347	298.44
279.579	282.44
279.81	307.44
280.042	297.44
280.273	299.44
280.505	281.44
280.736	240.44
280.968	257.44
281.199	251.44
281.431	313.44
281.662	298.44
281.894	275.44
282.125	281.44
282.356	309.44
282.588	330.44
282.819	291.44
283.051	294.44
283.282	356.44
283.513	422.44
283.745	456.44
283.976	468.44
284.207	413.44
284.439	442.44
284.67	436.44
284.901	395.44
285.132	419.44
285.364	412.44
285.595	404.44
285.826	420.44
286.057	440.44
286.288	434.44
286.52	442.44
286.751	438.44
286.982	464.44
287.213	384.44
287.444	387.44
287.675	408.44
287.906	388.44
288.138	382.44
288.369	340.44
288.6	286.44
288.831	321.44
289.062	349.44
289.293	406.44
289.524	355.44
289.755	359.44
289.986	358.44
290.217	339.44
290.448	268.44
290.679	233.44
290.91	218.44
291.141	222.44
291.371	237.44
291.602	231.44
291.833	232.44
292.064	245.44
292.295	287.44
292.526	325.44
292.757	338.44
292.987	360.44
293.218	366.44
293.449	386.44
293.68	403.44
293.91	389.44
294.141	398.44
294.372	392.44
294.603	330.44
294.833	358.44
295.064	429.44
295.295	422.44
295.525	326.44
295.756	263.44
295.987	232.44
296.217	252.44
296.448	256.44
296.679	245.44
296.909	272.44
297.14	299.44
297.37	321.44
297.601	320.44
297.831	283.44
298.062	284.44
298.292	321.44
298.523	342.44
298.753	387.44
298.984	361.44
299.214	306.44
299.445	262.44
299.675	258.44
299.905	246.44
300.136	267.44
300.366	266.44
300.597	274.44
300.827	259.44
301.057	246.44
301.288	256.44
301.518	262.44
301.748	293.44
301.979	298.44
302.209	338.44
302.439	347.44
302.669	300.44
302.9	298.44
303.13	286.44
303.36	287.44
303.59	283.44
303.82	274.44
304.051	311.44
304.281	321.44
304.511	296.44
304.741	276.44
304.971	276.44
305.201	293.44
305.431	280.44
305.661	266.44
305.891	248.44
306.121	243.44
306.352	231.44
306.582	207.44
306.812	217.44
307.042	218.44
307.272	218.44
307.502	211.44
307.731	217.44
307.961	236.44
308.191	204.44
308.421	203.44
308.651	197.44
308.881	183.44
309.111	199.44
309.341	195.44
309.571	218.44
309.8	216.44
310.03	240.44
310.26	234.44
310.49	241.44
310.72	217.44
310.949	212.44
311.179	224.44
311.409	218.44
311.639	244.44
311.868	312.44
312.098	389.44
312.328	410.44
312.557	395.44
312.787	394.44
313.017	374.44
313.246	385.44
313.476	430.44
313.706	337.44
313.935	289.44
314.165	231.44
314.394	227.44
314.624	239.44
314.853	226.44
315.083	247.44
315.312	249.44
315.542	258.44
315.771	240.44
316.001	214.44
316.23	211.44
316.46	210.44
316.689	207.44
316.919	210.44
317.148	215.44
317.377	211.44
317.607	214.44
317.836	241.44
318.065	244.44
318.295	293.44
318.524	267.44
318.753	231.44
318.983	225.44
319.212	204.44
319.441	223.44
319.67	250.44
319.9	267.44
320.129	258.44
320.358	222.44
320.587	208.44
320.816	229.44
321.046	260.44
321.275	296.44
321.504	291.44
321.733	281.44
321.962	284.44
322.191	271.44
322.42	245.44
322.649	247.44
322.878	278.44
323.108	280.44
323.337	259.44
323.566	256.44
323.795	254.44
324.024	244.44
324.253	231.44
324.482	226.44
324.71	251.44
324.939	278.44
325.168	274.44
325.397	233.44
325.626	223.44
325.855	222.44
326.084	233.44
326.313	228.44
326.542	235.44
326.77	208.44
326.999	225.44
327.228	250.44
327.457	233.44
327.686	238.44
327.914	206.44
328.143	209.44
328.372	195.44
328.6	194.44
328.829	210.44
329.058	216.44
329.287	201.44
329.515	225.44
329.744	224.44
329.972	202.44
330.201	208.44
330.43	198.44
330.658	227.44
330.887	240.44
331.115	239.44
331.344	245.44
331.572	247.44
331.801	218.44
332.03	202.44
332.258	225.44
332.486	240.44
332.715	243.44
332.943	228.44
333.172	242.44
333.4	261.44
333.629	263.44
333.857	277.44
334.085	283.44
334.314	271.44
334.542	256.44
334.771	242.44
334.999	231.44
335.227	224.44
335.455	226.44
335.684	239.44
335.912	283.44
336.14	298.44
336.369	307.44
336.597	294.44
336.825	304.44
337.053	336.44
337.281	284.44
337.51	238.44
337.738	238.44
337.966	240.44
338.194	283.44
338.422	258.44
338.65	222.44
338.878	203.44
339.106	218.44
339.334	241.44
339.562	262.44
339.79	245.44
340.018	219.44
340.246	224.44
340.474	253.44
340.702	273.44
340.93	307.44
341.158	288.44
341.386	260.44
341.614	254.44
341.842	258.44
342.07	265.44
342.298	302.44
342.526	318.44
342.754	272.44
342.981	256.44
343.209	250.44
343.437	264.44
343.665	298.44
343.893	282.44
344.12	313.44
344.348	374.44
344.576	362.44
344.804	279.44
345.031	251.44
345.259	240.44
345.487	231.44
345.714	248.44
345.942	263.44
346.17	298.44
346.397	267.44
346.625	239.44
346.853	250.44
347.08	229.44
347.308	232.44
347.535	273.44
347.763	285.44
347.99	246.44
348.218	232.44
348.445	246.44
348.673	242.44
348.9	241.44
349.128	266.44
349.355	286.44
349.583	261.44
349.81	247.44
350.037	229.44
350.265	223.44
350.492	218.44
350.72	210.44
350.947	185.44
351.174	217.44
351.402	232.44
351.629	214.44
351.856	219.44
352.083	226.44
352.311	232.44
352.538	253.44
352.765	254.44
352.992	245.44
353.22	233.44
353.447	254.44
353.674	244.44
353.901	234.44
354.128	234.44
354.355	234.44
354.583	229.44
354.81	219.44
355.037	231.44
355.264	220.44
355.491	238.44
355.718	264.44
355.945	240.44
356.172	252.44
356.399	253.44
356.626	291.44
356.853	348.44
357.08	357.44
357.307	374.44
357.534	309.44
357.761	320.44
357.988	385.44
358.215	432.44
358.441	410.44
358.668	352.44
358.895	322.44
359.122	309.44
359.349	312.44
359.576	334.44
359.802	269.44
360.029	227.44
360.256	244.44
360.483	286.44
360.709	362.44
360.936	358.44
361.163	336.44
361.39	253.44
361.616	237.44
361.843	284.44
362.07	323.44
362.296	306.44
362.523	244.44
362.749	220.44
362.976	239.44
363.203	273.44
363.429	294.44
363.656	255.44
363.882	242.44
364.109	254.44
364.335	238.44
364.562	232.44
364.788	246.44
365.015	306.44
365.241	241.44
365.468	222.44
365.694	216.44
365.92	202.44
366.147	202.44
366.373	195.44
366.599	202.44
366.826	197.44
367.052	215.44
367.278	217.44
367.505	200.44
367.731	228.44
367.957	235.44
368.184	248.44
368.41	214.44
368.636	243.44
368.862	255.44
369.089	234.44
369.315	224.44
369.541	219.44
369.767	226.44
369.993	220.44
370.219	218.44
370.445	225.44
370.672	249.44
370.898	260.44
371.124	267.44
371.35	242.44
371.576	217.44
371.802	243.44
372.028	278.44
372.254	318.44
372.48	282.44
372.706	251.44
372.932	255.44
373.158	278.44
373.384	309.44
373.61	386.44
373.835	405.44
374.061	331.44
374.287	280.44
374.513	314.44
374.739	376.44
374.965	393.44
375.191	396.44
375.416	280.44
375.642	246.44
375.868	302.44
376.094	310.44
376.319	267.44
376.545	296.44
376.771	297.44
376.997	265.44
377.222	224.44
377.448	195.44
377.674	188.44
377.899	201.44
378.125	182.44
378.35	177.44
378.576	207.44
378.802	209.44
379.027	215.44
379.253	231.44
379.478	226.44
379.704	233.44
379.929	243.44
380.155	255.44
380.38	228.44
380.606	240.44
380.831	261.44
381.057	238.44
381.282	239.44
381.507	256.44
381.733	313.44
381.958	327.44
382.184	372.44
382.409	374.44
382.634	367.44
382.86	409.44
383.085	321.44
383.31	269.44
383.535	288.44
383.761	271.44
383.986	261.44
384.211	304.44
384.436	325.44
384.662	259.44
384.887	232.44
385.112	255.44
385.337	265.44
385.562	262.44
385.787	272.44
386.013	305.44
386.238	310.44
386.463	246.44
386.688	235.44
386.913	236.44
387.138	229.44
387.363	259.44
387.588	280.44
387.813	247.44
388.038	281.44
388.263	259.44
388.488	260.44
388.713	256.44
388.938	287.44
389.163	243.44
389.387	248.44
389.612	227.44
389.837	248.44
390.062	228.44
390.287	251.44
390.512	253.44
390.736	245.44
390.961	227.44
391.186	227.44
391.411	199.44
391.636	223.44
391.86	257.44
392.085	268.44
392.31	252.44
392.534	238.44
392.759	244.44
392.984	268.44
393.208	246.44
393.433	218.44
393.658	210.44
393.882	209.44
394.107	212.44
394.331	231.44
394.556	216.44
394.78	217.44
395.005	197.44
395.229	227.44
395.454	224.44
395.678	216.44
395.903	232.44
396.127	230.44
396.352	234.44
396.576	263.44
396.801	243.44
397.025	265.44
397.249	276.44
397.474	262.44
397.698	241.44
397.922	246.44
398.147	244.44
398.371	235.44
398.595	240.44
398.82	240.44
399.044	244.44
399.268	259.44
399.492	288.44
399.717	298.44
399.941	296.44
400.165	278.44
400.389	255.44
400.613	251.44
400.837	262.44
401.062	219.44
401.286	230.44
401.51	225.44
401.734	217.44
401.958	249.44
402.182	223.44
402.406	238.44
402.63	243.44
402.854	234.44
403.078	318.44
403.302	393.44
403.526	400.44
403.75	361.44
403.974	304.44
404.198	308.44
404.422	325.44
404.645	342.44
404.869	355.44
405.093	307.44
405.317	260.44
405.541	245.44
405.765	277.44
405.988	269.44
406.212	277.44
406.436	299.44
406.66	325.44
406.883	280.44
407.107	291.44
407.331	325.44
407.555	309.44
407.778	282.44
408.002	284.44
408.226	307.44
408.449	288.44
408.673	266.44
408.896	240.44
409.12	232.44
409.344	258.44
409.567	241.44
409.791	232.44
410.014	241.44
410.238	238.44
410.461	259.44
410.685	243.44
410.908	234.44
411.132	248.44
411.355	242.44
411.578	261.44
411.802	247.44
412.025	258.44
412.249	250.44
412.472	222.44
412.695	258.44
412.919	233.44
413.142	242.44
413.365	266.44
413.589	270.44
413.812	258.44
414.035	245.44
414.258	235.44
414.482	275.44
414.705	270.44
414.928	249.44
415.151	222.44
415.374	228.44
415.597	232.44
415.821	238.44
416.044	256.44
416.267	241.44
416.49	235.44
416.713	223.44
416.936	218.44
417.159	223.44
417.382	238.44
417.605	244.44
417.828	245.44
418.051	231.44
418.274	238.44
418.497	235.44
418.72	242.44
418.943	248.44
419.166	233.44
419.389	276.44
419.611	240.44
419.834	254.44
420.057	282.44
420.28	279.44
420.503	268.44
420.726	231.44
420.948	227.44
421.171	233.44
421.394	232.44
421.617	229.44
421.839	223.44
422.062	247.44
422.285	222.44
422.507	233.44
422.73	241.44
422.953	252.44
423.175	242.44
423.398	256.44
423.621	278.44
423.843	280.44
424.066	264.44
424.288	252.44
424.511	249.44
424.733	247.44
424.956	247.44
425.178	284.44
425.401	311.44
425.623	379.44
425.846	300.44
426.068	257.44
426.291	258.44
426.513	244.44
426.735	239.44
426.958	254.44
427.18	286.44
427.402	347.44
427.625	375.44
427.847	329.44
428.069	254.44
428.292	246.44
428.514	235.44
428.736	246.44
428.958	260.44
429.181	337.44
429.403	274.44
429.625	239.44
429.847	227.44
430.069	234.44
430.292	246.44
430.514	250.44
430.736	254.44
430.958	275.44
431.18	283.44
431.402	226.44
431.624	228.44
431.846	211.44
432.068	221.44
432.29	223.44
432.512	249.44
432.734	272.44
432.956	269.44
433.178	245.44
433.4	224.44
433.622	234.44
433.844	225.44
434.066	247.44
434.287	269.44
434.509	252.44
434.731	266.44
434.953	235.44
435.175	240.44
435.397	304.44
435.618	252.44
435.84	229.44
436.062	231.44
436.284	218.44
436.505	226.44
436.727	225.44
436.949	233.44
437.17	256.44
437.392	232.44
437.614	227.44
437.835	220.44
438.057	225.44
438.278	256.44
438.5	314.44
438.721	318.44
438.943	254.44
439.165	215.44
439.386	214.44
439.608	231.44
439.829	210.44
440.05	213.44
440.272	223.44
440.493	260.44
440.715	298.44
440.936	248.44
441.158	239.44
441.379	234.44
441.6	260.44
441.822	272.44
442.043	241.44
442.264	237.44
442.486	242.44
442.707	242.44
442.928	239.44
443.149	233.44
443.371	225.44
443.592	246.44
443.813	258.44
444.034	254.44
444.255	247.44
444.476	244.44
444.698	258.44
444.919	241.44
445.14	372.44
445.361	314.44
445.582	266.44
445.803	243.44
446.024	258.44
446.245	240.44
446.466	258.44
446.687	235.44
446.908	230.44
447.129	233.44
447.35	217.44
447.571	226.44
447.792	210.44
448.013	224.44
448.234	228.44
448.455	217.44
448.675	224.44
448.896	231.44
449.117	202.44
449.338	243.44
449.559	226.44
449.779	227.44
450	230.44
450.221	225.44
450.442	218.44
450.662	213.44
450.883	208.44
451.104	223.44
451.324	212.44
451.545	228.44
451.766	223.44
451.986	217.44
452.207	215.44
452.428	225.44
452.648	212.44
452.869	221.44
453.089	216.44
453.31	231.44
453.53	220.44
453.751	210.44
453.971	202.44
454.192	211.44
454.412	219.44
454.633	221.44
454.853	204.44
455.073	213.44
455.294	198.44
455.514	209.44
455.734	204.44
455.955	197.44
456.175	225.44
456.395	199.44
456.616	179.44
456.836	192.44
457.056	189.44
457.276	200.44
457.497	199.44
457.717	187.44
457.937	194.44
458.157	219.44
458.377	211.44
458.598	215.44
458.818	203.44
459.038	217.44
459.258	217.44
459.478	226.44
459.698	244.44
459.918	231.44
460.138	216.44
460.358	254.44
460.578	245.44
460.798	240.44
461.018	229.44
461.238	230.44
461.458	261.44
461.678	258.44
461.898	262.44
462.118	247.44
462.338	254.44
462.558	278.44
462.777	250.44
462.997	293.44
463.217	305.44
463.437	306.44
463.657	285.44
463.876	266.44
464.096	268.44
464.316	260.44
464.536	275.44
464.755	290.44
464.975	283.44
465.195	272.44
465.414	281.44
465.634	247.44
465.854	263.44
466.073	232.44
466.293	239.44
466.512	264.44
466.732	274.44
466.951	265.44
467.171	241.44
467.391	228.44
467.61	214.44
467.829	236.44
468.049	234.44
468.268	246.44
468.488	235.44
468.707	248.44
468.927	270.44
469.146	281.44
469.365	261.44
469.585	231.44
469.804	252.44
470.023	235.44
470.243	265.44
470.462	241.44
470.681	235.44
470.901	231.44
471.12	265.44
471.339	239.44
471.558	242.44
471.777	243.44
471.997	243.44
472.216	282.44
472.435	274.44
472.654	239.44
472.873	240.44
473.092	249.44
473.311	269.44
473.53	236.44
473.749	227.44
473.968	259.44
474.187	244.44
474.406	247.44
474.625	252.44
474.844	245.44
475.063	252.44
475.282	249.44
475.501	267.44
475.72	284.44
475.939	263.44
476.158	271.44
476.377	284.44
476.596	340.44
476.814	350.44
477.033	311.44
477.252	264.44
477.471	231.44
477.69	248.44
477.908	270.44
478.127	291.44
478.346	275.44
478.564	304.44
478.783	291.44
479.002	273.44
479.22	309.44
479.439	344.44
479.658	304.44
479.876	279.44
480.095	296.44
480.313	326.44
480.532	281.44
480.751	262.44
480.969	291.44
481.188	314.44
481.406	305.44
481.624	302.44
481.843	289.44
482.061	252.44
482.28	280.44
482.498	342.44
482.717	347.44
482.935	288.44
483.153	284.44
483.372	257.44
483.59	268.44
483.808	266.44
484.027	256.44
484.245	263.44
484.463	250.44
484.681	274.44
484.9	286.44
485.118	287.44
485.336	283.44
485.554	263.44
485.772	268.44
485.99	301.44
486.209	311.44
486.427	314.44
486.645	299.44
486.863	282.44
487.081	302.44
487.299	322.44
487.517	343.44
487.735	303.44
487.953	295.44
488.171	299.44
488.389	278.44
488.607	294.44
488.825	278.44
489.043	308.44
489.261	347.44
489.479	352.44
489.696	321.44
489.914	290.44
490.132	270.44
490.35	284.44
490.568	272.44
490.786	292.44
491.003	269.44
491.221	294.44
491.439	264.44
491.657	282.44
491.874	298.44
492.092	340.44
492.31	374.44
492.527	370.44
492.745	337.44
492.963	313.44
493.18	311.44
493.398	300.44
493.615	318.44
493.833	306.44
494.05	299.44
494.268	299.44
494.485	295.44
494.703	295.44
494.92	279.44
495.138	300.44
495.355	289.44
495.573	284.44
495.79	311.44
496.008	396.44
496.225	338.44
496.442	313.44
496.66	327.44
496.877	320.44
497.094	327.44
497.312	296.44
497.529	313.44
497.746	307.44
497.963	307.44
498.181	351.44
498.398	354.44
498.615	377.44
498.832	397.44
499.049	400.44
499.267	369.44
499.484	378.44
499.701	422.44
499.918	475.44
500.135	498.44
500.352	522.44
500.569	558.44
500.786	552.44
501.003	535.44
501.22	470.44
501.437	454.44
501.654	404.44
501.871	390.44
502.088	381.44
502.305	323.44
502.522	363.44
