Data from NickelSpatula_HRD10591_16-33-35-126.txt Node
Date: Mon Jul 22 16:33:35 EDT 2019
User: cochatt
Spectrometer: HR+D1059
Trigger mode: 1
Integration Time (sec): 1.000000E-1
Scans to average: 1
Electric dark correction enabled: true
Nonlinearity correction enabled: false
Boxcar width: 0
XAxis mode: Wavelengths
Number of Pixels in Spectrum: 2048
>>>>>Begin Spectral Data<<<<<
223.165	-7.31
223.4	-7.31
223.635	-7.31
223.869	-7.31
224.104	-10.31
224.338	-17.31
224.573	-11.31
224.808	-15.31
225.042	-13.31
225.277	-1.31
225.511	-17.31
225.746	-7.31
225.98	6.69
226.215	12.69
226.449	-1.31
226.683	33.69
226.918	23.69
227.152	32.69
227.387	26.69
227.621	20.69
227.856	32.69
228.09	40.69
228.324	46.69
228.559	50.69
228.793	84.69
229.027	69.69
229.262	75.69
229.496	73.69
229.73	74.69
229.964	81.69
230.199	100.69
230.433	94.69
230.667	99.69
230.901	78.69
231.136	97.69
231.37	96.69
231.604	98.69
231.838	117.69
232.072	97.69
232.306	93.69
232.541	101.69
232.775	102.69
233.009	103.69
233.243	110.69
233.477	112.69
233.711	114.69
233.945	113.69
234.179	113.69
234.413	126.69
234.647	127.69
234.881	122.69
235.115	132.69
235.349	111.69
235.583	127.69
235.817	103.69
236.051	113.69
236.285	103.69
236.519	130.69
236.753	121.69
236.987	125.69
237.221	128.69
237.455	133.69
237.689	120.69
237.922	129.69
238.156	117.69
238.39	157.69
238.624	157.69
238.858	148.69
239.091	128.69
239.325	133.69
239.559	120.69
239.793	131.69
240.027	161.69
240.26	161.69
240.494	148.69
240.728	158.69
240.961	154.69
241.195	162.69
241.429	141.69
241.662	143.69
241.896	141.69
242.13	135.69
242.363	117.69
242.597	138.69
242.83	145.69
243.064	150.69
243.298	158.69
243.531	144.69
243.765	170.69
243.998	156.69
244.232	154.69
244.465	166.69
244.699	158.69
244.932	174.69
245.166	151.69
245.399	145.69
245.633	132.69
245.866	140.69
246.099	149.69
246.333	158.69
246.566	185.69
246.8	194.69
247.033	177.69
247.266	160.69
247.5	166.69
247.733	159.69
247.966	147.69
248.2	182.69
248.433	182.69
248.666	178.69
248.899	177.69
249.133	202.69
249.366	193.69
249.599	210.69
249.832	222.69
250.066	195.69
250.299	203.69
250.532	179.69
250.765	172.69
250.998	178.69
251.231	163.69
251.465	178.69
251.698	186.69
251.931	176.69
252.164	186.69
252.397	206.69
252.63	232.69
252.863	231.69
253.096	260.69
253.329	249.69
253.562	241.69
253.795	255.69
254.028	288.69
254.261	275.69
254.494	258.69
254.727	248.69
254.96	243.69
255.193	269.69
255.426	255.69
255.659	208.69
255.892	189.69
256.124	203.69
256.357	212.69
256.59	273.69
256.823	261.69
257.056	218.69
257.289	221.69
257.521	209.69
257.754	245.69
257.987	282.69
258.22	261.69
258.452	225.69
258.685	251.69
258.918	276.69
259.151	277.69
259.383	287.69
259.616	314.69
259.849	311.69
260.081	347.69
260.314	383.69
260.547	317.69
260.779	319.69
261.012	346.69
261.244	340.69
261.477	329.69
261.71	316.69
261.942	282.69
262.175	285.69
262.407	267.69
262.64	263.69
262.872	307.69
263.105	327.69
263.337	341.69
263.57	314.69
263.802	243.69
264.035	218.69
264.267	222.69
264.499	186.69
264.732	170.69
264.964	178.69
265.197	182.69
265.429	196.69
265.661	197.69
265.894	203.69
266.126	209.69
266.358	213.69
266.591	276.69
266.823	322.69
267.055	314.69
267.287	283.69
267.52	279.69
267.752	287.69
267.984	331.69
268.216	298.69
268.448	271.69
268.681	263.69
268.913	284.69
269.145	280.69
269.377	291.69
269.609	280.69
269.841	290.69
270.073	281.69
270.306	297.69
270.538	298.69
270.77	296.69
271.002	320.69
271.234	317.69
271.466	330.69
271.698	283.69
271.93	281.69
272.162	303.69
272.394	292.69
272.626	294.69
272.858	294.69
273.09	276.69
273.322	276.69
273.553	265.69
273.785	286.69
274.017	368.69
274.249	461.69
274.481	477.69
274.713	486.69
274.945	557.69
275.176	583.69
275.408	536.69
275.64	520.69
275.872	498.69
276.104	453.69
276.335	371.69
276.567	374.69
276.799	399.69
277.031	422.69
277.262	348.69
277.494	262.69
277.726	255.69
277.957	280.69
278.189	309.69
278.421	330.69
278.652	321.69
278.884	300.69
279.115	265.69
279.347	261.69
279.579	266.69
279.81	265.69
280.042	272.69
280.273	279.69
280.505	249.69
280.736	248.69
280.968	221.69
281.199	278.69
281.431	286.69
281.662	271.69
281.894	265.69
282.125	272.69
282.356	294.69
282.588	313.69
282.819	267.69
283.051	279.69
283.282	327.69
283.513	378.69
283.745	435.69
283.976	432.69
284.207	405.69
284.439	423.69
284.67	401.69
284.901	334.69
285.132	384.69
285.364	399.69
285.595	365.69
285.826	394.69
286.057	401.69
286.288	380.69
286.52	383.69
286.751	425.69
286.982	429.69
287.213	356.69
287.444	358.69
287.675	372.69
287.906	371.69
288.138	338.69
288.369	305.69
288.6	304.69
288.831	294.69
289.062	343.69
289.293	372.69
289.524	357.69
289.755	336.69
289.986	371.69
290.217	322.69
290.448	268.69
290.679	211.69
290.91	199.69
291.141	210.69
291.371	210.69
291.602	231.69
291.833	201.69
292.064	226.69
292.295	248.69
292.526	291.69
292.757	296.69
292.987	325.69
293.218	323.69
293.449	363.69
293.68	378.69
293.91	349.69
294.141	337.69
294.372	347.69
294.603	298.69
294.833	323.69
295.064	376.69
295.295	395.69
295.525	283.69
295.756	234.69
295.987	212.69
296.217	214.69
296.448	209.69
296.679	222.69
296.909	226.69
297.14	267.69
297.37	282.69
297.601	277.69
297.831	237.69
298.062	263.69
298.292	302.69
298.523	306.69
298.753	356.69
298.984	318.69
299.214	253.69
299.445	238.69
299.675	221.69
299.905	222.69
300.136	233.69
300.366	231.69
300.597	253.69
300.827	227.69
301.057	219.69
301.288	202.69
301.518	228.69
301.748	260.69
301.979	278.69
302.209	275.69
302.439	286.69
302.669	254.69
302.9	261.69
303.13	257.69
303.36	231.69
303.59	231.69
303.82	245.69
304.051	270.69
304.281	297.69
304.511	287.69
304.741	248.69
304.971	266.69
305.201	274.69
305.431	279.69
305.661	239.69
305.891	206.69
306.121	215.69
306.352	202.69
306.582	192.69
306.812	191.69
307.042	179.69
307.272	186.69
307.502	199.69
307.731	180.69
307.961	209.69
308.191	192.69
308.421	196.69
308.651	186.69
308.881	174.69
309.111	173.69
309.341	186.69
309.571	167.69
309.8	209.69
310.03	208.69
310.26	199.69
310.49	218.69
310.72	172.69
310.949	190.69
311.179	205.69
311.409	200.69
311.639	233.69
311.868	274.69
312.098	352.69
312.328	393.69
312.557	365.69
312.787	388.69
313.017	347.69
313.246	370.69
313.476	375.69
313.706	314.69
313.935	273.69
314.165	222.69
314.394	207.69
314.624	221.69
314.853	214.69
315.083	246.69
315.312	200.69
315.542	214.69
315.771	198.69
316.001	173.69
316.23	192.69
316.46	187.69
316.689	186.69
316.919	182.69
317.148	182.69
317.377	194.69
317.607	192.69
317.836	202.69
318.065	227.69
318.295	243.69
318.524	225.69
318.753	216.69
318.983	195.69
319.212	184.69
319.441	193.69
319.67	221.69
319.9	247.69
320.129	230.69
320.358	196.69
320.587	203.69
320.816	213.69
321.046	232.69
321.275	265.69
321.504	267.69
321.733	254.69
321.962	229.69
322.191	237.69
322.42	228.69
322.649	230.69
322.878	221.69
323.108	246.69
323.337	232.69
323.566	233.69
323.795	228.69
324.024	219.69
324.253	207.69
324.482	194.69
324.71	210.69
324.939	240.69
325.168	226.69
325.397	197.69
325.626	201.69
325.855	199.69
326.084	211.69
326.313	173.69
326.542	196.69
326.77	198.69
326.999	206.69
327.228	211.69
327.457	200.69
327.686	176.69
327.914	189.69
328.143	188.69
328.372	169.69
328.6	169.69
328.829	195.69
329.058	191.69
329.287	186.69
329.515	199.69
329.744	180.69
329.972	185.69
330.201	174.69
330.43	178.69
330.658	194.69
330.887	212.69
331.115	207.69
331.344	217.69
331.572	208.69
331.801	194.69
332.03	186.69
332.258	176.69
332.486	199.69
332.715	199.69
332.943	189.69
333.172	199.69
333.4	197.69
333.629	209.69
333.857	229.69
334.085	235.69
334.314	235.69
334.542	231.69
334.771	189.69
334.999	204.69
335.227	189.69
335.455	206.69
335.684	224.69
335.912	239.69
336.14	286.69
336.369	249.69
336.597	227.69
336.825	261.69
337.053	299.69
337.281	239.69
337.51	220.69
337.738	186.69
337.966	223.69
338.194	237.69
338.422	219.69
338.65	200.69
338.878	193.69
339.106	198.69
339.334	214.69
339.562	211.69
339.79	214.69
340.018	194.69
340.246	221.69
340.474	244.69
340.702	259.69
340.93	248.69
341.158	277.69
341.386	231.69
341.614	234.69
341.842	217.69
342.07	208.69
342.298	247.69
342.526	294.69
342.754	232.69
342.981	223.69
343.209	213.69
343.437	237.69
343.665	242.69
343.893	247.69
344.12	288.69
344.348	319.69
344.576	273.69
344.804	244.69
345.031	200.69
345.259	202.69
345.487	197.69
345.714	199.69
345.942	229.69
346.17	253.69
346.397	234.69
346.625	205.69
346.853	205.69
347.08	185.69
347.308	218.69
347.535	240.69
347.763	233.69
347.99	202.69
348.218	184.69
348.445	204.69
348.673	225.69
348.9	215.69
349.128	222.69
349.355	219.69
349.583	193.69
349.81	213.69
350.037	192.69
350.265	193.69
350.492	171.69
350.72	168.69
350.947	178.69
351.174	171.69
351.402	192.69
351.629	193.69
351.856	188.69
352.083	197.69
352.311	210.69
352.538	206.69
352.765	227.69
352.992	213.69
353.22	215.69
353.447	207.69
353.674	205.69
353.901	197.69
354.128	193.69
354.355	206.69
354.583	214.69
354.81	198.69
355.037	227.69
355.264	200.69
355.491	215.69
355.718	227.69
355.945	230.69
356.172	206.69
356.399	201.69
356.626	242.69
356.853	287.69
357.08	330.69
357.307	349.69
357.534	242.69
357.761	252.69
357.988	309.69
358.215	342.69
358.441	322.69
358.668	310.69
358.895	303.69
359.122	240.69
359.349	225.69
359.576	269.69
359.802	213.69
360.029	187.69
360.256	194.69
360.483	245.69
360.709	290.69
360.936	309.69
361.163	252.69
361.39	220.69
361.616	189.69
361.843	225.69
362.07	262.69
362.296	257.69
362.523	205.69
362.749	177.69
362.976	181.69
363.203	217.69
363.429	258.69
363.656	218.69
363.882	213.69
364.109	194.69
364.335	216.69
364.562	196.69
364.788	208.69
365.015	218.69
365.241	211.69
365.468	196.69
365.694	172.69
365.92	160.69
366.147	151.69
366.373	161.69
366.599	159.69
366.826	171.69
367.052	179.69
367.278	168.69
367.505	162.69
367.731	183.69
367.957	203.69
368.184	198.69
368.41	209.69
368.636	199.69
368.862	208.69
369.089	200.69
369.315	185.69
369.541	176.69
369.767	178.69
369.993	165.69
370.219	163.69
370.445	179.69
370.672	206.69
370.898	205.69
371.124	210.69
371.35	197.69
371.576	189.69
371.802	192.69
372.028	227.69
372.254	238.69
372.48	211.69
372.706	214.69
372.932	222.69
373.158	226.69
373.384	238.69
373.61	298.69
373.835	322.69
374.061	245.69
374.287	213.69
374.513	237.69
374.739	274.69
374.965	304.69
375.191	292.69
375.416	226.69
375.642	192.69
375.868	206.69
376.094	233.69
376.319	211.69
376.545	219.69
376.771	243.69
376.997	231.69
377.222	192.69
377.448	168.69
377.674	167.69
377.899	170.69
378.125	176.69
378.35	157.69
378.576	169.69
378.802	180.69
379.027	186.69
379.253	202.69
379.478	189.69
379.704	202.69
379.929	216.69
380.155	206.69
380.38	194.69
380.606	216.69
380.831	219.69
381.057	207.69
381.282	199.69
381.507	209.69
381.733	243.69
381.958	253.69
382.184	288.69
382.409	285.69
382.634	317.69
382.86	304.69
383.085	273.69
383.31	217.69
383.535	254.69
383.761	239.69
383.986	230.69
384.211	265.69
384.436	264.69
384.662	219.69
384.887	185.69
385.112	207.69
385.337	211.69
385.562	183.69
385.787	228.69
386.013	242.69
386.238	239.69
386.463	194.69
386.688	209.69
386.913	199.69
387.138	191.69
387.363	196.69
387.588	199.69
387.813	191.69
388.038	210.69
388.263	191.69
388.488	206.69
388.713	223.69
388.938	250.69
389.163	201.69
389.387	181.69
389.612	190.69
389.837	194.69
390.062	203.69
390.287	206.69
390.512	225.69
390.736	198.69
390.961	194.69
391.186	197.69
391.411	179.69
391.636	179.69
391.86	202.69
392.085	217.69
392.31	223.69
392.534	211.69
392.759	201.69
392.984	193.69
393.208	213.69
393.433	197.69
393.658	212.69
393.882	189.69
394.107	166.69
394.331	177.69
394.556	166.69
394.78	188.69
395.005	181.69
395.229	194.69
395.454	195.69
395.678	182.69
395.903	191.69
396.127	184.69
396.352	195.69
396.576	200.69
396.801	218.69
397.025	230.69
397.249	240.69
397.474	202.69
397.698	184.69
397.922	207.69
398.147	197.69
398.371	185.69
398.595	201.69
398.82	200.69
399.044	208.69
399.268	229.69
399.492	210.69
399.717	239.69
399.941	231.69
400.165	209.69
400.389	220.69
400.613	224.69
400.837	204.69
401.062	199.69
401.286	195.69
401.51	194.69
401.734	197.69
401.958	201.69
402.182	186.69
402.406	190.69
402.63	191.69
402.854	207.69
403.078	237.69
403.302	291.69
403.526	310.69
403.75	288.69
403.974	224.69
404.198	229.69
404.422	251.69
404.645	279.69
404.869	305.69
405.093	232.69
405.317	227.69
405.541	220.69
405.765	201.69
405.988	197.69
406.212	253.69
406.436	237.69
406.66	273.69
406.883	231.69
407.107	255.69
407.331	273.69
407.555	267.69
407.778	223.69
408.002	217.69
408.226	197.69
408.449	227.69
408.673	222.69
408.896	211.69
409.12	196.69
409.344	196.69
409.567	186.69
409.791	181.69
410.014	197.69
410.238	193.69
410.461	187.69
410.685	170.69
410.908	179.69
411.132	193.69
411.355	208.69
411.578	195.69
411.802	183.69
412.025	185.69
412.249	197.69
412.472	197.69
412.695	206.69
412.919	197.69
413.142	209.69
413.365	217.69
413.589	213.69
413.812	198.69
414.035	200.69
414.258	182.69
414.482	203.69
414.705	251.69
414.928	190.69
415.151	185.69
415.374	194.69
415.597	199.69
415.821	186.69
416.044	199.69
416.267	177.69
416.49	185.69
416.713	167.69
416.936	182.69
417.159	197.69
417.382	206.69
417.605	181.69
417.828	179.69
418.051	198.69
418.274	211.69
418.497	207.69
418.72	199.69
418.943	211.69
419.166	189.69
419.389	228.69
419.611	221.69
419.834	206.69
420.057	223.69
420.28	229.69
420.503	226.69
420.726	184.69
420.948	181.69
421.171	183.69
421.394	196.69
421.617	173.69
421.839	194.69
422.062	201.69
422.285	186.69
422.507	201.69
422.73	192.69
422.953	208.69
423.175	195.69
423.398	211.69
423.621	233.69
423.843	226.69
424.066	230.69
424.288	198.69
424.511	195.69
424.733	189.69
424.956	202.69
425.178	231.69
425.401	259.69
425.623	289.69
425.846	228.69
426.068	199.69
426.291	222.69
426.513	216.69
426.735	199.69
426.958	193.69
427.18	230.69
427.402	312.69
427.625	297.69
427.847	245.69
428.069	175.69
428.292	198.69
428.514	192.69
428.736	170.69
428.958	183.69
429.181	230.69
429.403	227.69
429.625	195.69
429.847	189.69
430.069	202.69
430.292	198.69
430.514	174.69
430.736	178.69
430.958	225.69
431.18	215.69
431.402	180.69
431.624	170.69
431.846	175.69
432.068	181.69
432.29	171.69
432.512	201.69
432.734	235.69
432.956	226.69
433.178	178.69
433.4	181.69
433.622	183.69
433.844	200.69
434.066	210.69
434.287	215.69
434.509	198.69
434.731	205.69
434.953	186.69
435.175	186.69
435.397	234.69
435.618	186.69
435.84	185.69
436.062	173.69
436.284	194.69
436.505	168.69
436.727	180.69
436.949	177.69
437.17	174.69
437.392	197.69
437.614	182.69
437.835	165.69
438.057	179.69
438.278	215.69
438.5	253.69
438.721	263.69
438.943	184.69
439.165	187.69
439.386	187.69
439.608	187.69
439.829	181.69
440.05	164.69
440.272	173.69
440.493	206.69
440.715	253.69
440.936	204.69
441.158	169.69
441.379	192.69
441.6	194.69
441.822	191.69
442.043	200.69
442.264	191.69
442.486	204.69
442.707	180.69
442.928	183.69
443.149	197.69
443.371	200.69
443.592	190.69
443.813	183.69
444.034	189.69
444.255	198.69
444.476	204.69
444.698	196.69
444.919	200.69
445.14	321.69
445.361	280.69
445.582	211.69
445.803	209.69
446.024	216.69
446.245	209.69
446.466	186.69
446.687	203.69
446.908	195.69
447.129	191.69
447.35	189.69
447.571	170.69
447.792	158.69
448.013	179.69
448.234	180.69
448.455	172.69
448.675	176.69
448.896	173.69
449.117	175.69
449.338	183.69
449.559	175.69
449.779	191.69
450	191.69
450.221	204.69
450.442	177.69
450.662	176.69
450.883	190.69
451.104	168.69
451.324	182.69
451.545	179.69
451.766	170.69
451.986	181.69
452.207	164.69
452.428	167.69
452.648	184.69
452.869	189.69
453.089	198.69
453.31	178.69
453.53	160.69
453.751	158.69
453.971	166.69
454.192	173.69
454.412	174.69
454.633	172.69
454.853	160.69
455.073	157.69
455.294	162.69
455.514	160.69
455.734	167.69
455.955	191.69
456.175	162.69
456.395	170.69
456.616	158.69
456.836	160.69
457.056	158.69
457.276	154.69
457.497	149.69
457.717	158.69
457.937	159.69
458.157	162.69
458.377	158.69
458.598	147.69
458.818	174.69
459.038	174.69
459.258	193.69
459.478	179.69
459.698	194.69
459.918	200.69
460.138	193.69
460.358	196.69
460.578	184.69
460.798	197.69
461.018	198.69
461.238	179.69
461.458	192.69
461.678	191.69
461.898	205.69
462.118	203.69
462.338	210.69
462.558	213.69
462.777	215.69
462.997	230.69
463.217	232.69
463.437	232.69
463.657	222.69
463.876	199.69
464.096	220.69
464.316	187.69
464.536	212.69
464.755	230.69
464.975	228.69
465.195	216.69
465.414	222.69
465.634	203.69
465.854	199.69
466.073	196.69
466.293	183.69
466.512	184.69
466.732	213.69
466.951	197.69
467.171	203.69
467.391	192.69
467.61	181.69
467.829	193.69
468.049	195.69
468.268	171.69
468.488	176.69
468.707	176.69
468.927	224.69
469.146	227.69
469.365	214.69
469.585	191.69
469.804	214.69
470.023	232.69
470.243	196.69
470.462	185.69
470.681	191.69
470.901	191.69
471.12	191.69
471.339	192.69
471.558	179.69
471.777	181.69
471.997	221.69
472.216	230.69
472.435	221.69
472.654	205.69
472.873	192.69
473.092	206.69
473.311	216.69
473.53	200.69
473.749	184.69
473.968	189.69
474.187	203.69
474.406	189.69
474.625	193.69
474.844	188.69
475.063	196.69
475.282	214.69
475.501	231.69
475.72	265.69
475.939	226.69
476.158	237.69
476.377	265.69
476.596	278.69
476.814	281.69
477.033	239.69
477.252	206.69
477.471	203.69
477.69	205.69
477.908	202.69
478.127	223.69
478.346	208.69
478.564	269.69
478.783	253.69
479.002	208.69
479.22	248.69
479.439	257.69
479.658	236.69
479.876	215.69
480.095	237.69
480.313	251.69
480.532	243.69
480.751	231.69
480.969	214.69
481.188	239.69
481.406	248.69
481.624	232.69
481.843	226.69
482.061	203.69
482.28	233.69
482.498	291.69
482.717	295.69
482.935	238.69
483.153	221.69
483.372	213.69
483.59	203.69
483.808	201.69
484.027	192.69
484.245	191.69
484.463	197.69
484.681	204.69
484.9	206.69
485.118	238.69
485.336	212.69
485.554	207.69
485.772	222.69
485.99	239.69
486.209	253.69
486.427	240.69
486.645	224.69
486.863	266.69
487.081	228.69
487.299	265.69
487.517	267.69
487.735	230.69
487.953	222.69
488.171	224.69
488.389	219.69
488.607	217.69
488.825	208.69
489.043	256.69
489.261	280.69
489.479	305.69
489.696	255.69
489.914	235.69
490.132	227.69
490.35	233.69
490.568	219.69
490.786	224.69
491.003	227.69
491.221	230.69
491.439	200.69
491.657	212.69
491.874	220.69
492.092	281.69
492.31	338.69
492.527	336.69
492.745	285.69
492.963	229.69
493.18	225.69
493.398	272.69
493.615	250.69
493.833	230.69
494.05	235.69
494.268	245.69
494.485	240.69
494.703	228.69
494.92	227.69
495.138	227.69
495.355	217.69
495.573	239.69
495.79	263.69
496.008	355.69
496.225	275.69
496.442	244.69
496.66	254.69
496.877	253.69
497.094	249.69
497.312	255.69
497.529	246.69
497.746	250.69
497.963	237.69
498.181	272.69
498.398	289.69
498.615	297.69
498.832	295.69
499.049	328.69
499.267	309.69
499.484	311.69
499.701	314.69
499.918	351.69
500.135	391.69
500.352	405.69
500.569	413.69
500.786	429.69
501.003	433.69
501.22	365.69
501.437	346.69
501.654	349.69
501.871	331.69
502.088	312.69
502.305	295.69
502.522	295.69
502.739	281.69
