Data from NickelSpatula.Lamp.E5.5.P2_HRD10591_11-54-05-545.txt Node
Date: Tue Jul 23 11:54:05 EDT 2019
User: cochatt
Spectrometer: HR+D1059
Trigger mode: 1
Integration Time (sec): 1.000000E-1
Scans to average: 1
Electric dark correction enabled: true
Nonlinearity correction enabled: false
Boxcar width: 0
XAxis mode: Wavelengths
Number of Pixels in Spectrum: 2048
>>>>>Begin Spectral Data<<<<<
223.165	-2.69
223.4	-2.69
223.635	-2.69
223.869	-20.69
224.104	-26.69
224.338	-16.69
224.573	-21.69
224.808	-8.69
225.042	3.31
225.277	-7.69
225.511	-10.69
225.746	4.31
225.98	6.31
226.215	9.31
226.449	13.31
226.683	20.31
226.918	12.31
227.152	46.31
227.387	27.31
227.621	45.31
227.856	41.31
228.09	33.31
228.324	44.31
228.559	48.31
228.793	49.31
229.027	74.31
229.262	78.31
229.496	68.31
229.73	91.31
229.964	87.31
230.199	81.31
230.433	76.31
230.667	98.31
230.901	87.31
231.136	95.31
231.37	95.31
231.604	94.31
231.838	87.31
232.072	84.31
232.306	101.31
232.541	100.31
232.775	94.31
233.009	109.31
233.243	98.31
233.477	121.31
233.711	123.31
233.945	127.31
234.179	115.31
234.413	111.31
234.647	138.31
234.881	139.31
235.115	155.31
235.349	133.31
235.583	121.31
235.817	114.31
236.051	126.31
236.285	131.31
236.519	125.31
236.753	126.31
236.987	128.31
237.221	135.31
237.455	126.31
237.689	134.31
237.922	148.31
238.156	137.31
238.39	152.31
238.624	170.31
238.858	166.31
239.091	131.31
239.325	141.31
239.559	133.31
239.793	154.31
240.027	167.31
240.26	163.31
240.494	175.31
240.728	153.31
240.961	166.31
241.195	163.31
241.429	161.31
241.662	166.31
241.896	154.31
242.13	132.31
242.363	133.31
242.597	126.31
242.83	156.31
243.064	142.31
243.298	154.31
243.531	158.31
243.765	176.31
243.998	161.31
244.232	157.31
244.465	150.31
244.699	173.31
244.932	179.31
245.166	165.31
245.399	154.31
245.633	143.31
245.866	149.31
246.099	180.31
246.333	202.31
246.566	193.31
246.8	183.31
247.033	180.31
247.266	165.31
247.5	186.31
247.733	162.31
247.966	177.31
248.2	172.31
248.433	188.31
248.666	198.31
248.899	200.31
249.133	199.31
249.366	222.31
249.599	245.31
249.832	218.31
250.066	188.31
250.299	199.31
250.532	198.31
250.765	190.31
250.998	160.31
251.231	198.31
251.465	183.31
251.698	195.31
251.931	206.31
252.164	212.31
252.397	214.31
252.63	244.31
252.863	272.31
253.096	268.31
253.329	254.31
253.562	249.31
253.795	274.31
254.028	308.31
254.261	313.31
254.494	290.31
254.727	262.31
254.96	248.31
255.193	252.31
255.426	267.31
255.659	198.31
255.892	213.31
256.124	207.31
256.357	231.31
256.59	270.31
256.823	259.31
257.056	244.31
257.289	217.31
257.521	244.31
257.754	277.31
257.987	328.31
258.22	265.31
258.452	220.31
258.685	261.31
258.918	284.31
259.151	282.31
259.383	300.31
259.616	339.31
259.849	341.31
260.081	372.31
260.314	401.31
260.547	314.31
260.779	322.31
261.012	389.31
261.244	347.31
261.477	354.31
261.71	348.31
261.942	282.31
262.175	290.31
262.407	276.31
262.64	279.31
262.872	319.31
263.105	360.31
263.337	371.31
263.57	333.31
263.802	227.31
264.035	219.31
264.267	228.31
264.499	196.31
264.732	175.31
264.964	176.31
265.197	177.31
265.429	196.31
265.661	197.31
265.894	205.31
266.126	210.31
266.358	235.31
266.591	281.31
266.823	338.31
267.055	319.31
267.287	291.31
267.52	288.31
267.752	304.31
267.984	307.31
268.216	324.31
268.448	255.31
268.681	263.31
268.913	289.31
269.145	290.31
269.377	312.31
269.609	294.31
269.841	286.31
270.073	283.31
270.306	340.31
270.538	315.31
270.77	317.31
271.002	322.31
271.234	334.31
271.466	336.31
271.698	301.31
271.93	309.31
272.162	305.31
272.394	291.31
272.626	296.31
272.858	320.31
273.09	319.31
273.322	275.31
273.553	268.31
273.785	322.31
274.017	387.31
274.249	478.31
274.481	495.31
274.713	531.31
274.945	623.31
275.176	636.31
275.408	589.31
275.64	533.31
275.872	534.31
276.104	492.31
276.335	402.31
276.567	403.31
276.799	429.31
277.031	431.31
277.262	355.31
277.494	283.31
277.726	274.31
277.957	277.31
278.189	318.31
278.421	309.31
278.652	298.31
278.884	311.31
279.115	258.31
279.347	279.31
279.579	260.31
279.81	271.31
280.042	277.31
280.273	283.31
280.505	282.31
280.736	242.31
280.968	242.31
281.199	258.31
281.431	271.31
281.662	279.31
281.894	256.31
282.125	281.31
282.356	289.31
282.588	295.31
282.819	264.31
283.051	298.31
283.282	346.31
283.513	418.31
283.745	476.31
283.976	459.31
284.207	442.31
284.439	426.31
284.67	421.31
284.901	371.31
285.132	412.31
285.364	431.31
285.595	395.31
285.826	407.31
286.057	410.31
286.288	400.31
286.52	411.31
286.751	466.31
286.982	449.31
287.213	395.31
287.444	365.31
287.675	402.31
287.906	407.31
288.138	351.31
288.369	319.31
288.6	306.31
288.831	287.31
289.062	368.31
289.293	367.31
289.524	330.31
289.755	338.31
289.986	355.31
290.217	315.31
290.448	277.31
290.679	224.31
290.91	220.31
291.141	231.31
291.371	236.31
291.602	224.31
291.833	236.31
292.064	237.31
292.295	267.31
292.526	286.31
292.757	314.31
292.987	344.31
293.218	335.31
293.449	364.31
293.68	383.31
293.91	355.31
294.141	373.31
294.372	365.31
294.603	335.31
294.833	345.31
295.064	411.31
295.295	404.31
295.525	299.31
295.756	245.31
295.987	212.31
296.217	216.31
296.448	237.31
296.679	261.31
296.909	279.31
297.14	290.31
297.37	303.31
297.601	308.31
297.831	265.31
298.062	286.31
298.292	315.31
298.523	343.31
298.753	364.31
298.984	347.31
299.214	282.31
299.445	267.31
299.675	243.31
299.905	238.31
300.136	239.31
300.366	244.31
300.597	267.31
300.827	238.31
301.057	217.31
301.288	223.31
301.518	258.31
301.748	288.31
301.979	284.31
302.209	306.31
302.439	302.31
302.669	263.31
302.9	261.31
303.13	265.31
303.36	253.31
303.59	253.31
303.82	254.31
304.051	282.31
304.281	310.31
304.511	295.31
304.741	260.31
304.971	268.31
305.201	284.31
305.431	283.31
305.661	242.31
305.891	251.31
306.121	242.31
306.352	241.31
306.582	218.31
306.812	188.31
307.042	207.31
307.272	206.31
307.502	190.31
307.731	215.31
307.961	219.31
308.191	200.31
308.421	193.31
308.651	188.31
308.881	187.31
309.111	200.31
309.341	207.31
309.571	217.31
309.8	222.31
310.03	219.31
310.26	218.31
310.49	218.31
310.72	210.31
310.949	224.31
311.179	206.31
311.409	227.31
311.639	248.31
311.868	297.31
312.098	365.31
312.328	405.31
312.557	386.31
312.787	391.31
313.017	339.31
313.246	373.31
313.476	399.31
313.706	342.31
313.935	265.31
314.165	251.31
314.394	227.31
314.624	229.31
314.853	230.31
315.083	247.31
315.312	253.31
315.542	231.31
315.771	224.31
316.001	208.31
316.23	210.31
316.46	197.31
316.689	201.31
316.919	189.31
317.148	212.31
317.377	199.31
317.607	205.31
317.836	223.31
318.065	251.31
318.295	269.31
318.524	238.31
318.753	237.31
318.983	203.31
319.212	209.31
319.441	226.31
319.67	260.31
319.9	269.31
320.129	256.31
320.358	220.31
320.587	203.31
320.816	210.31
321.046	236.31
321.275	262.31
321.504	272.31
321.733	255.31
321.962	272.31
322.191	253.31
322.42	217.31
322.649	233.31
322.878	233.31
323.108	271.31
323.337	241.31
323.566	241.31
323.795	240.31
324.024	248.31
324.253	226.31
324.482	206.31
324.71	233.31
324.939	265.31
325.168	258.31
325.397	207.31
325.626	195.31
325.855	223.31
326.084	217.31
326.313	210.31
326.542	195.31
326.77	211.31
326.999	207.31
327.228	225.31
327.457	245.31
327.686	237.31
327.914	206.31
328.143	203.31
328.372	191.31
328.6	208.31
328.829	201.31
329.058	198.31
329.287	218.31
329.515	206.31
329.744	221.31
329.972	215.31
330.201	202.31
330.43	199.31
330.658	221.31
330.887	227.31
331.115	226.31
331.344	220.31
331.572	222.31
331.801	212.31
332.03	207.31
332.258	217.31
332.486	224.31
332.715	218.31
332.943	223.31
333.172	211.31
333.4	254.31
333.629	243.31
333.857	270.31
334.085	251.31
334.314	266.31
334.542	251.31
334.771	237.31
334.999	225.31
335.227	219.31
335.455	253.31
335.684	237.31
335.912	261.31
336.14	282.31
336.369	270.31
336.597	260.31
336.825	294.31
337.053	326.31
337.281	270.31
337.51	225.31
337.738	227.31
337.966	227.31
338.194	263.31
338.422	269.31
338.65	211.31
338.878	215.31
339.106	213.31
339.334	219.31
339.562	253.31
339.79	228.31
340.018	198.31
340.246	221.31
340.474	249.31
340.702	277.31
340.93	295.31
341.158	287.31
341.386	245.31
341.614	253.31
341.842	244.31
342.07	247.31
342.298	271.31
342.526	286.31
342.754	264.31
342.981	224.31
343.209	235.31
343.437	246.31
343.665	269.31
343.893	262.31
344.12	289.31
344.348	353.31
344.576	332.31
344.804	254.31
345.031	237.31
345.259	226.31
345.487	213.31
345.714	246.31
345.942	258.31
346.17	276.31
346.397	255.31
346.625	239.31
346.853	249.31
347.08	196.31
347.308	225.31
347.535	253.31
347.763	284.31
347.99	242.31
348.218	233.31
348.445	234.31
348.673	229.31
348.9	213.31
349.128	226.31
349.355	231.31
349.583	235.31
349.81	229.31
350.037	237.31
350.265	212.31
350.492	183.31
350.72	199.31
350.947	205.31
351.174	195.31
351.402	216.31
351.629	217.31
351.856	218.31
352.083	208.31
352.311	207.31
352.538	235.31
352.765	227.31
352.992	241.31
353.22	240.31
353.447	224.31
353.674	206.31
353.901	222.31
354.128	223.31
354.355	214.31
354.583	221.31
354.81	228.31
355.037	236.31
355.264	224.31
355.491	235.31
355.718	234.31
355.945	241.31
356.172	255.31
356.399	261.31
356.626	285.31
356.853	333.31
357.08	348.31
357.307	361.31
357.534	301.31
357.761	308.31
357.988	357.31
358.215	402.31
358.441	374.31
358.668	334.31
358.895	307.31
359.122	271.31
359.349	268.31
359.576	309.31
359.802	261.31
360.029	227.31
360.256	224.31
360.483	280.31
360.709	321.31
360.936	335.31
361.163	301.31
361.39	239.31
361.616	217.31
361.843	261.31
362.07	316.31
362.296	272.31
362.523	242.31
362.749	206.31
362.976	231.31
363.203	257.31
363.429	269.31
363.656	252.31
363.882	228.31
364.109	232.31
364.335	238.31
364.562	227.31
364.788	214.31
365.015	283.31
365.241	236.31
365.468	204.31
365.694	198.31
365.92	192.31
366.147	194.31
366.373	170.31
366.599	192.31
366.826	203.31
367.052	208.31
367.278	204.31
367.505	202.31
367.731	207.31
367.957	225.31
368.184	216.31
368.41	241.31
368.636	224.31
368.862	234.31
369.089	214.31
369.315	209.31
369.541	204.31
369.767	212.31
369.993	206.31
370.219	211.31
370.445	206.31
370.672	245.31
370.898	258.31
371.124	252.31
371.35	207.31
371.576	210.31
371.802	228.31
372.028	257.31
372.254	294.31
372.48	253.31
372.706	216.31
372.932	244.31
373.158	250.31
373.384	286.31
373.61	365.31
373.835	389.31
374.061	293.31
374.287	249.31
374.513	283.31
374.739	354.31
374.965	372.31
375.191	361.31
375.416	271.31
375.642	248.31
375.868	257.31
376.094	291.31
376.319	265.31
376.545	281.31
376.771	287.31
376.997	249.31
377.222	209.31
377.448	180.31
377.674	192.31
377.899	184.31
378.125	193.31
378.35	195.31
378.576	195.31
378.802	200.31
379.027	228.31
379.253	203.31
379.478	231.31
379.704	225.31
379.929	234.31
380.155	242.31
380.38	229.31
380.606	229.31
380.831	253.31
381.057	253.31
381.282	226.31
381.507	247.31
381.733	281.31
381.958	313.31
382.184	348.31
382.409	337.31
382.634	352.31
382.86	366.31
383.085	301.31
383.31	259.31
383.535	267.31
383.761	299.31
383.986	262.31
384.211	315.31
384.436	299.31
384.662	236.31
384.887	237.31
385.112	223.31
385.337	260.31
385.562	239.31
385.787	273.31
386.013	282.31
386.238	306.31
386.463	260.31
386.688	244.31
386.913	238.31
387.138	223.31
387.363	230.31
387.588	228.31
387.813	237.31
388.038	257.31
388.263	238.31
388.488	234.31
388.713	260.31
388.938	281.31
389.163	242.31
389.387	243.31
389.612	239.31
389.837	220.31
390.062	236.31
390.287	241.31
390.512	222.31
390.736	213.31
390.961	228.31
391.186	210.31
391.411	205.31
391.636	191.31
391.86	222.31
392.085	234.31
392.31	248.31
392.534	238.31
392.759	227.31
392.984	237.31
393.208	233.31
393.433	229.31
393.658	219.31
393.882	205.31
394.107	223.31
394.331	209.31
394.556	220.31
394.78	211.31
395.005	208.31
395.229	230.31
395.454	211.31
395.678	212.31
395.903	222.31
396.127	212.31
396.352	231.31
396.576	246.31
396.801	229.31
397.025	225.31
397.249	272.31
397.474	239.31
397.698	236.31
397.922	249.31
398.147	237.31
398.371	221.31
398.595	238.31
398.82	237.31
399.044	220.31
399.268	251.31
399.492	265.31
399.717	283.31
399.941	289.31
400.165	262.31
400.389	254.31
400.613	264.31
400.837	248.31
401.062	228.31
401.286	224.31
401.51	223.31
401.734	228.31
401.958	244.31
402.182	207.31
402.406	240.31
402.63	255.31
402.854	259.31
403.078	293.31
403.302	352.31
403.526	358.31
403.75	334.31
403.974	270.31
404.198	263.31
404.422	300.31
404.645	319.31
404.869	365.31
405.093	286.31
405.317	254.31
405.541	240.31
405.765	267.31
405.988	258.31
406.212	264.31
406.436	283.31
406.66	316.31
406.883	264.31
407.107	284.31
407.331	306.31
407.555	315.31
407.778	303.31
408.002	259.31
408.226	281.31
408.449	278.31
408.673	258.31
408.896	242.31
409.12	214.31
409.344	220.31
409.567	227.31
409.791	233.31
410.014	252.31
410.238	236.31
410.461	235.31
410.685	237.31
410.908	217.31
411.132	241.31
411.355	227.31
411.578	243.31
411.802	225.31
412.025	252.31
412.249	263.31
412.472	235.31
412.695	257.31
412.919	243.31
413.142	225.31
413.365	261.31
413.589	263.31
413.812	236.31
414.035	218.31
414.258	227.31
414.482	244.31
414.705	253.31
414.928	234.31
415.151	212.31
415.374	214.31
415.597	228.31
415.821	228.31
416.044	235.31
416.267	251.31
416.49	222.31
416.713	207.31
416.936	228.31
417.159	223.31
417.382	237.31
417.605	216.31
417.828	219.31
418.051	236.31
418.274	235.31
418.497	240.31
418.72	216.31
418.943	231.31
419.166	266.31
419.389	257.31
419.611	266.31
419.834	250.31
420.057	269.31
420.28	254.31
420.503	261.31
420.726	225.31
420.948	234.31
421.171	220.31
421.394	223.31
421.617	235.31
421.839	245.31
422.062	222.31
422.285	247.31
422.507	251.31
422.73	247.31
422.953	241.31
423.175	236.31
423.398	242.31
423.621	257.31
423.843	268.31
424.066	242.31
424.288	234.31
424.511	217.31
424.733	206.31
424.956	248.31
425.178	249.31
425.401	292.31
425.623	357.31
425.846	290.31
426.068	263.31
426.291	251.31
426.513	249.31
426.735	234.31
426.958	242.31
427.18	272.31
427.402	330.31
427.625	355.31
427.847	293.31
428.069	220.31
428.292	212.31
428.514	207.31
428.736	221.31
428.958	233.31
429.181	307.31
429.403	263.31
429.625	228.31
429.847	234.31
430.069	230.31
430.292	239.31
430.514	229.31
430.736	236.31
430.958	287.31
431.18	243.31
431.402	219.31
431.624	211.31
431.846	209.31
432.068	217.31
432.29	216.31
432.512	225.31
432.734	286.31
432.956	270.31
433.178	238.31
433.4	229.31
433.622	236.31
433.844	238.31
434.066	247.31
434.287	247.31
434.509	238.31
434.731	257.31
434.953	222.31
435.175	253.31
435.397	285.31
435.618	227.31
435.84	199.31
436.062	219.31
436.284	221.31
436.505	199.31
436.727	197.31
436.949	219.31
437.17	211.31
437.392	220.31
437.614	218.31
437.835	203.31
438.057	205.31
438.278	232.31
438.5	309.31
438.721	303.31
438.943	236.31
439.165	215.31
439.386	199.31
439.608	214.31
439.829	206.31
440.05	210.31
440.272	217.31
440.493	247.31
440.715	283.31
440.936	258.31
441.158	225.31
441.379	235.31
441.6	263.31
441.822	251.31
442.043	235.31
442.264	241.31
442.486	239.31
442.707	221.31
442.928	227.31
443.149	239.31
443.371	230.31
443.592	238.31
443.813	240.31
444.034	251.31
444.255	242.31
444.476	248.31
444.698	251.31
444.919	252.31
445.14	354.31
445.361	295.31
445.582	255.31
445.803	257.31
446.024	235.31
446.245	249.31
446.466	237.31
446.687	218.31
446.908	218.31
447.129	214.31
447.35	215.31
447.571	207.31
447.792	204.31
448.013	209.31
448.234	190.31
448.455	203.31
448.675	206.31
448.896	203.31
449.117	212.31
449.338	216.31
449.559	212.31
449.779	204.31
450	223.31
450.221	217.31
450.442	214.31
450.662	203.31
450.883	198.31
451.104	224.31
451.324	215.31
451.545	221.31
451.766	217.31
451.986	213.31
452.207	200.31
452.428	195.31
452.648	197.31
452.869	204.31
453.089	212.31
453.31	217.31
453.53	207.31
453.751	210.31
453.971	194.31
454.192	194.31
454.412	209.31
454.633	192.31
454.853	204.31
455.073	182.31
455.294	186.31
455.514	191.31
455.734	208.31
455.955	207.31
456.175	211.31
456.395	185.31
456.616	190.31
456.836	204.31
457.056	187.31
457.276	182.31
457.497	194.31
457.717	194.31
457.937	201.31
458.157	195.31
458.377	195.31
458.598	211.31
458.818	205.31
459.038	206.31
459.258	198.31
459.478	248.31
459.698	217.31
459.918	223.31
460.138	221.31
460.358	240.31
460.578	230.31
460.798	247.31
461.018	244.31
461.238	236.31
461.458	237.31
461.678	249.31
461.898	267.31
462.118	235.31
462.338	238.31
462.558	268.31
462.777	265.31
462.997	290.31
463.217	278.31
463.437	302.31
463.657	276.31
463.876	271.31
464.096	258.31
464.316	253.31
464.536	277.31
464.755	286.31
464.975	284.31
465.195	255.31
465.414	280.31
465.634	243.31
465.854	237.31
466.073	207.31
466.293	228.31
466.512	249.31
466.732	253.31
466.951	259.31
467.171	229.31
467.391	230.31
467.61	227.31
467.829	242.31
468.049	249.31
468.268	220.31
468.488	222.31
468.707	225.31
468.927	237.31
469.146	273.31
469.365	247.31
469.585	225.31
469.804	261.31
470.023	277.31
470.243	251.31
470.462	251.31
470.681	239.31
470.901	232.31
471.12	243.31
471.339	262.31
471.558	226.31
471.777	250.31
471.997	265.31
472.216	268.31
472.435	253.31
472.654	218.31
472.873	237.31
473.092	241.31
473.311	246.31
473.53	235.31
473.749	224.31
473.968	251.31
474.187	242.31
474.406	238.31
474.625	219.31
474.844	257.31
475.063	260.31
475.282	229.31
475.501	272.31
475.72	274.31
475.939	258.31
476.158	260.31
476.377	302.31
476.596	355.31
476.814	339.31
477.033	288.31
477.252	262.31
477.471	237.31
477.69	245.31
477.908	279.31
478.127	290.31
478.346	275.31
478.564	286.31
478.783	287.31
479.002	284.31
479.22	299.31
479.439	318.31
479.658	287.31
479.876	260.31
480.095	279.31
480.313	293.31
480.532	293.31
480.751	275.31
480.969	262.31
481.188	315.31
481.406	310.31
481.624	272.31
481.843	261.31
482.061	280.31
482.28	269.31
482.498	332.31
482.717	319.31
482.935	297.31
483.153	249.31
483.372	254.31
483.59	255.31
483.808	249.31
484.027	258.31
484.245	245.31
484.463	241.31
484.681	262.31
484.9	261.31
485.118	269.31
485.336	259.31
485.554	253.31
485.772	266.31
485.99	282.31
486.209	298.31
486.427	288.31
486.645	288.31
486.863	295.31
487.081	279.31
487.299	318.31
487.517	310.31
487.735	282.31
487.953	286.31
488.171	297.31
488.389	269.31
488.607	254.31
488.825	247.31
489.043	302.31
489.261	316.31
489.479	328.31
489.696	285.31
489.914	276.31
490.132	263.31
490.35	271.31
490.568	267.31
490.786	261.31
491.003	275.31
491.221	285.31
491.439	262.31
491.657	283.31
491.874	280.31
492.092	310.31
492.31	365.31
492.527	373.31
492.745	341.31
492.963	302.31
493.18	301.31
493.398	310.31
493.615	277.31
493.833	287.31
494.05	269.31
494.268	300.31
494.485	287.31
494.703	281.31
494.92	281.31
495.138	270.31
495.355	276.31
495.573	293.31
495.79	293.31
496.008	369.31
496.225	305.31
496.442	292.31
496.66	311.31
496.877	310.31
497.094	307.31
497.312	300.31
497.529	303.31
497.746	299.31
497.963	309.31
498.181	331.31
498.398	352.31
498.615	366.31
498.832	389.31
499.049	388.31
499.267	370.31
499.484	393.31
499.701	411.31
499.918	443.31
500.135	486.31
500.352	512.31
500.569	548.31
500.786	567.31
501.003	531.31
501.22	506.31
501.437	438.31
501.654	411.31
501.871	399.31
502.088	380.31
502.305	360.31
502.522	337.31
