Data from NickelSpatula.Lamp.E5.5.P2_HRD10591_11-53-56-547.txt Node
Date: Tue Jul 23 11:53:56 EDT 2019
User: cochatt
Spectrometer: HR+D1059
Trigger mode: 1
Integration Time (sec): 1.000000E-1
Scans to average: 1
Electric dark correction enabled: true
Nonlinearity correction enabled: false
Boxcar width: 0
XAxis mode: Wavelengths
Number of Pixels in Spectrum: 2048
>>>>>Begin Spectral Data<<<<<
223.165	-12.12
223.4	-12.12
223.635	-12.12
223.869	-20.12
224.104	-8.12
224.338	-29.12
224.573	-21.12
224.808	-20.12
225.042	-8.12
225.277	1.88
225.511	-10.12
225.746	-2.12
225.98	14.88
226.215	30.88
226.449	22.88
226.683	21.88
226.918	18.88
227.152	19.88
227.387	35.88
227.621	39.88
227.856	44.88
228.09	38.88
228.324	46.88
228.559	57.88
228.793	58.88
229.027	83.88
229.262	79.88
229.496	81.88
229.73	82.88
229.964	78.88
230.199	100.88
230.433	79.88
230.667	110.88
230.901	91.88
231.136	100.88
231.37	93.88
231.604	92.88
231.838	109.88
232.072	103.88
232.306	117.88
232.541	116.88
232.775	101.88
233.009	106.88
233.243	110.88
233.477	121.88
233.711	128.88
233.945	119.88
234.179	111.88
234.413	123.88
234.647	125.88
234.881	134.88
235.115	124.88
235.349	131.88
235.583	131.88
235.817	133.88
236.051	117.88
236.285	129.88
236.519	147.88
236.753	138.88
236.987	138.88
237.221	126.88
237.455	126.88
237.689	124.88
237.922	128.88
238.156	135.88
238.39	157.88
238.624	178.88
238.858	173.88
239.091	153.88
239.325	140.88
239.559	142.88
239.793	148.88
240.027	166.88
240.26	154.88
240.494	149.88
240.728	159.88
240.961	172.88
241.195	180.88
241.429	159.88
241.662	163.88
241.896	145.88
242.13	151.88
242.363	136.88
242.597	149.88
242.83	158.88
243.064	144.88
243.298	164.88
243.531	164.88
243.765	171.88
243.998	175.88
244.232	164.88
244.465	165.88
244.699	154.88
244.932	186.88
245.166	179.88
245.399	141.88
245.633	146.88
245.866	151.88
246.099	158.88
246.333	186.88
246.566	198.88
246.8	175.88
247.033	199.88
247.266	170.88
247.5	174.88
247.733	179.88
247.966	158.88
248.2	175.88
248.433	165.88
248.666	204.88
248.899	204.88
249.133	221.88
249.366	253.88
249.599	244.88
249.832	229.88
250.066	193.88
250.299	207.88
250.532	205.88
250.765	179.88
250.998	188.88
251.231	176.88
251.465	197.88
251.698	206.88
251.931	202.88
252.164	211.88
252.397	228.88
252.63	236.88
252.863	253.88
253.096	264.88
253.329	238.88
253.562	239.88
253.795	272.88
254.028	294.88
254.261	295.88
254.494	287.88
254.727	245.88
254.96	251.88
255.193	261.88
255.426	264.88
255.659	195.88
255.892	206.88
256.124	203.88
256.357	221.88
256.59	267.88
256.823	256.88
257.056	220.88
257.289	218.88
257.521	232.88
257.754	261.88
257.987	298.88
258.22	258.88
258.452	234.88
258.685	254.88
258.918	280.88
259.151	291.88
259.383	305.88
259.616	351.88
259.849	378.88
260.081	358.88
260.314	399.88
260.547	324.88
260.779	318.88
261.012	384.88
261.244	370.88
261.477	358.88
261.71	330.88
261.942	295.88
262.175	288.88
262.407	272.88
262.64	257.88
262.872	328.88
263.105	338.88
263.337	361.88
263.57	328.88
263.802	254.88
264.035	221.88
264.267	221.88
264.499	190.88
264.732	184.88
264.964	180.88
265.197	186.88
265.429	197.88
265.661	203.88
265.894	205.88
266.126	226.88
266.358	250.88
266.591	288.88
266.823	337.88
267.055	315.88
267.287	283.88
267.52	306.88
267.752	314.88
267.984	315.88
268.216	302.88
268.448	254.88
268.681	251.88
268.913	270.88
269.145	287.88
269.377	312.88
269.609	307.88
269.841	283.88
270.073	303.88
270.306	321.88
270.538	320.88
270.77	301.88
271.002	327.88
271.234	340.88
271.466	330.88
271.698	310.88
271.93	312.88
272.162	329.88
272.394	302.88
272.626	310.88
272.858	315.88
273.09	328.88
273.322	278.88
273.553	264.88
273.785	306.88
274.017	400.88
274.249	482.88
274.481	478.88
274.713	507.88
274.945	605.88
275.176	631.88
275.408	578.88
275.64	510.88
275.872	531.88
276.104	438.88
276.335	367.88
276.567	393.88
276.799	428.88
277.031	431.88
277.262	334.88
277.494	284.88
277.726	265.88
277.957	287.88
278.189	317.88
278.421	332.88
278.652	321.88
278.884	303.88
279.115	276.88
279.347	261.88
279.579	271.88
279.81	282.88
280.042	299.88
280.273	295.88
280.505	268.88
280.736	246.88
280.968	247.88
281.199	256.88
281.431	294.88
281.662	271.88
281.894	268.88
282.125	287.88
282.356	302.88
282.588	314.88
282.819	277.88
283.051	274.88
283.282	335.88
283.513	395.88
283.745	435.88
283.976	419.88
284.207	417.88
284.439	421.88
284.67	416.88
284.901	364.88
285.132	383.88
285.364	407.88
285.595	391.88
285.826	406.88
286.057	429.88
286.288	410.88
286.52	414.88
286.751	452.88
286.982	424.88
287.213	382.88
287.444	378.88
287.675	378.88
287.906	390.88
288.138	340.88
288.369	318.88
288.6	279.88
288.831	292.88
289.062	358.88
289.293	370.88
289.524	353.88
289.755	349.88
289.986	337.88
290.217	324.88
290.448	258.88
290.679	236.88
290.91	230.88
291.141	211.88
291.371	240.88
291.602	230.88
291.833	232.88
292.064	244.88
292.295	280.88
292.526	310.88
292.757	310.88
292.987	327.88
293.218	334.88
293.449	359.88
293.68	372.88
293.91	366.88
294.141	350.88
294.372	345.88
294.603	309.88
294.833	348.88
295.064	407.88
295.295	389.88
295.525	300.88
295.756	268.88
295.987	228.88
296.217	241.88
296.448	251.88
296.679	239.88
296.909	269.88
297.14	296.88
297.37	315.88
297.601	319.88
297.831	268.88
298.062	287.88
298.292	300.88
298.523	358.88
298.753	386.88
298.984	347.88
299.214	290.88
299.445	265.88
299.675	251.88
299.905	235.88
300.136	247.88
300.366	254.88
300.597	258.88
300.827	239.88
301.057	237.88
301.288	231.88
301.518	247.88
301.748	283.88
301.979	300.88
302.209	339.88
302.439	322.88
302.669	285.88
302.9	262.88
303.13	256.88
303.36	264.88
303.59	255.88
303.82	252.88
304.051	286.88
304.281	295.88
304.511	298.88
304.741	254.88
304.971	287.88
305.201	311.88
305.431	272.88
305.661	242.88
305.891	236.88
306.121	243.88
306.352	238.88
306.582	226.88
306.812	200.88
307.042	212.88
307.272	184.88
307.502	203.88
307.731	220.88
307.961	212.88
308.191	203.88
308.421	207.88
308.651	197.88
308.881	205.88
309.111	182.88
309.341	209.88
309.571	218.88
309.8	223.88
310.03	211.88
310.26	223.88
310.49	221.88
310.72	207.88
310.949	199.88
311.179	219.88
311.409	196.88
311.639	221.88
311.868	308.88
312.098	371.88
312.328	411.88
312.557	371.88
312.787	382.88
313.017	330.88
313.246	368.88
313.476	414.88
313.706	332.88
313.935	287.88
314.165	238.88
314.394	218.88
314.624	214.88
314.853	238.88
315.083	237.88
315.312	219.88
315.542	218.88
315.771	215.88
316.001	193.88
316.23	206.88
316.46	188.88
316.689	196.88
316.919	211.88
317.148	223.88
317.377	178.88
317.607	202.88
317.836	220.88
318.065	245.88
318.295	268.88
318.524	239.88
318.753	242.88
318.983	214.88
319.212	213.88
319.441	224.88
319.67	237.88
319.9	253.88
320.129	241.88
320.358	204.88
320.587	193.88
320.816	234.88
321.046	250.88
321.275	274.88
321.504	283.88
321.733	281.88
321.962	263.88
322.191	246.88
322.42	233.88
322.649	234.88
322.878	264.88
323.108	276.88
323.337	239.88
323.566	230.88
323.795	240.88
324.024	224.88
324.253	216.88
324.482	237.88
324.71	244.88
324.939	283.88
325.168	260.88
325.397	217.88
325.626	204.88
325.855	213.88
326.084	204.88
326.313	210.88
326.542	208.88
326.77	220.88
326.999	219.88
327.228	224.88
327.457	227.88
327.686	225.88
327.914	219.88
328.143	211.88
328.372	208.88
328.6	199.88
328.829	200.88
329.058	199.88
329.287	198.88
329.515	221.88
329.744	195.88
329.972	185.88
330.201	192.88
330.43	201.88
330.658	222.88
330.887	218.88
331.115	245.88
331.344	231.88
331.572	238.88
331.801	210.88
332.03	216.88
332.258	200.88
332.486	231.88
332.715	219.88
332.943	214.88
333.172	221.88
333.4	223.88
333.629	239.88
333.857	263.88
334.085	258.88
334.314	259.88
334.542	255.88
334.771	234.88
334.999	225.88
335.227	215.88
335.455	222.88
335.684	249.88
335.912	271.88
336.14	288.88
336.369	287.88
336.597	264.88
336.825	290.88
337.053	335.88
337.281	277.88
337.51	231.88
337.738	232.88
337.966	232.88
338.194	253.88
338.422	246.88
338.65	239.88
338.878	184.88
339.106	206.88
339.334	226.88
339.562	235.88
339.79	228.88
340.018	222.88
340.246	215.88
340.474	261.88
340.702	250.88
340.93	270.88
341.158	275.88
341.386	252.88
341.614	236.88
341.842	244.88
342.07	254.88
342.298	297.88
342.526	308.88
342.754	265.88
342.981	251.88
343.209	222.88
343.437	241.88
343.665	255.88
343.893	274.88
344.12	318.88
344.348	362.88
344.576	334.88
344.804	265.88
345.031	246.88
345.259	229.88
345.487	223.88
345.714	245.88
345.942	240.88
346.17	267.88
346.397	250.88
346.625	227.88
346.853	222.88
347.08	228.88
347.308	239.88
347.535	260.88
347.763	270.88
347.99	244.88
348.218	230.88
348.445	220.88
348.673	232.88
348.9	230.88
349.128	241.88
349.355	234.88
349.583	240.88
349.81	251.88
350.037	237.88
350.265	197.88
350.492	185.88
350.72	189.88
350.947	213.88
351.174	215.88
351.402	222.88
351.629	223.88
351.856	203.88
352.083	200.88
352.311	224.88
352.538	232.88
352.765	246.88
352.992	239.88
353.22	239.88
353.447	237.88
353.674	231.88
353.901	228.88
354.128	221.88
354.355	207.88
354.583	226.88
354.81	238.88
355.037	240.88
355.264	226.88
355.491	223.88
355.718	254.88
355.945	248.88
356.172	247.88
356.399	248.88
356.626	284.88
356.853	323.88
357.08	362.88
357.307	356.88
357.534	295.88
357.761	293.88
357.988	371.88
358.215	423.88
358.441	389.88
358.668	318.88
358.895	312.88
359.122	274.88
359.349	287.88
359.576	318.88
359.802	275.88
360.029	229.88
360.256	248.88
360.483	282.88
360.709	353.88
360.936	337.88
361.163	320.88
361.39	245.88
361.616	237.88
361.843	255.88
362.07	304.88
362.296	280.88
362.523	251.88
362.749	208.88
362.976	226.88
363.203	268.88
363.429	291.88
363.656	243.88
363.882	213.88
364.109	228.88
364.335	240.88
364.562	232.88
364.788	258.88
365.015	272.88
365.241	262.88
365.468	225.88
365.694	208.88
365.92	198.88
366.147	193.88
366.373	174.88
366.599	184.88
366.826	194.88
367.052	213.88
367.278	208.88
367.505	211.88
367.731	215.88
367.957	234.88
368.184	243.88
368.41	248.88
368.636	229.88
368.862	243.88
369.089	231.88
369.315	191.88
369.541	224.88
369.767	205.88
369.993	206.88
370.219	212.88
370.445	222.88
370.672	226.88
370.898	237.88
371.124	274.88
371.35	219.88
371.576	198.88
371.802	231.88
372.028	251.88
372.254	296.88
372.48	253.88
372.706	229.88
372.932	251.88
373.158	247.88
373.384	290.88
373.61	364.88
373.835	369.88
374.061	314.88
374.287	265.88
374.513	305.88
374.739	360.88
374.965	371.88
375.191	342.88
375.416	262.88
375.642	242.88
375.868	265.88
376.094	306.88
376.319	263.88
376.545	303.88
376.771	292.88
376.997	256.88
377.222	207.88
377.448	196.88
377.674	193.88
377.899	199.88
378.125	182.88
378.35	178.88
378.576	189.88
378.802	208.88
379.027	213.88
379.253	230.88
379.478	215.88
379.704	246.88
379.929	251.88
380.155	235.88
380.38	212.88
380.606	250.88
380.831	267.88
381.057	246.88
381.282	229.88
381.507	242.88
381.733	315.88
381.958	317.88
382.184	325.88
382.409	356.88
382.634	347.88
382.86	357.88
383.085	290.88
383.31	259.88
383.535	279.88
383.761	294.88
383.986	273.88
384.211	292.88
384.436	311.88
384.662	250.88
384.887	236.88
385.112	254.88
385.337	261.88
385.562	262.88
385.787	249.88
386.013	296.88
386.238	306.88
386.463	260.88
386.688	256.88
386.913	215.88
387.138	211.88
387.363	220.88
387.588	241.88
387.813	236.88
388.038	263.88
388.263	244.88
388.488	254.88
388.713	274.88
388.938	295.88
389.163	242.88
389.387	213.88
389.612	226.88
389.837	229.88
390.062	232.88
390.287	254.88
390.512	236.88
390.736	240.88
390.961	218.88
391.186	212.88
391.411	209.88
391.636	204.88
391.86	238.88
392.085	244.88
392.31	243.88
392.534	239.88
392.759	221.88
392.984	246.88
393.208	242.88
393.433	222.88
393.658	180.88
393.882	196.88
394.107	202.88
394.331	208.88
394.556	199.88
394.78	200.88
395.005	213.88
395.229	217.88
395.454	213.88
395.678	215.88
395.903	215.88
396.127	205.88
396.352	211.88
396.576	229.88
396.801	228.88
397.025	255.88
397.249	274.88
397.474	231.88
397.698	241.88
397.922	245.88
398.147	227.88
398.371	218.88
398.595	233.88
398.82	226.88
399.044	235.88
399.268	238.88
399.492	283.88
399.717	286.88
399.941	291.88
400.165	271.88
400.389	262.88
400.613	243.88
400.837	238.88
401.062	242.88
401.286	220.88
401.51	222.88
401.734	238.88
401.958	229.88
402.182	222.88
402.406	229.88
402.63	231.88
402.854	253.88
403.078	283.88
403.302	379.88
403.526	375.88
403.75	322.88
403.974	280.88
404.198	284.88
404.422	309.88
404.645	340.88
404.869	357.88
405.093	293.88
405.317	248.88
405.541	252.88
405.765	255.88
405.988	239.88
406.212	275.88
406.436	301.88
406.66	314.88
406.883	275.88
407.107	286.88
407.331	320.88
407.555	321.88
407.778	291.88
408.002	261.88
408.226	281.88
408.449	253.88
408.673	268.88
408.896	251.88
409.12	258.88
409.344	232.88
409.567	216.88
409.791	238.88
410.014	238.88
410.238	255.88
410.461	232.88
410.685	220.88
410.908	240.88
411.132	238.88
411.355	236.88
411.578	230.88
411.802	222.88
412.025	234.88
412.249	250.88
412.472	238.88
412.695	243.88
412.919	244.88
413.142	253.88
413.365	250.88
413.589	268.88
413.812	240.88
414.035	218.88
414.258	214.88
414.482	250.88
414.705	270.88
414.928	231.88
415.151	231.88
415.374	226.88
415.597	224.88
415.821	223.88
416.044	214.88
416.267	221.88
416.49	227.88
416.713	226.88
416.936	227.88
417.159	208.88
417.382	225.88
417.605	235.88
417.828	238.88
418.051	220.88
418.274	236.88
418.497	245.88
418.72	242.88
418.943	238.88
419.166	262.88
419.389	252.88
419.611	239.88
419.834	252.88
420.057	279.88
420.28	272.88
420.503	260.88
420.726	227.88
420.948	226.88
421.171	235.88
421.394	232.88
421.617	214.88
421.839	211.88
422.062	243.88
422.285	221.88
422.507	206.88
422.73	240.88
422.953	246.88
423.175	245.88
423.398	243.88
423.621	255.88
423.843	262.88
424.066	241.88
424.288	257.88
424.511	253.88
424.733	249.88
424.956	242.88
425.178	246.88
425.401	288.88
425.623	368.88
425.846	288.88
426.068	255.88
426.291	257.88
426.513	257.88
426.735	250.88
426.958	238.88
427.18	273.88
427.402	340.88
427.625	365.88
427.847	298.88
428.069	249.88
428.292	222.88
428.514	220.88
428.736	216.88
428.958	261.88
429.181	287.88
429.403	259.88
429.625	221.88
429.847	215.88
430.069	229.88
430.292	215.88
430.514	204.88
430.736	226.88
430.958	281.88
431.18	272.88
431.402	214.88
431.624	209.88
431.846	186.88
432.068	197.88
432.29	216.88
432.512	240.88
432.734	271.88
432.956	279.88
433.178	213.88
433.4	208.88
433.622	219.88
433.844	250.88
434.066	235.88
434.287	233.88
434.509	236.88
434.731	246.88
434.953	249.88
435.175	236.88
435.397	262.88
435.618	240.88
435.84	215.88
436.062	219.88
436.284	216.88
436.505	212.88
436.727	205.88
436.949	193.88
437.17	225.88
437.392	221.88
437.614	212.88
437.835	222.88
438.057	222.88
438.278	240.88
438.5	314.88
438.721	326.88
438.943	242.88
439.165	200.88
439.386	200.88
439.608	209.88
439.829	215.88
440.05	193.88
440.272	221.88
440.493	254.88
440.715	295.88
440.936	250.88
441.158	222.88
441.379	226.88
441.6	238.88
441.822	254.88
442.043	244.88
442.264	236.88
442.486	223.88
442.707	224.88
442.928	222.88
443.149	233.88
443.371	220.88
443.592	234.88
443.813	222.88
444.034	244.88
444.255	249.88
444.476	244.88
444.698	253.88
444.919	267.88
445.14	323.88
445.361	291.88
445.582	277.88
445.803	246.88
446.024	244.88
446.245	246.88
446.466	242.88
446.687	246.88
446.908	236.88
447.129	218.88
447.35	210.88
447.571	214.88
447.792	207.88
448.013	205.88
448.234	206.88
448.455	217.88
448.675	221.88
448.896	213.88
449.117	221.88
449.338	211.88
449.559	219.88
449.779	223.88
450	239.88
450.221	225.88
450.442	206.88
450.662	205.88
450.883	211.88
451.104	219.88
451.324	215.88
451.545	220.88
451.766	200.88
451.986	217.88
452.207	214.88
452.428	214.88
452.648	216.88
452.869	209.88
453.089	212.88
453.31	212.88
453.53	202.88
453.751	200.88
453.971	202.88
454.192	205.88
454.412	197.88
454.633	198.88
454.853	203.88
455.073	194.88
455.294	186.88
455.514	196.88
455.734	204.88
455.955	198.88
456.175	219.88
456.395	188.88
456.616	184.88
456.836	187.88
457.056	194.88
457.276	166.88
457.497	194.88
457.717	192.88
457.937	196.88
458.157	195.88
458.377	200.88
458.598	201.88
458.818	204.88
459.038	208.88
459.258	212.88
459.478	218.88
459.698	229.88
459.918	237.88
460.138	229.88
460.358	247.88
460.578	229.88
460.798	231.88
461.018	241.88
461.238	240.88
461.458	223.88
461.678	244.88
461.898	260.88
462.118	234.88
462.338	255.88
462.558	245.88
462.777	274.88
462.997	269.88
463.217	285.88
463.437	284.88
463.657	268.88
463.876	248.88
464.096	238.88
464.316	255.88
464.536	269.88
464.755	273.88
464.975	272.88
465.195	259.88
465.414	264.88
465.634	244.88
465.854	245.88
466.073	235.88
466.293	221.88
466.512	244.88
466.732	240.88
466.951	252.88
467.171	242.88
467.391	229.88
467.61	231.88
467.829	235.88
468.049	223.88
468.268	212.88
468.488	220.88
468.707	227.88
468.927	245.88
469.146	255.88
469.365	251.88
469.585	242.88
469.804	253.88
470.023	259.88
470.243	261.88
470.462	227.88
470.681	228.88
470.901	226.88
471.12	226.88
471.339	238.88
471.558	231.88
471.777	220.88
471.997	259.88
472.216	266.88
472.435	260.88
472.654	241.88
472.873	247.88
473.092	240.88
473.311	268.88
473.53	231.88
473.749	229.88
473.968	263.88
474.187	220.88
474.406	237.88
474.625	227.88
474.844	244.88
475.063	243.88
475.282	227.88
475.501	262.88
475.72	278.88
475.939	282.88
476.158	265.88
476.377	326.88
476.596	312.88
476.814	351.88
477.033	303.88
477.252	255.88
477.471	254.88
477.69	251.88
477.908	253.88
478.127	281.88
478.346	251.88
478.564	283.88
478.783	274.88
479.002	273.88
479.22	298.88
479.439	332.88
479.658	275.88
479.876	267.88
480.095	300.88
480.313	300.88
480.532	272.88
480.751	272.88
480.969	267.88
481.188	305.88
481.406	306.88
481.624	282.88
481.843	266.88
482.061	243.88
482.28	287.88
482.498	331.88
482.717	341.88
482.935	282.88
483.153	261.88
483.372	246.88
483.59	262.88
483.808	239.88
484.027	242.88
484.245	248.88
484.463	256.88
484.681	239.88
484.9	271.88
485.118	269.88
485.336	279.88
485.554	274.88
485.772	250.88
485.99	276.88
486.209	295.88
486.427	286.88
486.645	309.88
486.863	296.88
487.081	276.88
487.299	312.88
487.517	309.88
487.735	288.88
487.953	282.88
488.171	289.88
488.389	266.88
488.607	272.88
488.825	265.88
489.043	299.88
489.261	310.88
489.479	328.88
489.696	308.88
489.914	253.88
490.132	253.88
490.35	247.88
490.568	282.88
490.786	263.88
491.003	266.88
491.221	270.88
491.439	262.88
491.657	268.88
491.874	291.88
492.092	312.88
492.31	366.88
492.527	378.88
492.745	323.88
492.963	291.88
493.18	313.88
493.398	297.88
493.615	296.88
493.833	281.88
494.05	264.88
494.268	300.88
494.485	291.88
494.703	291.88
494.92	287.88
495.138	271.88
495.355	291.88
495.573	287.88
495.79	301.88
496.008	348.88
496.225	332.88
496.442	300.88
496.66	300.88
496.877	311.88
497.094	318.88
497.312	298.88
497.529	293.88
497.746	290.88
497.963	315.88
498.181	317.88
498.398	351.88
498.615	352.88
498.832	372.88
499.049	391.88
499.267	344.88
499.484	373.88
499.701	386.88
499.918	444.88
500.135	465.88
500.352	521.88
500.569	545.88
500.786	545.88
501.003	508.88
501.22	454.88
501.437	422.88
501.654	388.88
501.871	367.88
502.088	345.88
502.305	353.88
