Data from NickelSpatula_HRD10591_16-34-16-126.txt Node
Date: Mon Jul 22 16:34:16 EDT 2019
User: cochatt
Spectrometer: HR+D1059
Trigger mode: 1
Integration Time (sec): 1.000000E-1
Scans to average: 1
Electric dark correction enabled: true
Nonlinearity correction enabled: false
Boxcar width: 0
XAxis mode: Wavelengths
Number of Pixels in Spectrum: 2048
>>>>>Begin Spectral Data<<<<<
223.165	-11.62
223.4	-11.62
223.635	-11.62
223.869	-18.62
224.104	-17.62
224.338	-12.62
224.573	-13.62
224.808	-11.62
225.042	-12.62
225.277	-11.62
225.511	-9.62
225.746	-1.62
225.98	2.38
226.215	5.38
226.449	15.38
226.683	30.38
226.918	34.38
227.152	33.38
227.387	20.38
227.621	29.38
227.856	37.38
228.09	59.38
228.324	41.38
228.559	61.38
228.793	60.38
229.027	76.38
229.262	85.38
229.496	88.38
229.73	77.38
229.964	93.38
230.199	76.38
230.433	82.38
230.667	94.38
230.901	93.38
231.136	91.38
231.37	104.38
231.604	92.38
231.838	88.38
232.072	88.38
232.306	89.38
232.541	99.38
232.775	93.38
233.009	98.38
233.243	105.38
233.477	112.38
233.711	118.38
233.945	120.38
234.179	104.38
234.413	116.38
234.647	102.38
234.881	117.38
235.115	126.38
235.349	118.38
235.583	117.38
235.817	117.38
236.051	110.38
236.285	126.38
236.519	138.38
236.753	122.38
236.987	130.38
237.221	119.38
237.455	125.38
237.689	121.38
237.922	122.38
238.156	120.38
238.39	141.38
238.624	143.38
238.858	156.38
239.091	148.38
239.325	138.38
239.559	134.38
239.793	127.38
240.027	156.38
240.26	140.38
240.494	143.38
240.728	153.38
240.961	144.38
241.195	167.38
241.429	170.38
241.662	154.38
241.896	146.38
242.13	116.38
242.363	138.38
242.597	133.38
242.83	135.38
243.064	129.38
243.298	153.38
243.531	168.38
243.765	147.38
243.998	164.38
244.232	150.38
244.465	158.38
244.699	145.38
244.932	168.38
245.166	156.38
245.399	140.38
245.633	146.38
245.866	136.38
246.099	154.38
246.333	163.38
246.566	173.38
246.8	195.38
247.033	163.38
247.266	164.38
247.5	153.38
247.733	163.38
247.966	159.38
248.2	163.38
248.433	180.38
248.666	186.38
248.899	177.38
249.133	189.38
249.366	193.38
249.599	230.38
249.832	215.38
250.066	192.38
250.299	180.38
250.532	183.38
250.765	191.38
250.998	188.38
251.231	169.38
251.465	182.38
251.698	191.38
251.931	183.38
252.164	189.38
252.397	181.38
252.63	212.38
252.863	228.38
253.096	224.38
253.329	224.38
253.562	241.38
253.795	241.38
254.028	291.38
254.261	284.38
254.494	258.38
254.727	258.38
254.96	227.38
255.193	237.38
255.426	234.38
255.659	208.38
255.892	188.38
256.124	194.38
256.357	224.38
256.59	249.38
256.823	264.38
257.056	210.38
257.289	204.38
257.521	208.38
257.754	250.38
257.987	288.38
258.22	250.38
258.452	215.38
258.685	220.38
258.918	242.38
259.151	274.38
259.383	271.38
259.616	323.38
259.849	330.38
260.081	322.38
260.314	344.38
260.547	295.38
260.779	297.38
261.012	338.38
261.244	340.38
261.477	310.38
261.71	306.38
261.942	268.38
262.175	248.38
262.407	260.38
262.64	271.38
262.872	284.38
263.105	310.38
263.337	338.38
263.57	299.38
263.802	248.38
264.035	201.38
264.267	206.38
264.499	188.38
264.732	171.38
264.964	157.38
265.197	166.38
265.429	174.38
265.661	193.38
265.894	204.38
266.126	205.38
266.358	225.38
266.591	264.38
266.823	327.38
267.055	301.38
267.287	272.38
267.52	290.38
267.752	294.38
267.984	321.38
268.216	295.38
268.448	258.38
268.681	238.38
268.913	251.38
269.145	264.38
269.377	284.38
269.609	284.38
269.841	249.38
270.073	282.38
270.306	293.38
270.538	296.38
270.77	298.38
271.002	306.38
271.234	312.38
271.466	319.38
271.698	309.38
271.93	275.38
272.162	276.38
272.394	292.38
272.626	290.38
272.858	284.38
273.09	295.38
273.322	271.38
273.553	235.38
273.785	277.38
274.017	352.38
274.249	424.38
274.481	462.38
274.713	488.38
274.945	535.38
275.176	546.38
275.408	489.38
275.64	465.38
275.872	459.38
276.104	407.38
276.335	368.38
276.567	376.38
276.799	375.38
277.031	404.38
277.262	317.38
277.494	260.38
277.726	244.38
277.957	291.38
278.189	294.38
278.421	299.38
278.652	281.38
278.884	284.38
279.115	241.38
279.347	252.38
279.579	256.38
279.81	260.38
280.042	272.38
280.273	282.38
280.505	243.38
280.736	230.38
280.968	208.38
281.199	245.38
281.431	276.38
281.662	259.38
281.894	265.38
282.125	259.38
282.356	297.38
282.588	266.38
282.819	262.38
283.051	263.38
283.282	320.38
283.513	331.38
283.745	402.38
283.976	388.38
284.207	363.38
284.439	386.38
284.67	379.38
284.901	352.38
285.132	372.38
285.364	380.38
285.595	368.38
285.826	372.38
286.057	394.38
286.288	374.38
286.52	390.38
286.751	388.38
286.982	411.38
287.213	370.38
287.444	329.38
287.675	340.38
287.906	342.38
288.138	301.38
288.369	290.38
288.6	279.38
288.831	268.38
289.062	337.38
289.293	344.38
289.524	330.38
289.755	344.38
289.986	340.38
290.217	311.38
290.448	244.38
290.679	226.38
290.91	188.38
291.141	205.38
291.371	203.38
291.602	224.38
291.833	205.38
292.064	217.38
292.295	252.38
292.526	282.38
292.757	276.38
292.987	330.38
293.218	315.38
293.449	332.38
293.68	319.38
293.91	323.38
294.141	348.38
294.372	322.38
294.603	298.38
294.833	338.38
295.064	366.38
295.295	369.38
295.525	288.38
295.756	231.38
295.987	235.38
296.217	214.38
296.448	225.38
296.679	217.38
296.909	244.38
297.14	254.38
297.37	280.38
297.601	269.38
297.831	244.38
298.062	268.38
298.292	290.38
298.523	293.38
298.753	340.38
298.984	315.38
299.214	260.38
299.445	235.38
299.675	224.38
299.905	225.38
300.136	208.38
300.366	251.38
300.597	239.38
300.827	216.38
301.057	208.38
301.288	218.38
301.518	235.38
301.748	266.38
301.979	245.38
302.209	264.38
302.439	279.38
302.669	269.38
302.9	249.38
303.13	242.38
303.36	234.38
303.59	238.38
303.82	245.38
304.051	266.38
304.281	292.38
304.511	270.38
304.741	230.38
304.971	238.38
305.201	270.38
305.431	245.38
305.661	233.38
305.891	231.38
306.121	219.38
306.352	210.38
306.582	210.38
306.812	193.38
307.042	174.38
307.272	172.38
307.502	177.38
307.731	187.38
307.961	200.38
308.191	181.38
308.421	173.38
308.651	178.38
308.881	184.38
309.111	168.38
309.341	201.38
309.571	192.38
309.8	208.38
310.03	213.38
310.26	223.38
310.49	210.38
310.72	200.38
310.949	191.38
311.179	206.38
311.409	198.38
311.639	219.38
311.868	269.38
312.098	331.38
312.328	367.38
312.557	348.38
312.787	360.38
313.017	333.38
313.246	328.38
313.476	363.38
313.706	330.38
313.935	281.38
314.165	225.38
314.394	215.38
314.624	205.38
314.853	209.38
315.083	210.38
315.312	230.38
315.542	204.38
315.771	185.38
316.001	208.38
316.23	178.38
316.46	179.38
316.689	209.38
316.919	197.38
317.148	200.38
317.377	205.38
317.607	183.38
317.836	206.38
318.065	234.38
318.295	274.38
318.524	231.38
318.753	216.38
318.983	208.38
319.212	184.38
319.441	218.38
319.67	236.38
319.9	245.38
320.129	251.38
320.358	215.38
320.587	190.38
320.816	223.38
321.046	244.38
321.275	261.38
321.504	262.38
321.733	251.38
321.962	256.38
322.191	225.38
322.42	224.38
322.649	229.38
322.878	245.38
323.108	258.38
323.337	225.38
323.566	234.38
323.795	234.38
324.024	206.38
324.253	216.38
324.482	208.38
324.71	221.38
324.939	236.38
325.168	226.38
325.397	206.38
325.626	199.38
325.855	197.38
326.084	207.38
326.313	200.38
326.542	201.38
326.77	196.38
326.999	185.38
327.228	220.38
327.457	215.38
327.686	203.38
327.914	189.38
328.143	185.38
328.372	201.38
328.6	194.38
328.829	184.38
329.058	193.38
329.287	193.38
329.515	207.38
329.744	203.38
329.972	194.38
330.201	171.38
330.43	194.38
330.658	195.38
330.887	226.38
331.115	221.38
331.344	215.38
331.572	213.38
331.801	202.38
332.03	192.38
332.258	194.38
332.486	206.38
332.715	211.38
332.943	200.38
333.172	206.38
333.4	211.38
333.629	233.38
333.857	247.38
334.085	240.38
334.314	253.38
334.542	230.38
334.771	210.38
334.999	213.38
335.227	209.38
335.455	196.38
335.684	214.38
335.912	234.38
336.14	268.38
336.369	262.38
336.597	253.38
336.825	271.38
337.053	306.38
337.281	253.38
337.51	215.38
337.738	211.38
337.966	218.38
338.194	249.38
338.422	235.38
338.65	200.38
338.878	184.38
339.106	191.38
339.334	216.38
339.562	233.38
339.79	197.38
340.018	197.38
340.246	207.38
340.474	245.38
340.702	253.38
340.93	267.38
341.158	262.38
341.386	215.38
341.614	219.38
341.842	209.38
342.07	234.38
342.298	274.38
342.526	271.38
342.754	236.38
342.981	222.38
343.209	223.38
343.437	242.38
343.665	237.38
343.893	252.38
344.12	278.38
344.348	310.38
344.576	284.38
344.804	231.38
345.031	209.38
345.259	204.38
345.487	212.38
345.714	217.38
345.942	224.38
346.17	254.38
346.397	233.38
346.625	203.38
346.853	203.38
347.08	200.38
347.308	199.38
347.535	235.38
347.763	230.38
347.99	218.38
348.218	186.38
348.445	203.38
348.673	224.38
348.9	223.38
349.128	210.38
349.355	228.38
349.583	222.38
349.81	213.38
350.037	198.38
350.265	191.38
350.492	153.38
350.72	171.38
350.947	188.38
351.174	185.38
351.402	200.38
351.629	192.38
351.856	192.38
352.083	193.38
352.311	211.38
352.538	210.38
352.765	233.38
352.992	216.38
353.22	211.38
353.447	218.38
353.674	204.38
353.901	220.38
354.128	216.38
354.355	204.38
354.583	211.38
354.81	219.38
355.037	226.38
355.264	226.38
355.491	220.38
355.718	233.38
355.945	224.38
356.172	228.38
356.399	198.38
356.626	237.38
356.853	315.38
357.08	312.38
357.307	317.38
357.534	255.38
357.761	256.38
357.988	318.38
358.215	350.38
358.441	346.38
358.668	286.38
358.895	291.38
359.122	242.38
359.349	237.38
359.576	272.38
359.802	231.38
360.029	201.38
360.256	206.38
360.483	238.38
360.709	280.38
360.936	316.38
361.163	294.38
361.39	232.38
361.616	202.38
361.843	231.38
362.07	268.38
362.296	256.38
362.523	215.38
362.749	203.38
362.976	188.38
363.203	236.38
363.429	248.38
363.656	216.38
363.882	205.38
364.109	224.38
364.335	226.38
364.562	192.38
364.788	202.38
365.015	249.38
365.241	240.38
365.468	188.38
365.694	178.38
365.92	189.38
366.147	163.38
366.373	178.38
366.599	170.38
366.826	186.38
367.052	183.38
367.278	180.38
367.505	181.38
367.731	187.38
367.957	211.38
368.184	214.38
368.41	210.38
368.636	202.38
368.862	214.38
369.089	193.38
369.315	192.38
369.541	192.38
369.767	175.38
369.993	193.38
370.219	192.38
370.445	186.38
370.672	202.38
370.898	220.38
371.124	218.38
371.35	192.38
371.576	188.38
371.802	202.38
372.028	216.38
372.254	232.38
372.48	218.38
372.706	206.38
372.932	209.38
373.158	213.38
373.384	244.38
373.61	308.38
373.835	296.38
374.061	256.38
374.287	225.38
374.513	262.38
374.739	298.38
374.965	295.38
375.191	293.38
375.416	240.38
375.642	222.38
375.868	212.38
376.094	255.38
376.319	226.38
376.545	228.38
376.771	226.38
376.997	212.38
377.222	200.38
377.448	193.38
377.674	182.38
377.899	186.38
378.125	176.38
378.35	167.38
378.576	172.38
378.802	176.38
379.027	185.38
379.253	186.38
379.478	172.38
379.704	207.38
379.929	236.38
380.155	224.38
380.38	194.38
380.606	198.38
380.831	228.38
381.057	221.38
381.282	212.38
381.507	245.38
381.733	264.38
381.958	264.38
382.184	277.38
382.409	300.38
382.634	315.38
382.86	301.38
383.085	263.38
383.31	224.38
383.535	230.38
383.761	251.38
383.986	228.38
384.211	268.38
384.436	281.38
384.662	210.38
384.887	214.38
385.112	218.38
385.337	229.38
385.562	221.38
385.787	234.38
386.013	242.38
386.238	238.38
386.463	210.38
386.688	209.38
386.913	192.38
387.138	196.38
387.363	204.38
387.588	205.38
387.813	208.38
388.038	226.38
388.263	206.38
388.488	199.38
388.713	221.38
388.938	242.38
389.163	215.38
389.387	200.38
389.612	196.38
389.837	209.38
390.062	214.38
390.287	214.38
390.512	203.38
390.736	197.38
390.961	185.38
391.186	192.38
391.411	183.38
391.636	202.38
391.86	216.38
392.085	230.38
392.31	235.38
392.534	226.38
392.759	219.38
392.984	217.38
393.208	219.38
393.433	214.38
393.658	210.38
393.882	188.38
394.107	184.38
394.331	181.38
394.556	176.38
394.78	173.38
395.005	180.38
395.229	181.38
395.454	204.38
395.678	185.38
395.903	213.38
396.127	201.38
396.352	199.38
396.576	213.38
396.801	210.38
397.025	226.38
397.249	244.38
397.474	212.38
397.698	205.38
397.922	226.38
398.147	198.38
398.371	200.38
398.595	202.38
398.82	209.38
399.044	197.38
399.268	229.38
399.492	261.38
399.717	254.38
399.941	227.38
400.165	228.38
400.389	218.38
400.613	230.38
400.837	223.38
401.062	177.38
401.286	206.38
401.51	193.38
401.734	216.38
401.958	226.38
402.182	188.38
402.406	214.38
402.63	203.38
402.854	206.38
403.078	237.38
403.302	297.38
403.526	294.38
403.75	281.38
403.974	238.38
404.198	270.38
404.422	275.38
404.645	294.38
404.869	297.38
405.093	238.38
405.317	222.38
405.541	220.38
405.765	240.38
405.988	235.38
406.212	244.38
406.436	240.38
406.66	286.38
406.883	221.38
407.107	248.38
407.331	260.38
407.555	270.38
407.778	257.38
408.002	251.38
408.226	240.38
408.449	225.38
408.673	241.38
408.896	207.38
409.12	206.38
409.344	214.38
409.567	214.38
409.791	210.38
410.014	215.38
410.238	200.38
410.461	196.38
410.685	216.38
410.908	199.38
411.132	198.38
411.355	224.38
411.578	202.38
411.802	226.38
412.025	201.38
412.249	210.38
412.472	210.38
412.695	209.38
412.919	199.38
413.142	194.38
413.365	216.38
413.589	209.38
413.812	209.38
414.035	193.38
414.258	213.38
414.482	208.38
414.705	233.38
414.928	220.38
415.151	178.38
415.374	196.38
415.597	229.38
415.821	207.38
416.044	214.38
416.267	199.38
416.49	187.38
416.713	194.38
416.936	197.38
417.159	193.38
417.382	203.38
417.605	192.38
417.828	216.38
418.051	202.38
418.274	213.38
418.497	215.38
418.72	214.38
418.943	231.38
419.166	225.38
419.389	230.38
419.611	210.38
419.834	217.38
420.057	244.38
420.28	240.38
420.503	230.38
420.726	213.38
420.948	207.38
421.171	201.38
421.394	194.38
421.617	208.38
421.839	195.38
422.062	197.38
422.285	204.38
422.507	197.38
422.73	218.38
422.953	219.38
423.175	204.38
423.398	216.38
423.621	238.38
423.843	226.38
424.066	227.38
424.288	196.38
424.511	195.38
424.733	202.38
424.956	216.38
425.178	238.38
425.401	238.38
425.623	273.38
425.846	259.38
426.068	225.38
426.291	248.38
426.513	206.38
426.735	193.38
426.958	209.38
427.18	233.38
427.402	288.38
427.625	288.38
427.847	260.38
428.069	180.38
428.292	201.38
428.514	196.38
428.736	206.38
428.958	215.38
429.181	242.38
429.403	223.38
429.625	196.38
429.847	193.38
430.069	201.38
430.292	191.38
430.514	189.38
430.736	191.38
430.958	222.38
431.18	222.38
431.402	201.38
431.624	158.38
431.846	187.38
432.068	177.38
432.29	189.38
432.512	191.38
432.734	256.38
432.956	213.38
433.178	192.38
433.4	169.38
433.622	194.38
433.844	211.38
434.066	214.38
434.287	211.38
434.509	201.38
434.731	209.38
434.953	201.38
435.175	206.38
435.397	228.38
435.618	205.38
435.84	204.38
436.062	186.38
436.284	190.38
436.505	180.38
436.727	178.38
436.949	180.38
437.17	194.38
437.392	199.38
437.614	188.38
437.835	187.38
438.057	199.38
438.278	195.38
438.5	244.38
438.721	263.38
438.943	200.38
439.165	173.38
439.386	183.38
439.608	181.38
439.829	185.38
440.05	178.38
440.272	198.38
440.493	195.38
440.715	220.38
440.936	217.38
441.158	184.38
441.379	176.38
441.6	200.38
441.822	224.38
442.043	199.38
442.264	186.38
442.486	201.38
442.707	205.38
442.928	193.38
443.149	197.38
443.371	224.38
443.592	194.38
443.813	187.38
444.034	202.38
444.255	201.38
444.476	206.38
444.698	204.38
444.919	224.38
445.14	329.38
445.361	271.38
445.582	259.38
445.803	231.38
446.024	213.38
446.245	218.38
446.466	205.38
446.687	192.38
446.908	201.38
447.129	196.38
447.35	180.38
447.571	187.38
447.792	204.38
448.013	153.38
448.234	176.38
448.455	192.38
448.675	176.38
448.896	195.38
449.117	184.38
449.338	191.38
449.559	187.38
449.779	185.38
450	201.38
450.221	186.38
450.442	174.38
450.662	180.38
450.883	182.38
451.104	189.38
451.324	172.38
451.545	189.38
451.766	182.38
451.986	178.38
452.207	176.38
452.428	165.38
452.648	180.38
452.869	194.38
453.089	198.38
453.31	188.38
453.53	173.38
453.751	179.38
453.971	178.38
454.192	178.38
454.412	170.38
454.633	183.38
454.853	175.38
455.073	165.38
455.294	180.38
455.514	154.38
455.734	170.38
455.955	175.38
456.175	178.38
456.395	180.38
456.616	152.38
456.836	169.38
457.056	167.38
457.276	156.38
457.497	168.38
457.717	163.38
457.937	170.38
458.157	182.38
458.377	164.38
458.598	170.38
458.818	166.38
459.038	192.38
459.258	186.38
459.478	187.38
459.698	197.38
459.918	218.38
460.138	202.38
460.358	210.38
460.578	216.38
460.798	213.38
461.018	192.38
461.238	196.38
461.458	196.38
461.678	217.38
461.898	214.38
462.118	219.38
462.338	206.38
462.558	224.38
462.777	244.38
462.997	235.38
463.217	216.38
463.437	232.38
463.657	228.38
463.876	220.38
464.096	232.38
464.316	226.38
464.536	230.38
464.755	224.38
464.975	225.38
465.195	210.38
465.414	242.38
465.634	207.38
465.854	194.38
466.073	191.38
466.293	197.38
466.512	205.38
466.732	232.38
466.951	228.38
467.171	203.38
467.391	184.38
467.61	190.38
467.829	188.38
468.049	199.38
468.268	197.38
468.488	182.38
468.707	189.38
468.927	216.38
469.146	223.38
469.365	204.38
469.585	205.38
469.804	213.38
470.023	231.38
470.243	208.38
470.462	192.38
470.681	206.38
470.901	200.38
471.12	204.38
471.339	201.38
471.558	210.38
471.777	222.38
471.997	228.38
472.216	230.38
472.435	228.38
472.654	217.38
472.873	184.38
473.092	216.38
473.311	209.38
473.53	200.38
473.749	204.38
473.968	201.38
474.187	202.38
474.406	199.38
474.625	199.38
474.844	194.38
475.063	217.38
475.282	233.38
475.501	226.38
475.72	253.38
475.939	240.38
476.158	228.38
476.377	268.38
476.596	279.38
476.814	299.38
477.033	243.38
477.252	224.38
477.471	221.38
477.69	209.38
477.908	214.38
478.127	242.38
478.346	222.38
478.564	274.38
478.783	228.38
479.002	219.38
479.22	256.38
479.439	274.38
479.658	241.38
479.876	221.38
480.095	235.38
480.313	233.38
480.532	234.38
480.751	246.38
480.969	221.38
481.188	255.38
481.406	246.38
481.624	235.38
481.843	229.38
482.061	226.38
482.28	253.38
482.498	318.38
482.717	298.38
482.935	248.38
483.153	214.38
483.372	234.38
483.59	220.38
483.808	205.38
484.027	210.38
484.245	199.38
484.463	219.38
484.681	209.38
484.9	235.38
485.118	256.38
485.336	214.38
485.554	221.38
485.772	222.38
485.99	232.38
486.209	247.38
486.427	254.38
486.645	244.38
486.863	245.38
487.081	236.38
487.299	276.38
487.517	254.38
487.735	236.38
487.953	249.38
488.171	248.38
488.389	229.38
488.607	222.38
488.825	237.38
489.043	258.38
489.261	298.38
489.479	296.38
489.696	249.38
489.914	229.38
490.132	217.38
490.35	211.38
490.568	213.38
490.786	229.38
491.003	228.38
491.221	224.38
491.439	241.38
491.657	214.38
491.874	256.38
492.092	276.38
492.31	333.38
492.527	309.38
492.745	276.38
492.963	272.38
493.18	254.38
493.398	249.38
493.615	243.38
493.833	234.38
494.05	244.38
494.268	235.38
494.485	246.38
494.703	248.38
494.92	225.38
495.138	240.38
495.355	238.38
495.573	233.38
495.79	254.38
496.008	327.38
496.225	300.38
496.442	264.38
496.66	258.38
496.877	265.38
497.094	256.38
497.312	260.38
497.529	265.38
497.746	268.38
497.963	249.38
498.181	276.38
498.398	288.38
498.615	308.38
498.832	327.38
499.049	323.38
499.267	325.38
499.484	339.38
499.701	359.38
499.918	369.38
500.135	402.38
500.352	434.38
500.569	440.38
500.786	441.38
501.003	443.38
501.22	409.38
501.437	379.38
501.654	337.38
501.871	317.38
502.088	311.38
502.305	298.38
502.522	297.38
502.739	293.38
