Data from NickelSpatula_HRD10591_16-35-05-126.txt Node
Date: Mon Jul 22 16:35:05 EDT 2019
User: cochatt
Spectrometer: HR+D1059
Trigger mode: 1
Integration Time (sec): 1.000000E-1
Scans to average: 1
Electric dark correction enabled: true
Nonlinearity correction enabled: false
Boxcar width: 0
XAxis mode: Wavelengths
Number of Pixels in Spectrum: 2048
>>>>>Begin Spectral Data<<<<<
223.165	-20
223.4	-20
223.635	-20
223.869	-13
224.104	-23
224.338	-14
224.573	-25
224.808	-9
225.042	-6
225.277	-10
225.511	-4
225.746	7
225.98	18
226.215	1
226.449	18
226.683	16
226.918	22
227.152	42
227.387	45
227.621	23
227.856	45
228.09	51
228.324	60
228.559	67
228.793	57
229.027	73
229.262	87
229.496	82
229.73	87
229.964	106
230.199	85
230.433	89
230.667	98
230.901	99
231.136	96
231.37	109
231.604	105
231.838	103
232.072	114
232.306	116
232.541	104
232.775	114
233.009	118
233.243	112
233.477	139
233.711	120
233.945	124
234.179	117
234.413	121
234.647	126
234.881	133
235.115	142
235.349	125
235.583	122
235.817	112
236.051	128
236.285	128
236.519	126
236.753	137
236.987	130
237.221	130
237.455	126
237.689	139
237.922	138
238.156	142
238.39	156
238.624	153
238.858	147
239.091	135
239.325	138
239.559	151
239.793	146
240.027	172
240.26	164
240.494	162
240.728	169
240.961	171
241.195	181
241.429	161
241.662	156
241.896	151
242.13	153
242.363	134
242.597	126
242.83	150
243.064	150
243.298	172
243.531	166
243.765	174
243.998	171
244.232	158
244.465	169
244.699	163
244.932	171
245.166	173
245.399	168
245.633	151
245.866	162
246.099	159
246.333	189
246.566	190
246.8	185
247.033	189
247.266	174
247.5	174
247.733	163
247.966	172
248.2	174
248.433	177
248.666	192
248.899	206
249.133	205
249.366	232
249.599	243
249.832	220
250.066	206
250.299	213
250.532	206
250.765	190
250.998	189
251.231	197
251.465	188
251.698	206
251.931	189
252.164	193
252.397	223
252.63	223
252.863	248
253.096	274
253.329	251
253.562	244
253.795	278
254.028	317
254.261	297
254.494	287
254.727	262
254.96	253
255.193	267
255.426	253
255.659	206
255.892	194
256.124	207
256.357	259
256.59	270
256.823	271
257.056	231
257.289	214
257.521	217
257.754	255
257.987	286
258.22	246
258.452	227
258.685	260
258.918	285
259.151	258
259.383	304
259.616	313
259.849	318
260.081	349
260.314	365
260.547	317
260.779	299
261.012	359
261.244	344
261.477	346
261.71	300
261.942	288
262.175	297
262.407	263
262.64	269
262.872	300
263.105	327
263.337	360
263.57	315
263.802	218
264.035	207
264.267	214
264.499	190
264.732	180
264.964	178
265.197	176
265.429	189
265.661	189
265.894	196
266.126	208
266.358	232
266.591	277
266.823	326
267.055	307
267.287	280
267.52	280
267.752	283
267.984	313
268.216	311
268.448	255
268.681	244
268.913	263
269.145	279
269.377	286
269.609	280
269.841	277
270.073	268
270.306	286
270.538	307
270.77	290
271.002	304
271.234	317
271.466	324
271.698	326
271.93	309
272.162	299
272.394	288
272.626	290
272.858	297
273.09	310
273.322	290
273.553	273
273.785	322
274.017	370
274.249	463
274.481	456
274.713	510
274.945	559
275.176	587
275.408	567
275.64	501
275.872	506
276.104	442
276.335	382
276.567	375
276.799	386
277.031	398
277.262	360
277.494	277
277.726	254
277.957	273
278.189	314
278.421	309
278.652	298
278.884	316
279.115	265
279.347	248
279.579	270
279.81	288
280.042	267
280.273	290
280.505	259
280.736	231
280.968	229
281.199	247
281.431	271
281.662	263
281.894	279
282.125	272
282.356	288
282.588	303
282.819	260
283.051	294
283.282	336
283.513	391
283.745	420
283.976	413
284.207	378
284.439	388
284.67	382
284.901	351
285.132	384
285.364	394
285.595	360
285.826	375
286.057	387
286.288	378
286.52	371
286.751	406
286.982	400
287.213	381
287.444	353
287.675	371
287.906	361
288.138	342
288.369	306
288.6	291
288.831	297
289.062	323
289.293	349
289.524	335
289.755	314
289.986	328
290.217	317
290.448	247
290.679	215
290.91	207
291.141	205
291.371	227
291.602	196
291.833	214
292.064	213
292.295	277
292.526	307
292.757	304
292.987	322
293.218	335
293.449	334
293.68	355
293.91	344
294.141	356
294.372	319
294.603	294
294.833	330
295.064	364
295.295	360
295.525	285
295.756	255
295.987	241
296.217	207
296.448	220
296.679	224
296.909	248
297.14	260
297.37	292
297.601	278
297.831	251
298.062	275
298.292	290
298.523	308
298.753	342
298.984	319
299.214	276
299.445	239
299.675	222
299.905	233
300.136	227
300.366	264
300.597	230
300.827	207
301.057	208
301.288	218
301.518	234
301.748	264
301.979	278
302.209	284
302.439	276
302.669	256
302.9	282
303.13	266
303.36	248
303.59	237
303.82	239
304.051	272
304.281	278
304.511	295
304.741	250
304.971	259
305.201	252
305.431	271
305.661	236
305.891	244
306.121	202
306.352	197
306.582	190
306.812	200
307.042	197
307.272	190
307.502	185
307.731	192
307.961	214
308.191	187
308.421	188
308.651	179
308.881	179
309.111	162
309.341	192
309.571	198
309.8	201
310.03	215
310.26	216
310.49	211
310.72	203
310.949	211
311.179	198
311.409	222
311.639	218
311.868	290
312.098	342
312.328	365
312.557	343
312.787	366
313.017	324
313.246	346
313.476	380
313.706	315
313.935	263
314.165	225
314.394	210
314.624	221
314.853	218
315.083	212
315.312	213
315.542	207
315.771	205
316.001	199
316.23	186
316.46	162
316.689	185
316.919	196
317.148	181
317.377	205
317.607	196
317.836	199
318.065	226
318.295	258
318.524	242
318.753	208
318.983	204
319.212	189
319.441	195
319.67	230
319.9	257
320.129	231
320.358	216
320.587	220
320.816	222
321.046	219
321.275	243
321.504	244
321.733	224
321.962	257
322.191	240
322.42	216
322.649	232
322.878	244
323.108	242
323.337	240
323.566	217
323.795	245
324.024	220
324.253	204
324.482	205
324.71	222
324.939	238
325.168	221
325.397	201
325.626	197
325.855	192
326.084	214
326.313	197
326.542	188
326.77	189
326.999	190
327.228	211
327.457	204
327.686	212
327.914	196
328.143	180
328.372	178
328.6	170
328.829	180
329.058	186
329.287	176
329.515	191
329.744	200
329.972	183
330.201	176
330.43	199
330.658	203
330.887	199
331.115	224
331.344	212
331.572	190
331.801	200
332.03	195
332.258	188
332.486	188
332.715	223
332.943	206
333.172	193
333.4	206
333.629	196
333.857	233
334.085	215
334.314	220
334.542	226
334.771	222
334.999	202
335.227	200
335.455	205
335.684	211
335.912	221
336.14	261
336.369	245
336.597	231
336.825	284
337.053	295
337.281	238
337.51	218
337.738	200
337.966	228
338.194	226
338.422	221
338.65	204
338.878	186
339.106	176
339.334	199
339.562	230
339.79	210
340.018	190
340.246	207
340.474	223
340.702	259
340.93	286
341.158	268
341.386	233
341.614	220
341.842	238
342.07	227
342.298	239
342.526	274
342.754	229
342.981	233
343.209	207
343.437	244
343.665	239
343.893	235
344.12	289
344.348	312
344.576	306
344.804	242
345.031	219
345.259	199
345.487	198
345.714	206
345.942	231
346.17	233
346.397	233
346.625	191
346.853	205
347.08	203
347.308	223
347.535	243
347.763	234
347.99	201
348.218	182
348.445	220
348.673	213
348.9	218
349.128	223
349.355	225
349.583	215
349.81	191
350.037	192
350.265	194
350.492	175
350.72	173
350.947	170
351.174	184
351.402	192
351.629	191
351.856	187
352.083	204
352.311	210
352.538	211
352.765	227
352.992	226
353.22	211
353.447	229
353.674	212
353.901	200
354.128	198
354.355	216
354.583	213
354.81	225
355.037	269
355.264	215
355.491	228
355.718	239
355.945	249
356.172	220
356.399	218
356.626	262
356.853	324
357.08	331
357.307	350
357.534	294
357.761	279
357.988	350
358.215	390
358.441	350
358.668	304
358.895	300
359.122	259
359.349	259
359.576	301
359.802	233
360.029	191
360.256	228
360.483	271
360.709	316
360.936	322
361.163	294
361.39	238
361.616	222
361.843	235
362.07	287
362.296	234
362.523	219
362.749	195
362.976	204
363.203	245
363.429	262
363.656	224
363.882	215
364.109	220
364.335	235
364.562	200
364.788	213
365.015	253
365.241	238
365.468	174
365.694	174
365.92	178
366.147	190
366.373	171
366.599	183
366.826	169
367.052	174
367.278	170
367.505	175
367.731	197
367.957	226
368.184	201
368.41	222
368.636	212
368.862	215
369.089	211
369.315	186
369.541	191
369.767	178
369.993	167
370.219	175
370.445	180
370.672	206
370.898	230
371.124	213
371.35	184
371.576	202
371.802	197
372.028	215
372.254	259
372.48	226
372.706	207
372.932	217
373.158	218
373.384	254
373.61	327
373.835	325
374.061	270
374.287	230
374.513	283
374.739	316
374.965	314
375.191	323
375.416	231
375.642	217
375.868	246
376.094	269
376.319	224
376.545	249
376.771	266
376.997	231
377.222	196
377.448	178
377.674	165
377.899	174
378.125	168
378.35	171
378.576	172
378.802	172
379.027	200
379.253	186
379.478	188
379.704	219
379.929	230
380.155	224
380.38	201
380.606	223
380.831	242
381.057	233
381.282	215
381.507	230
381.733	284
381.958	294
382.184	281
382.409	322
382.634	330
382.86	320
383.085	279
383.31	235
383.535	258
383.761	231
383.986	242
384.211	285
384.436	274
384.662	220
384.887	212
385.112	218
385.337	228
385.562	218
385.787	220
386.013	244
386.238	247
386.463	215
386.688	203
386.913	203
387.138	192
387.363	201
387.588	203
387.813	207
388.038	232
388.263	213
388.488	203
388.713	247
388.938	254
389.163	223
389.387	195
389.612	188
389.837	215
390.062	198
390.287	206
390.512	219
390.736	216
390.961	204
391.186	196
391.411	189
391.636	198
391.86	203
392.085	220
392.31	212
392.534	203
392.759	213
392.984	217
393.208	221
393.433	198
393.658	173
393.882	167
394.107	183
394.331	174
394.556	171
394.78	174
395.005	184
395.229	179
395.454	188
395.678	188
395.903	201
396.127	199
396.352	181
396.576	217
396.801	212
397.025	231
397.249	251
397.474	199
397.698	197
397.922	216
398.147	214
398.371	208
398.595	229
398.82	228
399.044	210
399.268	220
399.492	226
399.717	234
399.941	245
400.165	238
400.389	217
400.613	213
400.837	227
401.062	202
401.286	195
401.51	188
401.734	210
401.958	214
402.182	203
402.406	188
402.63	199
402.854	216
403.078	237
403.302	283
403.526	320
403.75	300
403.974	244
404.198	258
404.422	284
404.645	286
404.869	311
405.093	236
405.317	214
405.541	226
405.765	243
405.988	207
406.212	228
406.436	242
406.66	276
406.883	245
407.107	236
407.331	268
407.555	267
407.778	230
408.002	242
408.226	235
408.449	236
408.673	235
408.896	212
409.12	209
409.344	186
409.567	194
409.791	180
410.014	196
410.238	200
410.461	193
410.685	193
410.908	198
411.132	203
411.355	190
411.578	208
411.802	197
412.025	201
412.249	216
412.472	212
412.695	217
412.919	213
413.142	210
413.365	230
413.589	217
413.812	199
414.035	217
414.258	193
414.482	223
414.705	219
414.928	185
415.151	200
415.374	215
415.597	199
415.821	191
416.044	200
416.267	186
416.49	194
416.713	191
416.936	190
417.159	193
417.382	206
417.605	200
417.828	206
418.051	198
418.274	214
418.497	218
418.72	214
418.943	208
419.166	206
419.389	226
419.611	215
419.834	212
420.057	235
420.28	233
420.503	228
420.726	197
420.948	188
421.171	197
421.394	186
421.617	196
421.839	188
422.062	210
422.285	199
422.507	210
422.73	198
422.953	209
423.175	212
423.398	201
423.621	210
423.843	236
424.066	218
424.288	197
424.511	191
424.733	196
424.956	219
425.178	245
425.401	263
425.623	292
425.846	238
426.068	218
426.291	246
426.513	216
426.735	194
426.958	223
427.18	220
427.402	334
427.625	304
427.847	251
428.069	206
428.292	213
428.514	202
428.736	192
428.958	227
429.181	264
429.403	205
429.625	192
429.847	204
430.069	206
430.292	209
430.514	193
430.736	194
430.958	256
431.18	219
431.402	170
431.624	193
431.846	186
432.068	182
432.29	199
432.512	211
432.734	251
432.956	242
433.178	187
433.4	171
433.622	200
433.844	206
434.066	224
434.287	206
434.509	205
434.731	224
434.953	206
435.175	212
435.397	248
435.618	196
435.84	187
436.062	192
436.284	188
436.505	186
436.727	187
436.949	187
437.17	183
437.392	197
437.614	196
437.835	175
438.057	180
438.278	211
438.5	272
438.721	288
438.943	200
439.165	182
439.386	178
439.608	186
439.829	179
440.05	168
440.272	205
440.493	222
440.715	272
440.936	213
441.158	180
441.379	189
441.6	222
441.822	237
442.043	201
442.264	186
442.486	204
442.707	203
442.928	194
443.149	202
443.371	225
443.592	216
443.813	212
444.034	194
444.255	197
444.476	202
444.698	209
444.919	195
445.14	322
445.361	285
445.582	214
445.803	223
446.024	220
446.245	238
446.466	218
446.687	198
446.908	196
447.129	186
447.35	196
447.571	182
447.792	166
448.013	181
448.234	188
448.455	170
448.675	174
448.896	204
449.117	184
449.338	187
449.559	189
449.779	203
450	209
450.221	180
450.442	195
450.662	194
450.883	182
451.104	176
451.324	180
451.545	168
451.766	183
451.986	185
452.207	177
452.428	191
452.648	185
452.869	196
453.089	197
453.31	189
453.53	178
453.751	183
453.971	174
454.192	183
454.412	184
454.633	188
454.853	181
455.073	170
455.294	175
455.514	186
455.734	178
455.955	174
456.175	165
456.395	182
456.616	155
456.836	172
457.056	162
457.276	176
457.497	160
457.717	174
457.937	166
458.157	182
458.377	186
458.598	181
458.818	174
459.038	173
459.258	171
459.478	203
459.698	195
459.918	206
460.138	196
460.358	199
460.578	203
460.798	222
461.018	212
461.238	201
461.458	204
461.678	213
461.898	228
462.118	212
462.338	205
462.558	217
462.777	225
462.997	226
463.217	229
463.437	235
463.657	238
463.876	214
464.096	220
464.316	205
464.536	220
464.755	230
464.975	223
465.195	226
465.414	237
465.634	222
465.854	211
466.073	194
466.293	192
466.512	218
466.732	234
466.951	229
467.171	220
467.391	195
467.61	182
467.829	193
468.049	194
468.268	191
468.488	196
468.707	189
468.927	223
469.146	254
469.365	227
469.585	224
469.804	225
470.023	237
470.243	212
470.462	211
470.681	207
470.901	202
471.12	223
471.339	202
471.558	212
471.777	207
471.997	223
472.216	249
472.435	223
472.654	210
472.873	212
473.092	215
473.311	223
473.53	217
473.749	208
473.968	214
474.187	211
474.406	210
474.625	190
474.844	214
475.063	211
475.282	215
475.501	228
475.72	281
475.939	253
476.158	230
476.377	284
476.596	326
476.814	310
477.033	260
477.252	228
477.471	199
477.69	203
477.908	232
478.127	234
478.346	237
478.564	270
478.783	254
479.002	234
479.22	264
479.439	308
479.658	262
479.876	237
480.095	263
480.313	262
480.532	243
480.751	242
480.969	235
481.188	262
481.406	266
481.624	263
481.843	245
482.061	215
482.28	230
482.498	300
482.717	330
482.935	247
483.153	233
483.372	240
483.59	213
483.808	206
484.027	214
484.245	214
484.463	195
484.681	203
484.9	206
485.118	236
485.336	224
485.554	208
485.772	212
485.99	238
486.209	253
486.427	264
486.645	235
486.863	261
487.081	256
487.299	290
487.517	267
487.735	237
487.953	233
488.171	264
488.389	242
488.607	235
488.825	241
489.043	260
489.261	310
489.479	323
489.696	270
489.914	242
490.132	219
490.35	229
490.568	212
490.786	220
491.003	210
491.221	241
491.439	225
491.657	223
491.874	247
492.092	296
492.31	363
492.527	344
492.745	291
492.963	254
493.18	235
493.398	250
493.615	239
493.833	256
494.05	270
494.268	248
494.485	240
494.703	243
494.92	254
495.138	251
495.355	243
495.573	249
495.79	295
496.008	386
496.225	299
496.442	271
496.66	271
496.877	279
497.094	294
497.312	270
497.529	260
497.746	269
497.963	263
498.181	285
498.398	309
498.615	337
498.832	327
499.049	333
499.267	316
499.484	326
499.701	320
499.918	368
500.135	398
500.352	397
500.569	400
500.786	435
501.003	414
501.22	375
501.437	381
501.654	328
501.871	328
502.088	328
502.305	302
502.522	286
502.739	313
502.956	290
503.172	279
503.389	259
503.606	254
503.823	263
504.04	268
504.256	286
504.473	273
504.69	276
504.907	274
505.123	263
505.34	286
505.557	301
505.773	280
505.99	258
506.207	276
506.423	254
506.64	227
506.856	258
507.073	280
507.289	276
507.506	278
507.722	302
507.939	298
508.155	281
508.372	267
508.588	258
508.805	264
509.021	275
509.238	258
509.454	247
509.67	261
509.887	247
510.103	261
510.319	227
510.536	248
510.752	217
510.968	226
511.184	213
511.401	214
511.617	212
511.833	222
512.049	223
512.265	219
512.481	239
512.698	236
512.914	284
513.13	270
513.346	220
513.562	235
513.778	243
513.994	247
514.21	255
514.426	246
514.642	248
514.858	264
515.074	223
515.29	268
515.506	290
515.721	270
515.937	260
516.153	238
516.369	235
516.585	262
516.801	272
517.016	342
517.232	296
517.448	310
517.664	264
517.879	271
518.095	281
518.311	272
518.527	286
518.742	273
518.958	308
519.173	280
519.389	303
519.605	304
519.82	318
520.036	335
520.251	328
520.467	365
520.682	549
520.898	642
521.113	634
521.329	377
521.544	323
521.76	292
521.975	286
522.19	269
522.406	273
522.621	293
522.836	291
523.052	326
523.267	257
523.482	258
523.698	290
523.913	269
524.128	230
524.343	244
524.559	253
524.774	214
524.989	247
525.204	237
525.419	272
525.634	252
525.849	271
526.064	270
526.28	256
526.495	311
526.71	333
526.925	303
527.14	291
527.355	295
527.57	258
527.785	270
527.999	257
528.214	229
528.429	229
528.644	220
528.859	220
529.074	208
529.289	210
529.503	216
529.718	219
529.933	291
530.148	290
530.363	246
530.577	224
530.792	213
531.007	214
531.221	226
531.436	221
531.651	208
531.865	218
532.08	207
532.295	214
532.509	230
532.724	249
532.938	276
533.153	351
533.367	258
533.582	249
533.796	235
534.011	244
534.225	227
534.44	236
534.654	249
534.868	290
535.083	285
535.297	222
535.511	236
535.726	227
535.94	208
536.154	215
536.369	208
536.583	192
536.797	233
537.011	234
537.225	250
537.44	280
537.654	251
537.868	211
538.082	212
538.296	224
538.51	230
538.724	245
538.938	226
539.153	207
539.367	213
539.581	206
539.795	216
540.009	248
540.222	231
540.436	245
540.65	248
540.864	278
541.078	274
541.292	327
541.506	254
541.72	246
541.934	235
542.147	213
542.361	223
542.575	216
542.789	228
543.002	212
543.216	239
543.43	226
543.644	187
543.857	216
544.071	192
544.285	208
544.498	195
544.712	201
544.925	215
545.139	223
545.352	214
545.566	210
545.779	248
545.993	212
546.206	194
546.42	203
546.633	206
546.847	202
547.06	199
547.274	195
547.487	186
547.7	219
547.914	225
548.127	227
548.34	236
548.554	227
548.767	215
548.98	224
549.193	222
549.407	206
549.62	234
549.833	219
550.046	242
550.259	231
550.473	215
550.686	224
550.899	220
551.112	211
551.325	208
551.538	230
551.751	207
551.964	197
552.177	213
552.39	207
552.603	186
552.816	202
553.029	200
553.242	201
553.455	222
553.667	243
553.88	218
554.093	207
554.306	200
554.519	185
554.732	197
554.944	176
555.157	169
555.37	187
555.583	185
555.795	188
556.008	176
556.221	180
556.433	178
556.646	186
556.859	184
557.071	181
557.284	199
557.496	200
557.709	195
557.921	189
558.134	191
558.346	174
558.559	168
558.771	190
558.984	183
559.196	184
559.409	190
559.621	184
559.833	171
560.046	180
560.258	180
560.47	169
560.683	168
560.895	186
561.107	181
561.32	166
561.532	179
561.744	186
561.956	195
562.168	179
562.381	179
562.593	181
562.805	193
563.017	164
563.229	175
563.441	158
563.653	181
563.865	179
564.077	178
564.289	163
564.501	171
