Data from NickelSpatula.Lamp.E5.5.P2_HRD10591_11-53-58-546.txt Node
Date: Tue Jul 23 11:53:58 EDT 2019
User: cochatt
Spectrometer: HR+D1059
Trigger mode: 1
Integration Time (sec): 1.000000E-1
Scans to average: 1
Electric dark correction enabled: true
Nonlinearity correction enabled: false
Boxcar width: 0
XAxis mode: Wavelengths
Number of Pixels in Spectrum: 2048
>>>>>Begin Spectral Data<<<<<
223.165	-19.44
223.4	-19.44
223.635	-19.44
223.869	-11.44
224.104	-14.44
224.338	-18.44
224.573	-22.44
224.808	-25.44
225.042	-5.44
225.277	6.56
225.511	-4.44
225.746	6.56
225.98	13.56
226.215	10.56
226.449	8.56
226.683	14.56
226.918	42.56
227.152	18.56
227.387	21.56
227.621	43.56
227.856	42.56
228.09	41.56
228.324	48.56
228.559	62.56
228.793	49.56
229.027	61.56
229.262	78.56
229.496	78.56
229.73	86.56
229.964	87.56
230.199	89.56
230.433	87.56
230.667	98.56
230.901	81.56
231.136	85.56
231.37	99.56
231.604	81.56
231.838	110.56
232.072	99.56
232.306	103.56
232.541	108.56
232.775	113.56
233.009	98.56
233.243	100.56
233.477	119.56
233.711	113.56
233.945	118.56
234.179	118.56
234.413	145.56
234.647	127.56
234.881	146.56
235.115	134.56
235.349	130.56
235.583	137.56
235.817	137.56
236.051	118.56
236.285	128.56
236.519	150.56
236.753	132.56
236.987	123.56
237.221	130.56
237.455	123.56
237.689	128.56
237.922	144.56
238.156	132.56
238.39	179.56
238.624	174.56
238.858	163.56
239.091	134.56
239.325	138.56
239.559	141.56
239.793	140.56
240.027	180.56
240.26	176.56
240.494	157.56
240.728	163.56
240.961	177.56
241.195	189.56
241.429	162.56
241.662	141.56
241.896	158.56
242.13	137.56
242.363	148.56
242.597	142.56
242.83	168.56
243.064	151.56
243.298	159.56
243.531	181.56
243.765	170.56
243.998	177.56
244.232	177.56
244.465	162.56
244.699	159.56
244.932	183.56
245.166	159.56
245.399	171.56
245.633	154.56
245.866	143.56
246.099	175.56
246.333	191.56
246.566	203.56
246.8	189.56
247.033	182.56
247.266	198.56
247.5	170.56
247.733	158.56
247.966	165.56
248.2	166.56
248.433	201.56
248.666	207.56
248.899	206.56
249.133	192.56
249.366	238.56
249.599	251.56
249.832	240.56
250.066	196.56
250.299	202.56
250.532	223.56
250.765	198.56
250.998	210.56
251.231	181.56
251.465	205.56
251.698	218.56
251.931	212.56
252.164	197.56
252.397	236.56
252.63	245.56
252.863	282.56
253.096	282.56
253.329	257.56
253.562	255.56
253.795	272.56
254.028	293.56
254.261	320.56
254.494	282.56
254.727	257.56
254.96	250.56
255.193	270.56
255.426	263.56
255.659	223.56
255.892	210.56
256.124	224.56
256.357	258.56
256.59	287.56
256.823	282.56
257.056	226.56
257.289	222.56
257.521	261.56
257.754	274.56
257.987	312.56
258.22	274.56
258.452	246.56
258.685	277.56
258.918	292.56
259.151	306.56
259.383	299.56
259.616	348.56
259.849	364.56
260.081	385.56
260.314	402.56
260.547	320.56
260.779	346.56
261.012	378.56
261.244	352.56
261.477	374.56
261.71	334.56
261.942	291.56
262.175	284.56
262.407	287.56
262.64	297.56
262.872	354.56
263.105	351.56
263.337	380.56
263.57	357.56
263.802	259.56
264.035	213.56
264.267	218.56
264.499	210.56
264.732	211.56
264.964	179.56
265.197	185.56
265.429	202.56
265.661	204.56
265.894	200.56
266.126	227.56
266.358	261.56
266.591	284.56
266.823	329.56
267.055	319.56
267.287	287.56
267.52	296.56
267.752	298.56
267.984	340.56
268.216	319.56
268.448	278.56
268.681	260.56
268.913	281.56
269.145	292.56
269.377	293.56
269.609	293.56
269.841	276.56
270.073	307.56
270.306	314.56
270.538	331.56
270.77	324.56
271.002	316.56
271.234	343.56
271.466	349.56
271.698	316.56
271.93	319.56
272.162	325.56
272.394	317.56
272.626	325.56
272.858	340.56
273.09	335.56
273.322	288.56
273.553	282.56
273.785	331.56
274.017	399.56
274.249	480.56
274.481	483.56
274.713	534.56
274.945	603.56
275.176	648.56
275.408	563.56
275.64	542.56
275.872	546.56
276.104	481.56
276.335	421.56
276.567	417.56
276.799	409.56
277.031	433.56
277.262	362.56
277.494	299.56
277.726	287.56
277.957	289.56
278.189	345.56
278.421	342.56
278.652	312.56
278.884	304.56
279.115	285.56
279.347	287.56
279.579	288.56
279.81	298.56
280.042	290.56
280.273	299.56
280.505	279.56
280.736	244.56
280.968	228.56
281.199	250.56
281.431	290.56
281.662	270.56
281.894	267.56
282.125	300.56
282.356	301.56
282.588	319.56
282.819	274.56
283.051	302.56
283.282	359.56
283.513	422.56
283.745	456.56
283.976	460.56
284.207	437.56
284.439	454.56
284.67	439.56
284.901	394.56
285.132	407.56
285.364	422.56
285.595	405.56
285.826	428.56
286.057	432.56
286.288	417.56
286.52	428.56
286.751	438.56
286.982	448.56
287.213	403.56
287.444	400.56
287.675	401.56
287.906	398.56
288.138	357.56
288.369	302.56
288.6	283.56
288.831	297.56
289.062	367.56
289.293	405.56
289.524	386.56
289.755	360.56
289.986	376.56
290.217	335.56
290.448	258.56
290.679	229.56
290.91	216.56
291.141	232.56
291.371	229.56
291.602	232.56
291.833	234.56
292.064	246.56
292.295	274.56
292.526	323.56
292.757	323.56
292.987	351.56
293.218	337.56
293.449	368.56
293.68	410.56
293.91	376.56
294.141	386.56
294.372	355.56
294.603	325.56
294.833	357.56
295.064	407.56
295.295	414.56
295.525	332.56
295.756	274.56
295.987	235.56
296.217	252.56
296.448	248.56
296.679	260.56
296.909	286.56
297.14	295.56
297.37	318.56
297.601	317.56
297.831	267.56
298.062	284.56
298.292	318.56
298.523	317.56
298.753	404.56
298.984	357.56
299.214	285.56
299.445	268.56
299.675	257.56
299.905	258.56
300.136	243.56
300.366	284.56
300.597	269.56
300.827	235.56
301.057	254.56
301.288	250.56
301.518	250.56
301.748	298.56
301.979	291.56
302.209	314.56
302.439	333.56
302.669	291.56
302.9	291.56
303.13	277.56
303.36	267.56
303.59	255.56
303.82	264.56
304.051	280.56
304.281	308.56
304.511	308.56
304.741	264.56
304.971	282.56
305.201	294.56
305.431	283.56
305.661	258.56
305.891	241.56
306.121	254.56
306.352	247.56
306.582	217.56
306.812	204.56
307.042	210.56
307.272	197.56
307.502	196.56
307.731	217.56
307.961	220.56
308.191	214.56
308.421	198.56
308.651	204.56
308.881	178.56
309.111	199.56
309.341	184.56
309.571	212.56
309.8	221.56
310.03	226.56
310.26	230.56
310.49	241.56
310.72	206.56
310.949	209.56
311.179	216.56
311.409	213.56
311.639	241.56
311.868	299.56
312.098	372.56
312.328	393.56
312.557	409.56
312.787	408.56
313.017	363.56
313.246	383.56
313.476	410.56
313.706	354.56
313.935	286.56
314.165	248.56
314.394	247.56
314.624	248.56
314.853	251.56
315.083	246.56
315.312	230.56
315.542	224.56
315.771	221.56
316.001	207.56
316.23	193.56
316.46	211.56
316.689	186.56
316.919	198.56
317.148	217.56
317.377	225.56
317.607	211.56
317.836	208.56
318.065	264.56
318.295	285.56
318.524	261.56
318.753	225.56
318.983	214.56
319.212	211.56
319.441	219.56
319.67	263.56
319.9	279.56
320.129	263.56
320.358	213.56
320.587	207.56
320.816	228.56
321.046	258.56
321.275	281.56
321.504	279.56
321.733	266.56
321.962	279.56
322.191	244.56
322.42	234.56
322.649	239.56
322.878	269.56
323.108	274.56
323.337	254.56
323.566	246.56
323.795	235.56
324.024	246.56
324.253	242.56
324.482	231.56
324.71	243.56
324.939	266.56
325.168	261.56
325.397	221.56
325.626	218.56
325.855	228.56
326.084	239.56
326.313	224.56
326.542	200.56
326.77	211.56
326.999	219.56
327.228	230.56
327.457	224.56
327.686	229.56
327.914	211.56
328.143	188.56
328.372	205.56
328.6	202.56
328.829	212.56
329.058	210.56
329.287	208.56
329.515	216.56
329.744	226.56
329.972	200.56
330.201	187.56
330.43	207.56
330.658	234.56
330.887	228.56
331.115	243.56
331.344	214.56
331.572	216.56
331.801	230.56
332.03	205.56
332.258	202.56
332.486	214.56
332.715	236.56
332.943	230.56
333.172	231.56
333.4	242.56
333.629	248.56
333.857	259.56
334.085	257.56
334.314	268.56
334.542	247.56
334.771	256.56
334.999	219.56
335.227	236.56
335.455	223.56
335.684	231.56
335.912	276.56
336.14	312.56
336.369	283.56
336.597	274.56
336.825	301.56
337.053	338.56
337.281	287.56
337.51	250.56
337.738	248.56
337.966	245.56
338.194	268.56
338.422	234.56
338.65	232.56
338.878	206.56
339.106	214.56
339.334	249.56
339.562	253.56
339.79	225.56
340.018	211.56
340.246	231.56
340.474	255.56
340.702	285.56
340.93	295.56
341.158	295.56
341.386	254.56
341.614	257.56
341.842	250.56
342.07	259.56
342.298	309.56
342.526	318.56
342.754	273.56
342.981	263.56
343.209	238.56
343.437	255.56
343.665	274.56
343.893	287.56
344.12	310.56
344.348	378.56
344.576	340.56
344.804	286.56
345.031	254.56
345.259	227.56
345.487	234.56
345.714	243.56
345.942	252.56
346.17	276.56
346.397	267.56
346.625	227.56
346.853	236.56
347.08	220.56
347.308	221.56
347.535	271.56
347.763	280.56
347.99	231.56
348.218	228.56
348.445	242.56
348.673	242.56
348.9	228.56
349.128	248.56
349.355	255.56
349.583	257.56
349.81	235.56
350.037	230.56
350.265	210.56
350.492	199.56
350.72	184.56
350.947	196.56
351.174	216.56
351.402	259.56
351.629	239.56
351.856	205.56
352.083	207.56
352.311	210.56
352.538	256.56
352.765	262.56
352.992	214.56
353.22	222.56
353.447	237.56
353.674	222.56
353.901	219.56
354.128	228.56
354.355	222.56
354.583	248.56
354.81	251.56
355.037	251.56
355.264	228.56
355.491	237.56
355.718	244.56
355.945	255.56
356.172	254.56
356.399	256.56
356.626	319.56
356.853	328.56
357.08	385.56
357.307	406.56
357.534	303.56
357.761	310.56
357.988	376.56
358.215	444.56
358.441	414.56
358.668	341.56
358.895	351.56
359.122	280.56
359.349	291.56
359.576	319.56
359.802	244.56
360.029	214.56
360.256	224.56
360.483	296.56
360.709	359.56
360.936	371.56
361.163	310.56
361.39	259.56
361.616	234.56
361.843	275.56
362.07	331.56
362.296	310.56
362.523	242.56
362.749	221.56
362.976	228.56
363.203	283.56
363.429	279.56
363.656	268.56
363.882	223.56
364.109	238.56
364.335	247.56
364.562	235.56
364.788	216.56
365.015	292.56
365.241	263.56
365.468	237.56
365.694	204.56
365.92	196.56
366.147	208.56
366.373	203.56
366.599	188.56
366.826	194.56
367.052	211.56
367.278	200.56
367.505	198.56
367.731	205.56
367.957	250.56
368.184	235.56
368.41	238.56
368.636	230.56
368.862	231.56
369.089	234.56
369.315	208.56
369.541	214.56
369.767	222.56
369.993	218.56
370.219	197.56
370.445	220.56
370.672	254.56
370.898	251.56
371.124	263.56
371.35	231.56
371.576	216.56
371.802	235.56
372.028	271.56
372.254	297.56
372.48	268.56
372.706	241.56
372.932	235.56
373.158	282.56
373.384	289.56
373.61	373.56
373.835	422.56
374.061	304.56
374.287	283.56
374.513	311.56
374.739	384.56
374.965	366.56
375.191	372.56
375.416	276.56
375.642	240.56
375.868	275.56
376.094	317.56
376.319	265.56
376.545	322.56
376.771	285.56
376.997	280.56
377.222	208.56
377.448	193.56
377.674	188.56
377.899	197.56
378.125	209.56
378.35	203.56
378.576	200.56
378.802	200.56
379.027	237.56
379.253	222.56
379.478	225.56
379.704	235.56
379.929	231.56
380.155	241.56
380.38	226.56
380.606	229.56
380.831	260.56
381.057	248.56
381.282	229.56
381.507	275.56
381.733	323.56
381.958	324.56
382.184	364.56
382.409	390.56
382.634	370.56
382.86	382.56
383.085	327.56
383.31	274.56
383.535	296.56
383.761	270.56
383.986	275.56
384.211	330.56
384.436	321.56
384.662	245.56
384.887	250.56
385.112	273.56
385.337	268.56
385.562	263.56
385.787	266.56
386.013	300.56
386.238	323.56
386.463	268.56
386.688	243.56
386.913	254.56
387.138	214.56
387.363	234.56
387.588	250.56
387.813	218.56
388.038	259.56
388.263	239.56
388.488	224.56
388.713	259.56
388.938	292.56
389.163	271.56
389.387	229.56
389.612	225.56
389.837	214.56
390.062	225.56
390.287	243.56
390.512	243.56
390.736	227.56
390.961	219.56
391.186	222.56
391.411	205.56
391.636	206.56
391.86	210.56
392.085	250.56
392.31	256.56
392.534	238.56
392.759	243.56
392.984	260.56
393.208	238.56
393.433	238.56
393.658	198.56
393.882	219.56
394.107	211.56
394.331	207.56
394.556	207.56
394.78	191.56
395.005	231.56
395.229	208.56
395.454	228.56
395.678	230.56
395.903	206.56
396.127	203.56
396.352	207.56
396.576	242.56
396.801	240.56
397.025	246.56
397.249	276.56
397.474	230.56
397.698	251.56
397.922	236.56
398.147	220.56
398.371	234.56
398.595	238.56
398.82	238.56
399.044	257.56
399.268	262.56
399.492	289.56
399.717	290.56
399.941	290.56
400.165	273.56
400.389	243.56
400.613	268.56
400.837	252.56
401.062	213.56
401.286	215.56
401.51	235.56
401.734	234.56
401.958	226.56
402.182	222.56
402.406	232.56
402.63	246.56
402.854	256.56
403.078	306.56
403.302	382.56
403.526	388.56
403.75	342.56
403.974	286.56
404.198	293.56
404.422	303.56
404.645	350.56
404.869	380.56
405.093	313.56
405.317	263.56
405.541	261.56
405.765	267.56
405.988	264.56
406.212	274.56
406.436	295.56
406.66	328.56
406.883	279.56
407.107	296.56
407.331	321.56
407.555	319.56
407.778	291.56
408.002	278.56
408.226	259.56
408.449	272.56
408.673	263.56
408.896	264.56
409.12	235.56
409.344	240.56
409.567	241.56
409.791	263.56
410.014	260.56
410.238	230.56
410.461	230.56
410.685	223.56
410.908	226.56
411.132	232.56
411.355	231.56
411.578	234.56
411.802	240.56
412.025	258.56
412.249	252.56
412.472	251.56
412.695	253.56
412.919	259.56
413.142	236.56
413.365	269.56
413.589	252.56
413.812	240.56
414.035	231.56
414.258	234.56
414.482	257.56
414.705	255.56
414.928	245.56
415.151	238.56
415.374	239.56
415.597	242.56
415.821	243.56
416.044	246.56
416.267	236.56
416.49	232.56
416.713	226.56
416.936	217.56
417.159	203.56
417.382	236.56
417.605	220.56
417.828	236.56
418.051	247.56
418.274	233.56
418.497	246.56
418.72	240.56
418.943	271.56
419.166	249.56
419.389	260.56
419.611	268.56
419.834	271.56
420.057	279.56
420.28	281.56
420.503	262.56
420.726	234.56
420.948	239.56
421.171	234.56
421.394	226.56
421.617	212.56
421.839	244.56
422.062	234.56
422.285	238.56
422.507	235.56
422.73	234.56
422.953	244.56
423.175	254.56
423.398	254.56
423.621	264.56
423.843	278.56
424.066	267.56
424.288	264.56
424.511	236.56
424.733	234.56
424.956	254.56
425.178	271.56
425.401	318.56
425.623	385.56
425.846	305.56
426.068	264.56
426.291	280.56
426.513	260.56
426.735	254.56
426.958	238.56
427.18	290.56
427.402	367.56
427.625	368.56
427.847	318.56
428.069	237.56
428.292	248.56
428.514	229.56
428.736	225.56
428.958	270.56
429.181	322.56
429.403	266.56
429.625	229.56
429.847	250.56
430.069	225.56
430.292	231.56
430.514	228.56
430.736	244.56
430.958	289.56
431.18	262.56
431.402	217.56
431.624	210.56
431.846	233.56
432.068	219.56
432.29	218.56
432.512	237.56
432.734	288.56
432.956	270.56
433.178	231.56
433.4	231.56
433.622	221.56
433.844	237.56
434.066	247.56
434.287	255.56
434.509	235.56
434.731	262.56
434.953	238.56
435.175	252.56
435.397	272.56
435.618	236.56
435.84	199.56
436.062	207.56
436.284	226.56
436.505	206.56
436.727	209.56
436.949	207.56
437.17	244.56
437.392	237.56
437.614	218.56
437.835	211.56
438.057	228.56
438.278	240.56
438.5	327.56
438.721	343.56
438.943	248.56
439.165	212.56
439.386	216.56
439.608	223.56
439.829	211.56
440.05	216.56
440.272	218.56
440.493	225.56
440.715	298.56
440.936	256.56
441.158	234.56
441.379	234.56
441.6	243.56
441.822	269.56
442.043	247.56
442.264	238.56
442.486	241.56
442.707	231.56
442.928	237.56
443.149	230.56
443.371	239.56
443.592	220.56
443.813	240.56
444.034	242.56
444.255	259.56
444.476	259.56
444.698	273.56
444.919	271.56
445.14	325.56
445.361	300.56
445.582	250.56
445.803	265.56
446.024	257.56
446.245	264.56
446.466	230.56
446.687	236.56
446.908	223.56
447.129	207.56
447.35	214.56
447.571	229.56
447.792	207.56
448.013	207.56
448.234	200.56
448.455	197.56
448.675	203.56
448.896	208.56
449.117	214.56
449.338	219.56
449.559	232.56
449.779	245.56
450	250.56
450.221	217.56
450.442	206.56
450.662	198.56
450.883	218.56
451.104	222.56
451.324	228.56
451.545	219.56
451.766	216.56
451.986	213.56
452.207	204.56
452.428	207.56
452.648	221.56
452.869	208.56
453.089	234.56
453.31	237.56
453.53	216.56
453.751	211.56
453.971	210.56
454.192	200.56
454.412	229.56
454.633	199.56
454.853	214.56
455.073	216.56
455.294	212.56
455.514	205.56
455.734	204.56
455.955	215.56
456.175	224.56
456.395	187.56
456.616	200.56
456.836	204.56
457.056	203.56
457.276	176.56
457.497	214.56
457.717	203.56
457.937	185.56
458.157	207.56
458.377	200.56
458.598	194.56
458.818	194.56
459.038	212.56
459.258	212.56
459.478	227.56
459.698	230.56
459.918	239.56
460.138	262.56
460.358	256.56
460.578	239.56
460.798	227.56
461.018	234.56
461.238	226.56
461.458	225.56
461.678	243.56
461.898	224.56
462.118	240.56
462.338	255.56
462.558	258.56
462.777	271.56
462.997	277.56
463.217	280.56
463.437	284.56
463.657	262.56
463.876	276.56
464.096	257.56
464.316	285.56
464.536	271.56
464.755	278.56
464.975	288.56
465.195	259.56
465.414	283.56
465.634	243.56
465.854	221.56
466.073	243.56
466.293	229.56
466.512	229.56
466.732	267.56
466.951	240.56
467.171	229.56
467.391	230.56
467.61	235.56
467.829	226.56
468.049	240.56
468.268	225.56
468.488	216.56
468.707	239.56
468.927	239.56
469.146	270.56
469.365	259.56
469.585	243.56
469.804	254.56
470.023	275.56
470.243	238.56
470.462	214.56
470.681	221.56
470.901	250.56
471.12	252.56
471.339	256.56
471.558	221.56
471.777	232.56
471.997	243.56
472.216	271.56
472.435	254.56
472.654	256.56
472.873	244.56
473.092	262.56
473.311	262.56
473.53	244.56
473.749	231.56
473.968	233.56
474.187	254.56
474.406	218.56
474.625	228.56
474.844	234.56
475.063	246.56
475.282	248.56
475.501	268.56
475.72	290.56
475.939	259.56
476.158	262.56
476.377	305.56
476.596	359.56
476.814	371.56
477.033	293.56
477.252	263.56
477.471	254.56
477.69	244.56
477.908	279.56
478.127	280.56
478.346	271.56
478.564	286.56
478.783	276.56
479.002	268.56
479.22	312.56
479.439	323.56
479.658	319.56
479.876	263.56
480.095	272.56
480.313	312.56
480.532	276.56
480.751	297.56
480.969	289.56
481.188	291.56
481.406	307.56
481.624	289.56
481.843	284.56
482.061	263.56
482.28	297.56
482.498	362.56
482.717	333.56
482.935	291.56
483.153	272.56
483.372	245.56
483.59	231.56
483.808	256.56
484.027	255.56
484.245	240.56
484.463	240.56
484.681	254.56
484.9	244.56
485.118	299.56
485.336	283.56
485.554	255.56
485.772	255.56
485.99	278.56
486.209	308.56
486.427	294.56
486.645	291.56
486.863	293.56
487.081	299.56
487.299	323.56
487.517	318.56
487.735	286.56
487.953	295.56
488.171	308.56
488.389	281.56
488.607	278.56
488.825	271.56
489.043	303.56
489.261	338.56
489.479	342.56
489.696	310.56
489.914	270.56
490.132	270.56
490.35	256.56
490.568	269.56
490.786	269.56
491.003	246.56
491.221	260.56
491.439	256.56
491.657	270.56
491.874	293.56
492.092	324.56
492.31	375.56
492.527	372.56
492.745	351.56
492.963	295.56
493.18	287.56
493.398	308.56
493.615	287.56
493.833	298.56
494.05	270.56
494.268	287.56
494.485	296.56
494.703	290.56
494.92	258.56
495.138	287.56
495.355	264.56
495.573	277.56
495.79	292.56
496.008	390.56
496.225	346.56
496.442	314.56
496.66	302.56
496.877	318.56
497.094	311.56
497.312	320.56
497.529	301.56
497.746	302.56
497.963	312.56
498.181	345.56
498.398	365.56
498.615	378.56
498.832	383.56
499.049	397.56
499.267	367.56
499.484	380.56
499.701	400.56
499.918	451.56
500.135	502.56
500.352	534.56
500.569	545.56
500.786	559.56
501.003	526.56
501.22	472.56
501.437	428.56
501.654	411.56
501.871	378.56
502.088	386.56
502.305	360.56
502.522	358.56
