Data from NickelSpatula_HRD10591_16-36-42-126.txt Node
Date: Mon Jul 22 16:36:42 EDT 2019
User: cochatt
Spectrometer: HR+D1059
Trigger mode: 1
Integration Time (sec): 1.000000E-1
Scans to average: 1
Electric dark correction enabled: true
Nonlinearity correction enabled: false
Boxcar width: 0
XAxis mode: Wavelengths
Number of Pixels in Spectrum: 2048
>>>>>Begin Spectral Data<<<<<
223.165	-1.88
223.4	-1.88
223.635	-1.88
223.869	-24.88
224.104	-19.88
224.338	-7.88
224.573	-21.88
224.808	-5.88
225.042	-8.88
225.277	-6.88
225.511	1.12
225.746	9.12
225.98	-3.88
226.215	2.12
226.449	19.12
226.683	13.12
226.918	29.12
227.152	28.12
227.387	41.12
227.621	43.12
227.856	54.12
228.09	46.12
228.324	54.12
228.559	53.12
228.793	58.12
229.027	67.12
229.262	72.12
229.496	70.12
229.73	63.12
229.964	72.12
230.199	83.12
230.433	90.12
230.667	85.12
230.901	83.12
231.136	81.12
231.37	96.12
231.604	92.12
231.838	97.12
232.072	79.12
232.306	85.12
232.541	89.12
232.775	86.12
233.009	90.12
233.243	101.12
233.477	94.12
233.711	101.12
233.945	100.12
234.179	84.12
234.413	98.12
234.647	99.12
234.881	106.12
235.115	95.12
235.349	85.12
235.583	94.12
235.817	86.12
236.051	82.12
236.285	87.12
236.519	101.12
236.753	78.12
236.987	86.12
237.221	99.12
237.455	99.12
237.689	103.12
237.922	95.12
238.156	94.12
238.39	99.12
238.624	102.12
238.858	95.12
239.091	95.12
239.325	90.12
239.559	89.12
239.793	93.12
240.027	95.12
240.26	99.12
240.494	111.12
240.728	104.12
240.961	109.12
241.195	93.12
241.429	94.12
241.662	95.12
241.896	82.12
242.13	92.12
242.363	79.12
242.597	105.12
242.83	92.12
243.064	96.12
243.298	86.12
243.531	96.12
243.765	95.12
243.998	113.12
244.232	110.12
244.465	115.12
244.699	100.12
244.932	106.12
245.166	93.12
245.399	85.12
245.633	108.12
245.866	106.12
246.099	113.12
246.333	102.12
246.566	102.12
246.8	98.12
247.033	108.12
247.266	117.12
247.5	97.12
247.733	110.12
247.966	109.12
248.2	107.12
248.433	113.12
248.666	113.12
248.899	106.12
249.133	100.12
249.366	115.12
249.599	114.12
249.832	116.12
250.066	120.12
250.299	115.12
250.532	102.12
250.765	117.12
250.998	96.12
251.231	101.12
251.465	123.12
251.698	99.12
251.931	101.12
252.164	101.12
252.397	115.12
252.63	118.12
252.863	117.12
253.096	123.12
253.329	125.12
253.562	106.12
253.795	127.12
254.028	123.12
254.261	134.12
254.494	113.12
254.727	109.12
254.96	113.12
255.193	125.12
255.426	121.12
255.659	121.12
255.892	123.12
256.124	101.12
256.357	122.12
256.59	133.12
256.823	119.12
257.056	119.12
257.289	114.12
257.521	117.12
257.754	111.12
257.987	128.12
258.22	141.12
258.452	116.12
258.685	115.12
258.918	122.12
259.151	123.12
259.383	131.12
259.616	125.12
259.849	141.12
260.081	147.12
260.314	132.12
260.547	145.12
260.779	131.12
261.012	133.12
261.244	144.12
261.477	139.12
261.71	129.12
261.942	122.12
262.175	132.12
262.407	131.12
262.64	128.12
262.872	145.12
263.105	143.12
263.337	127.12
263.57	121.12
263.802	113.12
264.035	101.12
264.267	113.12
264.499	114.12
264.732	109.12
264.964	89.12
265.197	101.12
265.429	102.12
265.661	102.12
265.894	111.12
266.126	118.12
266.358	110.12
266.591	109.12
266.823	123.12
267.055	123.12
267.287	124.12
267.52	125.12
267.752	147.12
267.984	133.12
268.216	133.12
268.448	137.12
268.681	115.12
268.913	126.12
269.145	139.12
269.377	136.12
269.609	122.12
269.841	124.12
270.073	124.12
270.306	121.12
270.538	125.12
270.77	139.12
271.002	134.12
271.234	128.12
271.466	131.12
271.698	114.12
271.93	136.12
272.162	135.12
272.394	129.12
272.626	125.12
272.858	133.12
273.09	140.12
273.322	124.12
273.553	133.12
273.785	133.12
274.017	172.12
274.249	168.12
274.481	180.12
274.713	177.12
274.945	189.12
275.176	197.12
275.408	192.12
275.64	174.12
275.872	163.12
276.104	164.12
276.335	151.12
276.567	153.12
276.799	141.12
277.031	151.12
277.262	147.12
277.494	122.12
277.726	116.12
277.957	123.12
278.189	119.12
278.421	142.12
278.652	121.12
278.884	108.12
279.115	129.12
279.347	121.12
279.579	133.12
279.81	130.12
280.042	124.12
280.273	129.12
280.505	132.12
280.736	125.12
280.968	116.12
281.199	120.12
281.431	126.12
281.662	104.12
281.894	121.12
282.125	127.12
282.356	121.12
282.588	128.12
282.819	133.12
283.051	128.12
283.282	145.12
283.513	161.12
283.745	140.12
283.976	141.12
284.207	138.12
284.439	156.12
284.67	146.12
284.901	131.12
285.132	148.12
285.364	137.12
285.595	153.12
285.826	133.12
286.057	160.12
286.288	149.12
286.52	142.12
286.751	144.12
286.982	155.12
287.213	137.12
287.444	125.12
287.675	146.12
287.906	151.12
288.138	133.12
288.369	136.12
288.6	119.12
288.831	132.12
289.062	133.12
289.293	129.12
289.524	143.12
289.755	136.12
289.986	117.12
290.217	131.12
290.448	126.12
290.679	110.12
290.91	98.12
291.141	114.12
291.371	105.12
291.602	107.12
291.833	109.12
292.064	119.12
292.295	133.12
292.526	140.12
292.757	117.12
292.987	118.12
293.218	140.12
293.449	139.12
293.68	136.12
293.91	131.12
294.141	142.12
294.372	142.12
294.603	118.12
294.833	149.12
295.064	147.12
295.295	125.12
295.525	133.12
295.756	103.12
295.987	121.12
296.217	115.12
296.448	119.12
296.679	110.12
296.909	133.12
297.14	117.12
297.37	125.12
297.601	130.12
297.831	111.12
298.062	129.12
298.292	126.12
298.523	125.12
298.753	127.12
298.984	124.12
299.214	114.12
299.445	93.12
299.675	129.12
299.905	109.12
300.136	106.12
300.366	117.12
300.597	121.12
300.827	110.12
301.057	117.12
301.288	111.12
301.518	115.12
301.748	105.12
301.979	112.12
302.209	118.12
302.439	118.12
302.669	101.12
302.9	106.12
303.13	118.12
303.36	121.12
303.59	111.12
303.82	122.12
304.051	112.12
304.281	113.12
304.511	117.12
304.741	118.12
304.971	129.12
305.201	124.12
305.431	117.12
305.661	113.12
305.891	108.12
306.121	121.12
306.352	118.12
306.582	106.12
306.812	96.12
307.042	109.12
307.272	118.12
307.502	103.12
307.731	116.12
307.961	103.12
308.191	125.12
308.421	97.12
308.651	108.12
308.881	99.12
309.111	102.12
309.341	115.12
309.571	99.12
309.8	103.12
310.03	119.12
310.26	112.12
310.49	104.12
310.72	103.12
310.949	113.12
311.179	113.12
311.409	108.12
311.639	125.12
311.868	139.12
312.098	147.12
312.328	153.12
312.557	145.12
312.787	123.12
313.017	128.12
313.246	151.12
313.476	149.12
313.706	127.12
313.935	129.12
314.165	126.12
314.394	111.12
314.624	111.12
314.853	117.12
315.083	118.12
315.312	124.12
315.542	116.12
315.771	113.12
316.001	109.12
316.23	121.12
316.46	83.12
316.689	98.12
316.919	115.12
317.148	108.12
317.377	111.12
317.607	126.12
317.836	109.12
318.065	115.12
318.295	123.12
318.524	106.12
318.753	108.12
318.983	113.12
319.212	103.12
319.441	118.12
319.67	121.12
319.9	107.12
320.129	110.12
320.358	106.12
320.587	115.12
320.816	99.12
321.046	116.12
321.275	113.12
321.504	102.12
321.733	126.12
321.962	109.12
322.191	113.12
322.42	115.12
322.649	114.12
322.878	106.12
323.108	107.12
323.337	113.12
323.566	121.12
323.795	118.12
324.024	127.12
324.253	97.12
324.482	122.12
324.71	103.12
324.939	108.12
325.168	108.12
325.397	107.12
325.626	103.12
325.855	100.12
326.084	96.12
326.313	113.12
326.542	121.12
326.77	121.12
326.999	108.12
327.228	107.12
327.457	118.12
327.686	109.12
327.914	101.12
328.143	105.12
328.372	104.12
328.6	111.12
328.829	95.12
329.058	103.12
329.287	110.12
329.515	118.12
329.744	116.12
329.972	109.12
330.201	95.12
330.43	107.12
330.658	106.12
330.887	115.12
331.115	103.12
331.344	113.12
331.572	99.12
331.801	101.12
332.03	115.12
332.258	113.12
332.486	109.12
332.715	108.12
332.943	108.12
333.172	113.12
333.4	115.12
333.629	116.12
333.857	109.12
334.085	115.12
334.314	116.12
334.542	93.12
334.771	109.12
334.999	122.12
335.227	102.12
335.455	115.12
335.684	121.12
335.912	115.12
336.14	122.12
336.369	111.12
336.597	127.12
336.825	125.12
337.053	126.12
337.281	107.12
337.51	112.12
337.738	125.12
337.966	107.12
338.194	105.12
338.422	109.12
338.65	116.12
338.878	106.12
339.106	124.12
339.334	113.12
339.562	106.12
339.79	108.12
340.018	101.12
340.246	103.12
340.474	118.12
340.702	97.12
340.93	131.12
341.158	120.12
341.386	110.12
341.614	117.12
341.842	126.12
342.07	116.12
342.298	109.12
342.526	121.12
342.754	110.12
342.981	91.12
343.209	109.12
343.437	115.12
343.665	113.12
343.893	114.12
344.12	121.12
344.348	135.12
344.576	131.12
344.804	111.12
345.031	115.12
345.259	101.12
345.487	106.12
345.714	123.12
345.942	116.12
346.17	113.12
346.397	115.12
346.625	105.12
346.853	103.12
347.08	92.12
347.308	102.12
347.535	123.12
347.763	121.12
347.99	108.12
348.218	119.12
348.445	125.12
348.673	109.12
348.9	113.12
349.128	118.12
349.355	110.12
349.583	121.12
349.81	122.12
350.037	101.12
350.265	109.12
350.492	82.12
350.72	111.12
350.947	93.12
351.174	98.12
351.402	109.12
351.629	109.12
351.856	109.12
352.083	97.12
352.311	97.12
352.538	110.12
352.765	125.12
352.992	107.12
353.22	109.12
353.447	105.12
353.674	95.12
353.901	105.12
354.128	106.12
354.355	97.12
354.583	102.12
354.81	105.12
355.037	111.12
355.264	119.12
355.491	100.12
355.718	124.12
355.945	122.12
356.172	110.12
356.399	115.12
356.626	120.12
356.853	110.12
357.08	126.12
357.307	125.12
357.534	110.12
357.761	110.12
357.988	132.12
358.215	133.12
358.441	132.12
358.668	123.12
358.895	104.12
359.122	94.12
359.349	109.12
359.576	107.12
359.802	111.12
360.029	108.12
360.256	128.12
360.483	131.12
360.709	110.12
360.936	111.12
361.163	110.12
361.39	104.12
361.616	100.12
361.843	109.12
362.07	123.12
362.296	121.12
362.523	111.12
362.749	103.12
362.976	108.12
363.203	99.12
363.429	132.12
363.656	106.12
363.882	113.12
364.109	112.12
364.335	124.12
364.562	109.12
364.788	105.12
365.015	104.12
365.241	95.12
365.468	106.12
365.694	103.12
365.92	98.12
366.147	103.12
366.373	110.12
366.599	102.12
366.826	98.12
367.052	100.12
367.278	96.12
367.505	117.12
367.731	107.12
367.957	117.12
368.184	100.12
368.41	115.12
368.636	116.12
368.862	111.12
369.089	110.12
369.315	94.12
369.541	107.12
369.767	115.12
369.993	107.12
370.219	102.12
370.445	94.12
370.672	97.12
370.898	113.12
371.124	100.12
371.35	99.12
371.576	102.12
371.802	114.12
372.028	117.12
372.254	117.12
372.48	107.12
372.706	109.12
372.932	105.12
373.158	114.12
373.384	108.12
373.61	122.12
373.835	130.12
374.061	121.12
374.287	106.12
374.513	103.12
374.739	126.12
374.965	121.12
375.191	123.12
375.416	105.12
375.642	113.12
375.868	123.12
376.094	108.12
376.319	115.12
376.545	123.12
376.771	137.12
376.997	105.12
377.222	103.12
377.448	95.12
377.674	111.12
377.899	103.12
378.125	97.12
378.35	111.12
378.576	113.12
378.802	91.12
379.027	96.12
379.253	111.12
379.478	107.12
379.704	118.12
379.929	99.12
380.155	109.12
380.38	106.12
380.606	117.12
380.831	111.12
381.057	109.12
381.282	120.12
381.507	101.12
381.733	117.12
381.958	113.12
382.184	104.12
382.409	129.12
382.634	125.12
382.86	127.12
383.085	122.12
383.31	121.12
383.535	125.12
383.761	105.12
383.986	114.12
384.211	131.12
384.436	124.12
384.662	101.12
384.887	102.12
385.112	113.12
385.337	116.12
385.562	112.12
385.787	109.12
386.013	119.12
386.238	123.12
386.463	119.12
386.688	108.12
386.913	101.12
387.138	102.12
387.363	108.12
387.588	107.12
387.813	115.12
388.038	117.12
388.263	117.12
388.488	104.12
388.713	105.12
388.938	118.12
389.163	99.12
389.387	96.12
389.612	99.12
389.837	116.12
390.062	116.12
390.287	106.12
390.512	119.12
390.736	104.12
390.961	121.12
391.186	107.12
391.411	119.12
391.636	110.12
391.86	119.12
392.085	101.12
392.31	122.12
392.534	113.12
392.759	95.12
392.984	123.12
393.208	118.12
393.433	111.12
393.658	115.12
393.882	105.12
394.107	100.12
394.331	108.12
394.556	99.12
394.78	92.12
395.005	94.12
395.229	110.12
395.454	116.12
395.678	113.12
395.903	112.12
396.127	119.12
396.352	115.12
396.576	118.12
396.801	105.12
397.025	104.12
397.249	110.12
397.474	121.12
397.698	121.12
397.922	110.12
398.147	108.12
398.371	119.12
398.595	109.12
398.82	77.12
399.044	107.12
399.268	114.12
399.492	111.12
399.717	110.12
399.941	117.12
400.165	128.12
400.389	106.12
400.613	109.12
400.837	120.12
401.062	103.12
401.286	116.12
401.51	103.12
401.734	128.12
401.958	119.12
402.182	99.12
402.406	117.12
402.63	123.12
402.854	107.12
403.078	122.12
403.302	137.12
403.526	108.12
403.75	116.12
403.974	125.12
404.198	119.12
404.422	124.12
404.645	125.12
404.869	117.12
405.093	125.12
405.317	105.12
405.541	107.12
405.765	115.12
405.988	109.12
406.212	101.12
406.436	124.12
406.66	137.12
406.883	118.12
407.107	110.12
407.331	122.12
407.555	121.12
407.778	108.12
408.002	131.12
408.226	125.12
408.449	116.12
408.673	117.12
408.896	100.12
409.12	114.12
409.344	104.12
409.567	107.12
409.791	108.12
410.014	109.12
410.238	84.12
410.461	116.12
410.685	124.12
410.908	117.12
411.132	117.12
411.355	108.12
411.578	108.12
411.802	116.12
412.025	118.12
412.249	116.12
412.472	115.12
412.695	99.12
412.919	106.12
413.142	111.12
413.365	106.12
413.589	122.12
413.812	106.12
414.035	105.12
414.258	111.12
414.482	112.12
414.705	111.12
414.928	129.12
415.151	105.12
415.374	108.12
415.597	120.12
415.821	112.12
416.044	111.12
416.267	111.12
416.49	100.12
416.713	109.12
416.936	105.12
417.159	98.12
417.382	110.12
417.605	122.12
417.828	118.12
418.051	114.12
418.274	110.12
418.497	122.12
418.72	102.12
418.943	107.12
419.166	121.12
419.389	115.12
419.611	118.12
419.834	118.12
420.057	124.12
420.28	109.12
420.503	108.12
420.726	122.12
420.948	95.12
421.171	124.12
421.394	117.12
421.617	123.12
421.839	101.12
422.062	123.12
422.285	100.12
422.507	115.12
422.73	109.12
422.953	108.12
423.175	104.12
423.398	136.12
423.621	125.12
423.843	126.12
424.066	111.12
424.288	117.12
424.511	102.12
424.733	105.12
424.956	91.12
425.178	113.12
425.401	125.12
425.623	120.12
425.846	119.12
426.068	106.12
426.291	105.12
426.513	122.12
426.735	109.12
426.958	113.12
427.18	121.12
427.402	135.12
427.625	121.12
427.847	129.12
428.069	127.12
428.292	109.12
428.514	109.12
428.736	116.12
428.958	114.12
429.181	120.12
429.403	114.12
429.625	104.12
429.847	108.12
430.069	101.12
430.292	107.12
430.514	90.12
430.736	109.12
430.958	116.12
431.18	115.12
431.402	103.12
431.624	115.12
431.846	121.12
432.068	100.12
432.29	121.12
432.512	101.12
432.734	129.12
432.956	109.12
433.178	118.12
433.4	106.12
433.622	102.12
433.844	103.12
434.066	116.12
434.287	111.12
434.509	113.12
434.731	105.12
434.953	104.12
435.175	120.12
435.397	125.12
435.618	119.12
435.84	99.12
436.062	106.12
436.284	108.12
436.505	122.12
436.727	114.12
436.949	93.12
437.17	116.12
437.392	101.12
437.614	125.12
437.835	112.12
438.057	92.12
438.278	123.12
438.5	129.12
438.721	130.12
438.943	103.12
439.165	105.12
439.386	111.12
439.608	108.12
439.829	119.12
440.05	113.12
440.272	111.12
440.493	107.12
440.715	124.12
440.936	121.12
441.158	104.12
441.379	107.12
441.6	116.12
441.822	121.12
442.043	115.12
442.264	110.12
442.486	117.12
442.707	122.12
442.928	118.12
443.149	117.12
443.371	104.12
443.592	114.12
443.813	122.12
444.034	113.12
444.255	111.12
444.476	107.12
444.698	109.12
444.919	109.12
445.14	236.12
445.361	167.12
445.582	121.12
445.803	114.12
446.024	104.12
446.245	110.12
446.466	118.12
446.687	122.12
446.908	113.12
447.129	119.12
447.35	92.12
447.571	117.12
447.792	110.12
448.013	117.12
448.234	105.12
448.455	115.12
448.675	108.12
448.896	98.12
449.117	118.12
449.338	115.12
449.559	114.12
449.779	112.12
450	101.12
450.221	102.12
450.442	115.12
450.662	99.12
450.883	113.12
451.104	110.12
451.324	104.12
451.545	99.12
451.766	106.12
451.986	110.12
452.207	106.12
452.428	110.12
452.648	105.12
452.869	110.12
453.089	114.12
453.31	123.12
453.53	113.12
453.751	122.12
453.971	100.12
454.192	109.12
454.412	100.12
454.633	98.12
454.853	111.12
455.073	111.12
455.294	99.12
455.514	98.12
455.734	110.12
455.955	93.12
456.175	107.12
456.395	111.12
456.616	111.12
456.836	99.12
457.056	98.12
457.276	107.12
457.497	121.12
457.717	111.12
457.937	94.12
458.157	101.12
458.377	110.12
458.598	117.12
458.818	123.12
459.038	121.12
459.258	106.12
459.478	109.12
459.698	99.12
459.918	114.12
460.138	123.12
460.358	118.12
460.578	118.12
460.798	118.12
461.018	115.12
461.238	119.12
461.458	102.12
461.678	119.12
461.898	103.12
462.118	111.12
462.338	107.12
462.558	108.12
462.777	113.12
462.997	117.12
463.217	125.12
463.437	124.12
463.657	124.12
463.876	115.12
464.096	105.12
464.316	111.12
464.536	119.12
464.755	137.12
464.975	123.12
465.195	113.12
465.414	118.12
465.634	118.12
465.854	118.12
466.073	107.12
466.293	117.12
466.512	113.12
466.732	115.12
466.951	130.12
467.171	107.12
467.391	105.12
467.61	117.12
467.829	119.12
468.049	107.12
468.268	100.12
468.488	103.12
468.707	96.12
468.927	110.12
469.146	117.12
469.365	105.12
469.585	108.12
469.804	124.12
470.023	125.12
470.243	116.12
470.462	105.12
470.681	107.12
470.901	121.12
471.12	117.12
471.339	116.12
471.558	113.12
471.777	105.12
471.997	121.12
472.216	118.12
472.435	121.12
472.654	108.12
472.873	113.12
473.092	110.12
473.311	117.12
473.53	108.12
473.749	121.12
473.968	113.12
474.187	121.12
474.406	111.12
474.625	129.12
474.844	125.12
475.063	111.12
475.282	116.12
475.501	121.12
475.72	127.12
475.939	124.12
476.158	113.12
476.377	132.12
476.596	133.12
476.814	136.12
477.033	122.12
477.252	122.12
477.471	99.12
477.69	111.12
477.908	120.12
478.127	123.12
478.346	131.12
478.564	129.12
478.783	115.12
479.002	110.12
479.22	127.12
479.439	128.12
479.658	121.12
479.876	114.12
480.095	131.12
480.313	123.12
480.532	130.12
480.751	131.12
480.969	136.12
481.188	135.12
481.406	134.12
481.624	131.12
481.843	128.12
482.061	123.12
482.28	127.12
482.498	134.12
482.717	133.12
482.935	119.12
483.153	111.12
483.372	114.12
483.59	117.12
483.808	124.12
484.027	102.12
484.245	110.12
484.463	122.12
484.681	117.12
484.9	126.12
485.118	122.12
485.336	124.12
485.554	117.12
485.772	117.12
485.99	132.12
486.209	126.12
486.427	122.12
486.645	107.12
486.863	133.12
487.081	119.12
487.299	133.12
487.517	130.12
487.735	122.12
487.953	142.12
488.171	124.12
488.389	119.12
488.607	126.12
488.825	114.12
489.043	118.12
489.261	127.12
489.479	138.12
489.696	130.12
489.914	139.12
490.132	126.12
490.35	118.12
490.568	122.12
490.786	119.12
491.003	132.12
491.221	116.12
491.439	121.12
491.657	124.12
491.874	127.12
492.092	148.12
492.31	150.12
492.527	145.12
492.745	131.12
492.963	129.12
493.18	128.12
493.398	144.12
493.615	107.12
493.833	116.12
494.05	139.12
494.268	141.12
494.485	132.12
494.703	125.12
494.92	130.12
495.138	122.12
495.355	119.12
495.573	111.12
495.79	133.12
496.008	153.12
496.225	146.12
496.442	121.12
496.66	133.12
496.877	129.12
497.094	131.12
497.312	137.12
497.529	130.12
497.746	131.12
497.963	123.12
498.181	133.12
498.398	125.12
498.615	149.12
498.832	135.12
499.049	141.12
499.267	133.12
499.484	130.12
499.701	156.12
499.918	154.12
500.135	149.12
500.352	143.12
500.569	147.12
500.786	155.12
501.003	148.12
501.22	164.12
501.437	154.12
501.654	140.12
501.871	141.12
502.088	139.12
502.305	130.12
502.522	142.12
502.739	147.12
502.956	137.12
503.172	133.12
503.389	126.12
503.606	118.12
503.823	131.12
504.04	129.12
504.256	129.12
