Data from NickelSpatula.Lamp.E10.P2_HRD10591_11-56-47-535.txt Node
Date: Tue Jul 23 11:56:47 EDT 2019
User: cochatt
Spectrometer: HR+D1059
Trigger mode: 1
Integration Time (sec): 1.000000E-1
Scans to average: 1
Electric dark correction enabled: true
Nonlinearity correction enabled: false
Boxcar width: 0
XAxis mode: Wavelengths
Number of Pixels in Spectrum: 2048
>>>>>Begin Spectral Data<<<<<
223.165	-23.38
223.4	-23.38
223.635	-23.38
223.869	-8.38
224.104	-31.38
224.338	-1.38
224.573	-11.38
224.808	-26.38
225.042	-7.38
225.277	3.62
225.511	-11.38
225.746	-0.38
225.98	1.62
226.215	11.62
226.449	18.62
226.683	24.62
226.918	18.62
227.152	42.62
227.387	40.62
227.621	70.62
227.856	43.62
228.09	52.62
228.324	52.62
228.559	56.62
228.793	79.62
229.027	131.62
229.262	141.62
229.496	161.62
229.73	149.62
229.964	169.62
230.199	189.62
230.433	195.62
230.667	192.62
230.901	195.62
231.136	198.62
231.37	196.62
231.604	206.62
231.838	225.62
232.072	223.62
232.306	230.62
232.541	218.62
232.775	209.62
233.009	232.62
233.243	270.62
233.477	272.62
233.711	290.62
233.945	290.62
234.179	276.62
234.413	310.62
234.647	337.62
234.881	382.62
235.115	374.62
235.349	359.62
235.583	323.62
235.817	310.62
236.051	315.62
236.285	376.62
236.519	403.62
236.753	357.62
236.987	396.62
237.221	366.62
237.455	378.62
237.689	385.62
237.922	377.62
238.156	418.62
238.39	472.62
238.624	553.62
238.858	498.62
239.091	408.62
239.325	432.62
239.559	420.62
239.793	466.62
240.027	561.62
240.26	523.62
240.494	501.62
240.728	513.62
240.961	592.62
241.195	549.62
241.429	549.62
241.662	535.62
241.896	469.62
242.13	406.62
242.363	407.62
242.597	421.62
242.83	471.62
243.064	476.62
243.298	499.62
243.531	548.62
243.765	565.62
243.998	564.62
244.232	530.62
244.465	527.62
244.699	506.62
244.932	572.62
245.166	566.62
245.399	491.62
245.633	496.62
245.866	514.62
246.099	563.62
246.333	616.62
246.566	690.62
246.8	686.62
247.033	660.62
247.266	596.62
247.5	599.62
247.733	569.62
247.966	592.62
248.2	595.62
248.433	642.62
248.666	692.62
248.899	673.62
249.133	722.62
249.366	828.62
249.599	882.62
249.832	804.62
250.066	696.62
250.299	708.62
250.532	694.62
250.765	694.62
250.998	631.62
251.231	617.62
251.465	672.62
251.698	733.62
251.931	705.62
252.164	744.62
252.397	813.62
252.63	888.62
252.863	952.62
253.096	1043.62
253.329	971.62
253.562	971.62
253.795	1042.62
254.028	1136.62
254.261	1139.62
254.494	1048.62
254.727	952.62
254.96	978.62
255.193	980.62
255.426	965.62
255.659	776.62
255.892	732.62
256.124	768.62
256.357	926.62
256.59	1036.62
256.823	1012.62
257.056	861.62
257.289	810.62
257.521	883.62
257.754	1053.62
257.987	1205.62
258.22	1005.62
258.452	890.62
258.685	1025.62
258.918	1136.62
259.151	1128.62
259.383	1188.62
259.616	1377.62
259.849	1414.62
260.081	1507.62
260.314	1608.62
260.547	1321.62
260.779	1342.62
261.012	1538.62
261.244	1412.62
261.477	1393.62
261.71	1346.62
261.942	1158.62
262.175	1136.62
262.407	1066.62
262.64	1136.62
262.872	1336.62
263.105	1396.62
263.337	1432.62
263.57	1328.62
263.802	937.62
264.035	850.62
264.267	837.62
264.499	734.62
264.732	667.62
264.964	644.62
265.197	682.62
265.429	733.62
265.661	756.62
265.894	784.62
266.126	822.62
266.358	946.62
266.591	1128.62
266.823	1332.62
267.055	1278.62
267.287	1159.62
267.52	1161.62
267.752	1267.62
267.984	1338.62
268.216	1274.62
268.448	1076.62
268.681	1044.62
268.913	1093.62
269.145	1193.62
269.377	1188.62
269.609	1198.62
269.841	1142.62
270.073	1241.62
270.306	1261.62
270.538	1265.62
270.77	1331.62
271.002	1317.62
271.234	1332.62
271.466	1307.62
271.698	1235.62
271.93	1253.62
272.162	1231.62
272.394	1194.62
272.626	1202.62
272.858	1222.62
273.09	1257.62
273.322	1107.62
273.553	1056.62
273.785	1221.62
274.017	1604.62
274.249	1932.62
274.481	2032.62
274.713	2284.62
274.945	2592.62
275.176	2663.62
275.408	2395.62
275.64	2208.62
275.872	2249.62
276.104	1961.62
276.335	1682.62
276.567	1692.62
276.799	1718.62
277.031	1825.62
277.262	1426.62
277.494	1117.62
277.726	1089.62
277.957	1200.62
278.189	1304.62
278.421	1301.62
278.652	1286.62
278.884	1196.62
279.115	1126.62
279.347	1090.62
279.579	1078.62
279.81	1090.62
280.042	1114.62
280.273	1143.62
280.505	1030.62
280.736	935.62
280.968	948.62
281.199	1035.62
281.431	1164.62
281.662	1143.62
281.894	1115.62
282.125	1174.62
282.356	1236.62
282.588	1281.62
282.819	1150.62
283.051	1260.62
283.282	1515.62
283.513	1769.62
283.745	1949.62
283.976	1985.62
284.207	1805.62
284.439	1860.62
284.67	1757.62
284.901	1578.62
285.132	1709.62
285.364	1778.62
285.595	1647.62
285.826	1768.62
286.057	1793.62
286.288	1739.62
286.52	1784.62
286.751	1890.62
286.982	1881.62
287.213	1630.62
287.444	1619.62
287.675	1672.62
287.906	1649.62
288.138	1435.62
288.369	1290.62
288.6	1206.62
288.831	1276.62
289.062	1507.62
289.293	1631.62
289.524	1558.62
289.755	1523.62
289.986	1528.62
290.217	1346.62
290.448	1058.62
290.679	908.62
290.91	864.62
291.141	845.62
291.371	869.62
291.602	911.62
291.833	920.62
292.064	973.62
292.295	1102.62
292.526	1299.62
292.757	1314.62
292.987	1410.62
293.218	1417.62
293.449	1495.62
293.68	1584.62
293.91	1525.62
294.141	1503.62
294.372	1434.62
294.603	1308.62
294.833	1449.62
295.064	1684.62
295.295	1606.62
295.525	1212.62
295.756	1024.62
295.987	908.62
296.217	915.62
296.448	895.62
296.679	958.62
296.909	1028.62
297.14	1099.62
297.37	1239.62
297.601	1173.62
297.831	1049.62
298.062	1129.62
298.292	1238.62
298.523	1319.62
298.753	1440.62
298.984	1345.62
299.214	1106.62
299.445	937.62
299.675	860.62
299.905	846.62
300.136	873.62
300.366	932.62
300.597	893.62
300.827	835.62
301.057	824.62
301.288	813.62
301.518	882.62
301.748	971.62
301.979	1061.62
302.209	1067.62
302.439	1108.62
302.669	1002.62
302.9	1020.62
303.13	1027.62
303.36	954.62
303.59	941.62
303.82	969.62
304.051	1059.62
304.281	1179.62
304.511	1157.62
304.741	1025.62
304.971	1006.62
305.201	1103.62
305.431	1076.62
305.661	926.62
305.891	868.62
306.121	880.62
306.352	839.62
306.582	768.62
306.812	743.62
307.042	765.62
307.272	730.62
307.502	733.62
307.731	796.62
307.961	766.62
308.191	760.62
308.421	729.62
308.651	722.62
308.881	678.62
309.111	728.62
309.341	756.62
309.571	816.62
309.8	845.62
310.03	794.62
310.26	794.62
310.49	809.62
310.72	786.62
310.949	795.62
311.179	832.62
311.409	843.62
311.639	1008.62
311.868	1208.62
312.098	1577.62
312.328	1728.62
312.557	1634.62
312.787	1658.62
313.017	1462.62
313.246	1580.62
313.476	1768.62
313.706	1430.62
313.935	1155.62
314.165	952.62
314.394	886.62
314.624	891.62
314.853	914.62
315.083	908.62
315.312	890.62
315.542	868.62
315.771	816.62
316.001	778.62
316.23	740.62
316.46	741.62
316.689	758.62
316.919	770.62
317.148	818.62
317.377	787.62
317.607	781.62
317.836	861.62
318.065	950.62
318.295	1047.62
318.524	1036.62
318.753	888.62
318.983	801.62
319.212	818.62
319.441	827.62
319.67	958.62
319.9	1012.62
320.129	954.62
320.358	816.62
320.587	816.62
320.816	865.62
321.046	966.62
321.275	1061.62
321.504	1037.62
321.733	1006.62
321.962	1000.62
322.191	916.62
322.42	882.62
322.649	876.62
322.878	957.62
323.108	969.62
323.337	921.62
323.566	906.62
323.795	921.62
324.024	880.62
324.253	857.62
324.482	812.62
324.71	860.62
324.939	962.62
325.168	894.62
325.397	820.62
325.626	808.62
325.855	823.62
326.084	835.62
326.313	804.62
326.542	737.62
326.77	794.62
326.999	794.62
327.228	824.62
327.457	855.62
327.686	837.62
327.914	780.62
328.143	732.62
328.372	764.62
328.6	744.62
328.829	771.62
329.058	779.62
329.287	814.62
329.515	799.62
329.744	821.62
329.972	766.62
330.201	725.62
330.43	747.62
330.658	836.62
330.887	932.62
331.115	922.62
331.344	909.62
331.572	864.62
331.801	810.62
332.03	800.62
332.258	818.62
332.486	884.62
332.715	894.62
332.943	854.62
333.172	832.62
333.4	877.62
333.629	955.62
333.857	1005.62
334.085	1027.62
334.314	999.62
334.542	952.62
334.771	905.62
334.999	871.62
335.227	852.62
335.455	891.62
335.684	916.62
335.912	1061.62
336.14	1170.62
336.369	1110.62
336.597	1088.62
336.825	1198.62
337.053	1306.62
337.281	1060.62
337.51	883.62
337.738	860.62
337.966	933.62
338.194	1008.62
338.422	954.62
338.65	852.62
338.878	788.62
339.106	826.62
339.334	903.62
339.562	916.62
339.79	885.62
340.018	871.62
340.246	904.62
340.474	1061.62
340.702	1084.62
340.93	1106.62
341.158	1093.62
341.386	924.62
341.614	894.62
341.842	917.62
342.07	1003.62
342.298	1113.62
342.526	1154.62
342.754	984.62
342.981	911.62
343.209	909.62
343.437	984.62
343.665	1028.62
343.893	974.62
344.12	1130.62
344.348	1311.62
344.576	1164.62
344.804	966.62
345.031	893.62
345.259	845.62
345.487	839.62
345.714	881.62
345.942	946.62
346.17	994.62
346.397	977.62
346.625	862.62
346.853	837.62
347.08	832.62
347.308	863.62
347.535	984.62
347.763	985.62
347.99	877.62
348.218	822.62
348.445	868.62
348.673	881.62
348.9	840.62
349.128	896.62
349.355	875.62
349.583	866.62
349.81	870.62
350.037	816.62
350.265	735.62
350.492	724.62
350.72	691.62
350.947	731.62
351.174	767.62
351.402	784.62
351.629	816.62
351.856	783.62
352.083	748.62
352.311	796.62
352.538	830.62
352.765	867.62
352.992	829.62
353.22	806.62
353.447	840.62
353.674	769.62
353.901	774.62
354.128	768.62
354.355	781.62
354.583	785.62
354.81	796.62
355.037	848.62
355.264	819.62
355.491	792.62
355.718	854.62
355.945	887.62
356.172	872.62
356.399	857.62
356.626	982.62
356.853	1125.62
357.08	1175.62
357.307	1220.62
357.534	998.62
357.761	1014.62
357.988	1231.62
358.215	1381.62
358.441	1311.62
358.668	1154.62
358.895	1052.62
359.122	933.62
359.349	953.62
359.576	997.62
359.802	888.62
360.029	808.62
360.256	816.62
360.483	936.62
360.709	1124.62
360.936	1144.62
361.163	1037.62
361.39	855.62
361.616	830.62
361.843	929.62
362.07	1040.62
362.296	978.62
362.523	826.62
362.749	753.62
362.976	822.62
363.203	893.62
363.429	982.62
363.656	878.62
363.882	781.62
364.109	816.62
364.335	798.62
364.562	807.62
364.788	878.62
365.015	944.62
365.241	869.62
365.468	788.62
365.694	714.62
365.92	721.62
366.147	678.62
366.373	693.62
366.599	717.62
366.826	695.62
367.052	705.62
367.278	733.62
367.505	688.62
367.731	755.62
367.957	837.62
368.184	832.62
368.41	814.62
368.636	835.62
368.862	832.62
369.089	814.62
369.315	755.62
369.541	750.62
369.767	766.62
369.993	707.62
370.219	728.62
370.445	746.62
370.672	814.62
370.898	823.62
371.124	845.62
371.35	795.62
371.576	793.62
371.802	803.62
372.028	892.62
372.254	985.62
372.48	878.62
372.706	841.62
372.932	864.62
373.158	866.62
373.384	1001.62
373.61	1218.62
373.835	1256.62
374.061	990.62
374.287	894.62
374.513	1008.62
374.739	1162.62
374.965	1190.62
375.191	1152.62
375.416	903.62
375.642	852.62
375.868	908.62
376.094	979.62
376.319	898.62
376.545	953.62
376.771	965.62
376.997	887.62
377.222	750.62
377.448	696.62
377.674	679.62
377.899	700.62
378.125	688.62
378.35	687.62
378.576	673.62
378.802	736.62
379.027	749.62
379.253	766.62
379.478	772.62
379.704	792.62
379.929	816.62
380.155	857.62
380.38	786.62
380.606	829.62
380.831	875.62
381.057	833.62
381.282	831.62
381.507	922.62
381.733	1032.62
381.958	1110.62
382.184	1156.62
382.409	1196.62
382.634	1160.62
382.86	1220.62
383.085	1017.62
383.31	892.62
383.535	947.62
383.761	990.62
383.986	902.62
384.211	1042.62
384.436	1013.62
384.662	877.62
384.887	866.62
385.112	851.62
385.337	853.62
385.562	839.62
385.787	894.62
386.013	940.62
386.238	973.62
386.463	855.62
386.688	850.62
386.913	835.62
387.138	784.62
387.363	861.62
387.588	832.62
387.813	861.62
388.038	864.62
388.263	818.62
388.488	824.62
388.713	890.62
388.938	925.62
389.163	816.62
389.387	805.62
389.612	795.62
389.837	809.62
390.062	803.62
390.287	856.62
390.512	830.62
390.736	795.62
390.961	784.62
391.186	785.62
391.411	765.62
391.636	756.62
391.86	819.62
392.085	876.62
392.31	865.62
392.534	860.62
392.759	840.62
392.984	874.62
393.208	853.62
393.433	777.62
393.658	750.62
393.882	765.62
394.107	747.62
394.331	755.62
394.556	737.62
394.78	784.62
395.005	768.62
395.229	782.62
395.454	787.62
395.678	828.62
395.903	832.62
396.127	774.62
396.352	804.62
396.576	867.62
396.801	824.62
397.025	921.62
397.249	924.62
397.474	834.62
397.698	828.62
397.922	875.62
398.147	845.62
398.371	852.62
398.595	893.62
398.82	882.62
399.044	868.62
399.268	937.62
399.492	976.62
399.717	995.62
399.941	1003.62
400.165	981.62
400.389	955.62
400.613	945.62
400.837	937.62
401.062	862.62
401.286	862.62
401.51	867.62
401.734	842.62
401.958	864.62
402.182	836.62
402.406	881.62
402.63	852.62
402.854	907.62
403.078	964.62
403.302	1127.62
403.526	1199.62
403.75	1064.62
403.974	981.62
404.198	1003.62
404.422	1073.62
404.645	1120.62
404.869	1201.62
405.093	1045.62
405.317	916.62
405.541	918.62
405.765	959.62
405.988	954.62
406.212	991.62
406.436	1044.62
406.66	1120.62
406.883	993.62
407.107	1024.62
407.331	1134.62
407.555	1107.62
407.778	1028.62
408.002	986.62
408.226	998.62
408.449	999.62
408.673	960.62
408.896	912.62
409.12	874.62
409.344	882.62
409.567	826.62
409.791	891.62
410.014	846.62
410.238	838.62
410.461	868.62
410.685	858.62
410.908	880.62
411.132	870.62
411.355	866.62
411.578	910.62
411.802	879.62
412.025	886.62
412.249	890.62
412.472	915.62
412.695	902.62
412.919	887.62
413.142	894.62
413.365	927.62
413.589	950.62
413.812	876.62
414.035	865.62
414.258	847.62
414.482	905.62
414.705	893.62
414.928	836.62
415.151	809.62
415.374	831.62
415.597	843.62
415.821	837.62
416.044	818.62
416.267	836.62
416.49	819.62
416.713	832.62
416.936	812.62
417.159	833.62
417.382	824.62
417.605	841.62
417.828	825.62
418.051	822.62
418.274	832.62
418.497	844.62
418.72	864.62
418.943	854.62
419.166	873.62
419.389	914.62
419.611	912.62
419.834	945.62
420.057	942.62
420.28	973.62
420.503	909.62
420.726	818.62
420.948	816.62
421.171	845.62
421.394	825.62
421.617	828.62
421.839	832.62
422.062	867.62
422.285	825.62
422.507	857.62
422.73	871.62
422.953	871.62
423.175	863.62
423.398	866.62
423.621	899.62
423.843	966.62
424.066	854.62
424.288	858.62
424.511	860.62
424.733	854.62
424.956	898.62
425.178	938.62
425.401	1023.62
425.623	1142.62
425.846	997.62
426.068	882.62
426.291	922.62
426.513	892.62
426.735	845.62
426.958	908.62
427.18	983.62
427.402	1142.62
427.625	1200.62
427.847	1027.62
428.069	852.62
428.292	825.62
428.514	836.62
428.736	814.62
428.958	899.62
429.181	962.62
429.403	873.62
429.625	776.62
429.847	806.62
430.069	829.62
430.292	795.62
430.514	789.62
430.736	844.62
430.958	950.62
431.18	894.62
431.402	785.62
431.624	750.62
431.846	770.62
432.068	774.62
432.29	784.62
432.512	803.62
432.734	936.62
432.956	948.62
433.178	790.62
433.4	828.62
433.622	818.62
433.844	801.62
434.066	828.62
434.287	880.62
434.509	857.62
434.731	856.62
434.953	837.62
435.175	854.62
435.397	924.62
435.618	841.62
435.84	799.62
436.062	808.62
436.284	804.62
436.505	780.62
436.727	770.62
436.949	785.62
437.17	778.62
437.392	796.62
437.614	774.62
437.835	744.62
438.057	770.62
438.278	842.62
438.5	1062.62
438.721	1072.62
438.943	844.62
439.165	750.62
439.386	726.62
439.608	741.62
439.829	752.62
440.05	758.62
440.272	809.62
440.493	861.62
440.715	963.62
440.936	857.62
441.158	777.62
441.379	802.62
441.6	896.62
441.822	904.62
442.043	845.62
442.264	846.62
442.486	813.62
442.707	841.62
442.928	816.62
443.149	859.62
443.371	873.62
443.592	888.62
443.813	857.62
444.034	847.62
444.255	870.62
444.476	873.62
444.698	870.62
444.919	897.62
445.14	1028.62
445.361	983.62
445.582	900.62
445.803	894.62
446.024	896.62
446.245	864.62
446.466	866.62
446.687	813.62
446.908	805.62
447.129	808.62
447.35	782.62
447.571	785.62
447.792	743.62
448.013	749.62
448.234	749.62
448.455	748.62
448.675	753.62
448.896	784.62
449.117	756.62
449.338	764.62
449.559	758.62
449.779	791.62
450	813.62
450.221	783.62
450.442	758.62
450.662	766.62
450.883	760.62
451.104	785.62
451.324	773.62
451.545	781.62
451.766	796.62
451.986	749.62
452.207	710.62
452.428	708.62
452.648	734.62
452.869	741.62
453.089	759.62
453.31	748.62
453.53	696.62
453.751	717.62
453.971	705.62
454.192	706.62
454.412	725.62
454.633	720.62
454.853	700.62
455.073	725.62
455.294	708.62
455.514	689.62
455.734	728.62
455.955	764.62
456.175	785.62
456.395	728.62
456.616	666.62
456.836	667.62
457.056	684.62
457.276	688.62
457.497	674.62
457.717	668.62
457.937	699.62
458.157	684.62
458.377	696.62
458.598	705.62
458.818	716.62
459.038	737.62
459.258	780.62
459.478	814.62
459.698	832.62
459.918	866.62
460.138	860.62
460.358	878.62
460.578	838.62
460.798	863.62
461.018	847.62
461.238	818.62
461.458	853.62
461.678	853.62
461.898	875.62
462.118	904.62
462.338	876.62
462.558	894.62
462.777	923.62
462.997	963.62
463.217	957.62
463.437	973.62
463.657	959.62
463.876	910.62
464.096	909.62
464.316	933.62
464.536	916.62
464.755	966.62
464.975	926.62
465.195	910.62
465.414	932.62
465.634	872.62
465.854	887.62
466.073	835.62
466.293	817.62
466.512	877.62
466.732	911.62
466.951	944.62
467.171	866.62
467.391	815.62
467.61	801.62
467.829	876.62
468.049	852.62
468.268	811.62
468.488	812.62
468.707	854.62
468.927	961.62
469.146	1027.62
469.365	952.62
469.585	872.62
469.804	910.62
470.023	1025.62
470.243	895.62
470.462	866.62
470.681	867.62
470.901	860.62
471.12	876.62
471.339	880.62
471.558	853.62
471.777	831.62
471.997	918.62
472.216	992.62
472.435	954.62
472.654	886.62
472.873	875.62
473.092	877.62
473.311	924.62
473.53	861.62
473.749	834.62
473.968	878.62
474.187	881.62
474.406	866.62
474.625	841.62
474.844	873.62
475.063	936.62
475.282	921.62
475.501	978.62
475.72	1029.62
475.939	986.62
476.158	1013.62
476.377	1138.62
476.596	1286.62
476.814	1341.62
477.033	1095.62
477.252	973.62
477.471	925.62
477.69	934.62
477.908	1043.62
478.127	1075.62
478.346	1006.62
478.564	1067.62
478.783	997.62
479.002	1002.62
479.22	1157.62
479.439	1257.62
479.658	1144.62
479.876	1069.62
480.095	1111.62
480.313	1135.62
480.532	1057.62
480.751	1047.62
480.969	1036.62
481.188	1169.62
481.406	1183.62
481.624	1130.62
481.843	1042.62
482.061	1000.62
482.28	1114.62
482.498	1331.62
482.717	1261.62
482.935	1115.62
483.153	1031.62
483.372	974.62
483.59	992.62
483.808	995.62
484.027	973.62
484.245	932.62
484.463	933.62
484.681	931.62
484.9	1031.62
485.118	1089.62
485.336	1044.62
485.554	993.62
485.772	998.62
485.99	1061.62
486.209	1111.62
486.427	1100.62
486.645	1123.62
486.863	1140.62
487.081	1116.62
487.299	1192.62
487.517	1124.62
487.735	1069.62
487.953	1131.62
488.171	1147.62
488.389	1076.62
488.607	1023.62
488.825	1063.62
489.043	1144.62
489.261	1227.62
489.479	1251.62
489.696	1110.62
489.914	1062.62
490.132	1040.62
490.35	1050.62
490.568	1054.62
490.786	1039.62
491.003	1056.62
491.221	1067.62
491.439	1085.62
491.657	1046.62
491.874	1106.62
492.092	1221.62
492.31	1355.62
492.527	1417.62
492.745	1308.62
492.963	1206.62
493.18	1188.62
493.398	1145.62
493.615	1179.62
493.833	1174.62
494.05	1130.62
494.268	1150.62
494.485	1144.62
494.703	1089.62
494.92	1104.62
495.138	1102.62
495.355	1125.62
495.573	1127.62
495.79	1158.62
496.008	1355.62
496.225	1245.62
496.442	1202.62
496.66	1190.62
496.877	1288.62
497.094	1221.62
497.312	1195.62
497.529	1213.62
