Data from NickelSpatula.Lamp.E10.P2_HRD10591_11-58-29-528.txt Node
Date: Tue Jul 23 11:58:29 EDT 2019
User: cochatt
Spectrometer: HR+D1059
Trigger mode: 1
Integration Time (sec): 1.000000E-1
Scans to average: 1
Electric dark correction enabled: true
Nonlinearity correction enabled: false
Boxcar width: 0
XAxis mode: Wavelengths
Number of Pixels in Spectrum: 2048
>>>>>Begin Spectral Data<<<<<
223.165	-8.94
223.4	-8.94
223.635	-8.94
223.869	-28.94
224.104	-15.94
224.338	-17.94
224.573	-22.94
224.808	-19.94
225.042	-6.94
225.277	-9.94
225.511	12.06
225.746	1.06
225.98	5.06
226.215	11.06
226.449	26.06
226.683	21.06
226.918	29.06
227.152	26.06
227.387	44.06
227.621	39.06
227.856	50.06
228.09	59.06
228.324	48.06
228.559	53.06
228.793	66.06
229.027	146.06
229.262	162.06
229.496	153.06
229.73	177.06
229.964	197.06
230.199	216.06
230.433	227.06
230.667	202.06
230.901	197.06
231.136	205.06
231.37	201.06
231.604	205.06
231.838	239.06
232.072	259.06
232.306	236.06
232.541	239.06
232.775	232.06
233.009	253.06
233.243	302.06
233.477	316.06
233.711	339.06
233.945	339.06
234.179	353.06
234.413	348.06
234.647	391.06
234.881	455.06
235.115	438.06
235.349	389.06
235.583	352.06
235.817	333.06
236.051	365.06
236.285	422.06
236.519	459.06
236.753	432.06
236.987	425.06
237.221	377.06
237.455	393.06
237.689	435.06
237.922	464.06
238.156	469.06
238.39	567.06
238.624	637.06
238.858	582.06
239.091	496.06
239.325	500.06
239.559	478.06
239.793	554.06
240.027	645.06
240.26	595.06
240.494	563.06
240.728	586.06
240.961	681.06
241.195	639.06
241.429	620.06
241.662	597.06
241.896	523.06
242.13	485.06
242.363	452.06
242.597	464.06
242.83	554.06
243.064	524.06
243.298	579.06
243.531	627.06
243.765	641.06
243.998	624.06
244.232	594.06
244.465	596.06
244.699	575.06
244.932	650.06
245.166	613.06
245.399	547.06
245.633	541.06
245.866	574.06
246.099	586.06
246.333	709.06
246.566	753.06
246.8	743.06
247.033	728.06
247.266	683.06
247.5	693.06
247.733	681.06
247.966	624.06
248.2	674.06
248.433	760.06
248.666	819.06
248.899	848.06
249.133	827.06
249.366	970.06
249.599	1020.06
249.832	920.06
250.066	811.06
250.299	819.06
250.532	782.06
250.765	788.06
250.998	723.06
251.231	697.06
251.465	773.06
251.698	818.06
251.931	775.06
252.164	857.06
252.397	936.06
252.63	1020.06
252.863	1133.06
253.096	1189.06
253.329	1147.06
253.562	1066.06
253.795	1219.06
254.028	1333.06
254.261	1356.06
254.494	1235.06
254.727	1128.06
254.96	1108.06
255.193	1183.06
255.426	1117.06
255.659	841.06
255.892	772.06
256.124	864.06
256.357	1005.06
256.59	1171.06
256.823	1129.06
257.056	954.06
257.289	897.06
257.521	943.06
257.754	1115.06
257.987	1268.06
258.22	1085.06
258.452	963.06
258.685	1138.06
258.918	1285.06
259.151	1208.06
259.383	1274.06
259.616	1500.06
259.849	1506.06
260.081	1685.06
260.314	1911.06
260.547	1456.06
260.779	1448.06
261.012	1665.06
261.244	1589.06
261.477	1604.06
261.71	1524.06
261.942	1270.06
262.175	1250.06
262.407	1199.06
262.64	1230.06
262.872	1481.06
263.105	1632.06
263.337	1682.06
263.57	1470.06
263.802	1027.06
264.035	914.06
264.267	880.06
264.499	771.06
264.732	709.06
264.964	678.06
265.197	733.06
265.429	795.06
265.661	812.06
265.894	854.06
266.126	871.06
266.358	1010.06
266.591	1219.06
266.823	1497.06
267.055	1384.06
267.287	1229.06
267.52	1191.06
267.752	1278.06
267.984	1425.06
268.216	1357.06
268.448	1104.06
268.681	1083.06
268.913	1204.06
269.145	1233.06
269.377	1267.06
269.609	1266.06
269.841	1199.06
270.073	1266.06
270.306	1336.06
270.538	1325.06
270.77	1356.06
271.002	1364.06
271.234	1441.06
271.466	1457.06
271.698	1427.06
271.93	1403.06
272.162	1395.06
272.394	1397.06
272.626	1367.06
272.858	1446.06
273.09	1453.06
273.322	1259.06
273.553	1233.06
273.785	1462.06
274.017	1959.06
274.249	2408.06
274.481	2507.06
274.713	2702.06
274.945	3142.06
275.176	3191.06
275.408	2827.06
275.64	2536.06
275.872	2596.06
276.104	2197.06
276.335	1878.06
276.567	1871.06
276.799	1913.06
277.031	2045.06
277.262	1574.06
277.494	1228.06
277.726	1154.06
277.957	1297.06
278.189	1453.06
278.421	1447.06
278.652	1392.06
278.884	1347.06
279.115	1256.06
279.347	1169.06
279.579	1183.06
279.81	1157.06
280.042	1192.06
280.273	1213.06
280.505	1130.06
280.736	988.06
280.968	992.06
281.199	1088.06
281.431	1230.06
281.662	1214.06
281.894	1157.06
282.125	1249.06
282.356	1312.06
282.588	1336.06
282.819	1244.06
283.051	1392.06
283.282	1663.06
283.513	1908.06
283.745	2140.06
283.976	2147.06
284.207	1969.06
284.439	2039.06
284.67	1969.06
284.901	1721.06
285.132	1900.06
285.364	1957.06
285.595	1815.06
285.826	1935.06
286.057	2019.06
286.288	1905.06
286.52	1923.06
286.751	2071.06
286.982	2074.06
287.213	1744.06
287.444	1717.06
287.675	1803.06
287.906	1775.06
288.138	1488.06
288.369	1327.06
288.6	1268.06
288.831	1304.06
289.062	1514.06
289.293	1650.06
289.524	1521.06
289.755	1557.06
289.986	1627.06
290.217	1417.06
290.448	1098.06
290.679	930.06
290.91	903.06
291.141	907.06
291.371	953.06
291.602	948.06
291.833	972.06
292.064	1025.06
292.295	1180.06
292.526	1419.06
292.757	1407.06
292.987	1515.06
293.218	1503.06
293.449	1571.06
293.68	1666.06
293.91	1532.06
294.141	1578.06
294.372	1537.06
294.603	1380.06
294.833	1523.06
295.064	1777.06
295.295	1698.06
295.525	1299.06
295.756	1115.06
295.987	968.06
296.217	1001.06
296.448	1005.06
296.679	1068.06
296.909	1178.06
297.14	1293.06
297.37	1423.06
297.601	1313.06
297.831	1153.06
298.062	1195.06
298.292	1391.06
298.523	1473.06
298.753	1748.06
298.984	1572.06
299.214	1244.06
299.445	1073.06
299.675	1031.06
299.905	996.06
300.136	1060.06
300.366	1135.06
300.597	1107.06
300.827	993.06
301.057	947.06
301.288	1000.06
301.518	1075.06
301.748	1186.06
301.979	1281.06
302.209	1409.06
302.439	1419.06
302.669	1196.06
302.9	1208.06
303.13	1092.06
303.36	1067.06
303.59	1035.06
303.82	1036.06
304.051	1204.06
304.281	1279.06
304.511	1215.06
304.741	1104.06
304.971	1179.06
305.201	1252.06
305.431	1170.06
305.661	1041.06
305.891	1039.06
306.121	1024.06
306.352	930.06
306.582	854.06
306.812	840.06
307.042	822.06
307.272	765.06
307.502	782.06
307.731	864.06
307.961	891.06
308.191	835.06
308.421	805.06
308.651	772.06
308.881	755.06
309.111	758.06
309.341	806.06
309.571	875.06
309.8	898.06
310.03	887.06
310.26	935.06
310.49	959.06
310.72	872.06
310.949	823.06
311.179	865.06
311.409	891.06
311.639	1061.06
311.868	1376.06
312.098	1793.06
312.328	1888.06
312.557	1797.06
312.787	1836.06
313.017	1634.06
313.246	1783.06
313.476	1916.06
313.706	1555.06
313.935	1265.06
314.165	1041.06
314.394	936.06
314.624	920.06
314.853	952.06
315.083	1001.06
315.312	987.06
315.542	967.06
315.771	929.06
316.001	853.06
316.23	800.06
316.46	801.06
316.689	838.06
316.919	835.06
317.148	861.06
317.377	864.06
317.607	879.06
317.836	915.06
318.065	1098.06
318.295	1232.06
318.524	1106.06
318.753	937.06
318.983	907.06
319.212	904.06
319.441	957.06
319.67	1089.06
319.9	1176.06
320.129	1104.06
320.358	943.06
320.587	911.06
320.816	990.06
321.046	1134.06
321.275	1281.06
321.504	1299.06
321.733	1228.06
321.962	1178.06
322.191	1112.06
322.42	1050.06
322.649	1089.06
322.878	1181.06
323.108	1183.06
323.337	1065.06
323.566	1063.06
323.795	1041.06
324.024	1003.06
324.253	943.06
324.482	954.06
324.71	1040.06
324.939	1177.06
325.168	1103.06
325.397	927.06
325.626	883.06
325.855	900.06
326.084	896.06
326.313	843.06
326.542	817.06
326.77	843.06
326.999	885.06
327.228	929.06
327.457	992.06
327.686	996.06
327.914	869.06
328.143	831.06
328.372	847.06
328.6	829.06
328.829	858.06
329.058	874.06
329.287	863.06
329.515	865.06
329.744	851.06
329.972	837.06
330.201	782.06
330.43	829.06
330.658	932.06
330.887	1016.06
331.115	1000.06
331.344	947.06
331.572	943.06
331.801	886.06
332.03	824.06
332.258	868.06
332.486	908.06
332.715	960.06
332.943	890.06
333.172	885.06
333.4	929.06
333.629	1025.06
333.857	1054.06
334.085	1043.06
334.314	1055.06
334.542	996.06
334.771	953.06
334.999	927.06
335.227	895.06
335.455	945.06
335.684	1011.06
335.912	1192.06
336.14	1281.06
336.369	1229.06
336.597	1210.06
336.825	1321.06
337.053	1455.06
337.281	1205.06
337.51	955.06
337.738	957.06
337.966	1058.06
338.194	1153.06
338.422	1100.06
338.65	912.06
338.878	871.06
339.106	895.06
339.334	973.06
339.562	1041.06
339.79	975.06
340.018	940.06
340.246	1002.06
340.474	1148.06
340.702	1222.06
340.93	1293.06
341.158	1285.06
341.386	1101.06
341.614	1050.06
341.842	1091.06
342.07	1108.06
342.298	1300.06
342.526	1353.06
342.754	1186.06
342.981	1062.06
343.209	997.06
343.437	1087.06
343.665	1147.06
343.893	1107.06
344.12	1303.06
344.348	1533.06
344.576	1358.06
344.804	1133.06
345.031	1002.06
345.259	940.06
345.487	986.06
345.714	982.06
345.942	1052.06
346.17	1167.06
346.397	1091.06
346.625	972.06
346.853	910.06
347.08	903.06
347.308	953.06
347.535	1075.06
347.763	1111.06
347.99	960.06
348.218	897.06
348.445	927.06
348.673	933.06
348.9	944.06
349.128	1011.06
349.355	1050.06
349.583	1014.06
349.81	973.06
350.037	904.06
350.265	828.06
350.492	745.06
350.72	775.06
350.947	817.06
351.174	874.06
351.402	922.06
351.629	957.06
351.856	907.06
352.083	855.06
352.311	931.06
352.538	1011.06
352.765	1076.06
352.992	982.06
353.22	937.06
353.447	959.06
353.674	930.06
353.901	919.06
354.128	910.06
354.355	954.06
354.583	964.06
354.81	950.06
355.037	981.06
355.264	963.06
355.491	1036.06
355.718	1123.06
355.945	1081.06
356.172	1023.06
356.399	1078.06
356.626	1257.06
356.853	1546.06
357.08	1591.06
357.307	1650.06
357.534	1294.06
357.761	1363.06
357.988	1679.06
358.215	1961.06
358.441	1880.06
358.668	1523.06
358.895	1425.06
359.122	1155.06
359.349	1138.06
359.576	1261.06
359.802	1075.06
360.029	916.06
360.256	975.06
360.483	1228.06
360.709	1505.06
360.936	1581.06
361.163	1417.06
361.39	1078.06
361.616	1031.06
361.843	1201.06
362.07	1459.06
362.296	1300.06
362.523	1070.06
362.749	905.06
362.976	947.06
363.203	1160.06
363.429	1276.06
363.656	1045.06
363.882	969.06
364.109	985.06
364.335	979.06
364.562	925.06
364.788	1072.06
365.015	1247.06
365.241	1096.06
365.468	931.06
365.694	808.06
365.92	792.06
366.147	772.06
366.373	753.06
366.599	746.06
366.826	763.06
367.052	799.06
367.278	781.06
367.505	790.06
367.731	881.06
367.957	982.06
368.184	1004.06
368.41	967.06
368.636	994.06
368.862	1034.06
369.089	965.06
369.315	845.06
369.541	841.06
369.767	868.06
369.993	838.06
370.219	841.06
370.445	870.06
370.672	965.06
370.898	1055.06
371.124	1019.06
371.35	925.06
371.576	874.06
371.802	947.06
372.028	1111.06
372.254	1268.06
372.48	1088.06
372.706	995.06
372.932	1052.06
373.158	1112.06
373.384	1302.06
373.61	1724.06
373.835	1794.06
374.061	1309.06
374.287	1097.06
374.513	1311.06
374.739	1515.06
374.965	1630.06
375.191	1585.06
375.416	1128.06
375.642	986.06
375.868	1166.06
376.094	1267.06
376.319	1139.06
376.545	1212.06
376.771	1281.06
376.997	1114.06
377.222	864.06
377.448	737.06
377.674	719.06
377.899	739.06
378.125	726.06
378.35	723.06
378.576	768.06
378.802	841.06
379.027	876.06
379.253	852.06
379.478	895.06
379.704	994.06
379.929	1029.06
380.155	1041.06
380.38	936.06
380.606	972.06
380.831	1071.06
381.057	963.06
381.282	947.06
381.507	1132.06
381.733	1361.06
381.958	1440.06
382.184	1555.06
382.409	1608.06
382.634	1587.06
382.86	1650.06
383.085	1323.06
383.31	1108.06
383.535	1120.06
383.761	1160.06
383.986	1098.06
384.211	1335.06
384.436	1255.06
384.662	1012.06
384.887	974.06
385.112	983.06
385.337	994.06
385.562	960.06
385.787	1071.06
386.013	1192.06
386.238	1200.06
386.463	993.06
386.688	946.06
386.913	931.06
387.138	873.06
387.363	929.06
387.588	975.06
387.813	957.06
388.038	1061.06
388.263	932.06
388.488	929.06
388.713	1092.06
388.938	1127.06
389.163	996.06
389.387	908.06
389.612	891.06
389.837	906.06
390.062	939.06
390.287	952.06
390.512	956.06
390.736	901.06
390.961	852.06
391.186	815.06
391.411	825.06
391.636	821.06
391.86	909.06
392.085	966.06
392.31	937.06
392.534	940.06
392.759	918.06
392.984	955.06
393.208	939.06
393.433	860.06
393.658	815.06
393.882	787.06
394.107	773.06
394.331	790.06
394.556	771.06
394.78	818.06
395.005	825.06
395.229	831.06
395.454	843.06
395.678	861.06
395.903	890.06
396.127	835.06
396.352	858.06
396.576	946.06
396.801	964.06
397.025	1062.06
397.249	1075.06
397.474	908.06
397.698	903.06
397.922	961.06
398.147	895.06
398.371	897.06
398.595	965.06
398.82	918.06
399.044	910.06
399.268	984.06
399.492	1025.06
399.717	1055.06
399.941	1082.06
400.165	1041.06
400.389	1007.06
400.613	991.06
400.837	1013.06
401.062	917.06
401.286	887.06
401.51	867.06
401.734	858.06
401.958	900.06
402.182	891.06
402.406	866.06
402.63	891.06
402.854	929.06
403.078	1043.06
403.302	1261.06
403.526	1321.06
403.75	1169.06
403.974	1039.06
404.198	1072.06
404.422	1193.06
404.645	1377.06
404.869	1542.06
405.093	1139.06
405.317	973.06
405.541	945.06
405.765	970.06
405.988	986.06
406.212	1077.06
406.436	1221.06
406.66	1373.06
406.883	1123.06
407.107	1142.06
407.331	1312.06
407.555	1245.06
407.778	1081.06
408.002	1041.06
408.226	1011.06
408.449	988.06
408.673	979.06
408.896	928.06
409.12	891.06
409.344	911.06
409.567	869.06
409.791	894.06
410.014	872.06
410.238	876.06
410.461	856.06
410.685	884.06
410.908	885.06
411.132	916.06
411.355	926.06
411.578	917.06
411.802	925.06
412.025	966.06
412.249	972.06
412.472	950.06
412.695	949.06
412.919	925.06
413.142	955.06
413.365	1001.06
413.589	994.06
413.812	909.06
414.035	911.06
414.258	899.06
414.482	1010.06
414.705	1025.06
414.928	874.06
415.151	863.06
415.374	863.06
415.597	890.06
415.821	856.06
416.044	888.06
416.267	852.06
416.49	851.06
416.713	841.06
416.936	836.06
417.159	844.06
417.382	886.06
417.605	883.06
417.828	889.06
418.051	903.06
418.274	919.06
418.497	924.06
418.72	898.06
418.943	921.06
419.166	955.06
419.389	984.06
419.611	984.06
419.834	978.06
420.057	1092.06
420.28	1060.06
420.503	1018.06
420.726	884.06
420.948	833.06
421.171	875.06
421.394	855.06
421.617	839.06
421.839	884.06
422.062	920.06
422.285	907.06
422.507	902.06
422.73	923.06
422.953	958.06
423.175	932.06
423.398	943.06
423.621	1017.06
423.843	1012.06
424.066	945.06
424.288	923.06
424.511	881.06
424.733	901.06
424.956	953.06
425.178	1044.06
425.401	1197.06
425.623	1320.06
425.846	1120.06
426.068	983.06
426.291	1063.06
426.513	1000.06
426.735	940.06
426.958	964.06
427.18	1128.06
427.402	1421.06
427.625	1417.06
427.847	1152.06
428.069	893.06
428.292	890.06
428.514	893.06
428.736	845.06
428.958	926.06
429.181	1103.06
429.403	945.06
429.625	890.06
429.847	838.06
430.069	880.06
430.292	889.06
430.514	831.06
430.736	929.06
430.958	1157.06
431.18	1062.06
431.402	819.06
431.624	774.06
431.846	789.06
432.068	779.06
432.29	840.06
432.512	897.06
432.734	1202.06
432.956	1095.06
433.178	857.06
433.4	843.06
433.622	844.06
433.844	856.06
434.066	897.06
434.287	881.06
434.509	873.06
434.731	925.06
434.953	854.06
435.175	905.06
435.397	1007.06
435.618	874.06
435.84	811.06
436.062	808.06
436.284	823.06
436.505	761.06
436.727	776.06
436.949	800.06
437.17	817.06
437.392	840.06
437.614	828.06
437.835	815.06
438.057	829.06
438.278	977.06
438.5	1347.06
438.721	1338.06
438.943	920.06
439.165	799.06
439.386	799.06
439.608	778.06
439.829	784.06
440.05	773.06
440.272	807.06
440.493	984.06
440.715	1207.06
440.936	944.06
441.158	835.06
441.379	827.06
441.6	946.06
441.822	1019.06
442.043	897.06
442.264	836.06
442.486	889.06
442.707	860.06
442.928	846.06
443.149	881.06
443.371	872.06
443.592	909.06
443.813	901.06
444.034	846.06
444.255	910.06
444.476	939.06
444.698	932.06
444.919	939.06
445.14	1039.06
445.361	998.06
445.582	957.06
445.803	915.06
446.024	918.06
446.245	916.06
446.466	909.06
446.687	860.06
446.908	860.06
447.129	815.06
447.35	801.06
447.571	800.06
447.792	785.06
448.013	797.06
448.234	758.06
448.455	766.06
448.675	790.06
448.896	810.06
449.117	790.06
449.338	775.06
449.559	810.06
449.779	870.06
450	854.06
450.221	826.06
450.442	773.06
450.662	774.06
450.883	768.06
451.104	796.06
451.324	795.06
451.545	829.06
451.766	785.06
451.986	773.06
452.207	769.06
452.428	766.06
452.648	764.06
452.869	830.06
453.089	817.06
453.31	824.06
453.53	709.06
453.751	723.06
453.971	744.06
454.192	761.06
454.412	790.06
454.633	735.06
454.853	756.06
455.073	738.06
455.294	717.06
455.514	728.06
455.734	788.06
455.955	781.06
456.175	814.06
456.395	736.06
456.616	701.06
456.836	693.06
457.056	675.06
457.276	700.06
457.497	729.06
457.717	714.06
457.937	709.06
458.157	705.06
458.377	709.06
458.598	691.06
458.818	751.06
459.038	817.06
459.258	797.06
459.478	872.06
459.698	889.06
459.918	893.06
460.138	893.06
460.358	892.06
460.578	848.06
460.798	890.06
461.018	855.06
461.238	853.06
461.458	873.06
461.678	852.06
461.898	921.06
462.118	910.06
462.338	951.06
462.558	939.06
462.777	980.06
462.997	1007.06
463.217	1005.06
463.437	1026.06
463.657	1000.06
463.876	950.06
464.096	963.06
464.316	972.06
464.536	956.06
464.755	1012.06
464.975	1019.06
465.195	955.06
465.414	988.06
465.634	938.06
465.854	913.06
466.073	858.06
466.293	852.06
466.512	903.06
466.732	1015.06
466.951	1026.06
467.171	943.06
467.391	900.06
467.61	871.06
467.829	930.06
468.049	936.06
468.268	854.06
468.488	861.06
468.707	940.06
468.927	1028.06
469.146	1158.06
469.365	1030.06
469.585	941.06
469.804	985.06
470.023	1075.06
470.243	947.06
470.462	906.06
470.681	912.06
470.901	909.06
471.12	925.06
471.339	964.06
471.558	897.06
471.777	950.06
471.997	978.06
472.216	1100.06
472.435	1068.06
472.654	979.06
472.873	950.06
473.092	998.06
473.311	1040.06
473.53	944.06
473.749	949.06
473.968	986.06
474.187	968.06
474.406	929.06
474.625	905.06
474.844	947.06
475.063	1003.06
475.282	1012.06
475.501	1041.06
475.72	1116.06
475.939	1071.06
476.158	1067.06
476.377	1236.06
476.596	1403.06
476.814	1441.06
477.033	1236.06
477.252	1043.06
477.471	983.06
477.69	984.06
477.908	1060.06
478.127	1148.06
478.346	1027.06
478.564	1125.06
478.783	1065.06
479.002	1081.06
479.22	1279.06
479.439	1394.06
479.658	1226.06
479.876	1092.06
480.095	1188.06
480.313	1199.06
480.532	1111.06
480.751	1094.06
480.969	1099.06
481.188	1273.06
481.406	1319.06
481.624	1223.06
481.843	1112.06
482.061	1040.06
482.28	1212.06
482.498	1418.06
482.717	1336.06
482.935	1189.06
483.153	1103.06
483.372	1039.06
483.59	1008.06
483.808	1029.06
484.027	1022.06
484.245	980.06
484.463	986.06
484.681	988.06
484.9	1068.06
485.118	1159.06
485.336	1119.06
485.554	1012.06
485.772	1075.06
485.99	1135.06
486.209	1198.06
486.427	1203.06
486.645	1185.06
486.863	1218.06
487.081	1233.06
487.299	1345.06
487.517	1312.06
487.735	1201.06
487.953	1212.06
488.171	1251.06
488.389	1175.06
488.607	1120.06
488.825	1139.06
489.043	1217.06
489.261	1381.06
489.479	1506.06
489.696	1263.06
489.914	1133.06
490.132	1124.06
490.35	1100.06
490.568	1112.06
490.786	1104.06
491.003	1121.06
491.221	1150.06
491.439	1112.06
491.657	1135.06
491.874	1215.06
492.092	1456.06
492.31	1738.06
492.527	1694.06
492.745	1473.06
492.963	1301.06
493.18	1256.06
493.398	1284.06
493.615	1251.06
493.833	1256.06
494.05	1241.06
494.268	1224.06
494.485	1233.06
494.703	1203.06
494.92	1202.06
495.138	1207.06
