Data from NickelSpatula.Lamp.E10.P2_HRD10591_11-57-15-533.txt Node
Date: Tue Jul 23 11:57:15 EDT 2019
User: cochatt
Spectrometer: HR+D1059
Trigger mode: 1
Integration Time (sec): 1.000000E-1
Scans to average: 1
Electric dark correction enabled: true
Nonlinearity correction enabled: false
Boxcar width: 0
XAxis mode: Wavelengths
Number of Pixels in Spectrum: 2048
>>>>>Begin Spectral Data<<<<<
223.165	-23.31
223.4	-23.31
223.635	-23.31
223.869	-21.31
224.104	-8.31
224.338	-22.31
224.573	-22.31
224.808	-0.31
225.042	-15.31
225.277	-9.31
225.511	11.69
225.746	14.69
225.98	6.69
226.215	13.69
226.449	19.69
226.683	6.69
226.918	15.69
227.152	33.69
227.387	32.69
227.621	50.69
227.856	35.69
228.09	51.69
228.324	53.69
228.559	55.69
228.793	93.69
229.027	145.69
229.262	149.69
229.496	141.69
229.73	196.69
229.964	189.69
230.199	210.69
230.433	212.69
230.667	201.69
230.901	189.69
231.136	213.69
231.37	201.69
231.604	219.69
231.838	245.69
232.072	248.69
232.306	244.69
232.541	231.69
232.775	242.69
233.009	251.69
233.243	288.69
233.477	295.69
233.711	331.69
233.945	326.69
234.179	327.69
234.413	342.69
234.647	376.69
234.881	443.69
235.115	422.69
235.349	399.69
235.583	337.69
235.817	335.69
236.051	367.69
236.285	410.69
236.519	461.69
236.753	419.69
236.987	406.69
237.221	401.69
237.455	443.69
237.689	436.69
237.922	464.69
238.156	456.69
238.39	549.69
238.624	654.69
238.858	583.69
239.091	480.69
239.325	502.69
239.559	479.69
239.793	519.69
240.027	648.69
240.26	612.69
240.494	582.69
240.728	592.69
240.961	671.69
241.195	630.69
241.429	610.69
241.662	591.69
241.896	516.69
242.13	487.69
242.363	452.69
242.597	461.69
242.83	533.69
243.064	536.69
243.298	602.69
243.531	629.69
243.765	636.69
243.998	620.69
244.232	616.69
244.465	599.69
244.699	575.69
244.932	664.69
245.166	616.69
245.399	555.69
245.633	529.69
245.866	559.69
246.099	612.69
246.333	707.69
246.566	777.69
246.8	792.69
247.033	739.69
247.266	669.69
247.5	651.69
247.733	648.69
247.966	664.69
248.2	683.69
248.433	768.69
248.666	845.69
248.899	830.69
249.133	832.69
249.366	982.69
249.599	1026.69
249.832	941.69
250.066	800.69
250.299	841.69
250.532	809.69
250.765	790.69
250.998	742.69
251.231	697.69
251.465	768.69
251.698	813.69
251.931	775.69
252.164	819.69
252.397	919.69
252.63	1067.69
252.863	1149.69
253.096	1189.69
253.329	1128.69
253.562	1075.69
253.795	1238.69
254.028	1368.69
254.261	1399.69
254.494	1197.69
254.727	1107.69
254.96	1103.69
255.193	1175.69
255.426	1099.69
255.659	839.69
255.892	802.69
256.124	857.69
256.357	1006.69
256.59	1183.69
256.823	1151.69
257.056	969.69
257.289	926.69
257.521	964.69
257.754	1126.69
257.987	1305.69
258.22	1116.69
258.452	1019.69
258.685	1133.69
258.918	1257.69
259.151	1240.69
259.383	1302.69
259.616	1472.69
259.849	1563.69
260.081	1687.69
260.314	1851.69
260.547	1479.69
260.779	1494.69
261.012	1719.69
261.244	1612.69
261.477	1600.69
261.71	1523.69
261.942	1277.69
262.175	1297.69
262.407	1216.69
262.64	1231.69
262.872	1477.69
263.105	1639.69
263.337	1716.69
263.57	1524.69
263.802	1045.69
264.035	881.69
264.267	871.69
264.499	759.69
264.732	695.69
264.964	698.69
265.197	715.69
265.429	767.69
265.661	815.69
265.894	869.69
266.126	916.69
266.358	1041.69
266.591	1231.69
266.823	1487.69
267.055	1426.69
267.287	1270.69
267.52	1246.69
267.752	1312.69
267.984	1435.69
268.216	1341.69
268.448	1118.69
268.681	1097.69
268.913	1203.69
269.145	1281.69
269.377	1288.69
269.609	1299.69
269.841	1189.69
270.073	1293.69
270.306	1373.69
270.538	1344.69
270.77	1399.69
271.002	1423.69
271.234	1447.69
271.466	1479.69
271.698	1447.69
271.93	1410.69
272.162	1406.69
272.394	1425.69
272.626	1355.69
272.858	1409.69
273.09	1437.69
273.322	1295.69
273.553	1250.69
273.785	1448.69
274.017	1981.69
274.249	2376.69
274.481	2489.69
274.713	2699.69
274.945	3092.69
275.176	3206.69
275.408	2825.69
275.64	2619.69
275.872	2561.69
276.104	2167.69
276.335	1892.69
276.567	1891.69
276.799	1963.69
277.031	2027.69
277.262	1592.69
277.494	1229.69
277.726	1179.69
277.957	1314.69
278.189	1480.69
278.421	1437.69
278.652	1417.69
278.884	1316.69
279.115	1235.69
279.347	1207.69
279.579	1176.69
279.81	1198.69
280.042	1227.69
280.273	1246.69
280.505	1126.69
280.736	1000.69
280.968	1012.69
281.199	1092.69
281.431	1240.69
281.662	1250.69
281.894	1193.69
282.125	1271.69
282.356	1335.69
282.588	1367.69
282.819	1256.69
283.051	1339.69
283.282	1684.69
283.513	1910.69
283.745	2145.69
283.976	2156.69
284.207	1974.69
284.439	2081.69
284.67	1999.69
284.901	1787.69
285.132	1935.69
285.364	1993.69
285.595	1881.69
285.826	1970.69
286.057	2043.69
286.288	1947.69
286.52	1968.69
286.751	2084.69
286.982	2066.69
287.213	1781.69
287.444	1717.69
287.675	1851.69
287.906	1805.69
288.138	1522.69
288.369	1359.69
288.6	1288.69
288.831	1349.69
289.062	1535.69
289.293	1702.69
289.524	1642.69
289.755	1568.69
289.986	1636.69
290.217	1421.69
290.448	1093.69
290.679	935.69
290.91	917.69
291.141	929.69
291.371	958.69
291.602	984.69
291.833	988.69
292.064	1053.69
292.295	1202.69
292.526	1387.69
292.757	1429.69
292.987	1525.69
293.218	1540.69
293.449	1590.69
293.68	1687.69
293.91	1601.69
294.141	1681.69
294.372	1523.69
294.603	1387.69
294.833	1557.69
295.064	1834.69
295.295	1728.69
295.525	1271.69
295.756	1125.69
295.987	981.69
296.217	1003.69
296.448	1036.69
296.679	1065.69
296.909	1164.69
297.14	1293.69
297.37	1392.69
297.601	1315.69
297.831	1094.69
298.062	1232.69
298.292	1403.69
298.523	1534.69
298.753	1709.69
298.984	1535.69
299.214	1261.69
299.445	1044.69
299.675	1008.69
299.905	977.69
300.136	1045.69
300.366	1141.69
300.597	1097.69
300.827	987.69
301.057	951.69
301.288	956.69
301.518	1055.69
301.748	1166.69
301.979	1244.69
302.209	1350.69
302.439	1360.69
302.669	1192.69
302.9	1199.69
303.13	1109.69
303.36	1075.69
303.59	1029.69
303.82	1081.69
304.051	1178.69
304.281	1315.69
304.511	1249.69
304.741	1123.69
304.971	1142.69
305.201	1256.69
305.431	1155.69
305.661	1046.69
305.891	1039.69
306.121	1051.69
306.352	955.69
306.582	868.69
306.812	836.69
307.042	868.69
307.272	782.69
307.502	791.69
307.731	846.69
307.961	891.69
308.191	855.69
308.421	785.69
308.651	797.69
308.881	749.69
309.111	757.69
309.341	795.69
309.571	860.69
309.8	909.69
310.03	923.69
310.26	952.69
310.49	921.69
310.72	880.69
310.949	858.69
311.179	893.69
311.409	895.69
311.639	1068.69
311.868	1350.69
312.098	1757.69
312.328	1945.69
312.557	1825.69
312.787	1832.69
313.017	1651.69
313.246	1787.69
313.476	1928.69
313.706	1561.69
313.935	1246.69
314.165	1018.69
314.394	940.69
314.624	949.69
314.853	984.69
315.083	1051.69
315.312	975.69
315.542	969.69
315.771	907.69
316.001	836.69
316.23	829.69
316.46	795.69
316.689	834.69
316.919	834.69
317.148	880.69
317.377	875.69
317.607	856.69
317.836	952.69
318.065	1064.69
318.295	1191.69
318.524	1107.69
318.753	965.69
318.983	919.69
319.212	923.69
319.441	989.69
319.67	1109.69
319.9	1163.69
320.129	1099.69
320.358	937.69
320.587	939.69
320.816	976.69
321.046	1124.69
321.275	1287.69
321.504	1235.69
321.733	1239.69
321.962	1210.69
322.191	1137.69
322.42	1050.69
322.649	1075.69
322.878	1160.69
323.108	1169.69
323.337	1103.69
323.566	1062.69
323.795	1019.69
324.024	998.69
324.253	940.69
324.482	933.69
324.71	1054.69
324.939	1158.69
325.168	1077.69
325.397	885.69
325.626	901.69
325.855	938.69
326.084	920.69
326.313	838.69
326.542	823.69
326.77	869.69
326.999	873.69
327.228	946.69
327.457	973.69
327.686	971.69
327.914	854.69
328.143	812.69
328.372	801.69
328.6	831.69
328.829	877.69
329.058	856.69
329.287	886.69
329.515	892.69
329.744	876.69
329.972	828.69
330.201	800.69
330.43	827.69
330.658	933.69
330.887	1025.69
331.115	1017.69
331.344	1003.69
331.572	946.69
331.801	890.69
332.03	865.69
332.258	875.69
332.486	934.69
332.715	967.69
332.943	894.69
333.172	887.69
333.4	943.69
333.629	997.69
333.857	1097.69
334.085	1099.69
334.314	1104.69
334.542	1034.69
334.771	965.69
334.999	954.69
335.227	915.69
335.455	925.69
335.684	1016.69
335.912	1184.69
336.14	1294.69
336.369	1234.69
336.597	1198.69
336.825	1346.69
337.053	1466.69
337.281	1195.69
337.51	952.69
337.738	949.69
337.966	1033.69
338.194	1143.69
338.422	1090.69
338.65	931.69
338.878	879.69
339.106	886.69
339.334	979.69
339.562	1022.69
339.79	979.69
340.018	964.69
340.246	1037.69
340.474	1162.69
340.702	1236.69
340.93	1270.69
341.158	1277.69
341.386	1085.69
341.614	1065.69
341.842	1083.69
342.07	1108.69
342.298	1313.69
342.526	1342.69
342.754	1189.69
342.981	1073.69
343.209	1011.69
343.437	1090.69
343.665	1133.69
343.893	1159.69
344.12	1301.69
344.348	1513.69
344.576	1365.69
344.804	1132.69
345.031	1025.69
345.259	964.69
345.487	981.69
345.714	1020.69
345.942	1087.69
346.17	1162.69
346.397	1105.69
346.625	961.69
346.853	941.69
347.08	918.69
347.308	974.69
347.535	1069.69
347.763	1102.69
347.99	981.69
348.218	899.69
348.445	942.69
348.673	954.69
348.9	968.69
349.128	1025.69
349.355	1031.69
349.583	1038.69
349.81	963.69
350.037	901.69
350.265	807.69
350.492	786.69
350.72	796.69
350.947	820.69
351.174	849.69
351.402	914.69
351.629	943.69
351.856	891.69
352.083	853.69
352.311	956.69
352.538	1023.69
352.765	1087.69
352.992	990.69
353.22	930.69
353.447	959.69
353.674	911.69
353.901	917.69
354.128	901.69
354.355	961.69
354.583	934.69
354.81	959.69
355.037	992.69
355.264	980.69
355.491	1035.69
355.718	1115.69
355.945	1082.69
356.172	1061.69
356.399	1046.69
356.626	1255.69
356.853	1495.69
357.08	1595.69
357.307	1607.69
357.534	1318.69
357.761	1289.69
357.988	1634.69
358.215	1904.69
358.441	1808.69
358.668	1518.69
358.895	1379.69
359.122	1168.69
359.349	1148.69
359.576	1287.69
359.802	1075.69
360.029	914.69
360.256	991.69
360.483	1161.69
360.709	1475.69
360.936	1553.69
361.163	1360.69
361.39	1038.69
361.616	1015.69
361.843	1167.69
362.07	1413.69
362.296	1277.69
362.523	1007.69
362.749	917.69
362.976	951.69
363.203	1135.69
363.429	1249.69
363.656	1024.69
363.882	913.69
364.109	936.69
364.335	944.69
364.562	969.69
364.788	1044.69
365.015	1186.69
365.241	1112.69
365.468	890.69
365.694	813.69
365.92	773.69
366.147	767.69
366.373	751.69
366.599	755.69
366.826	791.69
367.052	791.69
367.278	809.69
367.505	789.69
367.731	868.69
367.957	958.69
368.184	955.69
368.41	970.69
368.636	954.69
368.862	992.69
369.089	963.69
369.315	880.69
369.541	847.69
369.767	857.69
369.993	840.69
370.219	803.69
370.445	881.69
370.672	974.69
370.898	1023.69
371.124	1032.69
371.35	908.69
371.576	868.69
371.802	947.69
372.028	1087.69
372.254	1224.69
372.48	1092.69
372.706	991.69
372.932	1023.69
373.158	1077.69
373.384	1273.69
373.61	1600.69
373.835	1738.69
374.061	1271.69
374.287	1088.69
374.513	1318.69
374.739	1527.69
374.965	1574.69
375.191	1549.69
375.416	1114.69
375.642	989.69
375.868	1154.69
376.094	1242.69
376.319	1095.69
376.545	1209.69
376.771	1288.69
376.997	1090.69
377.222	811.69
377.448	740.69
377.674	736.69
377.899	726.69
378.125	731.69
378.35	733.69
378.576	781.69
378.802	830.69
379.027	871.69
379.253	872.69
379.478	896.69
379.704	975.69
379.929	1032.69
380.155	1033.69
380.38	926.69
380.606	947.69
380.831	1059.69
381.057	974.69
381.282	935.69
381.507	1102.69
381.733	1331.69
381.958	1437.69
382.184	1537.69
382.409	1563.69
382.634	1574.69
382.86	1611.69
383.085	1348.69
383.31	1055.69
383.535	1151.69
383.761	1152.69
383.986	1097.69
384.211	1300.69
384.436	1242.69
384.662	993.69
384.887	976.69
385.112	983.69
385.337	1026.69
385.562	973.69
385.787	1032.69
386.013	1151.69
386.238	1169.69
386.463	978.69
386.688	975.69
386.913	939.69
387.138	875.69
387.363	881.69
387.588	930.69
387.813	939.69
388.038	1035.69
388.263	947.69
388.488	919.69
388.713	1045.69
388.938	1131.69
389.163	977.69
389.387	899.69
389.612	895.69
389.837	884.69
390.062	915.69
390.287	953.69
390.512	993.69
390.736	892.69
390.961	856.69
391.186	865.69
391.411	794.69
391.636	845.69
391.86	914.69
392.085	981.69
392.31	969.69
392.534	915.69
392.759	886.69
392.984	938.69
393.208	917.69
393.433	851.69
393.658	815.69
393.882	783.69
394.107	782.69
394.331	791.69
394.556	776.69
394.78	820.69
395.005	839.69
395.229	851.69
395.454	865.69
395.678	887.69
395.903	907.69
396.127	869.69
396.352	895.69
396.576	960.69
396.801	962.69
397.025	1084.69
397.249	1071.69
397.474	898.69
397.698	896.69
397.922	953.69
398.147	919.69
398.371	893.69
398.595	949.69
398.82	944.69
399.044	943.69
399.268	1007.69
399.492	1048.69
399.717	1081.69
399.941	1100.69
400.165	1036.69
400.389	1049.69
400.613	1015.69
400.837	1016.69
401.062	911.69
401.286	877.69
401.51	911.69
401.734	919.69
401.958	908.69
402.182	915.69
402.406	900.69
402.63	913.69
402.854	943.69
403.078	1069.69
403.302	1240.69
403.526	1280.69
403.75	1187.69
403.974	1023.69
404.198	1086.69
404.422	1187.69
404.645	1396.69
404.869	1480.69
405.093	1143.69
405.317	997.69
405.541	968.69
405.765	1024.69
405.988	982.69
406.212	1071.69
406.436	1198.69
406.66	1384.69
406.883	1112.69
407.107	1148.69
407.331	1308.69
407.555	1251.69
407.778	1069.69
408.002	1075.69
408.226	1032.69
408.449	1031.69
408.673	978.69
408.896	904.69
409.12	893.69
409.344	898.69
409.567	879.69
409.791	897.69
410.014	868.69
410.238	869.69
410.461	893.69
410.685	880.69
410.908	884.69
411.132	915.69
411.355	929.69
411.578	945.69
411.802	927.69
412.025	960.69
412.249	973.69
412.472	969.69
412.695	964.69
412.919	928.69
413.142	951.69
413.365	1034.69
413.589	1015.69
413.812	924.69
414.035	905.69
414.258	946.69
414.482	1013.69
414.705	1011.69
414.928	911.69
415.151	863.69
415.374	877.69
415.597	886.69
415.821	893.69
416.044	915.69
416.267	837.69
416.49	872.69
416.713	864.69
416.936	846.69
417.159	827.69
417.382	884.69
417.605	869.69
417.828	893.69
418.051	887.69
418.274	903.69
418.497	912.69
418.72	902.69
418.943	929.69
419.166	973.69
419.389	997.69
419.611	998.69
419.834	1011.69
420.057	1067.69
420.28	1051.69
420.503	995.69
420.726	901.69
420.948	884.69
421.171	871.69
421.394	855.69
421.617	830.69
421.839	862.69
422.062	914.69
422.285	907.69
422.507	924.69
422.73	921.69
422.953	961.69
423.175	936.69
423.398	933.69
423.621	976.69
423.843	1017.69
424.066	974.69
424.288	941.69
424.511	917.69
424.733	908.69
424.956	948.69
425.178	1069.69
425.401	1209.69
425.623	1327.69
425.846	1118.69
426.068	968.69
426.291	1055.69
426.513	999.69
426.735	942.69
426.958	978.69
427.18	1118.69
427.402	1404.69
427.625	1385.69
427.847	1173.69
428.069	948.69
428.292	887.69
428.514	897.69
428.736	879.69
428.958	925.69
429.181	1071.69
429.403	951.69
429.625	861.69
429.847	860.69
430.069	889.69
430.292	911.69
430.514	859.69
430.736	962.69
430.958	1159.69
431.18	1052.69
431.402	851.69
431.624	796.69
431.846	797.69
432.068	801.69
432.29	820.69
432.512	887.69
432.734	1169.69
432.956	1115.69
433.178	868.69
433.4	833.69
433.622	860.69
433.844	869.69
434.066	904.69
434.287	899.69
434.509	893.69
434.731	925.69
434.953	884.69
435.175	921.69
435.397	1012.69
435.618	914.69
435.84	837.69
436.062	819.69
436.284	839.69
436.505	791.69
436.727	800.69
436.949	815.69
437.17	833.69
437.392	821.69
437.614	837.69
437.835	811.69
438.057	839.69
438.278	953.69
438.5	1327.69
438.721	1317.69
438.943	980.69
439.165	799.69
439.386	807.69
439.608	792.69
439.829	798.69
440.05	794.69
440.272	851.69
440.493	987.69
440.715	1142.69
440.936	957.69
441.158	852.69
441.379	889.69
441.6	968.69
441.822	1012.69
442.043	878.69
442.264	877.69
442.486	869.69
442.707	851.69
442.928	864.69
443.149	900.69
443.371	898.69
443.592	941.69
443.813	926.69
444.034	895.69
444.255	917.69
444.476	946.69
444.698	935.69
444.919	942.69
445.14	1036.69
445.361	994.69
445.582	940.69
445.803	949.69
446.024	969.69
446.245	944.69
446.466	918.69
446.687	874.69
446.908	905.69
447.129	815.69
447.35	831.69
447.571	812.69
447.792	793.69
448.013	767.69
448.234	765.69
448.455	802.69
448.675	789.69
448.896	797.69
449.117	825.69
449.338	811.69
449.559	813.69
449.779	867.69
450	886.69
450.221	839.69
450.442	801.69
450.662	817.69
450.883	823.69
451.104	818.69
451.324	788.69
451.545	786.69
451.766	769.69
451.986	773.69
452.207	763.69
452.428	774.69
452.648	769.69
452.869	800.69
453.089	789.69
453.31	847.69
453.53	751.69
453.751	730.69
453.971	731.69
454.192	764.69
454.412	780.69
454.633	731.69
454.853	740.69
455.073	717.69
455.294	731.69
455.514	727.69
455.734	761.69
455.955	824.69
456.175	841.69
456.395	741.69
456.616	722.69
456.836	733.69
457.056	699.69
457.276	689.69
457.497	717.69
457.717	720.69
457.937	712.69
458.157	707.69
458.377	717.69
458.598	748.69
458.818	754.69
459.038	828.69
459.258	801.69
459.478	830.69
459.698	889.69
459.918	897.69
460.138	883.69
460.358	889.69
460.578	885.69
460.798	887.69
461.018	901.69
461.238	860.69
461.458	867.69
461.678	882.69
461.898	911.69
462.118	922.69
462.338	940.69
462.558	945.69
462.777	969.69
462.997	1009.69
463.217	1006.69
463.437	1039.69
463.657	1019.69
463.876	940.69
464.096	961.69
464.316	977.69
464.536	982.69
464.755	1033.69
464.975	1007.69
465.195	967.69
465.414	979.69
465.634	930.69
465.854	954.69
466.073	884.69
466.293	860.69
466.512	928.69
466.732	1007.69
466.951	1026.69
467.171	931.69
467.391	885.69
467.61	864.69
467.829	913.69
468.049	913.69
468.268	868.69
468.488	899.69
468.707	904.69
468.927	1073.69
469.146	1144.69
469.365	1040.69
469.585	933.69
469.804	1018.69
470.023	1092.69
470.243	966.69
470.462	912.69
470.681	908.69
470.901	916.69
471.12	968.69
471.339	966.69
471.558	915.69
471.777	920.69
471.997	995.69
472.216	1107.69
472.435	1052.69
472.654	967.69
472.873	959.69
473.092	988.69
473.311	1033.69
473.53	957.69
473.749	931.69
473.968	983.69
474.187	963.69
474.406	903.69
474.625	931.69
474.844	971.69
475.063	1029.69
475.282	998.69
475.501	1057.69
475.72	1119.69
475.939	1054.69
476.158	1093.69
476.377	1264.69
476.596	1433.69
476.814	1508.69
477.033	1225.69
477.252	1066.69
477.471	982.69
477.69	1047.69
477.908	1081.69
478.127	1127.69
478.346	1049.69
478.564	1172.69
478.783	1083.69
479.002	1103.69
479.22	1292.69
479.439	1425.69
479.658	1259.69
479.876	1121.69
480.095	1206.69
480.313	1215.69
480.532	1149.69
480.751	1112.69
480.969	1143.69
481.188	1261.69
481.406	1295.69
481.624	1241.69
481.843	1145.69
482.061	1061.69
482.28	1190.69
482.498	1430.69
482.717	1346.69
482.935	1187.69
483.153	1157.69
483.372	1070.69
483.59	1065.69
483.808	1066.69
484.027	1022.69
484.245	993.69
484.463	974.69
484.681	1029.69
484.9	1118.69
485.118	1175.69
485.336	1099.69
485.554	1051.69
485.772	1061.69
485.99	1157.69
486.209	1228.69
486.427	1195.69
486.645	1185.69
486.863	1259.69
487.081	1215.69
487.299	1319.69
487.517	1276.69
487.735	1211.69
487.953	1189.69
488.171	1262.69
488.389	1171.69
488.607	1095.69
488.825	1148.69
489.043	1265.69
489.261	1434.69
489.479	1459.69
489.696	1259.69
489.914	1181.69
490.132	1126.69
490.35	1116.69
490.568	1140.69
490.786	1149.69
491.003	1105.69
491.221	1141.69
491.439	1146.69
491.657	1141.69
491.874	1230.69
492.092	1423.69
492.31	1705.69
492.527	1699.69
492.745	1506.69
492.963	1311.69
493.18	1281.69
493.398	1295.69
493.615	1273.69
493.833	1252.69
494.05	1220.69
494.268	1215.69
494.485	1228.69
494.703	1195.69
494.92	1240.69
