Data from NickelSpatula_HRD10591_16-33-42-126.txt Node
Date: Mon Jul 22 16:33:42 EDT 2019
User: cochatt
Spectrometer: HR+D1059
Trigger mode: 1
Integration Time (sec): 1.000000E-1
Scans to average: 1
Electric dark correction enabled: true
Nonlinearity correction enabled: false
Boxcar width: 0
XAxis mode: Wavelengths
Number of Pixels in Spectrum: 2048
>>>>>Begin Spectral Data<<<<<
223.165	-11.44
223.4	-11.44
223.635	-11.44
223.869	-5.44
224.104	-21.44
224.338	-6.44
224.573	-4.44
224.808	-4.44
225.042	-13.44
225.277	-3.44
225.511	-12.44
225.746	-3.44
225.98	-7.44
226.215	5.56
226.449	10.56
226.683	12.56
226.918	35.56
227.152	29.56
227.387	36.56
227.621	50.56
227.856	41.56
228.09	47.56
228.324	28.56
228.559	47.56
228.793	51.56
229.027	69.56
229.262	82.56
229.496	82.56
229.73	77.56
229.964	72.56
230.199	87.56
230.433	91.56
230.667	84.56
230.901	88.56
231.136	88.56
231.37	97.56
231.604	112.56
231.838	95.56
232.072	111.56
232.306	113.56
232.541	112.56
232.775	93.56
233.009	95.56
233.243	116.56
233.477	113.56
233.711	141.56
233.945	105.56
234.179	99.56
234.413	122.56
234.647	132.56
234.881	128.56
235.115	120.56
235.349	123.56
235.583	117.56
235.817	109.56
236.051	109.56
236.285	128.56
236.519	132.56
236.753	126.56
236.987	113.56
237.221	125.56
237.455	122.56
237.689	112.56
237.922	122.56
238.156	130.56
238.39	133.56
238.624	148.56
238.858	164.56
239.091	133.56
239.325	142.56
239.559	161.56
239.793	147.56
240.027	154.56
240.26	159.56
240.494	155.56
240.728	142.56
240.961	160.56
241.195	150.56
241.429	144.56
241.662	143.56
241.896	146.56
242.13	115.56
242.363	132.56
242.597	120.56
242.83	135.56
243.064	146.56
243.298	153.56
243.531	162.56
243.765	163.56
243.998	167.56
244.232	160.56
244.465	156.56
244.699	157.56
244.932	160.56
245.166	162.56
245.399	126.56
245.633	136.56
245.866	134.56
246.099	153.56
246.333	171.56
246.566	180.56
246.8	175.56
247.033	171.56
247.266	151.56
247.5	161.56
247.733	142.56
247.966	179.56
248.2	170.56
248.433	174.56
248.666	189.56
248.899	167.56
249.133	181.56
249.366	200.56
249.599	208.56
249.832	201.56
250.066	169.56
250.299	192.56
250.532	183.56
250.765	196.56
250.998	178.56
251.231	179.56
251.465	162.56
251.698	181.56
251.931	194.56
252.164	179.56
252.397	191.56
252.63	227.56
252.863	245.56
253.096	251.56
253.329	234.56
253.562	239.56
253.795	249.56
254.028	268.56
254.261	275.56
254.494	250.56
254.727	246.56
254.96	250.56
255.193	253.56
255.426	240.56
255.659	194.56
255.892	186.56
256.124	205.56
256.357	227.56
256.59	246.56
256.823	245.56
257.056	209.56
257.289	205.56
257.521	205.56
257.754	248.56
257.987	274.56
258.22	236.56
258.452	203.56
258.685	230.56
258.918	255.56
259.151	258.56
259.383	269.56
259.616	312.56
259.849	298.56
260.081	314.56
260.314	346.56
260.547	283.56
260.779	303.56
261.012	340.56
261.244	326.56
261.477	342.56
261.71	305.56
261.942	276.56
262.175	267.56
262.407	245.56
262.64	260.56
262.872	299.56
263.105	305.56
263.337	346.56
263.57	307.56
263.802	205.56
264.035	204.56
264.267	199.56
264.499	174.56
264.732	155.56
264.964	160.56
265.197	177.56
265.429	193.56
265.661	193.56
265.894	197.56
266.126	203.56
266.358	212.56
266.591	257.56
266.823	321.56
267.055	297.56
267.287	262.56
267.52	275.56
267.752	284.56
267.984	279.56
268.216	289.56
268.448	240.56
268.681	231.56
268.913	278.56
269.145	283.56
269.377	290.56
269.609	275.56
269.841	260.56
270.073	291.56
270.306	300.56
270.538	302.56
270.77	311.56
271.002	292.56
271.234	325.56
271.466	296.56
271.698	296.56
271.93	281.56
272.162	300.56
272.394	279.56
272.626	281.56
272.858	291.56
273.09	305.56
273.322	273.56
273.553	258.56
273.785	279.56
274.017	350.56
274.249	403.56
274.481	441.56
274.713	461.56
274.945	520.56
275.176	540.56
275.408	519.56
275.64	441.56
275.872	459.56
276.104	424.56
276.335	355.56
276.567	370.56
276.799	363.56
277.031	387.56
277.262	326.56
277.494	261.56
277.726	259.56
277.957	270.56
278.189	286.56
278.421	299.56
278.652	269.56
278.884	282.56
279.115	270.56
279.347	261.56
279.579	268.56
279.81	262.56
280.042	246.56
280.273	255.56
280.505	239.56
280.736	240.56
280.968	234.56
281.199	227.56
281.431	255.56
281.662	274.56
281.894	245.56
282.125	255.56
282.356	268.56
282.588	269.56
282.819	241.56
283.051	290.56
283.282	330.56
283.513	361.56
283.745	405.56
283.976	403.56
284.207	355.56
284.439	391.56
284.67	381.56
284.901	343.56
285.132	367.56
285.364	364.56
285.595	355.56
285.826	378.56
286.057	375.56
286.288	365.56
286.52	375.56
286.751	403.56
286.982	392.56
287.213	356.56
287.444	348.56
287.675	358.56
287.906	387.56
288.138	339.56
288.369	281.56
288.6	268.56
288.831	278.56
289.062	312.56
289.293	345.56
289.524	312.56
289.755	310.56
289.986	328.56
290.217	295.56
290.448	237.56
290.679	205.56
290.91	195.56
291.141	207.56
291.371	210.56
291.602	220.56
291.833	215.56
292.064	232.56
292.295	254.56
292.526	279.56
292.757	284.56
292.987	311.56
293.218	319.56
293.449	334.56
293.68	323.56
293.91	335.56
294.141	347.56
294.372	323.56
294.603	274.56
294.833	310.56
295.064	376.56
295.295	369.56
295.525	288.56
295.756	241.56
295.987	217.56
296.217	216.56
296.448	235.56
296.679	243.56
296.909	250.56
297.14	272.56
297.37	302.56
297.601	264.56
297.831	225.56
298.062	267.56
298.292	275.56
298.523	297.56
298.753	333.56
298.984	322.56
299.214	269.56
299.445	250.56
299.675	223.56
299.905	204.56
300.136	224.56
300.366	234.56
300.597	242.56
300.827	216.56
301.057	213.56
301.288	217.56
301.518	231.56
301.748	257.56
301.979	263.56
302.209	273.56
302.439	267.56
302.669	260.56
302.9	236.56
303.13	236.56
303.36	242.56
303.59	228.56
303.82	222.56
304.051	256.56
304.281	270.56
304.511	282.56
304.741	233.56
304.971	243.56
305.201	271.56
305.431	257.56
305.661	240.56
305.891	225.56
306.121	209.56
306.352	211.56
306.582	192.56
306.812	195.56
307.042	177.56
307.272	180.56
307.502	169.56
307.731	197.56
307.961	196.56
308.191	200.56
308.421	185.56
308.651	186.56
308.881	191.56
309.111	185.56
309.341	183.56
309.571	209.56
309.8	208.56
310.03	194.56
310.26	191.56
310.49	200.56
310.72	183.56
310.949	205.56
311.179	171.56
311.409	204.56
311.639	215.56
311.868	271.56
312.098	362.56
312.328	374.56
312.557	344.56
312.787	339.56
313.017	305.56
313.246	320.56
313.476	381.56
313.706	313.56
313.935	268.56
314.165	213.56
314.394	193.56
314.624	213.56
314.853	216.56
315.083	241.56
315.312	207.56
315.542	220.56
315.771	213.56
316.001	195.56
316.23	191.56
316.46	201.56
316.689	184.56
316.919	183.56
317.148	201.56
317.377	198.56
317.607	190.56
317.836	207.56
318.065	236.56
318.295	241.56
318.524	234.56
318.753	203.56
318.983	214.56
319.212	197.56
319.441	187.56
319.67	228.56
319.9	253.56
320.129	214.56
320.358	215.56
320.587	182.56
320.816	215.56
321.046	234.56
321.275	252.56
321.504	257.56
321.733	249.56
321.962	223.56
322.191	232.56
322.42	218.56
322.649	228.56
322.878	244.56
323.108	249.56
323.337	224.56
323.566	237.56
323.795	237.56
324.024	224.56
324.253	213.56
324.482	205.56
324.71	219.56
324.939	251.56
325.168	215.56
325.397	211.56
325.626	201.56
325.855	210.56
326.084	195.56
326.313	183.56
326.542	183.56
326.77	185.56
326.999	180.56
327.228	195.56
327.457	200.56
327.686	187.56
327.914	207.56
328.143	203.56
328.372	179.56
328.6	197.56
328.829	189.56
329.058	191.56
329.287	200.56
329.515	187.56
329.744	189.56
329.972	180.56
330.201	190.56
330.43	187.56
330.658	193.56
330.887	210.56
331.115	219.56
331.344	219.56
331.572	198.56
331.801	199.56
332.03	190.56
332.258	196.56
332.486	213.56
332.715	205.56
332.943	207.56
333.172	196.56
333.4	192.56
333.629	234.56
333.857	232.56
334.085	258.56
334.314	251.56
334.542	226.56
334.771	218.56
334.999	209.56
335.227	206.56
335.455	193.56
335.684	224.56
335.912	239.56
336.14	257.56
336.369	256.56
336.597	254.56
336.825	269.56
337.053	299.56
337.281	228.56
337.51	191.56
337.738	231.56
337.966	205.56
338.194	240.56
338.422	235.56
338.65	211.56
338.878	194.56
339.106	200.56
339.334	211.56
339.562	228.56
339.79	218.56
340.018	193.56
340.246	225.56
340.474	234.56
340.702	268.56
340.93	242.56
341.158	258.56
341.386	215.56
341.614	204.56
341.842	211.56
342.07	235.56
342.298	263.56
342.526	281.56
342.754	232.56
342.981	208.56
343.209	219.56
343.437	226.56
343.665	234.56
343.893	231.56
344.12	275.56
344.348	320.56
344.576	293.56
344.804	252.56
345.031	218.56
345.259	203.56
345.487	203.56
345.714	196.56
345.942	213.56
346.17	228.56
346.397	242.56
346.625	220.56
346.853	213.56
347.08	207.56
347.308	191.56
347.535	214.56
347.763	229.56
347.99	213.56
348.218	205.56
348.445	202.56
348.673	212.56
348.9	203.56
349.128	220.56
349.355	215.56
349.583	202.56
349.81	200.56
350.037	188.56
350.265	193.56
350.492	198.56
350.72	170.56
350.947	177.56
351.174	180.56
351.402	180.56
351.629	208.56
351.856	176.56
352.083	179.56
352.311	200.56
352.538	195.56
352.765	233.56
352.992	218.56
353.22	208.56
353.447	209.56
353.674	192.56
353.901	181.56
354.128	201.56
354.355	207.56
354.583	206.56
354.81	195.56
355.037	217.56
355.264	210.56
355.491	219.56
355.718	230.56
355.945	219.56
356.172	204.56
356.399	208.56
356.626	241.56
356.853	288.56
357.08	330.56
357.307	326.56
357.534	252.56
357.761	253.56
357.988	300.56
358.215	341.56
358.441	324.56
358.668	303.56
358.895	282.56
359.122	239.56
359.349	218.56
359.576	244.56
359.802	218.56
360.029	204.56
360.256	199.56
360.483	233.56
360.709	300.56
360.936	296.56
361.163	256.56
361.39	220.56
361.616	202.56
361.843	207.56
362.07	281.56
362.296	255.56
362.523	221.56
362.749	182.56
362.976	193.56
363.203	233.56
363.429	259.56
363.656	198.56
363.882	199.56
364.109	205.56
364.335	205.56
364.562	189.56
364.788	210.56
365.015	231.56
365.241	225.56
365.468	190.56
365.694	186.56
365.92	187.56
366.147	177.56
366.373	194.56
366.599	163.56
366.826	164.56
367.052	166.56
367.278	155.56
367.505	162.56
367.731	177.56
367.957	196.56
368.184	206.56
368.41	205.56
368.636	212.56
368.862	221.56
369.089	205.56
369.315	191.56
369.541	180.56
369.767	201.56
369.993	176.56
370.219	172.56
370.445	193.56
370.672	199.56
370.898	211.56
371.124	211.56
371.35	189.56
371.576	182.56
371.802	175.56
372.028	209.56
372.254	229.56
372.48	219.56
372.706	202.56
372.932	213.56
373.158	231.56
373.384	232.56
373.61	314.56
373.835	298.56
374.061	259.56
374.287	215.56
374.513	249.56
374.739	300.56
374.965	290.56
375.191	291.56
375.416	219.56
375.642	202.56
375.868	226.56
376.094	240.56
376.319	225.56
376.545	220.56
376.771	251.56
376.997	239.56
377.222	179.56
377.448	177.56
377.674	168.56
377.899	161.56
378.125	160.56
378.35	180.56
378.576	176.56
378.802	181.56
379.027	203.56
379.253	209.56
379.478	183.56
379.704	200.56
379.929	205.56
380.155	232.56
380.38	202.56
380.606	211.56
380.831	221.56
381.057	215.56
381.282	204.56
381.507	224.56
381.733	261.56
381.958	277.56
382.184	279.56
382.409	308.56
382.634	297.56
382.86	317.56
383.085	276.56
383.31	213.56
383.535	238.56
383.761	243.56
383.986	224.56
384.211	241.56
384.436	277.56
384.662	223.56
384.887	214.56
385.112	202.56
385.337	210.56
385.562	217.56
385.787	233.56
386.013	242.56
386.238	255.56
386.463	215.56
386.688	200.56
386.913	183.56
387.138	178.56
387.363	203.56
387.588	213.56
387.813	197.56
388.038	215.56
388.263	207.56
388.488	205.56
388.713	228.56
388.938	256.56
389.163	215.56
389.387	199.56
389.612	190.56
389.837	201.56
390.062	204.56
390.287	206.56
390.512	216.56
390.736	205.56
390.961	179.56
391.186	215.56
391.411	184.56
391.636	186.56
391.86	219.56
392.085	215.56
392.31	234.56
392.534	220.56
392.759	221.56
392.984	225.56
393.208	211.56
393.433	210.56
393.658	190.56
393.882	194.56
394.107	183.56
394.331	187.56
394.556	171.56
394.78	181.56
395.005	179.56
395.229	193.56
395.454	197.56
395.678	183.56
395.903	195.56
396.127	191.56
396.352	192.56
396.576	197.56
396.801	213.56
397.025	234.56
397.249	241.56
397.474	197.56
397.698	194.56
397.922	211.56
398.147	203.56
398.371	210.56
398.595	220.56
398.82	206.56
399.044	223.56
399.268	222.56
399.492	228.56
399.717	242.56
399.941	247.56
400.165	219.56
400.389	230.56
400.613	236.56
400.837	222.56
401.062	214.56
401.286	196.56
401.51	217.56
401.734	205.56
401.958	203.56
402.182	214.56
402.406	211.56
402.63	208.56
402.854	220.56
403.078	227.56
403.302	270.56
403.526	307.56
403.75	277.56
403.974	236.56
404.198	256.56
404.422	280.56
404.645	277.56
404.869	298.56
405.093	256.56
405.317	227.56
405.541	217.56
405.765	218.56
405.988	233.56
406.212	245.56
406.436	259.56
406.66	278.56
406.883	233.56
407.107	241.56
407.331	277.56
407.555	283.56
407.778	228.56
408.002	243.56
408.226	227.56
408.449	231.56
408.673	221.56
408.896	198.56
409.12	201.56
409.344	201.56
409.567	219.56
409.791	205.56
410.014	202.56
410.238	193.56
410.461	216.56
410.685	207.56
410.908	205.56
411.132	219.56
411.355	198.56
411.578	215.56
411.802	211.56
412.025	209.56
412.249	224.56
412.472	204.56
412.695	207.56
412.919	215.56
413.142	218.56
413.365	219.56
413.589	221.56
413.812	221.56
414.035	209.56
414.258	195.56
414.482	236.56
414.705	241.56
414.928	205.56
415.151	203.56
415.374	211.56
415.597	214.56
415.821	196.56
416.044	207.56
416.267	192.56
416.49	183.56
416.713	196.56
416.936	197.56
417.159	204.56
417.382	171.56
417.605	178.56
417.828	192.56
418.051	194.56
418.274	210.56
418.497	195.56
418.72	208.56
418.943	209.56
419.166	195.56
419.389	212.56
419.611	227.56
419.834	219.56
420.057	238.56
420.28	234.56
420.503	217.56
420.726	212.56
420.948	194.56
421.171	192.56
421.394	207.56
421.617	185.56
421.839	191.56
422.062	195.56
422.285	205.56
422.507	196.56
422.73	200.56
422.953	212.56
423.175	212.56
423.398	199.56
423.621	225.56
423.843	237.56
424.066	228.56
424.288	220.56
424.511	189.56
424.733	208.56
424.956	215.56
425.178	222.56
425.401	252.56
425.623	278.56
425.846	245.56
426.068	211.56
426.291	234.56
426.513	217.56
426.735	223.56
426.958	213.56
427.18	221.56
427.402	272.56
427.625	298.56
427.847	230.56
428.069	192.56
428.292	201.56
428.514	203.56
428.736	187.56
428.958	210.56
429.181	268.56
429.403	197.56
429.625	209.56
429.847	215.56
430.069	207.56
430.292	220.56
430.514	199.56
430.736	191.56
430.958	242.56
431.18	223.56
431.402	170.56
431.624	178.56
431.846	169.56
432.068	184.56
432.29	189.56
432.512	196.56
432.734	219.56
432.956	229.56
433.178	198.56
433.4	193.56
433.622	187.56
433.844	192.56
434.066	229.56
434.287	209.56
434.509	202.56
434.731	224.56
434.953	192.56
435.175	196.56
435.397	231.56
435.618	197.56
435.84	177.56
436.062	191.56
436.284	187.56
436.505	197.56
436.727	167.56
436.949	179.56
437.17	181.56
437.392	175.56
437.614	185.56
437.835	179.56
438.057	191.56
438.278	201.56
438.5	264.56
438.721	255.56
438.943	207.56
439.165	197.56
439.386	175.56
439.608	167.56
439.829	168.56
440.05	170.56
440.272	185.56
440.493	201.56
440.715	253.56
440.936	211.56
441.158	198.56
441.379	186.56
441.6	222.56
441.822	239.56
442.043	205.56
442.264	195.56
442.486	200.56
442.707	195.56
442.928	194.56
443.149	190.56
443.371	197.56
443.592	213.56
443.813	183.56
444.034	195.56
444.255	185.56
444.476	228.56
444.698	209.56
444.919	212.56
445.14	320.56
445.361	283.56
445.582	206.56
445.803	200.56
446.024	207.56
446.245	207.56
446.466	200.56
446.687	211.56
446.908	192.56
447.129	198.56
447.35	175.56
447.571	195.56
447.792	198.56
448.013	193.56
448.234	167.56
448.455	173.56
448.675	183.56
448.896	186.56
449.117	184.56
449.338	172.56
449.559	185.56
449.779	187.56
450	200.56
450.221	181.56
450.442	179.56
450.662	188.56
450.883	193.56
451.104	180.56
451.324	183.56
451.545	174.56
451.766	185.56
451.986	168.56
452.207	177.56
452.428	175.56
452.648	188.56
452.869	193.56
453.089	192.56
453.31	191.56
453.53	164.56
453.751	175.56
453.971	173.56
454.192	178.56
454.412	182.56
454.633	178.56
454.853	185.56
455.073	180.56
455.294	162.56
455.514	182.56
455.734	168.56
455.955	175.56
456.175	185.56
456.395	187.56
456.616	170.56
456.836	161.56
457.056	170.56
457.276	157.56
457.497	172.56
457.717	169.56
457.937	155.56
458.157	163.56
458.377	179.56
458.598	172.56
458.818	183.56
459.038	190.56
459.258	176.56
459.478	190.56
459.698	211.56
459.918	228.56
460.138	212.56
460.358	209.56
460.578	183.56
460.798	194.56
461.018	204.56
461.238	195.56
461.458	197.56
461.678	207.56
461.898	209.56
462.118	217.56
462.338	209.56
462.558	230.56
462.777	235.56
462.997	229.56
463.217	226.56
463.437	227.56
463.657	213.56
463.876	214.56
464.096	227.56
464.316	218.56
464.536	227.56
464.755	226.56
464.975	241.56
465.195	200.56
465.414	232.56
465.634	205.56
465.854	204.56
466.073	193.56
466.293	197.56
466.512	196.56
466.732	208.56
466.951	213.56
467.171	201.56
467.391	188.56
467.61	185.56
467.829	195.56
468.049	195.56
468.268	184.56
468.488	179.56
468.707	184.56
468.927	220.56
469.146	233.56
469.365	229.56
469.585	214.56
469.804	192.56
470.023	205.56
470.243	191.56
470.462	196.56
470.681	198.56
470.901	197.56
471.12	211.56
471.339	219.56
471.558	196.56
471.777	204.56
471.997	215.56
472.216	232.56
472.435	222.56
472.654	191.56
472.873	199.56
473.092	224.56
473.311	224.56
473.53	188.56
473.749	203.56
473.968	202.56
474.187	199.56
474.406	195.56
474.625	195.56
474.844	210.56
475.063	208.56
475.282	215.56
475.501	216.56
475.72	230.56
475.939	224.56
476.158	220.56
476.377	272.56
476.596	266.56
476.814	291.56
477.033	265.56
477.252	200.56
477.471	211.56
477.69	215.56
477.908	203.56
478.127	242.56
478.346	228.56
478.564	267.56
478.783	224.56
479.002	215.56
479.22	258.56
479.439	269.56
479.658	241.56
479.876	225.56
480.095	241.56
480.313	262.56
480.532	242.56
480.751	235.56
480.969	215.56
481.188	245.56
481.406	247.56
481.624	241.56
481.843	225.56
482.061	210.56
482.28	233.56
482.498	297.56
482.717	295.56
482.935	244.56
483.153	224.56
483.372	213.56
483.59	216.56
483.808	204.56
484.027	201.56
484.245	203.56
484.463	204.56
484.681	214.56
484.9	223.56
485.118	244.56
485.336	219.56
485.554	222.56
485.772	195.56
485.99	235.56
486.209	247.56
486.427	243.56
486.645	247.56
486.863	256.56
487.081	250.56
487.299	281.56
487.517	263.56
487.735	239.56
487.953	226.56
488.171	241.56
488.389	236.56
488.607	212.56
488.825	239.56
489.043	241.56
489.261	286.56
489.479	313.56
489.696	265.56
489.914	226.56
490.132	220.56
490.35	228.56
490.568	231.56
490.786	219.56
491.003	209.56
491.221	201.56
491.439	217.56
491.657	223.56
491.874	230.56
492.092	296.56
492.31	347.56
492.527	314.56
492.745	283.56
492.963	261.56
493.18	244.56
493.398	260.56
493.615	259.56
493.833	231.56
494.05	236.56
494.268	244.56
494.485	242.56
494.703	243.56
494.92	233.56
495.138	242.56
495.355	251.56
495.573	232.56
495.79	265.56
496.008	352.56
496.225	291.56
496.442	269.56
496.66	275.56
496.877	282.56
497.094	293.56
497.312	240.56
497.529	245.56
497.746	254.56
497.963	263.56
498.181	281.56
498.398	296.56
498.615	315.56
498.832	336.56
499.049	339.56
499.267	331.56
499.484	331.56
499.701	349.56
499.918	382.56
500.135	411.56
500.352	435.56
500.569	444.56
500.786	432.56
501.003	441.56
501.22	383.56
501.437	369.56
501.654	347.56
501.871	339.56
502.088	333.56
502.305	309.56
502.522	307.56
502.739	304.56
