Data from NickelSpatula_HRD10591_16-34-27-126.txt Node
Date: Mon Jul 22 16:34:27 EDT 2019
User: cochatt
Spectrometer: HR+D1059
Trigger mode: 1
Integration Time (sec): 1.000000E-1
Scans to average: 1
Electric dark correction enabled: true
Nonlinearity correction enabled: false
Boxcar width: 0
XAxis mode: Wavelengths
Number of Pixels in Spectrum: 2048
>>>>>Begin Spectral Data<<<<<
223.165	-15.44
223.4	-15.44
223.635	-15.44
223.869	-14.44
224.104	-27.44
224.338	-12.44
224.573	-12.44
224.808	0.56
225.042	-12.44
225.277	0.56
225.511	8.56
225.746	-6.44
225.98	5.56
226.215	4.56
226.449	24.56
226.683	15.56
226.918	14.56
227.152	26.56
227.387	36.56
227.621	42.56
227.856	25.56
228.09	42.56
228.324	46.56
228.559	48.56
228.793	57.56
229.027	79.56
229.262	73.56
229.496	78.56
229.73	85.56
229.964	95.56
230.199	96.56
230.433	96.56
230.667	74.56
230.901	96.56
231.136	90.56
231.37	90.56
231.604	90.56
231.838	102.56
232.072	93.56
232.306	93.56
232.541	103.56
232.775	98.56
233.009	109.56
233.243	102.56
233.477	118.56
233.711	123.56
233.945	106.56
234.179	120.56
234.413	111.56
234.647	119.56
234.881	137.56
235.115	135.56
235.349	127.56
235.583	117.56
235.817	105.56
236.051	119.56
236.285	150.56
236.519	116.56
236.753	135.56
236.987	115.56
237.221	122.56
237.455	123.56
237.689	133.56
237.922	140.56
238.156	133.56
238.39	162.56
238.624	167.56
238.858	151.56
239.091	139.56
239.325	149.56
239.559	140.56
239.793	141.56
240.027	164.56
240.26	151.56
240.494	143.56
240.728	160.56
240.961	174.56
241.195	182.56
241.429	169.56
241.662	173.56
241.896	145.56
242.13	139.56
242.363	143.56
242.597	144.56
242.83	144.56
243.064	160.56
243.298	179.56
243.531	173.56
243.765	167.56
243.998	159.56
244.232	168.56
244.465	134.56
244.699	150.56
244.932	184.56
245.166	162.56
245.399	141.56
245.633	150.56
245.866	146.56
246.099	184.56
246.333	186.56
246.566	207.56
246.8	187.56
247.033	188.56
247.266	171.56
247.5	173.56
247.733	159.56
247.966	176.56
248.2	166.56
248.433	181.56
248.666	182.56
248.899	182.56
249.133	189.56
249.366	211.56
249.599	245.56
249.832	226.56
250.066	207.56
250.299	200.56
250.532	194.56
250.765	214.56
250.998	188.56
251.231	191.56
251.465	203.56
251.698	203.56
251.931	199.56
252.164	205.56
252.397	209.56
252.63	256.56
252.863	260.56
253.096	269.56
253.329	259.56
253.562	245.56
253.795	289.56
254.028	304.56
254.261	327.56
254.494	277.56
254.727	242.56
254.96	255.56
255.193	262.56
255.426	270.56
255.659	214.56
255.892	205.56
256.124	228.56
256.357	249.56
256.59	291.56
256.823	253.56
257.056	230.56
257.289	220.56
257.521	215.56
257.754	253.56
257.987	296.56
258.22	273.56
258.452	225.56
258.685	243.56
258.918	279.56
259.151	275.56
259.383	297.56
259.616	326.56
259.849	345.56
260.081	361.56
260.314	380.56
260.547	328.56
260.779	331.56
261.012	369.56
261.244	353.56
261.477	331.56
261.71	317.56
261.942	294.56
262.175	289.56
262.407	290.56
262.64	275.56
262.872	325.56
263.105	343.56
263.337	353.56
263.57	329.56
263.802	253.56
264.035	216.56
264.267	218.56
264.499	203.56
264.732	189.56
264.964	170.56
265.197	182.56
265.429	198.56
265.661	190.56
265.894	211.56
266.126	210.56
266.358	253.56
266.591	267.56
266.823	314.56
267.055	322.56
267.287	295.56
267.52	292.56
267.752	297.56
267.984	329.56
268.216	328.56
268.448	274.56
268.681	270.56
268.913	286.56
269.145	296.56
269.377	296.56
269.609	308.56
269.841	274.56
270.073	305.56
270.306	311.56
270.538	311.56
270.77	343.56
271.002	313.56
271.234	334.56
271.466	332.56
271.698	310.56
271.93	325.56
272.162	312.56
272.394	306.56
272.626	290.56
272.858	319.56
273.09	331.56
273.322	288.56
273.553	285.56
273.785	312.56
274.017	405.56
274.249	479.56
274.481	498.56
274.713	521.56
274.945	597.56
275.176	610.56
275.408	541.56
275.64	525.56
275.872	524.56
276.104	462.56
276.335	384.56
276.567	401.56
276.799	415.56
277.031	424.56
277.262	366.56
277.494	295.56
277.726	263.56
277.957	289.56
278.189	327.56
278.421	335.56
278.652	310.56
278.884	302.56
279.115	273.56
279.347	293.56
279.579	284.56
279.81	272.56
280.042	276.56
280.273	297.56
280.505	275.56
280.736	234.56
280.968	243.56
281.199	267.56
281.431	285.56
281.662	302.56
281.894	261.56
282.125	289.56
282.356	298.56
282.588	297.56
282.819	289.56
283.051	294.56
283.282	336.56
283.513	401.56
283.745	442.56
283.976	429.56
284.207	414.56
284.439	437.56
284.67	421.56
284.901	355.56
285.132	394.56
285.364	415.56
285.595	369.56
285.826	396.56
286.057	411.56
286.288	403.56
286.52	427.56
286.751	430.56
286.982	437.56
287.213	391.56
287.444	406.56
287.675	398.56
287.906	378.56
288.138	334.56
288.369	311.56
288.6	286.56
288.831	319.56
289.062	335.56
289.293	382.56
289.524	351.56
289.755	351.56
289.986	359.56
290.217	326.56
290.448	262.56
290.679	226.56
290.91	223.56
291.141	222.56
291.371	243.56
291.602	211.56
291.833	233.56
292.064	250.56
292.295	274.56
292.526	311.56
292.757	320.56
292.987	346.56
293.218	350.56
293.449	359.56
293.68	383.56
293.91	349.56
294.141	351.56
294.372	349.56
294.603	316.56
294.833	338.56
295.064	391.56
295.295	409.56
295.525	306.56
295.756	278.56
295.987	238.56
296.217	231.56
296.448	245.56
296.679	249.56
296.909	278.56
297.14	281.56
297.37	311.56
297.601	293.56
297.831	250.56
298.062	257.56
298.292	298.56
298.523	308.56
298.753	369.56
298.984	354.56
299.214	299.56
299.445	250.56
299.675	241.56
299.905	232.56
300.136	230.56
300.366	261.56
300.597	245.56
300.827	224.56
301.057	210.56
301.288	245.56
301.518	255.56
301.748	296.56
301.979	310.56
302.209	311.56
302.439	309.56
302.669	278.56
302.9	279.56
303.13	291.56
303.36	249.56
303.59	259.56
303.82	253.56
304.051	282.56
304.281	305.56
304.511	319.56
304.741	269.56
304.971	272.56
305.201	278.56
305.431	272.56
305.661	247.56
305.891	256.56
306.121	251.56
306.352	226.56
306.582	217.56
306.812	214.56
307.042	208.56
307.272	197.56
307.502	191.56
307.731	219.56
307.961	211.56
308.191	206.56
308.421	187.56
308.651	190.56
308.881	201.56
309.111	195.56
309.341	206.56
309.571	225.56
309.8	201.56
310.03	210.56
310.26	240.56
310.49	214.56
310.72	210.56
310.949	193.56
311.179	204.56
311.409	215.56
311.639	221.56
311.868	284.56
312.098	359.56
312.328	395.56
312.557	394.56
312.787	419.56
313.017	349.56
313.246	377.56
313.476	402.56
313.706	338.56
313.935	289.56
314.165	245.56
314.394	211.56
314.624	216.56
314.853	233.56
315.083	243.56
315.312	242.56
315.542	232.56
315.771	225.56
316.001	200.56
316.23	198.56
316.46	203.56
316.689	190.56
316.919	204.56
317.148	209.56
317.377	202.56
317.607	192.56
317.836	197.56
318.065	251.56
318.295	275.56
318.524	267.56
318.753	223.56
318.983	213.56
319.212	216.56
319.441	214.56
319.67	241.56
319.9	258.56
320.129	264.56
320.358	240.56
320.587	198.56
320.816	230.56
321.046	245.56
321.275	280.56
321.504	294.56
321.733	278.56
321.962	266.56
322.191	250.56
322.42	245.56
322.649	249.56
322.878	271.56
323.108	273.56
323.337	245.56
323.566	254.56
323.795	243.56
324.024	218.56
324.253	219.56
324.482	224.56
324.71	239.56
324.939	268.56
325.168	266.56
325.397	208.56
325.626	217.56
325.855	203.56
326.084	224.56
326.313	204.56
326.542	202.56
326.77	202.56
326.999	198.56
327.228	222.56
327.457	237.56
327.686	222.56
327.914	202.56
328.143	200.56
328.372	194.56
328.6	193.56
328.829	214.56
329.058	215.56
329.287	206.56
329.515	211.56
329.744	190.56
329.972	189.56
330.201	194.56
330.43	180.56
330.658	221.56
330.887	237.56
331.115	222.56
331.344	228.56
331.572	222.56
331.801	219.56
332.03	216.56
332.258	208.56
332.486	215.56
332.715	209.56
332.943	211.56
333.172	215.56
333.4	212.56
333.629	229.56
333.857	257.56
334.085	248.56
334.314	238.56
334.542	234.56
334.771	232.56
334.999	215.56
335.227	208.56
335.455	221.56
335.684	223.56
335.912	239.56
336.14	272.56
336.369	275.56
336.597	268.56
336.825	287.56
337.053	351.56
337.281	266.56
337.51	217.56
337.738	214.56
337.966	209.56
338.194	254.56
338.422	242.56
338.65	214.56
338.878	191.56
339.106	208.56
339.334	213.56
339.562	241.56
339.79	228.56
340.018	215.56
340.246	223.56
340.474	245.56
340.702	271.56
340.93	270.56
341.158	282.56
341.386	241.56
341.614	238.56
341.842	240.56
342.07	252.56
342.298	272.56
342.526	302.56
342.754	247.56
342.981	254.56
343.209	245.56
343.437	255.56
343.665	268.56
343.893	255.56
344.12	285.56
344.348	335.56
344.576	342.56
344.804	264.56
345.031	221.56
345.259	225.56
345.487	213.56
345.714	223.56
345.942	242.56
346.17	267.56
346.397	257.56
346.625	231.56
346.853	230.56
347.08	203.56
347.308	221.56
347.535	255.56
347.763	255.56
347.99	227.56
348.218	226.56
348.445	205.56
348.673	221.56
348.9	213.56
349.128	224.56
349.355	242.56
349.583	215.56
349.81	216.56
350.037	206.56
350.265	189.56
350.492	173.56
350.72	178.56
350.947	194.56
351.174	198.56
351.402	199.56
351.629	207.56
351.856	203.56
352.083	201.56
352.311	219.56
352.538	227.56
352.765	266.56
352.992	251.56
353.22	238.56
353.447	239.56
353.674	217.56
353.901	222.56
354.128	239.56
354.355	223.56
354.583	223.56
354.81	239.56
355.037	247.56
355.264	250.56
355.491	235.56
355.718	256.56
355.945	241.56
356.172	239.56
356.399	225.56
356.626	275.56
356.853	325.56
357.08	367.56
357.307	367.56
357.534	305.56
357.761	287.56
357.988	339.56
358.215	396.56
358.441	381.56
358.668	332.56
358.895	320.56
359.122	250.56
359.349	235.56
359.576	279.56
359.802	229.56
360.029	211.56
360.256	233.56
360.483	260.56
360.709	327.56
360.936	351.56
361.163	299.56
361.39	257.56
361.616	223.56
361.843	247.56
362.07	312.56
362.296	287.56
362.523	224.56
362.749	201.56
362.976	215.56
363.203	245.56
363.429	283.56
363.656	232.56
363.882	235.56
364.109	234.56
364.335	243.56
364.562	220.56
364.788	241.56
365.015	266.56
365.241	243.56
365.468	218.56
365.694	185.56
365.92	192.56
366.147	172.56
366.373	189.56
366.599	167.56
366.826	178.56
367.052	184.56
367.278	187.56
367.505	166.56
367.731	189.56
367.957	199.56
368.184	236.56
368.41	215.56
368.636	222.56
368.862	253.56
369.089	235.56
369.315	200.56
369.541	182.56
369.767	202.56
369.993	202.56
370.219	207.56
370.445	200.56
370.672	233.56
370.898	250.56
371.124	234.56
371.35	214.56
371.576	208.56
371.802	211.56
372.028	234.56
372.254	284.56
372.48	221.56
372.706	239.56
372.932	229.56
373.158	244.56
373.384	285.56
373.61	338.56
373.835	374.56
374.061	285.56
374.287	265.56
374.513	308.56
374.739	335.56
374.965	349.56
375.191	341.56
375.416	246.56
375.642	213.56
375.868	228.56
376.094	268.56
376.319	224.56
376.545	238.56
376.771	257.56
376.997	226.56
377.222	200.56
377.448	173.56
377.674	168.56
377.899	157.56
378.125	175.56
378.35	179.56
378.576	176.56
378.802	195.56
379.027	186.56
379.253	199.56
379.478	221.56
379.704	238.56
379.929	249.56
380.155	230.56
380.38	213.56
380.606	229.56
380.831	241.56
381.057	233.56
381.282	209.56
381.507	229.56
381.733	271.56
381.958	305.56
382.184	342.56
382.409	343.56
382.634	329.56
382.86	353.56
383.085	291.56
383.31	262.56
383.535	280.56
383.761	271.56
383.986	261.56
384.211	305.56
384.436	301.56
384.662	227.56
384.887	238.56
385.112	239.56
385.337	234.56
385.562	232.56
385.787	223.56
386.013	249.56
386.238	276.56
386.463	231.56
386.688	219.56
386.913	220.56
387.138	200.56
387.363	220.56
387.588	233.56
387.813	226.56
388.038	242.56
388.263	217.56
388.488	220.56
388.713	256.56
388.938	272.56
389.163	238.56
389.387	203.56
389.612	196.56
389.837	216.56
390.062	221.56
390.287	231.56
390.512	233.56
390.736	217.56
390.961	198.56
391.186	198.56
391.411	190.56
391.636	198.56
391.86	233.56
392.085	238.56
392.31	231.56
392.534	222.56
392.759	214.56
392.984	249.56
393.208	219.56
393.433	201.56
393.658	188.56
393.882	187.56
394.107	199.56
394.331	185.56
394.556	178.56
394.78	194.56
395.005	203.56
395.229	182.56
395.454	201.56
395.678	199.56
395.903	214.56
396.127	196.56
396.352	199.56
396.576	212.56
396.801	219.56
397.025	247.56
397.249	255.56
397.474	206.56
397.698	223.56
397.922	237.56
398.147	209.56
398.371	202.56
398.595	232.56
398.82	219.56
399.044	217.56
399.268	251.56
399.492	250.56
399.717	240.56
399.941	260.56
400.165	238.56
400.389	234.56
400.613	231.56
400.837	214.56
401.062	199.56
401.286	186.56
401.51	198.56
401.734	200.56
401.958	214.56
402.182	196.56
402.406	199.56
402.63	217.56
402.854	220.56
403.078	249.56
403.302	310.56
403.526	330.56
403.75	308.56
403.974	250.56
404.198	251.56
404.422	274.56
404.645	308.56
404.869	325.56
405.093	259.56
405.317	226.56
405.541	231.56
405.765	233.56
405.988	238.56
406.212	249.56
406.436	277.56
406.66	306.56
406.883	245.56
407.107	251.56
407.331	281.56
407.555	266.56
407.778	248.56
408.002	247.56
408.226	258.56
408.449	265.56
408.673	247.56
408.896	210.56
409.12	218.56
409.344	201.56
409.567	202.56
409.791	202.56
410.014	199.56
410.238	201.56
410.461	185.56
410.685	203.56
410.908	213.56
411.132	225.56
411.355	218.56
411.578	212.56
411.802	207.56
412.025	213.56
412.249	221.56
412.472	222.56
412.695	221.56
412.919	208.56
413.142	213.56
413.365	216.56
413.589	253.56
413.812	219.56
414.035	219.56
414.258	191.56
414.482	241.56
414.705	267.56
414.928	213.56
415.151	192.56
415.374	209.56
415.597	208.56
415.821	216.56
416.044	200.56
416.267	220.56
416.49	193.56
416.713	200.56
416.936	203.56
417.159	213.56
417.382	196.56
417.605	220.56
417.828	213.56
418.051	202.56
418.274	203.56
418.497	221.56
418.72	227.56
418.943	214.56
419.166	240.56
419.389	232.56
419.611	218.56
419.834	231.56
420.057	240.56
420.28	240.56
420.503	240.56
420.726	216.56
420.948	215.56
421.171	206.56
421.394	198.56
421.617	191.56
421.839	181.56
422.062	217.56
422.285	224.56
422.507	210.56
422.73	213.56
422.953	221.56
423.175	219.56
423.398	224.56
423.621	243.56
423.843	237.56
424.066	231.56
424.288	206.56
424.511	185.56
424.733	195.56
424.956	207.56
425.178	249.56
425.401	286.56
425.623	301.56
425.846	260.56
426.068	217.56
426.291	256.56
426.513	238.56
426.735	214.56
426.958	225.56
427.18	245.56
427.402	328.56
427.625	309.56
427.847	267.56
428.069	208.56
428.292	219.56
428.514	217.56
428.736	198.56
428.958	231.56
429.181	261.56
429.403	244.56
429.625	226.56
429.847	216.56
430.069	208.56
430.292	208.56
430.514	194.56
430.736	202.56
430.958	256.56
431.18	259.56
431.402	193.56
431.624	179.56
431.846	167.56
432.068	178.56
432.29	194.56
432.512	207.56
432.734	243.56
432.956	236.56
433.178	202.56
433.4	183.56
433.622	185.56
433.844	203.56
434.066	245.56
434.287	224.56
434.509	197.56
434.731	216.56
434.953	192.56
435.175	219.56
435.397	261.56
435.618	205.56
435.84	198.56
436.062	210.56
436.284	183.56
436.505	168.56
436.727	184.56
436.949	189.56
437.17	170.56
437.392	198.56
437.614	189.56
437.835	196.56
438.057	190.56
438.278	210.56
438.5	277.56
438.721	287.56
438.943	200.56
439.165	189.56
439.386	184.56
439.608	181.56
439.829	178.56
440.05	175.56
440.272	180.56
440.493	211.56
440.715	271.56
440.936	236.56
441.158	205.56
441.379	194.56
441.6	225.56
441.822	230.56
442.043	195.56
442.264	201.56
442.486	209.56
442.707	206.56
442.928	210.56
443.149	197.56
443.371	205.56
443.592	214.56
443.813	201.56
444.034	203.56
444.255	202.56
444.476	208.56
444.698	219.56
444.919	216.56
445.14	326.56
445.361	294.56
445.582	234.56
445.803	237.56
446.024	216.56
446.245	237.56
446.466	231.56
446.687	201.56
446.908	196.56
447.129	189.56
447.35	179.56
447.571	200.56
447.792	160.56
448.013	178.56
448.234	194.56
448.455	195.56
448.675	184.56
448.896	165.56
449.117	185.56
449.338	169.56
449.559	190.56
449.779	208.56
450	206.56
450.221	187.56
450.442	182.56
450.662	182.56
450.883	184.56
451.104	190.56
451.324	195.56
451.545	191.56
451.766	194.56
451.986	190.56
452.207	182.56
452.428	166.56
452.648	182.56
452.869	195.56
453.089	208.56
453.31	197.56
453.53	188.56
453.751	193.56
453.971	185.56
454.192	185.56
454.412	191.56
454.633	177.56
454.853	183.56
455.073	181.56
455.294	184.56
455.514	170.56
455.734	181.56
455.955	178.56
456.175	187.56
456.395	159.56
456.616	163.56
456.836	175.56
457.056	184.56
457.276	169.56
457.497	165.56
457.717	164.56
457.937	186.56
458.157	176.56
458.377	167.56
458.598	171.56
458.818	174.56
459.038	185.56
459.258	175.56
459.478	195.56
459.698	192.56
459.918	216.56
460.138	187.56
460.358	211.56
460.578	205.56
460.798	200.56
461.018	203.56
461.238	181.56
461.458	219.56
461.678	206.56
461.898	225.56
462.118	205.56
462.338	209.56
462.558	218.56
462.777	231.56
462.997	248.56
463.217	243.56
463.437	229.56
463.657	225.56
463.876	231.56
464.096	229.56
464.316	232.56
464.536	218.56
464.755	237.56
464.975	248.56
465.195	239.56
465.414	239.56
465.634	231.56
465.854	198.56
466.073	189.56
466.293	206.56
466.512	217.56
466.732	226.56
466.951	225.56
467.171	201.56
467.391	183.56
467.61	205.56
467.829	193.56
468.049	213.56
468.268	202.56
468.488	191.56
468.707	201.56
468.927	228.56
469.146	232.56
469.365	232.56
469.585	214.56
469.804	213.56
470.023	214.56
470.243	210.56
470.462	195.56
470.681	218.56
470.901	217.56
471.12	224.56
471.339	211.56
471.558	196.56
471.777	177.56
471.997	209.56
472.216	229.56
472.435	211.56
472.654	230.56
472.873	213.56
473.092	212.56
473.311	221.56
473.53	201.56
473.749	201.56
473.968	220.56
474.187	217.56
474.406	221.56
474.625	197.56
474.844	211.56
475.063	209.56
475.282	209.56
475.501	263.56
475.72	264.56
475.939	242.56
476.158	238.56
476.377	278.56
476.596	335.56
476.814	324.56
477.033	280.56
477.252	225.56
477.471	209.56
477.69	226.56
477.908	202.56
478.127	255.56
478.346	228.56
478.564	294.56
478.783	248.56
479.002	252.56
479.22	273.56
479.439	275.56
479.658	268.56
479.876	236.56
480.095	247.56
480.313	255.56
480.532	252.56
480.751	232.56
480.969	233.56
481.188	265.56
481.406	265.56
481.624	246.56
481.843	218.56
482.061	232.56
482.28	231.56
482.498	307.56
482.717	324.56
482.935	270.56
483.153	257.56
483.372	229.56
483.59	224.56
483.808	209.56
484.027	231.56
484.245	208.56
484.463	219.56
484.681	245.56
484.9	237.56
485.118	248.56
485.336	231.56
485.554	241.56
485.772	224.56
485.99	247.56
486.209	275.56
486.427	266.56
486.645	234.56
486.863	259.56
487.081	250.56
487.299	282.56
487.517	287.56
487.735	255.56
487.953	241.56
488.171	263.56
488.389	238.56
488.607	220.56
488.825	240.56
489.043	268.56
489.261	301.56
489.479	325.56
489.696	265.56
489.914	241.56
490.132	213.56
490.35	237.56
490.568	239.56
490.786	232.56
491.003	232.56
491.221	222.56
491.439	223.56
491.657	224.56
491.874	263.56
492.092	288.56
492.31	388.56
492.527	377.56
492.745	269.56
492.963	256.56
493.18	261.56
493.398	253.56
493.615	266.56
493.833	269.56
494.05	246.56
494.268	246.56
494.485	262.56
494.703	233.56
494.92	232.56
495.138	242.56
495.355	257.56
495.573	273.56
495.79	297.56
496.008	384.56
496.225	307.56
496.442	269.56
496.66	254.56
496.877	289.56
497.094	261.56
497.312	260.56
497.529	265.56
497.746	286.56
497.963	272.56
498.181	297.56
498.398	308.56
498.615	321.56
498.832	361.56
499.049	372.56
499.267	326.56
499.484	335.56
499.701	346.56
499.918	351.56
500.135	413.56
500.352	433.56
500.569	459.56
500.786	474.56
501.003	463.56
501.22	381.56
501.437	378.56
501.654	343.56
501.871	324.56
502.088	321.56
502.305	310.56
502.522	307.56
502.739	323.56
