Data from NickelSpatula.Lamp.E5.5.P2_HRD10591_11-52-07-556.txt Node
Date: Tue Jul 23 11:52:07 EDT 2019
User: cochatt
Spectrometer: HR+D1059
Trigger mode: 1
Integration Time (sec): 1.000000E-1
Scans to average: 1
Electric dark correction enabled: true
Nonlinearity correction enabled: false
Boxcar width: 0
XAxis mode: Wavelengths
Number of Pixels in Spectrum: 2048
>>>>>Begin Spectral Data<<<<<
223.165	-25.19
223.4	-25.19
223.635	-25.19
223.869	-9.19
224.104	-28.19
224.338	-12.19
224.573	-12.19
224.808	-24.19
225.042	-3.19
225.277	4.81
225.511	9.81
225.746	-5.19
225.98	18.81
226.215	10.81
226.449	11.81
226.683	14.81
226.918	16.81
227.152	31.81
227.387	38.81
227.621	40.81
227.856	50.81
228.09	34.81
228.324	47.81
228.559	51.81
228.793	69.81
229.027	71.81
229.262	77.81
229.496	75.81
229.73	72.81
229.964	89.81
230.199	88.81
230.433	105.81
230.667	92.81
230.901	96.81
231.136	100.81
231.37	93.81
231.604	101.81
231.838	111.81
232.072	97.81
232.306	101.81
232.541	109.81
232.775	98.81
233.009	107.81
233.243	114.81
233.477	116.81
233.711	125.81
233.945	122.81
234.179	118.81
234.413	130.81
234.647	127.81
234.881	146.81
235.115	135.81
235.349	140.81
235.583	130.81
235.817	122.81
236.051	110.81
236.285	140.81
236.519	146.81
236.753	135.81
236.987	122.81
237.221	118.81
237.455	154.81
237.689	135.81
237.922	140.81
238.156	151.81
238.39	159.81
238.624	170.81
238.858	165.81
239.091	157.81
239.325	147.81
239.559	133.81
239.793	159.81
240.027	169.81
240.26	164.81
240.494	164.81
240.728	154.81
240.961	174.81
241.195	166.81
241.429	153.81
241.662	158.81
241.896	172.81
242.13	142.81
242.363	130.81
242.597	137.81
242.83	140.81
243.064	148.81
243.298	171.81
243.531	176.81
243.765	174.81
243.998	183.81
244.232	162.81
244.465	172.81
244.699	146.81
244.932	179.81
245.166	180.81
245.399	157.81
245.633	151.81
245.866	154.81
246.099	166.81
246.333	184.81
246.566	194.81
246.8	212.81
247.033	186.81
247.266	191.81
247.5	165.81
247.733	164.81
247.966	167.81
248.2	159.81
248.433	196.81
248.666	188.81
248.899	216.81
249.133	208.81
249.366	238.81
249.599	242.81
249.832	240.81
250.066	204.81
250.299	219.81
250.532	206.81
250.765	202.81
250.998	181.81
251.231	191.81
251.465	199.81
251.698	207.81
251.931	219.81
252.164	211.81
252.397	218.81
252.63	250.81
252.863	283.81
253.096	267.81
253.329	267.81
253.562	260.81
253.795	282.81
254.028	325.81
254.261	295.81
254.494	283.81
254.727	264.81
254.96	248.81
255.193	282.81
255.426	270.81
255.659	202.81
255.892	202.81
256.124	209.81
256.357	244.81
256.59	272.81
256.823	272.81
257.056	240.81
257.289	225.81
257.521	257.81
257.754	285.81
257.987	304.81
258.22	278.81
258.452	227.81
258.685	266.81
258.918	291.81
259.151	296.81
259.383	298.81
259.616	356.81
259.849	364.81
260.081	362.81
260.314	408.81
260.547	312.81
260.779	332.81
261.012	367.81
261.244	344.81
261.477	356.81
261.71	354.81
261.942	302.81
262.175	293.81
262.407	278.81
262.64	297.81
262.872	346.81
263.105	372.81
263.337	374.81
263.57	346.81
263.802	264.81
264.035	234.81
264.267	225.81
264.499	203.81
264.732	174.81
264.964	178.81
265.197	183.81
265.429	186.81
265.661	201.81
265.894	236.81
266.126	228.81
266.358	263.81
266.591	285.81
266.823	346.81
267.055	326.81
267.287	282.81
267.52	293.81
267.752	319.81
267.984	331.81
268.216	315.81
268.448	283.81
268.681	289.81
268.913	291.81
269.145	301.81
269.377	335.81
269.609	301.81
269.841	284.81
270.073	312.81
270.306	318.81
270.538	326.81
270.77	318.81
271.002	341.81
271.234	358.81
271.466	350.81
271.698	314.81
271.93	316.81
272.162	326.81
272.394	315.81
272.626	302.81
272.858	325.81
273.09	329.81
273.322	277.81
273.553	280.81
273.785	310.81
274.017	396.81
274.249	486.81
274.481	512.81
274.713	504.81
274.945	611.81
275.176	636.81
275.408	579.81
275.64	542.81
275.872	530.81
276.104	475.81
276.335	406.81
276.567	415.81
276.799	428.81
277.031	473.81
277.262	362.81
277.494	310.81
277.726	287.81
277.957	276.81
278.189	333.81
278.421	352.81
278.652	316.81
278.884	332.81
279.115	295.81
279.347	270.81
279.579	282.81
279.81	305.81
280.042	292.81
280.273	290.81
280.505	282.81
280.736	262.81
280.968	258.81
281.199	269.81
281.431	300.81
281.662	263.81
281.894	284.81
282.125	306.81
282.356	303.81
282.588	324.81
282.819	277.81
283.051	310.81
283.282	356.81
283.513	422.81
283.745	438.81
283.976	477.81
284.207	445.81
284.439	447.81
284.67	414.81
284.901	388.81
285.132	407.81
285.364	432.81
285.595	388.81
285.826	411.81
286.057	451.81
286.288	413.81
286.52	436.81
286.751	434.81
286.982	440.81
287.213	413.81
287.444	391.81
287.675	423.81
287.906	392.81
288.138	350.81
288.369	314.81
288.6	306.81
288.831	337.81
289.062	362.81
289.293	398.81
289.524	368.81
289.755	372.81
289.986	392.81
290.217	336.81
290.448	278.81
290.679	236.81
290.91	240.81
291.141	256.81
291.371	258.81
291.602	230.81
291.833	242.81
292.064	246.81
292.295	280.81
292.526	287.81
292.757	334.81
292.987	338.81
293.218	359.81
293.449	366.81
293.68	388.81
293.91	375.81
294.141	388.81
294.372	353.81
294.603	318.81
294.833	356.81
295.064	430.81
295.295	410.81
295.525	326.81
295.756	275.81
295.987	250.81
296.217	236.81
296.448	257.81
296.679	256.81
296.909	289.81
297.14	295.81
297.37	326.81
297.601	319.81
297.831	292.81
298.062	295.81
298.292	330.81
298.523	339.81
298.753	391.81
298.984	370.81
299.214	302.81
299.445	265.81
299.675	261.81
299.905	253.81
300.136	230.81
300.366	274.81
300.597	260.81
300.827	250.81
301.057	238.81
301.288	251.81
301.518	261.81
301.748	290.81
301.979	316.81
302.209	324.81
302.439	320.81
302.669	286.81
302.9	287.81
303.13	274.81
303.36	246.81
303.59	261.81
303.82	270.81
304.051	305.81
304.281	322.81
304.511	307.81
304.741	278.81
304.971	275.81
305.201	296.81
305.431	286.81
305.661	253.81
305.891	249.81
306.121	253.81
306.352	245.81
306.582	216.81
306.812	219.81
307.042	214.81
307.272	206.81
307.502	210.81
307.731	204.81
307.961	223.81
308.191	216.81
308.421	207.81
308.651	218.81
308.881	195.81
309.111	209.81
309.341	211.81
309.571	208.81
309.8	218.81
310.03	216.81
310.26	230.81
310.49	226.81
310.72	211.81
310.949	204.81
311.179	219.81
311.409	235.81
311.639	255.81
311.868	336.81
312.098	396.81
312.328	410.81
312.557	399.81
312.787	407.81
313.017	359.81
313.246	402.81
313.476	406.81
313.706	354.81
313.935	308.81
314.165	247.81
314.394	214.81
314.624	245.81
314.853	228.81
315.083	253.81
315.312	239.81
315.542	244.81
315.771	222.81
316.001	208.81
316.23	202.81
316.46	207.81
316.689	212.81
316.919	214.81
317.148	222.81
317.377	209.81
317.607	221.81
317.836	211.81
318.065	241.81
318.295	290.81
318.524	252.81
318.753	240.81
318.983	228.81
319.212	210.81
319.441	236.81
319.67	265.81
319.9	263.81
320.129	246.81
320.358	226.81
320.587	228.81
320.816	232.81
321.046	270.81
321.275	294.81
321.504	286.81
321.733	277.81
321.962	264.81
322.191	264.81
322.42	232.81
322.649	262.81
322.878	267.81
323.108	259.81
323.337	245.81
323.566	249.81
323.795	255.81
324.024	248.81
324.253	236.81
324.482	237.81
324.71	248.81
324.939	256.81
325.168	261.81
325.397	236.81
325.626	218.81
325.855	225.81
326.084	213.81
326.313	213.81
326.542	212.81
326.77	215.81
326.999	220.81
327.228	246.81
327.457	244.81
327.686	229.81
327.914	208.81
328.143	215.81
328.372	206.81
328.6	207.81
328.829	212.81
329.058	207.81
329.287	203.81
329.515	218.81
329.744	212.81
329.972	208.81
330.201	207.81
330.43	210.81
330.658	215.81
330.887	250.81
331.115	241.81
331.344	237.81
331.572	238.81
331.801	230.81
332.03	218.81
332.258	219.81
332.486	251.81
332.715	239.81
332.943	236.81
333.172	237.81
333.4	244.81
333.629	252.81
333.857	258.81
334.085	256.81
334.314	254.81
334.542	249.81
334.771	229.81
334.999	228.81
335.227	241.81
335.455	230.81
335.684	226.81
335.912	264.81
336.14	316.81
336.369	304.81
336.597	285.81
336.825	316.81
337.053	343.81
337.281	274.81
337.51	242.81
337.738	218.81
337.966	231.81
338.194	268.81
338.422	256.81
338.65	210.81
338.878	200.81
339.106	223.81
339.334	256.81
339.562	263.81
339.79	262.81
340.018	227.81
340.246	219.81
340.474	264.81
340.702	287.81
340.93	293.81
341.158	315.81
341.386	234.81
341.614	242.81
341.842	239.81
342.07	263.81
342.298	294.81
342.526	300.81
342.754	278.81
342.981	248.81
343.209	233.81
343.437	278.81
343.665	292.81
343.893	270.81
344.12	311.81
344.348	375.81
344.576	324.81
344.804	280.81
345.031	238.81
345.259	225.81
345.487	236.81
345.714	229.81
345.942	256.81
346.17	267.81
346.397	263.81
346.625	250.81
346.853	217.81
347.08	235.81
347.308	269.81
347.535	276.81
347.763	278.81
347.99	232.81
348.218	230.81
348.445	223.81
348.673	241.81
348.9	243.81
349.128	246.81
349.355	246.81
349.583	232.81
349.81	244.81
350.037	218.81
350.265	204.81
350.492	203.81
350.72	196.81
350.947	230.81
351.174	223.81
351.402	243.81
351.629	236.81
351.856	228.81
352.083	215.81
352.311	212.81
352.538	235.81
352.765	254.81
352.992	254.81
353.22	253.81
353.447	230.81
353.674	222.81
353.901	222.81
354.128	250.81
354.355	235.81
354.583	220.81
354.81	252.81
355.037	268.81
355.264	255.81
355.491	255.81
355.718	243.81
355.945	263.81
356.172	253.81
356.399	247.81
356.626	292.81
356.853	346.81
357.08	365.81
357.307	391.81
357.534	302.81
357.761	308.81
357.988	389.81
358.215	440.81
358.441	398.81
358.668	355.81
358.895	336.81
359.122	271.81
359.349	302.81
359.576	342.81
359.802	264.81
360.029	231.81
360.256	250.81
360.483	294.81
360.709	363.81
360.936	350.81
361.163	326.81
361.39	265.81
361.616	247.81
361.843	255.81
362.07	303.81
362.296	299.81
362.523	238.81
362.749	224.81
362.976	230.81
363.203	261.81
363.429	290.81
363.656	254.81
363.882	246.81
364.109	244.81
364.335	255.81
364.562	221.81
364.788	227.81
365.015	284.81
365.241	269.81
365.468	234.81
365.694	214.81
365.92	200.81
366.147	210.81
366.373	197.81
366.599	204.81
366.826	204.81
367.052	191.81
367.278	201.81
367.505	210.81
367.731	218.81
367.957	248.81
368.184	255.81
368.41	220.81
368.636	236.81
368.862	245.81
369.089	240.81
369.315	219.81
369.541	217.81
369.767	210.81
369.993	205.81
370.219	195.81
370.445	227.81
370.672	231.81
370.898	267.81
371.124	264.81
371.35	234.81
371.576	219.81
371.802	246.81
372.028	264.81
372.254	304.81
372.48	285.81
372.706	254.81
372.932	233.81
373.158	261.81
373.384	299.81
373.61	389.81
373.835	379.81
374.061	326.81
374.287	258.81
374.513	311.81
374.739	357.81
374.965	367.81
375.191	374.81
375.416	276.81
375.642	253.81
375.868	288.81
376.094	311.81
376.319	272.81
376.545	304.81
376.771	302.81
376.997	268.81
377.222	227.81
377.448	191.81
377.674	194.81
377.899	195.81
378.125	192.81
378.35	202.81
378.576	206.81
378.802	210.81
379.027	223.81
379.253	220.81
379.478	210.81
379.704	242.81
379.929	270.81
380.155	273.81
380.38	218.81
380.606	223.81
380.831	260.81
381.057	251.81
381.282	243.81
381.507	254.81
381.733	308.81
381.958	344.81
382.184	357.81
382.409	383.81
382.634	348.81
382.86	372.81
383.085	334.81
383.31	270.81
383.535	284.81
383.761	282.81
383.986	268.81
384.211	317.81
384.436	314.81
384.662	251.81
384.887	248.81
385.112	264.81
385.337	247.81
385.562	255.81
385.787	274.81
386.013	282.81
386.238	298.81
386.463	241.81
386.688	237.81
386.913	229.81
387.138	219.81
387.363	230.81
387.588	236.81
387.813	237.81
388.038	273.81
388.263	257.81
388.488	239.81
388.713	268.81
388.938	298.81
389.163	228.81
389.387	240.81
389.612	222.81
389.837	230.81
390.062	242.81
390.287	241.81
390.512	263.81
390.736	235.81
390.961	209.81
391.186	220.81
391.411	225.81
391.636	229.81
391.86	225.81
392.085	230.81
392.31	256.81
392.534	250.81
392.759	242.81
392.984	256.81
393.208	252.81
393.433	223.81
393.658	219.81
393.882	198.81
394.107	184.81
394.331	216.81
394.556	207.81
394.78	201.81
395.005	218.81
395.229	212.81
395.454	214.81
395.678	237.81
395.903	227.81
396.127	217.81
396.352	230.81
396.576	248.81
396.801	256.81
397.025	277.81
397.249	268.81
397.474	223.81
397.698	230.81
397.922	265.81
398.147	238.81
398.371	238.81
398.595	235.81
398.82	230.81
399.044	230.81
399.268	263.81
399.492	288.81
399.717	283.81
399.941	287.81
400.165	282.81
400.389	268.81
400.613	258.81
400.837	235.81
401.062	233.81
401.286	234.81
401.51	239.81
401.734	229.81
401.958	241.81
402.182	226.81
402.406	234.81
402.63	230.81
402.854	250.81
403.078	292.81
403.302	364.81
403.526	377.81
403.75	358.81
403.974	289.81
404.198	296.81
404.422	324.81
404.645	336.81
404.869	365.81
405.093	305.81
405.317	275.81
405.541	264.81
405.765	258.81
405.988	263.81
406.212	286.81
406.436	271.81
406.66	313.81
406.883	273.81
407.107	286.81
407.331	335.81
407.555	321.81
407.778	278.81
408.002	269.81
408.226	277.81
408.449	263.81
408.673	266.81
408.896	252.81
409.12	232.81
409.344	265.81
409.567	239.81
409.791	247.81
410.014	237.81
410.238	221.81
410.461	246.81
410.685	238.81
410.908	228.81
411.132	237.81
411.355	240.81
411.578	241.81
411.802	234.81
412.025	252.81
412.249	252.81
412.472	237.81
412.695	228.81
412.919	254.81
413.142	251.81
413.365	234.81
413.589	256.81
413.812	238.81
414.035	254.81
414.258	240.81
414.482	261.81
414.705	268.81
414.928	225.81
415.151	227.81
415.374	226.81
415.597	246.81
415.821	242.81
416.044	211.81
416.267	218.81
416.49	212.81
416.713	213.81
416.936	226.81
417.159	228.81
417.382	237.81
417.605	229.81
417.828	222.81
418.051	228.81
418.274	228.81
418.497	218.81
418.72	227.81
418.943	231.81
419.166	258.81
419.389	264.81
419.611	261.81
419.834	262.81
420.057	289.81
420.28	270.81
420.503	259.81
420.726	240.81
420.948	234.81
421.171	241.81
421.394	231.81
421.617	229.81
421.839	226.81
422.062	249.81
422.285	240.81
422.507	242.81
422.73	246.81
422.953	242.81
423.175	242.81
423.398	249.81
423.621	260.81
423.843	272.81
424.066	262.81
424.288	260.81
424.511	238.81
424.733	238.81
424.956	250.81
425.178	264.81
425.401	334.81
425.623	372.81
425.846	308.81
426.068	259.81
426.291	265.81
426.513	242.81
426.735	241.81
426.958	251.81
427.18	271.81
427.402	355.81
427.625	366.81
427.847	324.81
428.069	259.81
428.292	235.81
428.514	227.81
428.736	224.81
428.958	257.81
429.181	308.81
429.403	268.81
429.625	247.81
429.847	222.81
430.069	215.81
430.292	245.81
430.514	227.81
430.736	245.81
430.958	285.81
431.18	262.81
431.402	234.81
431.624	234.81
431.846	217.81
432.068	211.81
432.29	221.81
432.512	210.81
432.734	280.81
432.956	268.81
433.178	238.81
433.4	230.81
433.622	229.81
433.844	255.81
434.066	270.81
434.287	245.81
434.509	234.81
434.731	247.81
434.953	242.81
435.175	245.81
435.397	277.81
435.618	242.81
435.84	205.81
436.062	222.81
436.284	220.81
436.505	220.81
436.727	218.81
436.949	213.81
437.17	224.81
437.392	237.81
437.614	239.81
437.835	217.81
438.057	225.81
438.278	232.81
438.5	324.81
438.721	320.81
438.943	255.81
439.165	205.81
439.386	214.81
439.608	219.81
439.829	222.81
440.05	215.81
440.272	197.81
440.493	255.81
440.715	302.81
440.936	270.81
441.158	231.81
441.379	235.81
441.6	255.81
441.822	262.81
442.043	229.81
442.264	231.81
442.486	242.81
442.707	255.81
442.928	229.81
443.149	228.81
443.371	253.81
443.592	252.81
443.813	251.81
444.034	232.81
444.255	238.81
444.476	246.81
444.698	252.81
444.919	263.81
445.14	352.81
445.361	295.81
445.582	269.81
445.803	223.81
446.024	252.81
446.245	251.81
446.466	239.81
446.687	230.81
446.908	231.81
447.129	230.81
447.35	229.81
447.571	213.81
447.792	213.81
448.013	214.81
448.234	207.81
448.455	202.81
448.675	197.81
448.896	220.81
449.117	217.81
449.338	214.81
449.559	215.81
449.779	237.81
450	219.81
450.221	219.81
450.442	217.81
450.662	204.81
450.883	221.81
451.104	227.81
451.324	227.81
451.545	210.81
451.766	214.81
451.986	212.81
452.207	222.81
452.428	207.81
452.648	234.81
452.869	212.81
453.089	215.81
453.31	233.81
453.53	216.81
453.751	210.81
453.971	221.81
454.192	210.81
454.412	205.81
454.633	206.81
454.853	226.81
455.073	212.81
455.294	193.81
455.514	214.81
455.734	223.81
455.955	223.81
456.175	210.81
456.395	192.81
456.616	207.81
456.836	206.81
457.056	198.81
457.276	208.81
457.497	196.81
457.717	206.81
457.937	213.81
458.157	215.81
458.377	198.81
458.598	216.81
458.818	210.81
459.038	235.81
459.258	224.81
459.478	248.81
459.698	243.81
459.918	243.81
460.138	240.81
460.358	242.81
460.578	250.81
460.798	247.81
461.018	248.81
461.238	242.81
461.458	232.81
461.678	246.81
461.898	234.81
462.118	243.81
462.338	259.81
462.558	270.81
462.777	278.81
462.997	304.81
463.217	295.81
463.437	283.81
463.657	285.81
463.876	254.81
464.096	271.81
464.316	270.81
464.536	294.81
464.755	284.81
464.975	278.81
465.195	278.81
465.414	275.81
465.634	254.81
465.854	250.81
466.073	204.81
466.293	247.81
466.512	252.81
466.732	259.81
466.951	266.81
467.171	243.81
467.391	223.81
467.61	250.81
467.829	245.81
468.049	228.81
468.268	226.81
468.488	212.81
468.707	267.81
468.927	275.81
469.146	298.81
469.365	260.81
469.585	253.81
469.804	249.81
470.023	276.81
470.243	256.81
470.462	263.81
470.681	249.81
470.901	234.81
471.12	260.81
471.339	243.81
471.558	235.81
471.777	236.81
471.997	240.81
472.216	277.81
472.435	282.81
472.654	236.81
472.873	241.81
473.092	249.81
473.311	256.81
473.53	249.81
473.749	221.81
473.968	258.81
474.187	250.81
474.406	241.81
474.625	235.81
474.844	242.81
475.063	235.81
475.282	239.81
475.501	277.81
475.72	276.81
475.939	263.81
476.158	265.81
476.377	302.81
476.596	337.81
476.814	362.81
477.033	308.81
477.252	274.81
477.471	252.81
477.69	251.81
477.908	260.81
478.127	285.81
478.346	289.81
478.564	301.81
478.783	288.81
479.002	282.81
479.22	309.81
479.439	321.81
479.658	293.81
479.876	282.81
480.095	293.81
480.313	316.81
480.532	271.81
480.751	273.81
480.969	282.81
481.188	301.81
481.406	312.81
481.624	307.81
481.843	282.81
482.061	266.81
482.28	304.81
482.498	364.81
482.717	341.81
482.935	290.81
483.153	281.81
483.372	270.81
483.59	257.81
483.808	261.81
484.027	245.81
484.245	235.81
484.463	256.81
484.681	255.81
484.9	267.81
485.118	293.81
485.336	277.81
485.554	254.81
485.772	274.81
485.99	278.81
486.209	308.81
486.427	291.81
486.645	289.81
486.863	316.81
487.081	280.81
487.299	333.81
487.517	312.81
487.735	252.81
487.953	303.81
488.171	308.81
488.389	292.81
488.607	275.81
488.825	291.81
489.043	312.81
489.261	348.81
489.479	341.81
489.696	310.81
489.914	297.81
490.132	262.81
490.35	277.81
490.568	273.81
490.786	264.81
491.003	273.81
491.221	274.81
491.439	258.81
491.657	268.81
491.874	273.81
492.092	318.81
492.31	368.81
492.527	388.81
492.745	325.81
492.963	311.81
493.18	284.81
493.398	310.81
493.615	308.81
493.833	294.81
494.05	293.81
494.268	296.81
494.485	300.81
494.703	283.81
494.92	280.81
495.138	292.81
495.355	291.81
495.573	299.81
495.79	330.81
496.008	374.81
496.225	344.81
496.442	316.81
496.66	312.81
496.877	316.81
497.094	310.81
497.312	315.81
497.529	320.81
497.746	310.81
497.963	328.81
498.181	340.81
498.398	382.81
498.615	376.81
498.832	390.81
499.049	406.81
499.267	378.81
499.484	374.81
499.701	406.81
499.918	433.81
500.135	510.81
500.352	512.81
500.569	536.81
500.786	564.81
501.003	519.81
501.22	486.81
501.437	436.81
501.654	418.81
501.871	391.81
502.088	378.81
502.305	350.81
502.522	347.81
