Data from NickelSpatula.Lamp.E10.P2_HRD10591_11-58-30-527.txt Node
Date: Tue Jul 23 11:58:30 EDT 2019
User: cochatt
Spectrometer: HR+D1059
Trigger mode: 1
Integration Time (sec): 1.000000E-1
Scans to average: 1
Electric dark correction enabled: true
Nonlinearity correction enabled: false
Boxcar width: 0
XAxis mode: Wavelengths
Number of Pixels in Spectrum: 2048
>>>>>Begin Spectral Data<<<<<
223.165	5.38
223.4	5.38
223.635	5.38
223.869	-15.62
224.104	-20.62
224.338	-24.62
224.573	-1.62
224.808	-14.62
225.042	-5.62
225.277	-2.62
225.511	14.38
225.746	-0.62
225.98	12.38
226.215	2.38
226.449	16.38
226.683	1.38
226.918	18.38
227.152	15.38
227.387	19.38
227.621	35.38
227.856	38.38
228.09	45.38
228.324	41.38
228.559	55.38
228.793	79.38
229.027	130.38
229.262	157.38
229.496	160.38
229.73	147.38
229.964	191.38
230.199	207.38
230.433	199.38
230.667	212.38
230.901	197.38
231.136	194.38
231.37	214.38
231.604	221.38
231.838	247.38
232.072	243.38
232.306	237.38
232.541	250.38
232.775	232.38
233.009	235.38
233.243	285.38
233.477	289.38
233.711	331.38
233.945	316.38
234.179	314.38
234.413	347.38
234.647	380.38
234.881	443.38
235.115	410.38
235.349	385.38
235.583	332.38
235.817	363.38
236.051	374.38
236.285	407.38
236.519	477.38
236.753	445.38
236.987	432.38
237.221	399.38
237.455	413.38
237.689	431.38
237.922	427.38
238.156	448.38
238.39	529.38
238.624	643.38
238.858	578.38
239.091	485.38
239.325	508.38
239.559	475.38
239.793	540.38
240.027	649.38
240.26	611.38
240.494	547.38
240.728	592.38
240.961	675.38
241.195	621.38
241.429	625.38
241.662	601.38
241.896	523.38
242.13	481.38
242.363	431.38
242.597	443.38
242.83	533.38
243.064	514.38
243.298	586.38
243.531	626.38
243.765	624.38
243.998	615.38
244.232	600.38
244.465	575.38
244.699	569.38
244.932	625.38
245.166	608.38
245.399	528.38
245.633	532.38
245.866	598.38
246.099	592.38
246.333	714.38
246.566	792.38
246.8	759.38
247.033	728.38
247.266	677.38
247.5	678.38
247.733	656.38
247.966	634.38
248.2	682.38
248.433	774.38
248.666	816.38
248.899	835.38
249.133	887.38
249.366	965.38
249.599	1053.38
249.832	943.38
250.066	808.38
250.299	810.38
250.532	787.38
250.765	769.38
250.998	739.38
251.231	710.38
251.465	757.38
251.698	793.38
251.931	784.38
252.164	825.38
252.397	922.38
252.63	1011.38
252.863	1155.38
253.096	1159.38
253.329	1099.38
253.562	1083.38
253.795	1213.38
254.028	1325.38
254.261	1338.38
254.494	1239.38
254.727	1097.38
254.96	1073.38
255.193	1166.38
255.426	1098.38
255.659	846.38
255.892	773.38
256.124	837.38
256.357	991.38
256.59	1216.38
256.823	1136.38
257.056	974.38
257.289	882.38
257.521	955.38
257.754	1111.38
257.987	1271.38
258.22	1080.38
258.452	996.38
258.685	1091.38
258.918	1249.38
259.151	1214.38
259.383	1275.38
259.616	1457.38
259.849	1541.38
260.081	1699.38
260.314	1880.38
260.547	1443.38
260.779	1483.38
261.012	1654.38
261.244	1579.38
261.477	1628.38
261.71	1501.38
261.942	1288.38
262.175	1259.38
262.407	1199.38
262.64	1260.38
262.872	1465.38
263.105	1601.38
263.337	1654.38
263.57	1510.38
263.802	1011.38
264.035	889.38
264.267	857.38
264.499	756.38
264.732	704.38
264.964	676.38
265.197	708.38
265.429	761.38
265.661	799.38
265.894	830.38
266.126	903.38
266.358	1016.38
266.591	1225.38
266.823	1469.38
267.055	1386.38
267.287	1233.38
267.52	1226.38
267.752	1308.38
267.984	1406.38
268.216	1343.38
268.448	1090.38
268.681	1084.38
268.913	1197.38
269.145	1218.38
269.377	1270.38
269.609	1263.38
269.841	1179.38
270.073	1268.38
270.306	1335.38
270.538	1357.38
270.77	1357.38
271.002	1367.38
271.234	1437.38
271.466	1471.38
271.698	1447.38
271.93	1379.38
272.162	1391.38
272.394	1396.38
272.626	1372.38
272.858	1421.38
273.09	1448.38
273.322	1251.38
273.553	1224.38
273.785	1495.38
274.017	1937.38
274.249	2360.38
274.481	2452.38
274.713	2709.38
274.945	3142.38
275.176	3217.38
275.408	2835.38
275.64	2598.38
275.872	2565.38
276.104	2175.38
276.335	1915.38
276.567	1871.38
276.799	1888.38
277.031	2016.38
277.262	1548.38
277.494	1219.38
277.726	1157.38
277.957	1309.38
278.189	1429.38
278.421	1452.38
278.652	1394.38
278.884	1354.38
279.115	1222.38
279.347	1182.38
279.579	1177.38
279.81	1153.38
280.042	1166.38
280.273	1228.38
280.505	1096.38
280.736	996.38
280.968	979.38
281.199	1072.38
281.431	1208.38
281.662	1167.38
281.894	1152.38
282.125	1221.38
282.356	1329.38
282.588	1355.38
282.819	1234.38
283.051	1341.38
283.282	1640.38
283.513	1906.38
283.745	2125.38
283.976	2136.38
284.207	1974.38
284.439	2036.38
284.67	1971.38
284.901	1730.38
285.132	1884.38
285.364	1952.38
285.595	1848.38
285.826	1906.38
286.057	1992.38
286.288	1918.38
286.52	1950.38
286.751	2054.38
286.982	2006.38
287.213	1768.38
287.444	1676.38
287.675	1791.38
287.906	1756.38
288.138	1487.38
288.369	1342.38
288.6	1264.38
288.831	1313.38
289.062	1548.38
289.293	1647.38
289.524	1598.38
289.755	1572.38
289.986	1580.38
290.217	1409.38
290.448	1054.38
290.679	911.38
290.91	900.38
291.141	906.38
291.371	971.38
291.602	941.38
291.833	944.38
292.064	1016.38
292.295	1180.38
292.526	1341.38
292.757	1438.38
292.987	1505.38
293.218	1515.38
293.449	1544.38
293.68	1629.38
293.91	1537.38
294.141	1555.38
294.372	1518.38
294.603	1393.38
294.833	1527.38
295.064	1785.38
295.295	1649.38
295.525	1271.38
295.756	1111.38
295.987	964.38
296.217	974.38
296.448	998.38
296.679	1053.38
296.909	1197.38
297.14	1259.38
297.37	1414.38
297.601	1306.38
297.831	1125.38
298.062	1224.38
298.292	1376.38
298.523	1475.38
298.753	1699.38
298.984	1510.38
299.214	1218.38
299.445	1035.38
299.675	994.38
299.905	1000.38
300.136	1007.38
300.366	1137.38
300.597	1099.38
300.827	989.38
301.057	917.38
301.288	972.38
301.518	1028.38
301.748	1142.38
301.979	1242.38
302.209	1367.38
302.439	1346.38
302.669	1170.38
302.9	1179.38
303.13	1116.38
303.36	1060.38
303.59	1012.38
303.82	1078.38
304.051	1182.38
304.281	1290.38
304.511	1259.38
304.741	1106.38
304.971	1146.38
305.201	1223.38
305.431	1163.38
305.661	1029.38
305.891	1012.38
306.121	1023.38
306.352	953.38
306.582	854.38
306.812	870.38
307.042	792.38
307.272	761.38
307.502	791.38
307.731	855.38
307.961	898.38
308.191	853.38
308.421	763.38
308.651	777.38
308.881	758.38
309.111	786.38
309.341	775.38
309.571	868.38
309.8	889.38
310.03	865.38
310.26	921.38
310.49	907.38
310.72	877.38
310.949	830.38
311.179	839.38
311.409	894.38
311.639	1061.38
311.868	1362.38
312.098	1724.38
312.328	1866.38
312.557	1806.38
312.787	1799.38
313.017	1627.38
313.246	1752.38
313.476	1907.38
313.706	1547.38
313.935	1248.38
314.165	1033.38
314.394	913.38
314.624	915.38
314.853	995.38
315.083	1000.38
315.312	973.38
315.542	988.38
315.771	912.38
316.001	837.38
316.23	803.38
316.46	811.38
316.689	845.38
316.919	824.38
317.148	899.38
317.377	859.38
317.607	854.38
317.836	932.38
318.065	1084.38
318.295	1181.38
318.524	1114.38
318.753	960.38
318.983	922.38
319.212	904.38
319.441	984.38
319.67	1075.38
319.9	1130.38
320.129	1080.38
320.358	925.38
320.587	907.38
320.816	979.38
321.046	1147.38
321.275	1236.38
321.504	1271.38
321.733	1209.38
321.962	1146.38
322.191	1119.38
322.42	1035.38
322.649	1055.38
322.878	1145.38
323.108	1165.38
323.337	1064.38
323.566	1042.38
323.795	1015.38
324.024	939.38
324.253	927.38
324.482	942.38
324.71	1014.38
324.939	1150.38
325.168	1056.38
325.397	863.38
325.626	884.38
325.855	901.38
326.084	894.38
326.313	865.38
326.542	799.38
326.77	835.38
326.999	879.38
327.228	933.38
327.457	967.38
327.686	951.38
327.914	859.38
328.143	801.38
328.372	817.38
328.6	793.38
328.829	839.38
329.058	836.38
329.287	868.38
329.515	872.38
329.744	870.38
329.972	805.38
330.201	787.38
330.43	807.38
330.658	908.38
330.887	1045.38
331.115	1014.38
331.344	951.38
331.572	929.38
331.801	878.38
332.03	831.38
332.258	856.38
332.486	930.38
332.715	959.38
332.943	891.38
333.172	878.38
333.4	921.38
333.629	998.38
333.857	1096.38
334.085	1055.38
334.314	1048.38
334.542	1008.38
334.771	947.38
334.999	908.38
335.227	897.38
335.455	932.38
335.684	1005.38
335.912	1140.38
336.14	1273.38
336.369	1225.38
336.597	1168.38
336.825	1325.38
337.053	1456.38
337.281	1188.38
337.51	945.38
337.738	939.38
337.966	1033.38
338.194	1165.38
338.422	1065.38
338.65	909.38
338.878	861.38
339.106	911.38
339.334	995.38
339.562	1067.38
339.79	958.38
340.018	935.38
340.246	989.38
340.474	1141.38
340.702	1215.38
340.93	1291.38
341.158	1263.38
341.386	1049.38
341.614	1075.38
341.842	1082.38
342.07	1151.38
342.298	1259.38
342.526	1337.38
342.754	1159.38
342.981	1047.38
343.209	999.38
343.437	1074.38
343.665	1143.38
343.893	1143.38
344.12	1301.38
344.348	1526.38
344.576	1345.38
344.804	1137.38
345.031	978.38
345.259	913.38
345.487	947.38
345.714	971.38
345.942	1038.38
346.17	1156.38
346.397	1096.38
346.625	933.38
346.853	955.38
347.08	897.38
347.308	982.38
347.535	1069.38
347.763	1095.38
347.99	958.38
348.218	896.38
348.445	930.38
348.673	933.38
348.9	934.38
349.128	1018.38
349.355	1045.38
349.583	1008.38
349.81	970.38
350.037	932.38
350.265	835.38
350.492	763.38
350.72	778.38
350.947	806.38
351.174	830.38
351.402	906.38
351.629	955.38
351.856	907.38
352.083	879.38
352.311	943.38
352.538	1054.38
352.765	1094.38
352.992	989.38
353.22	930.38
353.447	950.38
353.674	902.38
353.901	889.38
354.128	945.38
354.355	965.38
354.583	929.38
354.81	897.38
355.037	968.38
355.264	956.38
355.491	995.38
355.718	1114.38
355.945	1067.38
356.172	1063.38
356.399	1032.38
356.626	1283.38
356.853	1516.38
357.08	1606.38
357.307	1665.38
357.534	1317.38
357.761	1346.38
357.988	1621.38
358.215	1925.38
358.441	1819.38
358.668	1523.38
358.895	1416.38
359.122	1135.38
359.349	1128.38
359.576	1259.38
359.802	1045.38
360.029	901.38
360.256	987.38
360.483	1238.38
360.709	1513.38
360.936	1584.38
361.163	1338.38
361.39	1055.38
361.616	1030.38
361.843	1157.38
362.07	1370.38
362.296	1301.38
362.523	1049.38
362.749	903.38
362.976	937.38
363.203	1150.38
363.429	1259.38
363.656	1042.38
363.882	950.38
364.109	948.38
364.335	950.38
364.562	956.38
364.788	1077.38
365.015	1225.38
365.241	1115.38
365.468	911.38
365.694	838.38
365.92	781.38
366.147	758.38
366.373	768.38
366.599	738.38
366.826	767.38
367.052	797.38
367.278	817.38
367.505	799.38
367.731	867.38
367.957	976.38
368.184	987.38
368.41	978.38
368.636	1013.38
368.862	1005.38
369.089	980.38
369.315	864.38
369.541	869.38
369.767	860.38
369.993	807.38
370.219	822.38
370.445	885.38
370.672	951.38
370.898	1050.38
371.124	1055.38
371.35	917.38
371.576	863.38
371.802	934.38
372.028	1083.38
372.254	1268.38
372.48	1054.38
372.706	990.38
372.932	1047.38
373.158	1081.38
373.384	1309.38
373.61	1726.38
373.835	1752.38
374.061	1283.38
374.287	1116.38
374.513	1321.38
374.739	1545.38
374.965	1612.38
375.191	1598.38
375.416	1135.38
375.642	960.38
375.868	1134.38
376.094	1278.38
376.319	1091.38
376.545	1200.38
376.771	1299.38
376.997	1075.38
377.222	813.38
377.448	739.38
377.674	732.38
377.899	731.38
378.125	698.38
378.35	727.38
378.576	759.38
378.802	829.38
379.027	861.38
379.253	845.38
379.478	885.38
379.704	985.38
379.929	1045.38
380.155	1015.38
380.38	903.38
380.606	977.38
380.831	1049.38
381.057	956.38
381.282	945.38
381.507	1122.38
381.733	1361.38
381.958	1446.38
382.184	1533.38
382.409	1655.38
382.634	1565.38
382.86	1651.38
383.085	1333.38
383.31	1081.38
383.535	1168.38
383.761	1195.38
383.986	1101.38
384.211	1326.38
384.436	1273.38
384.662	993.38
384.887	951.38
385.112	1029.38
385.337	997.38
385.562	939.38
385.787	1039.38
386.013	1154.38
386.238	1176.38
386.463	944.38
386.688	963.38
386.913	928.38
387.138	881.38
387.363	920.38
387.588	955.38
387.813	929.38
388.038	1068.38
388.263	948.38
388.488	936.38
388.713	1060.38
388.938	1121.38
389.163	990.38
389.387	893.38
389.612	885.38
389.837	936.38
390.062	917.38
390.287	924.38
390.512	992.38
390.736	915.38
390.961	872.38
391.186	833.38
391.411	822.38
391.636	828.38
391.86	916.38
392.085	949.38
392.31	953.38
392.534	897.38
392.759	884.38
392.984	960.38
393.208	932.38
393.433	819.38
393.658	790.38
393.882	772.38
394.107	777.38
394.331	777.38
394.556	779.38
394.78	789.38
395.005	801.38
395.229	855.38
395.454	840.38
395.678	879.38
395.903	873.38
396.127	859.38
396.352	858.38
396.576	942.38
396.801	961.38
397.025	1040.38
397.249	1070.38
397.474	911.38
397.698	908.38
397.922	912.38
398.147	875.38
398.371	880.38
398.595	940.38
398.82	937.38
399.044	911.38
399.268	980.38
399.492	1012.38
399.717	1035.38
399.941	1059.38
400.165	1012.38
400.389	1007.38
400.613	1001.38
400.837	1009.38
401.062	915.38
401.286	876.38
401.51	875.38
401.734	885.38
401.958	918.38
402.182	894.38
402.406	865.38
402.63	876.38
402.854	909.38
403.078	1013.38
403.302	1246.38
403.526	1292.38
403.75	1155.38
403.974	1028.38
404.198	1098.38
404.422	1175.38
404.645	1371.38
404.869	1483.38
405.093	1115.38
405.317	996.38
405.541	963.38
405.765	989.38
405.988	973.38
406.212	1081.38
406.436	1254.38
406.66	1348.38
406.883	1105.38
407.107	1125.38
407.331	1288.38
407.555	1233.38
407.778	1059.38
408.002	1035.38
408.226	1025.38
408.449	1008.38
408.673	977.38
408.896	907.38
409.12	870.38
409.344	901.38
409.567	877.38
409.791	880.38
410.014	862.38
410.238	880.38
410.461	867.38
410.685	861.38
410.908	872.38
411.132	914.38
411.355	915.38
411.578	941.38
411.802	897.38
412.025	963.38
412.249	952.38
412.472	921.38
412.695	911.38
412.919	918.38
413.142	925.38
413.365	1037.38
413.589	1013.38
413.812	924.38
414.035	895.38
414.258	912.38
414.482	975.38
414.705	1048.38
414.928	903.38
415.151	861.38
415.374	842.38
415.597	879.38
415.821	864.38
416.044	869.38
416.267	871.38
416.49	856.38
416.713	839.38
416.936	836.38
417.159	846.38
417.382	857.38
417.605	863.38
417.828	871.38
418.051	912.38
418.274	879.38
418.497	890.38
418.72	916.38
418.943	932.38
419.166	975.38
419.389	984.38
419.611	982.38
419.834	973.38
420.057	1059.38
420.28	1086.38
420.503	980.38
420.726	885.38
420.948	857.38
421.171	867.38
421.394	877.38
421.617	836.38
421.839	853.38
422.062	921.38
422.285	915.38
422.507	922.38
422.73	937.38
422.953	949.38
423.175	913.38
423.398	924.38
423.621	963.38
423.843	1019.38
424.066	943.38
424.288	909.38
424.511	864.38
424.733	894.38
424.956	935.38
425.178	1015.38
425.401	1180.38
425.623	1317.38
425.846	1091.38
426.068	970.38
426.291	1065.38
426.513	998.38
426.735	939.38
426.958	937.38
427.18	1111.38
427.402	1429.38
427.625	1392.38
427.847	1143.38
428.069	883.38
428.292	882.38
428.514	869.38
428.736	851.38
428.958	928.38
429.181	1083.38
429.403	937.38
429.625	883.38
429.847	836.38
430.069	876.38
430.292	880.38
430.514	824.38
430.736	945.38
430.958	1138.38
431.18	1060.38
431.402	831.38
431.624	799.38
431.846	772.38
432.068	772.38
432.29	809.38
432.512	903.38
432.734	1127.38
432.956	1067.38
433.178	855.38
433.4	816.38
433.622	832.38
433.844	864.38
434.066	916.38
434.287	880.38
434.509	858.38
434.731	881.38
434.953	844.38
435.175	879.38
435.397	973.38
435.618	856.38
435.84	807.38
436.062	806.38
436.284	808.38
436.505	776.38
436.727	772.38
436.949	789.38
437.17	825.38
437.392	831.38
437.614	819.38
437.835	789.38
438.057	819.38
438.278	957.38
438.5	1305.38
438.721	1347.38
438.943	918.38
439.165	776.38
439.386	783.38
439.608	771.38
439.829	776.38
440.05	755.38
440.272	827.38
440.493	960.38
440.715	1206.38
440.936	916.38
441.158	843.38
441.379	851.38
441.6	967.38
441.822	989.38
442.043	892.38
442.264	856.38
442.486	847.38
442.707	837.38
442.928	851.38
443.149	847.38
443.371	899.38
443.592	895.38
443.813	884.38
444.034	875.38
444.255	881.38
444.476	948.38
444.698	910.38
444.919	941.38
445.14	1041.38
445.361	964.38
445.582	913.38
445.803	883.38
446.024	915.38
446.245	889.38
446.466	870.38
446.687	850.38
446.908	851.38
447.129	826.38
447.35	792.38
447.571	797.38
447.792	763.38
448.013	783.38
448.234	766.38
448.455	764.38
448.675	778.38
448.896	796.38
449.117	795.38
449.338	781.38
449.559	799.38
449.779	839.38
450	858.38
450.221	808.38
450.442	796.38
450.662	781.38
450.883	777.38
451.104	803.38
451.324	792.38
451.545	811.38
451.766	771.38
451.986	760.38
452.207	768.38
452.428	742.38
452.648	765.38
452.869	795.38
453.089	811.38
453.31	779.38
453.53	731.38
453.751	737.38
453.971	732.38
454.192	751.38
454.412	774.38
454.633	741.38
454.853	723.38
455.073	730.38
455.294	711.38
455.514	698.38
455.734	737.38
455.955	781.38
456.175	811.38
456.395	749.38
456.616	706.38
456.836	680.38
457.056	707.38
457.276	657.38
457.497	701.38
457.717	704.38
457.937	699.38
458.157	689.38
458.377	704.38
458.598	742.38
458.818	771.38
459.038	807.38
459.258	801.38
459.478	816.38
459.698	899.38
459.918	884.38
460.138	881.38
460.358	857.38
460.578	861.38
460.798	870.38
461.018	902.38
461.238	843.38
461.458	831.38
461.678	843.38
461.898	912.38
462.118	885.38
462.338	920.38
462.558	929.38
462.777	951.38
462.997	1008.38
463.217	1001.38
463.437	1012.38
463.657	1003.38
463.876	946.38
464.096	968.38
464.316	963.38
464.536	969.38
464.755	949.38
464.975	996.38
465.195	928.38
465.414	966.38
465.634	943.38
465.854	928.38
466.073	839.38
466.293	858.38
466.512	905.38
466.732	1012.38
466.951	995.38
467.171	920.38
467.391	879.38
467.61	828.38
467.829	930.38
468.049	919.38
468.268	861.38
468.488	849.38
468.707	891.38
468.927	1059.38
469.146	1120.38
469.365	1009.38
469.585	916.38
469.804	1000.38
470.023	1064.38
470.243	928.38
470.462	885.38
470.681	895.38
470.901	891.38
471.12	956.38
471.339	926.38
471.558	894.38
471.777	915.38
471.997	982.38
472.216	1121.38
472.435	1079.38
472.654	966.38
472.873	920.38
473.092	1025.38
473.311	1029.38
473.53	949.38
473.749	923.38
473.968	947.38
474.187	975.38
474.406	915.38
474.625	924.38
474.844	939.38
475.063	977.38
475.282	997.38
475.501	1045.38
475.72	1086.38
475.939	1072.38
476.158	1080.38
476.377	1208.38
476.596	1390.38
476.814	1456.38
477.033	1208.38
477.252	1063.38
477.471	977.38
477.69	998.38
477.908	1063.38
478.127	1144.38
478.346	1061.38
478.564	1131.38
478.783	1065.38
479.002	1121.38
479.22	1257.38
479.439	1386.38
479.658	1187.38
479.876	1096.38
480.095	1165.38
480.313	1217.38
480.532	1096.38
480.751	1073.38
480.969	1104.38
481.188	1265.38
481.406	1299.38
481.624	1237.38
481.843	1100.38
482.061	1067.38
482.28	1183.38
482.498	1403.38
482.717	1344.38
482.935	1160.38
483.153	1129.38
483.372	1047.38
483.59	1023.38
483.808	1049.38
484.027	993.38
484.245	983.38
484.463	968.38
484.681	1035.38
484.9	1075.38
485.118	1161.38
485.336	1090.38
485.554	1019.38
485.772	1040.38
485.99	1136.38
486.209	1219.38
486.427	1170.38
486.645	1155.38
486.863	1222.38
487.081	1220.38
487.299	1325.38
487.517	1303.38
487.735	1201.38
487.953	1217.38
488.171	1217.38
488.389	1144.38
488.607	1123.38
488.825	1121.38
489.043	1199.38
489.261	1383.38
489.479	1467.38
489.696	1231.38
489.914	1153.38
490.132	1101.38
490.35	1080.38
490.568	1109.38
490.786	1098.38
491.003	1124.38
491.221	1149.38
491.439	1131.38
491.657	1108.38
491.874	1192.38
492.092	1440.38
492.31	1750.38
492.527	1702.38
492.745	1468.38
492.963	1277.38
493.18	1267.38
493.398	1277.38
493.615	1241.38
493.833	1239.38
494.05	1196.38
494.268	1233.38
494.485	1214.38
494.703	1185.38
494.92	1206.38
495.138	1187.38
495.355	1153.38
