Data from NickelSpatula.Lamp.E10.P2_HRD10591_12-00-00-524.txt Node
Date: Tue Jul 23 12:00:00 EDT 2019
User: cochatt
Spectrometer: HR+D1059
Trigger mode: 1
Integration Time (sec): 1.000000E-1
Scans to average: 1
Electric dark correction enabled: true
Nonlinearity correction enabled: false
Boxcar width: 0
XAxis mode: Wavelengths
Number of Pixels in Spectrum: 2048
>>>>>Begin Spectral Data<<<<<
223.165	-18.62
223.4	-18.62
223.635	-18.62
223.869	-25.62
224.104	-14.62
224.338	-27.62
224.573	-27.62
224.808	-3.62
225.042	-0.62
225.277	-14.62
225.511	-0.62
225.746	2.38
225.98	11.38
226.215	15.38
226.449	32.38
226.683	20.38
226.918	26.38
227.152	25.38
227.387	47.38
227.621	25.38
227.856	39.38
228.09	46.38
228.324	40.38
228.559	60.38
228.793	67.38
229.027	151.38
229.262	157.38
229.496	151.38
229.73	165.38
229.964	190.38
230.199	201.38
230.433	217.38
230.667	211.38
230.901	201.38
231.136	204.38
231.37	201.38
231.604	219.38
231.838	259.38
232.072	260.38
232.306	237.38
232.541	225.38
232.775	259.38
233.009	263.38
233.243	293.38
233.477	321.38
233.711	345.38
233.945	331.38
234.179	323.38
234.413	343.38
234.647	392.38
234.881	471.38
235.115	455.38
235.349	411.38
235.583	368.38
235.817	347.38
236.051	371.38
236.285	411.38
236.519	472.38
236.753	435.38
236.987	423.38
237.221	399.38
237.455	396.38
237.689	441.38
237.922	465.38
238.156	467.38
238.39	567.38
238.624	657.38
238.858	597.38
239.091	508.38
239.325	508.38
239.559	469.38
239.793	552.38
240.027	655.38
240.26	615.38
240.494	578.38
240.728	610.38
240.961	706.38
241.195	640.38
241.429	635.38
241.662	623.38
241.896	528.38
242.13	476.38
242.363	456.38
242.597	487.38
242.83	562.38
243.064	549.38
243.298	588.38
243.531	647.38
243.765	643.38
243.998	648.38
244.232	603.38
244.465	603.38
244.699	592.38
244.932	675.38
245.166	633.38
245.399	567.38
245.633	564.38
245.866	585.38
246.099	600.38
246.333	735.38
246.566	792.38
246.8	778.38
247.033	754.38
247.266	691.38
247.5	697.38
247.733	694.38
247.966	668.38
248.2	712.38
248.433	765.38
248.666	867.38
248.899	877.38
249.133	864.38
249.366	1011.38
249.599	1075.38
249.832	961.38
250.066	827.38
250.299	848.38
250.532	844.38
250.765	817.38
250.998	756.38
251.231	739.38
251.465	818.38
251.698	844.38
251.931	808.38
252.164	854.38
252.397	925.38
252.63	1086.38
252.863	1197.38
253.096	1203.38
253.329	1185.38
253.562	1098.38
253.795	1220.38
254.028	1358.38
254.261	1415.38
254.494	1263.38
254.727	1163.38
254.96	1177.38
255.193	1202.38
255.426	1124.38
255.659	897.38
255.892	787.38
256.124	875.38
256.357	1088.38
256.59	1201.38
256.823	1148.38
257.056	1020.38
257.289	930.38
257.521	978.38
257.754	1136.38
257.987	1293.38
258.22	1118.38
258.452	991.38
258.685	1202.38
258.918	1309.38
259.151	1291.38
259.383	1325.38
259.616	1503.38
259.849	1607.38
260.081	1718.38
260.314	1959.38
260.547	1463.38
260.779	1470.38
261.012	1682.38
261.244	1649.38
261.477	1632.38
261.71	1569.38
261.942	1290.38
262.175	1293.38
262.407	1261.38
262.64	1289.38
262.872	1540.38
263.105	1687.38
263.337	1766.38
263.57	1603.38
263.802	1057.38
264.035	923.38
264.267	890.38
264.499	790.38
264.732	732.38
264.964	692.38
265.197	717.38
265.429	800.38
265.661	809.38
265.894	860.38
266.126	911.38
266.358	1025.38
266.591	1282.38
266.823	1531.38
267.055	1397.38
267.287	1255.38
267.52	1240.38
267.752	1338.38
267.984	1473.38
268.216	1369.38
268.448	1137.38
268.681	1137.38
268.913	1176.38
269.145	1269.38
269.377	1315.38
269.609	1303.38
269.841	1252.38
270.073	1337.38
270.306	1395.38
270.538	1395.38
270.77	1442.38
271.002	1456.38
271.234	1469.38
271.466	1545.38
271.698	1479.38
271.93	1447.38
272.162	1462.38
272.394	1441.38
272.626	1425.38
272.858	1476.38
273.09	1514.38
273.322	1379.38
273.553	1316.38
273.785	1550.38
274.017	2001.38
274.249	2461.38
274.481	2553.38
274.713	2777.38
274.945	3240.38
275.176	3306.38
275.408	2905.38
275.64	2679.38
275.872	2669.38
276.104	2235.38
276.335	1912.38
276.567	1907.38
276.799	1992.38
277.031	2061.38
277.262	1627.38
277.494	1255.38
277.726	1226.38
277.957	1375.38
278.189	1524.38
278.421	1486.38
278.652	1478.38
278.884	1382.38
279.115	1281.38
279.347	1236.38
279.579	1211.38
279.81	1205.38
280.042	1214.38
280.273	1276.38
280.505	1160.38
280.736	1052.38
280.968	1031.38
281.199	1096.38
281.431	1267.38
281.662	1223.38
281.894	1188.38
282.125	1243.38
282.356	1365.38
282.588	1388.38
282.819	1241.38
283.051	1394.38
283.282	1749.38
283.513	1965.38
283.745	2175.38
283.976	2195.38
284.207	2056.38
284.439	2161.38
284.67	2069.38
284.901	1821.38
285.132	1950.38
285.364	2026.38
285.595	1899.38
285.826	1985.38
286.057	2065.38
286.288	1985.38
286.52	2041.38
286.751	2149.38
286.982	2091.38
287.213	1839.38
287.444	1806.38
287.675	1870.38
287.906	1831.38
288.138	1560.38
288.369	1391.38
288.6	1333.38
288.831	1369.38
289.062	1552.38
289.293	1716.38
289.524	1599.38
289.755	1597.38
289.986	1656.38
290.217	1437.38
290.448	1103.38
290.679	971.38
290.91	895.38
291.141	918.38
291.371	989.38
291.602	1000.38
291.833	1019.38
292.064	1077.38
292.295	1258.38
292.526	1409.38
292.757	1508.38
292.987	1545.38
293.218	1568.38
293.449	1649.38
293.68	1715.38
293.91	1617.38
294.141	1640.38
294.372	1531.38
294.603	1415.38
294.833	1598.38
295.064	1883.38
295.295	1765.38
295.525	1346.38
295.756	1177.38
295.987	1019.38
296.217	1023.38
296.448	1077.38
296.679	1129.38
296.909	1240.38
297.14	1365.38
297.37	1478.38
297.601	1394.38
297.831	1189.38
298.062	1291.38
298.292	1499.38
298.523	1629.38
298.753	1827.38
298.984	1641.38
299.214	1287.38
299.445	1109.38
299.675	1073.38
299.905	1084.38
300.136	1128.38
300.366	1230.38
300.597	1192.38
300.827	1056.38
301.057	1010.38
301.288	1041.38
301.518	1137.38
301.748	1248.38
301.979	1371.38
302.209	1474.38
302.439	1550.38
302.669	1307.38
302.9	1293.38
303.13	1188.38
303.36	1149.38
303.59	1111.38
303.82	1131.38
304.051	1261.38
304.281	1360.38
304.511	1334.38
304.741	1195.38
304.971	1229.38
305.201	1321.38
305.431	1232.38
305.661	1072.38
305.891	1118.38
306.121	1121.38
306.352	993.38
306.582	876.38
306.812	894.38
307.042	905.38
307.272	832.38
307.502	852.38
307.731	895.38
307.961	967.38
308.191	877.38
308.421	841.38
308.651	850.38
308.881	817.38
309.111	779.38
309.341	815.38
309.571	872.38
309.8	943.38
310.03	979.38
310.26	1045.38
310.49	1034.38
310.72	891.38
310.949	883.38
311.179	898.38
311.409	935.38
311.639	1115.38
311.868	1397.38
312.098	1832.38
312.328	1980.38
312.557	1897.38
312.787	1883.38
313.017	1667.38
313.246	1820.38
313.476	1980.38
313.706	1612.38
313.935	1324.38
314.165	1070.38
314.394	989.38
314.624	999.38
314.853	1043.38
315.083	1068.38
315.312	1040.38
315.542	1010.38
315.771	1000.38
316.001	871.38
316.23	857.38
316.46	854.38
316.689	856.38
316.919	884.38
317.148	911.38
317.377	901.38
317.607	880.38
317.836	968.38
318.065	1115.38
318.295	1247.38
318.524	1157.38
318.753	999.38
318.983	959.38
319.212	964.38
319.441	1006.38
319.67	1197.38
319.9	1235.38
320.129	1169.38
320.358	1029.38
320.587	979.38
320.816	1056.38
321.046	1200.38
321.275	1393.38
321.504	1383.38
321.733	1330.38
321.962	1285.38
322.191	1177.38
322.42	1158.38
322.649	1198.38
322.878	1281.38
323.108	1242.38
323.337	1117.38
323.566	1134.38
323.795	1067.38
324.024	1037.38
324.253	996.38
324.482	1007.38
324.71	1103.38
324.939	1212.38
325.168	1157.38
325.397	932.38
325.626	935.38
325.855	944.38
326.084	932.38
326.313	904.38
326.542	856.38
326.77	919.38
326.999	909.38
327.228	980.38
327.457	1036.38
327.686	1030.38
327.914	921.38
328.143	879.38
328.372	854.38
328.6	869.38
328.829	908.38
329.058	918.38
329.287	917.38
329.515	941.38
329.744	890.38
329.972	869.38
330.201	834.38
330.43	851.38
330.658	978.38
330.887	1119.38
331.115	1027.38
331.344	1005.38
331.572	993.38
331.801	892.38
332.03	890.38
332.258	879.38
332.486	1027.38
332.715	993.38
332.943	921.38
333.172	920.38
333.4	946.38
333.629	1035.38
333.857	1128.38
334.085	1121.38
334.314	1142.38
334.542	1062.38
334.771	995.38
334.999	967.38
335.227	946.38
335.455	953.38
335.684	1051.38
335.912	1218.38
336.14	1355.38
336.369	1315.38
336.597	1236.38
336.825	1375.38
337.053	1549.38
337.281	1275.38
337.51	1006.38
337.738	987.38
337.966	1076.38
338.194	1224.38
338.422	1137.38
338.65	982.38
338.878	927.38
339.106	938.38
339.334	1028.38
339.562	1112.38
339.79	996.38
340.018	975.38
340.246	1082.38
340.474	1211.38
340.702	1314.38
340.93	1369.38
341.158	1387.38
341.386	1175.38
341.614	1149.38
341.842	1144.38
342.07	1181.38
342.298	1363.38
342.526	1435.38
342.754	1245.38
342.981	1140.38
343.209	1083.38
343.437	1158.38
343.665	1191.38
343.893	1220.38
344.12	1429.38
344.348	1677.38
344.576	1471.38
344.804	1256.38
345.031	1079.38
345.259	987.38
345.487	1043.38
345.714	1059.38
345.942	1137.38
346.17	1265.38
346.397	1169.38
346.625	1041.38
346.853	1005.38
347.08	955.38
347.308	1012.38
347.535	1144.38
347.763	1161.38
347.99	1050.38
348.218	903.38
348.445	981.38
348.673	980.38
348.9	981.38
349.128	1049.38
349.355	1128.38
349.583	1109.38
349.81	1048.38
350.037	955.38
350.265	861.38
350.492	816.38
350.72	815.38
350.947	865.38
351.174	896.38
351.402	980.38
351.629	1007.38
351.856	962.38
352.083	918.38
352.311	1019.38
352.538	1134.38
352.765	1219.38
352.992	1088.38
353.22	1022.38
353.447	1059.38
353.674	1031.38
353.901	995.38
354.128	1000.38
354.355	1017.38
354.583	1028.38
354.81	1021.38
355.037	1044.38
355.264	1029.38
355.491	1154.38
355.718	1260.38
355.945	1187.38
356.172	1139.38
356.399	1137.38
356.626	1402.38
356.853	1758.38
357.08	1819.38
357.307	1901.38
357.534	1453.38
357.761	1489.38
357.988	1829.38
358.215	2146.38
358.441	2080.38
358.668	1710.38
358.895	1588.38
359.122	1287.38
359.349	1273.38
359.576	1370.38
359.802	1151.38
360.029	973.38
360.256	1118.38
360.483	1345.38
360.709	1684.38
360.936	1769.38
361.163	1484.38
361.39	1173.38
361.616	1121.38
361.843	1300.38
362.07	1572.38
362.296	1467.38
362.523	1141.38
362.749	982.38
362.976	1042.38
363.203	1251.38
363.429	1403.38
363.656	1145.38
363.882	1035.38
364.109	1037.38
364.335	1042.38
364.562	1024.38
364.788	1164.38
365.015	1398.38
365.241	1238.38
365.468	987.38
365.694	861.38
365.92	821.38
366.147	831.38
366.373	817.38
366.599	805.38
366.826	829.38
367.052	851.38
367.278	881.38
367.505	818.38
367.731	929.38
367.957	1085.38
368.184	1084.38
368.41	1070.38
368.636	1060.38
368.862	1095.38
369.089	1073.38
369.315	972.38
369.541	921.38
369.767	911.38
369.993	867.38
370.219	905.38
370.445	943.38
370.672	1080.38
370.898	1153.38
371.124	1140.38
371.35	978.38
371.576	925.38
371.802	1016.38
372.028	1233.38
372.254	1397.38
372.48	1175.38
372.706	1083.38
372.932	1153.38
373.158	1191.38
373.384	1438.38
373.61	1956.38
373.835	1990.38
374.061	1462.38
374.287	1216.38
374.513	1435.38
374.739	1767.38
374.965	1781.38
375.191	1748.38
375.416	1193.38
375.642	1083.38
375.868	1244.38
376.094	1433.38
376.319	1221.38
376.545	1368.38
376.771	1410.38
376.997	1215.38
377.222	889.38
377.448	757.38
377.674	783.38
377.899	764.38
378.125	759.38
378.35	789.38
378.576	804.38
378.802	883.38
379.027	945.38
379.253	921.38
379.478	957.38
379.704	1075.38
379.929	1171.38
380.155	1166.38
380.38	973.38
380.606	1019.38
380.831	1164.38
381.057	1087.38
381.282	999.38
381.507	1239.38
381.733	1519.38
381.958	1636.38
382.184	1742.38
382.409	1840.38
382.634	1776.38
382.86	1869.38
383.085	1529.38
383.31	1203.38
383.535	1260.38
383.761	1310.38
383.986	1243.38
384.211	1519.38
384.436	1440.38
384.662	1081.38
384.887	1032.38
385.112	1055.38
385.337	1090.38
385.562	1028.38
385.787	1150.38
386.013	1323.38
386.238	1327.38
386.463	1069.38
386.688	1026.38
386.913	994.38
387.138	907.38
387.363	1034.38
387.588	1006.38
387.813	1005.38
388.038	1140.38
388.263	1023.38
388.488	1024.38
388.713	1163.38
388.938	1259.38
389.163	1068.38
389.387	941.38
389.612	937.38
389.837	984.38
390.062	1011.38
390.287	1020.38
390.512	1059.38
390.736	993.38
390.961	911.38
391.186	868.38
391.411	847.38
391.636	908.38
391.86	957.38
392.085	1064.38
392.31	1047.38
392.534	985.38
392.759	972.38
392.984	1029.38
393.208	1015.38
393.433	906.38
393.658	837.38
393.882	831.38
394.107	831.38
394.331	808.38
394.556	817.38
394.78	825.38
395.005	881.38
395.229	889.38
395.454	896.38
395.678	905.38
395.903	937.38
396.127	900.38
396.352	917.38
396.576	1055.38
396.801	1062.38
397.025	1169.38
397.249	1205.38
397.474	985.38
397.698	929.38
397.922	997.38
398.147	920.38
398.371	937.38
398.595	997.38
398.82	948.38
399.044	959.38
399.268	1030.38
399.492	1060.38
399.717	1057.38
399.941	1108.38
400.165	1102.38
400.389	1069.38
400.613	1102.38
400.837	1037.38
401.062	959.38
401.286	918.38
401.51	920.38
401.734	927.38
401.958	902.38
402.182	913.38
402.406	939.38
402.63	934.38
402.854	990.38
403.078	1086.38
403.302	1382.38
403.526	1407.38
403.75	1261.38
403.974	1055.38
404.198	1107.38
404.422	1259.38
404.645	1508.38
404.869	1699.38
405.093	1190.38
405.317	1039.38
405.541	1027.38
405.765	1062.38
405.988	1047.38
406.212	1147.38
406.436	1324.38
406.66	1480.38
406.883	1179.38
407.107	1236.38
407.331	1423.38
407.555	1352.38
407.778	1112.38
408.002	1069.38
408.226	1091.38
408.449	1061.38
408.673	1021.38
408.896	963.38
409.12	936.38
409.344	946.38
409.567	907.38
409.791	899.38
410.014	906.38
410.238	893.38
410.461	920.38
410.685	921.38
410.908	909.38
411.132	936.38
411.355	945.38
411.578	968.38
411.802	959.38
412.025	1020.38
412.249	1030.38
412.472	986.38
412.695	966.38
412.919	944.38
413.142	1007.38
413.365	1075.38
413.589	1092.38
413.812	965.38
414.035	935.38
414.258	963.38
414.482	1070.38
414.705	1110.38
414.928	955.38
415.151	893.38
415.374	896.38
415.597	933.38
415.821	962.38
416.044	905.38
416.267	911.38
416.49	886.38
416.713	875.38
416.936	859.38
417.159	905.38
417.382	937.38
417.605	900.38
417.828	907.38
418.051	927.38
418.274	952.38
418.497	950.38
418.72	949.38
418.943	972.38
419.166	1041.38
419.389	1067.38
419.611	1053.38
419.834	1071.38
420.057	1157.38
420.28	1163.38
420.503	1058.38
420.726	952.38
420.948	880.38
421.171	901.38
421.394	907.38
421.617	893.38
421.839	896.38
422.062	952.38
422.285	937.38
422.507	959.38
422.73	987.38
422.953	993.38
423.175	989.38
423.398	997.38
423.621	1044.38
423.843	1091.38
424.066	1007.38
424.288	973.38
424.511	915.38
424.733	931.38
424.956	1002.38
425.178	1141.38
425.401	1293.38
425.623	1442.38
425.846	1179.38
426.068	1024.38
426.291	1155.38
426.513	1062.38
426.735	962.38
426.958	1023.38
427.18	1211.38
427.402	1558.38
427.625	1525.38
427.847	1207.38
428.069	920.38
428.292	939.38
428.514	906.38
428.736	885.38
428.958	1013.38
429.181	1168.38
429.403	997.38
429.625	909.38
429.847	892.38
430.069	923.38
430.292	926.38
430.514	873.38
430.736	1010.38
430.958	1265.38
431.18	1113.38
431.402	855.38
431.624	822.38
431.846	825.38
432.068	794.38
432.29	843.38
432.512	954.38
432.734	1277.38
432.956	1176.38
433.178	897.38
433.4	852.38
433.622	869.38
433.844	913.38
434.066	968.38
434.287	917.38
434.509	894.38
434.731	927.38
434.953	931.38
435.175	943.38
435.397	1076.38
435.618	900.38
435.84	866.38
436.062	830.38
436.284	855.38
436.505	808.38
436.727	811.38
436.949	826.38
437.17	864.38
437.392	873.38
437.614	848.38
437.835	850.38
438.057	848.38
438.278	1012.38
438.5	1455.38
438.721	1413.38
438.943	961.38
439.165	822.38
439.386	811.38
439.608	773.38
439.829	788.38
440.05	782.38
440.272	859.38
440.493	1045.38
440.715	1291.38
440.936	1022.38
441.158	872.38
441.379	897.38
441.6	995.38
441.822	1056.38
442.043	903.38
442.264	896.38
442.486	904.38
442.707	895.38
442.928	885.38
443.149	895.38
443.371	915.38
443.592	949.38
443.813	940.38
444.034	919.38
444.255	948.38
444.476	977.38
444.698	965.38
444.919	973.38
445.14	1075.38
445.361	1042.38
445.582	988.38
445.803	978.38
446.024	953.38
446.245	936.38
446.466	944.38
446.687	899.38
446.908	890.38
447.129	843.38
447.35	837.38
447.571	815.38
447.792	800.38
448.013	777.38
448.234	777.38
448.455	784.38
448.675	830.38
448.896	804.38
449.117	827.38
449.338	831.38
449.559	825.38
449.779	894.38
450	896.38
450.221	851.38
450.442	823.38
450.662	811.38
450.883	841.38
451.104	828.38
451.324	798.38
451.545	809.38
451.766	835.38
451.986	782.38
452.207	789.38
452.428	775.38
452.648	807.38
452.869	848.38
453.089	867.38
453.31	868.38
453.53	752.38
453.751	771.38
453.971	763.38
454.192	784.38
454.412	792.38
454.633	776.38
454.853	779.38
455.073	738.38
455.294	734.38
455.514	734.38
455.734	783.38
455.955	835.38
456.175	845.38
456.395	761.38
456.616	712.38
456.836	726.38
457.056	703.38
457.276	717.38
457.497	735.38
457.717	727.38
457.937	733.38
458.157	702.38
458.377	765.38
458.598	771.38
458.818	808.38
459.038	845.38
459.258	824.38
459.478	852.38
459.698	908.38
459.918	914.38
460.138	907.38
460.358	905.38
460.578	871.38
460.798	886.38
461.018	906.38
461.238	845.38
461.458	869.38
461.678	890.38
461.898	962.38
462.118	948.38
462.338	935.38
462.558	984.38
462.777	1007.38
462.997	1005.38
463.217	1027.38
463.437	1051.38
463.657	1028.38
463.876	1001.38
464.096	989.38
464.316	971.38
464.536	997.38
464.755	1054.38
464.975	1046.38
465.195	947.38
465.414	1013.38
465.634	1016.38
465.854	949.38
466.073	853.38
466.293	892.38
466.512	935.38
466.732	1050.38
466.951	1057.38
467.171	956.38
467.391	899.38
467.61	887.38
467.829	940.38
468.049	939.38
468.268	883.38
468.488	910.38
468.707	915.38
468.927	1085.38
469.146	1162.38
469.365	1049.38
469.585	970.38
469.804	1052.38
470.023	1129.38
470.243	1007.38
470.462	929.38
470.681	920.38
470.901	981.38
471.12	999.38
471.339	973.38
471.558	905.38
471.777	971.38
471.997	1040.38
472.216	1177.38
472.435	1073.38
472.654	980.38
472.873	965.38
473.092	1019.38
473.311	1084.38
473.53	967.38
473.749	941.38
473.968	991.38
474.187	1009.38
474.406	960.38
474.625	944.38
474.844	972.38
475.063	1070.38
475.282	1060.38
475.501	1109.38
475.72	1162.38
475.939	1143.38
476.158	1128.38
476.377	1293.38
476.596	1488.38
476.814	1520.38
477.033	1280.38
477.252	1078.38
477.471	1000.38
477.69	1027.38
477.908	1122.38
478.127	1164.38
478.346	1067.38
478.564	1163.38
478.783	1112.38
479.002	1139.38
479.22	1288.38
479.439	1451.38
479.658	1269.38
479.876	1115.38
480.095	1221.38
480.313	1237.38
480.532	1174.38
480.751	1107.38
480.969	1141.38
481.188	1299.38
481.406	1308.38
481.624	1235.38
481.843	1158.38
482.061	1080.38
482.28	1214.38
482.498	1473.38
482.717	1423.38
482.935	1264.38
483.153	1129.38
483.372	1096.38
483.59	1064.38
483.808	1043.38
484.027	1064.38
484.245	993.38
484.463	1028.38
484.681	1034.38
484.9	1151.38
485.118	1219.38
485.336	1118.38
485.554	1055.38
485.772	1117.38
485.99	1196.38
486.209	1273.38
486.427	1243.38
486.645	1230.38
486.863	1235.38
487.081	1223.38
487.299	1432.38
487.517	1402.38
487.735	1233.38
487.953	1245.38
488.171	1320.38
488.389	1154.38
488.607	1111.38
488.825	1209.38
489.043	1291.38
489.261	1489.38
489.479	1620.38
489.696	1328.38
489.914	1209.38
490.132	1127.38
490.35	1167.38
490.568	1175.38
490.786	1160.38
491.003	1168.38
491.221	1206.38
491.439	1134.38
491.657	1146.38
491.874	1234.38
492.092	1529.38
492.31	1843.38
492.527	1792.38
492.745	1556.38
492.963	1359.38
493.18	1309.38
493.398	1297.38
