Data from NickelSpatula.Lamp.E10.P2_HRD10591_11-58-10-529.txt Node
Date: Tue Jul 23 11:58:10 EDT 2019
User: cochatt
Spectrometer: HR+D1059
Trigger mode: 1
Integration Time (sec): 1.000000E-1
Scans to average: 1
Electric dark correction enabled: true
Nonlinearity correction enabled: false
Boxcar width: 0
XAxis mode: Wavelengths
Number of Pixels in Spectrum: 2048
>>>>>Begin Spectral Data<<<<<
223.165	3.31
223.4	3.31
223.635	3.31
223.869	-16.69
224.104	-26.69
224.338	-10.69
224.573	-10.69
224.808	-19.69
225.042	-16.69
225.277	-7.69
225.511	-0.69
225.746	-1.69
225.98	-2.69
226.215	-2.69
226.449	23.31
226.683	20.31
226.918	31.31
227.152	38.31
227.387	29.31
227.621	32.31
227.856	45.31
228.09	38.31
228.324	28.31
228.559	51.31
228.793	80.31
229.027	144.31
229.262	169.31
229.496	160.31
229.73	162.31
229.964	197.31
230.199	215.31
230.433	202.31
230.667	192.31
230.901	192.31
231.136	189.31
231.37	210.31
231.604	221.31
231.838	228.31
232.072	250.31
232.306	244.31
232.541	243.31
232.775	236.31
233.009	247.31
233.243	285.31
233.477	286.31
233.711	324.31
233.945	322.31
234.179	324.31
234.413	351.31
234.647	374.31
234.881	447.31
235.115	420.31
235.349	383.31
235.583	361.31
235.817	342.31
236.051	395.31
236.285	413.31
236.519	448.31
236.753	407.31
236.987	427.31
237.221	390.31
237.455	407.31
237.689	427.31
237.922	455.31
238.156	473.31
238.39	538.31
238.624	675.31
238.858	594.31
239.091	508.31
239.325	498.31
239.559	483.31
239.793	544.31
240.027	656.31
240.26	596.31
240.494	564.31
240.728	587.31
240.961	673.31
241.195	633.31
241.429	614.31
241.662	611.31
241.896	496.31
242.13	509.31
242.363	453.31
242.597	469.31
242.83	516.31
243.064	530.31
243.298	615.31
243.531	633.31
243.765	631.31
243.998	598.31
244.232	600.31
244.465	611.31
244.699	597.31
244.932	636.31
245.166	629.31
245.399	544.31
245.633	531.31
245.866	562.31
246.099	621.31
246.333	711.31
246.566	756.31
246.8	743.31
247.033	739.31
247.266	678.31
247.5	697.31
247.733	681.31
247.966	658.31
248.2	703.31
248.433	785.31
248.666	841.31
248.899	848.31
249.133	861.31
249.366	993.31
249.599	1058.31
249.832	945.31
250.066	809.31
250.299	858.31
250.532	834.31
250.765	798.31
250.998	762.31
251.231	715.31
251.465	799.31
251.698	823.31
251.931	773.31
252.164	826.31
252.397	914.31
252.63	1063.31
252.863	1171.31
253.096	1193.31
253.329	1160.31
253.562	1101.31
253.795	1251.31
254.028	1377.31
254.261	1398.31
254.494	1277.31
254.727	1175.31
254.96	1105.31
255.193	1148.31
255.426	1131.31
255.659	857.31
255.892	813.31
256.124	896.31
256.357	1023.31
256.59	1199.31
256.823	1123.31
257.056	983.31
257.289	894.31
257.521	973.31
257.754	1145.31
257.987	1290.31
258.22	1086.31
258.452	1029.31
258.685	1144.31
258.918	1277.31
259.151	1249.31
259.383	1325.31
259.616	1530.31
259.849	1606.31
260.081	1725.31
260.314	1899.31
260.547	1487.31
260.779	1463.31
261.012	1703.31
261.244	1623.31
261.477	1635.31
261.71	1517.31
261.942	1292.31
262.175	1273.31
262.407	1252.31
262.64	1283.31
262.872	1485.31
263.105	1636.31
263.337	1721.31
263.57	1557.31
263.802	1020.31
264.035	901.31
264.267	860.31
264.499	753.31
264.732	699.31
264.964	691.31
265.197	713.31
265.429	779.31
265.661	817.31
265.894	846.31
266.126	928.31
266.358	1044.31
266.591	1229.31
266.823	1500.31
267.055	1415.31
267.287	1235.31
267.52	1273.31
267.752	1333.31
267.984	1451.31
268.216	1355.31
268.448	1117.31
268.681	1119.31
268.913	1228.31
269.145	1271.31
269.377	1311.31
269.609	1306.31
269.841	1182.31
270.073	1286.31
270.306	1385.31
270.538	1353.31
270.77	1385.31
271.002	1423.31
271.234	1495.31
271.466	1476.31
271.698	1446.31
271.93	1398.31
272.162	1443.31
272.394	1395.31
272.626	1399.31
272.858	1458.31
273.09	1505.31
273.322	1312.31
273.553	1284.31
273.785	1504.31
274.017	1990.31
274.249	2459.31
274.481	2551.31
274.713	2750.31
274.945	3113.31
275.176	3228.31
275.408	2869.31
275.64	2623.31
275.872	2617.31
276.104	2227.31
276.335	1929.31
276.567	1899.31
276.799	1965.31
277.031	2067.31
277.262	1623.31
277.494	1224.31
277.726	1225.31
277.957	1328.31
278.189	1494.31
278.421	1472.31
278.652	1428.31
278.884	1385.31
279.115	1267.31
279.347	1200.31
279.579	1215.31
279.81	1209.31
280.042	1210.31
280.273	1230.31
280.505	1152.31
280.736	1039.31
280.968	1023.31
281.199	1092.31
281.431	1218.31
281.662	1236.31
281.894	1156.31
282.125	1257.31
282.356	1351.31
282.588	1392.31
282.819	1278.31
283.051	1367.31
283.282	1707.31
283.513	2005.31
283.745	2201.31
283.976	2189.31
284.207	2009.31
284.439	2073.31
284.67	2032.31
284.901	1783.31
285.132	1928.31
285.364	2053.31
285.595	1882.31
285.826	1937.31
286.057	2061.31
286.288	1946.31
286.52	2003.31
286.751	2076.31
286.982	2095.31
287.213	1819.31
287.444	1785.31
287.675	1858.31
287.906	1802.31
288.138	1493.31
288.369	1381.31
288.6	1281.31
288.831	1343.31
289.062	1580.31
289.293	1685.31
289.524	1613.31
289.755	1605.31
289.986	1628.31
290.217	1396.31
290.448	1101.31
290.679	977.31
290.91	933.31
291.141	910.31
291.371	972.31
291.602	985.31
291.833	970.31
292.064	1061.31
292.295	1213.31
292.526	1403.31
292.757	1457.31
292.987	1563.31
293.218	1559.31
293.449	1613.31
293.68	1661.31
293.91	1599.31
294.141	1628.31
294.372	1520.31
294.603	1415.31
294.833	1573.31
295.064	1813.31
295.295	1738.31
295.525	1317.31
295.756	1163.31
295.987	1018.31
296.217	1015.31
296.448	1018.31
296.679	1123.31
296.909	1251.31
297.14	1295.31
297.37	1413.31
297.601	1353.31
297.831	1121.31
298.062	1238.31
298.292	1461.31
298.523	1565.31
298.753	1789.31
298.984	1595.31
299.214	1273.31
299.445	1090.31
299.675	1020.31
299.905	1014.31
300.136	1059.31
300.366	1184.31
300.597	1166.31
300.827	1024.31
301.057	993.31
301.288	1021.31
301.518	1063.31
301.748	1193.31
301.979	1317.31
302.209	1462.31
302.439	1449.31
302.669	1253.31
302.9	1241.31
303.13	1178.31
303.36	1106.31
303.59	1046.31
303.82	1126.31
304.051	1253.31
304.281	1312.31
304.511	1271.31
304.741	1133.31
304.971	1180.31
305.201	1273.31
305.431	1197.31
305.661	1072.31
305.891	1087.31
306.121	1088.31
306.352	975.31
306.582	891.31
306.812	860.31
307.042	870.31
307.272	806.31
307.502	790.31
307.731	860.31
307.961	927.31
308.191	859.31
308.421	781.31
308.651	782.31
308.881	779.31
309.111	753.31
309.341	785.31
309.571	894.31
309.8	927.31
310.03	946.31
310.26	1005.31
310.49	986.31
310.72	855.31
310.949	821.31
311.179	870.31
311.409	921.31
311.639	1088.31
311.868	1408.31
312.098	1799.31
312.328	1930.31
312.557	1821.31
312.787	1879.31
313.017	1661.31
313.246	1785.31
313.476	1944.31
313.706	1621.31
313.935	1270.31
314.165	1036.31
314.394	957.31
314.624	955.31
314.853	1031.31
315.083	1033.31
315.312	1004.31
315.542	990.31
315.771	936.31
316.001	876.31
316.23	816.31
316.46	846.31
316.689	847.31
316.919	869.31
317.148	881.31
317.377	883.31
317.607	875.31
317.836	970.31
318.065	1099.31
318.295	1222.31
318.524	1131.31
318.753	998.31
318.983	927.31
319.212	938.31
319.441	985.31
319.67	1136.31
319.9	1203.31
320.129	1114.31
320.358	964.31
320.587	934.31
320.816	1006.31
321.046	1148.31
321.275	1307.31
321.504	1325.31
321.733	1293.31
321.962	1252.31
322.191	1153.31
322.42	1122.31
322.649	1095.31
322.878	1223.31
323.108	1202.31
323.337	1135.31
323.566	1068.31
323.795	1024.31
324.024	1019.31
324.253	971.31
324.482	978.31
324.71	1089.31
324.939	1199.31
325.168	1138.31
325.397	919.31
325.626	916.31
325.855	896.31
326.084	917.31
326.313	851.31
326.542	816.31
326.77	842.31
326.999	865.31
327.228	959.31
327.457	1029.31
327.686	1031.31
327.914	896.31
328.143	828.31
328.372	805.31
328.6	843.31
328.829	859.31
329.058	910.31
329.287	889.31
329.515	910.31
329.744	866.31
329.972	840.31
330.201	806.31
330.43	849.31
330.658	913.31
330.887	1094.31
331.115	1015.31
331.344	989.31
331.572	953.31
331.801	885.31
332.03	822.31
332.258	900.31
332.486	945.31
332.715	963.31
332.943	903.31
333.172	922.31
333.4	942.31
333.629	1006.31
333.857	1107.31
334.085	1081.31
334.314	1099.31
334.542	1033.31
334.771	945.31
334.999	943.31
335.227	931.31
335.455	950.31
335.684	1048.31
335.912	1205.31
336.14	1332.31
336.369	1280.31
336.597	1200.31
336.825	1377.31
337.053	1536.31
337.281	1230.31
337.51	994.31
337.738	1011.31
337.966	1077.31
338.194	1191.31
338.422	1116.31
338.65	959.31
338.878	875.31
339.106	929.31
339.334	1035.31
339.562	1068.31
339.79	997.31
340.018	972.31
340.246	1038.31
340.474	1194.31
340.702	1278.31
340.93	1339.31
341.158	1293.31
341.386	1107.31
341.614	1095.31
341.842	1126.31
342.07	1128.31
342.298	1305.31
342.526	1395.31
342.754	1186.31
342.981	1101.31
343.209	1037.31
343.437	1139.31
343.665	1198.31
343.893	1199.31
344.12	1377.31
344.348	1608.31
344.576	1455.31
344.804	1193.31
345.031	1040.31
345.259	973.31
345.487	998.31
345.714	1035.31
345.942	1096.31
346.17	1172.31
346.397	1131.31
346.625	997.31
346.853	958.31
347.08	942.31
347.308	1004.31
347.535	1107.31
347.763	1131.31
347.99	976.31
348.218	918.31
348.445	939.31
348.673	987.31
348.9	957.31
349.128	1033.31
349.355	1107.31
349.583	1057.31
349.81	995.31
350.037	928.31
350.265	829.31
350.492	785.31
350.72	779.31
350.947	814.31
351.174	897.31
351.402	963.31
351.629	996.31
351.856	894.31
352.083	893.31
352.311	955.31
352.538	1083.31
352.765	1147.31
352.992	1038.31
353.22	971.31
353.447	1003.31
353.674	963.31
353.901	948.31
354.128	957.31
354.355	1006.31
354.583	996.31
354.81	964.31
355.037	1005.31
355.264	982.31
355.491	1098.31
355.718	1165.31
355.945	1161.31
356.172	1116.31
356.399	1089.31
356.626	1353.31
356.853	1633.31
357.08	1745.31
357.307	1757.31
357.534	1404.31
357.761	1414.31
357.988	1761.31
358.215	2102.31
358.441	1945.31
358.668	1654.31
358.895	1488.31
359.122	1212.31
359.349	1181.31
359.576	1341.31
359.802	1103.31
360.029	974.31
360.256	1035.31
360.483	1289.31
360.709	1595.31
360.936	1623.31
361.163	1446.31
361.39	1137.31
361.616	1062.31
361.843	1227.31
362.07	1505.31
362.296	1385.31
362.523	1086.31
362.749	942.31
362.976	1003.31
363.203	1227.31
363.429	1321.31
363.656	1083.31
363.882	1036.31
364.109	1033.31
364.335	1011.31
364.562	992.31
364.788	1122.31
365.015	1295.31
365.241	1161.31
365.468	943.31
365.694	817.31
365.92	798.31
366.147	801.31
366.373	775.31
366.599	750.31
366.826	805.31
367.052	830.31
367.278	852.31
367.505	812.31
367.731	894.31
367.957	1015.31
368.184	1020.31
368.41	1037.31
368.636	1034.31
368.862	1078.31
369.089	991.31
369.315	910.31
369.541	892.31
369.767	861.31
369.993	854.31
370.219	847.31
370.445	893.31
370.672	1053.31
370.898	1099.31
371.124	1099.31
371.35	934.31
371.576	909.31
371.802	973.31
372.028	1142.31
372.254	1353.31
372.48	1134.31
372.706	1008.31
372.932	1087.31
373.158	1129.31
373.384	1363.31
373.61	1853.31
373.835	1851.31
374.061	1349.31
374.287	1157.31
374.513	1403.31
374.739	1663.31
374.965	1699.31
375.191	1669.31
375.416	1141.31
375.642	1003.31
375.868	1217.31
376.094	1373.31
376.319	1168.31
376.545	1302.31
376.771	1378.31
376.997	1140.31
377.222	845.31
377.448	758.31
377.674	719.31
377.899	729.31
378.125	735.31
378.35	729.31
378.576	799.31
378.802	881.31
379.027	913.31
379.253	918.31
379.478	890.31
379.704	1028.31
379.929	1075.31
380.155	1113.31
380.38	927.31
380.606	1008.31
380.831	1108.31
381.057	1030.31
381.282	978.31
381.507	1173.31
381.733	1477.31
381.958	1528.31
382.184	1645.31
382.409	1733.31
382.634	1650.31
382.86	1751.31
383.085	1444.31
383.31	1121.31
383.535	1205.31
383.761	1229.31
383.986	1176.31
384.211	1402.31
384.436	1349.31
384.662	1037.31
384.887	1012.31
385.112	1017.31
385.337	1019.31
385.562	984.31
385.787	1087.31
386.013	1237.31
386.238	1249.31
386.463	1022.31
386.688	939.31
386.913	947.31
387.138	890.31
387.363	933.31
387.588	1004.31
387.813	994.31
388.038	1099.31
388.263	968.31
388.488	972.31
388.713	1132.31
388.938	1206.31
389.163	1033.31
389.387	881.31
389.612	909.31
389.837	964.31
390.062	973.31
390.287	1008.31
390.512	1044.31
390.736	929.31
390.961	882.31
391.186	861.31
391.411	807.31
391.636	850.31
391.86	903.31
392.085	1019.31
392.31	999.31
392.534	938.31
392.759	927.31
392.984	975.31
393.208	966.31
393.433	873.31
393.658	827.31
393.882	797.31
394.107	794.31
394.331	815.31
394.556	794.31
394.78	789.31
395.005	850.31
395.229	876.31
395.454	849.31
395.678	910.31
395.903	938.31
396.127	859.31
396.352	870.31
396.576	973.31
396.801	978.31
397.025	1079.31
397.249	1122.31
397.474	931.31
397.698	899.31
397.922	964.31
398.147	911.31
398.371	924.31
398.595	972.31
398.82	950.31
399.044	954.31
399.268	996.31
399.492	1059.31
399.717	1058.31
399.941	1075.31
400.165	1050.31
400.389	1027.31
400.613	1045.31
400.837	1009.31
401.062	915.31
401.286	888.31
401.51	870.31
401.734	913.31
401.958	937.31
402.182	881.31
402.406	916.31
402.63	920.31
402.854	945.31
403.078	1062.31
403.302	1291.31
403.526	1333.31
403.75	1189.31
403.974	1073.31
404.198	1093.31
404.422	1233.31
404.645	1421.31
404.869	1579.31
405.093	1188.31
405.317	1021.31
405.541	971.31
405.765	1007.31
405.988	1027.31
406.212	1091.31
406.436	1302.31
406.66	1419.31
406.883	1140.31
407.107	1187.31
407.331	1352.31
407.555	1305.31
407.778	1099.31
408.002	1061.31
408.226	1057.31
408.449	1032.31
408.673	1005.31
408.896	957.31
409.12	931.31
409.344	915.31
409.567	873.31
409.791	898.31
410.014	874.31
410.238	873.31
410.461	899.31
410.685	893.31
410.908	909.31
411.132	913.31
411.355	925.31
411.578	949.31
411.802	943.31
412.025	973.31
412.249	977.31
412.472	950.31
412.695	961.31
412.919	956.31
413.142	972.31
413.365	1066.31
413.589	1054.31
413.812	965.31
414.035	930.31
414.258	933.31
414.482	1037.31
414.705	1050.31
414.928	899.31
415.151	881.31
415.374	884.31
415.597	924.31
415.821	946.31
416.044	899.31
416.267	880.31
416.49	875.31
416.713	863.31
416.936	852.31
417.159	863.31
417.382	893.31
417.605	886.31
417.828	931.31
418.051	908.31
418.274	930.31
418.497	937.31
418.72	921.31
418.943	959.31
419.166	975.31
419.389	1032.31
419.611	1040.31
419.834	1022.31
420.057	1142.31
420.28	1116.31
420.503	1035.31
420.726	901.31
420.948	893.31
421.171	874.31
421.394	896.31
421.617	876.31
421.839	908.31
422.062	947.31
422.285	955.31
422.507	937.31
422.73	934.31
422.953	979.31
423.175	948.31
423.398	952.31
423.621	1021.31
423.843	1046.31
424.066	979.31
424.288	963.31
424.511	895.31
424.733	896.31
424.956	962.31
425.178	1078.31
425.401	1206.31
425.623	1389.31
425.846	1107.31
426.068	1017.31
426.291	1124.31
426.513	1015.31
426.735	933.31
426.958	1014.31
427.18	1158.31
427.402	1529.31
427.625	1469.31
427.847	1211.31
428.069	889.31
428.292	877.31
428.514	897.31
428.736	857.31
428.958	930.31
429.181	1110.31
429.403	963.31
429.625	870.31
429.847	844.31
430.069	881.31
430.292	896.31
430.514	873.31
430.736	924.31
430.958	1171.31
431.18	1077.31
431.402	873.31
431.624	812.31
431.846	825.31
432.068	775.31
432.29	817.31
432.512	911.31
432.734	1215.31
432.956	1138.31
433.178	854.31
433.4	829.31
433.622	857.31
433.844	869.31
434.066	983.31
434.287	891.31
434.509	891.31
434.731	896.31
434.953	836.31
435.175	916.31
435.397	1051.31
435.618	898.31
435.84	809.31
436.062	847.31
436.284	844.31
436.505	805.31
436.727	771.31
436.949	764.31
437.17	850.31
437.392	851.31
437.614	836.31
437.835	819.31
438.057	825.31
438.278	965.31
438.5	1385.31
438.721	1363.31
438.943	915.31
439.165	806.31
439.386	769.31
439.608	762.31
439.829	780.31
440.05	802.31
440.272	866.31
440.493	992.31
440.715	1217.31
440.936	997.31
441.158	868.31
441.379	853.31
441.6	965.31
441.822	995.31
442.043	895.31
442.264	854.31
442.486	877.31
442.707	871.31
442.928	851.31
443.149	907.31
443.371	884.31
443.592	926.31
443.813	922.31
444.034	894.31
444.255	916.31
444.476	956.31
444.698	943.31
444.919	945.31
445.14	1053.31
445.361	1024.31
445.582	963.31
445.803	912.31
446.024	947.31
446.245	918.31
446.466	906.31
446.687	869.31
446.908	846.31
447.129	854.31
447.35	787.31
447.571	800.31
447.792	793.31
448.013	803.31
448.234	786.31
448.455	774.31
448.675	781.31
448.896	783.31
449.117	791.31
449.338	811.31
449.559	841.31
449.779	875.31
450	869.31
450.221	862.31
450.442	817.31
450.662	788.31
450.883	800.31
451.104	817.31
451.324	802.31
451.545	798.31
451.766	805.31
451.986	786.31
452.207	768.31
452.428	777.31
452.648	771.31
452.869	816.31
453.089	845.31
453.31	834.31
453.53	750.31
453.751	732.31
453.971	734.31
454.192	766.31
454.412	790.31
454.633	770.31
454.853	752.31
455.073	733.31
455.294	714.31
455.514	748.31
455.734	791.31
455.955	822.31
456.175	813.31
456.395	738.31
456.616	695.31
456.836	699.31
457.056	719.31
457.276	729.31
457.497	704.31
457.717	711.31
457.937	717.31
458.157	727.31
458.377	737.31
458.598	732.31
458.818	759.31
459.038	803.31
459.258	831.31
459.478	839.31
459.698	899.31
459.918	909.31
460.138	876.31
460.358	893.31
460.578	853.31
460.798	901.31
461.018	893.31
461.238	861.31
461.458	842.31
461.678	904.31
461.898	915.31
462.118	897.31
462.338	937.31
462.558	962.31
462.777	983.31
462.997	1048.31
463.217	998.31
463.437	1043.31
463.657	994.31
463.876	973.31
464.096	975.31
464.316	962.31
464.536	959.31
464.755	1017.31
464.975	1039.31
465.195	973.31
465.414	990.31
465.634	958.31
465.854	947.31
466.073	891.31
466.293	858.31
466.512	926.31
466.732	1017.31
466.951	1038.31
467.171	924.31
467.391	882.31
467.61	865.31
467.829	930.31
468.049	943.31
468.268	897.31
468.488	863.31
468.707	913.31
468.927	1049.31
469.146	1127.31
469.365	1025.31
469.585	955.31
469.804	1019.31
470.023	1099.31
470.243	967.31
470.462	903.31
470.681	939.31
470.901	913.31
471.12	970.31
471.339	978.31
471.558	915.31
471.777	909.31
471.997	1013.31
472.216	1106.31
472.435	1070.31
472.654	976.31
472.873	962.31
473.092	997.31
473.311	1042.31
473.53	961.31
473.749	934.31
473.968	975.31
474.187	976.31
474.406	927.31
474.625	917.31
474.844	965.31
475.063	1021.31
475.282	1040.31
475.501	1083.31
475.72	1145.31
475.939	1083.31
476.158	1097.31
476.377	1246.31
476.596	1444.31
476.814	1484.31
477.033	1252.31
477.252	1037.31
477.471	1013.31
477.69	1004.31
477.908	1110.31
478.127	1146.31
478.346	1061.31
478.564	1140.31
478.783	1083.31
479.002	1131.31
479.22	1265.31
479.439	1434.31
479.658	1207.31
479.876	1091.31
480.095	1209.31
480.313	1231.31
480.532	1083.31
480.751	1086.31
480.969	1124.31
481.188	1270.31
481.406	1303.31
481.624	1238.31
481.843	1122.31
482.061	1033.31
482.28	1201.31
482.498	1452.31
482.717	1387.31
482.935	1170.31
483.153	1106.31
483.372	1050.31
483.59	1059.31
483.808	1055.31
484.027	1035.31
484.245	986.31
484.463	971.31
484.681	1027.31
484.9	1098.31
485.118	1176.31
485.336	1099.31
485.554	1064.31
485.772	1077.31
485.99	1175.31
486.209	1206.31
486.427	1209.31
486.645	1223.31
486.863	1278.31
487.081	1231.31
487.299	1341.31
487.517	1336.31
487.735	1223.31
487.953	1242.31
488.171	1250.31
488.389	1204.31
488.607	1128.31
488.825	1175.31
489.043	1268.31
489.261	1449.31
489.479	1531.31
489.696	1294.31
489.914	1177.31
490.132	1117.31
490.35	1111.31
490.568	1150.31
490.786	1138.31
491.003	1157.31
491.221	1159.31
491.439	1158.31
491.657	1119.31
491.874	1239.31
492.092	1473.31
492.31	1783.31
492.527	1734.31
492.745	1531.31
492.963	1334.31
493.18	1304.31
493.398	1297.31
493.615	1308.31
493.833	1257.31
494.05	1242.31
494.268	1266.31
