Data from NickelSpatula.Lamp.E10.P2_HRD10591_11-58-28-528.txt Node
Date: Tue Jul 23 11:58:28 EDT 2019
User: cochatt
Spectrometer: HR+D1059
Trigger mode: 1
Integration Time (sec): 1.000000E-1
Scans to average: 1
Electric dark correction enabled: true
Nonlinearity correction enabled: false
Boxcar width: 0
XAxis mode: Wavelengths
Number of Pixels in Spectrum: 2048
>>>>>Begin Spectral Data<<<<<
223.165	-14.25
223.4	-14.25
223.635	-14.25
223.869	-15.25
224.104	-21.25
224.338	-13.25
224.573	-4.25
224.808	3.75
225.042	-6.25
225.277	-22.25
225.511	-4.25
225.746	-5.25
225.98	-8.25
226.215	16.75
226.449	10.75
226.683	33.75
226.918	29.75
227.152	19.75
227.387	30.75
227.621	41.75
227.856	50.75
228.09	47.75
228.324	48.75
228.559	68.75
228.793	86.75
229.027	152.75
229.262	173.75
229.496	163.75
229.73	147.75
229.964	185.75
230.199	214.75
230.433	215.75
230.667	220.75
230.901	214.75
231.136	212.75
231.37	212.75
231.604	213.75
231.838	222.75
232.072	263.75
232.306	248.75
232.541	248.75
232.775	245.75
233.009	252.75
233.243	298.75
233.477	324.75
233.711	358.75
233.945	321.75
234.179	315.75
234.413	367.75
234.647	394.75
234.881	471.75
235.115	417.75
235.349	398.75
235.583	359.75
235.817	344.75
236.051	362.75
236.285	417.75
236.519	466.75
236.753	418.75
236.987	441.75
237.221	422.75
237.455	445.75
237.689	439.75
237.922	459.75
238.156	464.75
238.39	574.75
238.624	647.75
238.858	590.75
239.091	487.75
239.325	530.75
239.559	510.75
239.793	543.75
240.027	647.75
240.26	626.75
240.494	587.75
240.728	582.75
240.961	695.75
241.195	658.75
241.429	649.75
241.662	617.75
241.896	529.75
242.13	482.75
242.363	455.75
242.597	478.75
242.83	528.75
243.064	553.75
243.298	598.75
243.531	625.75
243.765	639.75
243.998	617.75
244.232	613.75
244.465	582.75
244.699	577.75
244.932	662.75
245.166	641.75
245.399	546.75
245.633	545.75
245.866	556.75
246.099	597.75
246.333	711.75
246.566	779.75
246.8	765.75
247.033	745.75
247.266	699.75
247.5	664.75
247.733	685.75
247.966	647.75
248.2	685.75
248.433	778.75
248.666	867.75
248.899	859.75
249.133	859.75
249.366	971.75
249.599	1043.75
249.832	930.75
250.066	815.75
250.299	837.75
250.532	815.75
250.765	810.75
250.998	753.75
251.231	725.75
251.465	777.75
251.698	823.75
251.931	807.75
252.164	818.75
252.397	925.75
252.63	1045.75
252.863	1141.75
253.096	1221.75
253.329	1139.75
253.562	1094.75
253.795	1266.75
254.028	1378.75
254.261	1402.75
254.494	1261.75
254.727	1138.75
254.96	1133.75
255.193	1187.75
255.426	1127.75
255.659	863.75
255.892	805.75
256.124	863.75
256.357	1039.75
256.59	1194.75
256.823	1159.75
257.056	957.75
257.289	910.75
257.521	959.75
257.754	1129.75
257.987	1263.75
258.22	1108.75
258.452	1027.75
258.685	1161.75
258.918	1262.75
259.151	1253.75
259.383	1307.75
259.616	1519.75
259.849	1597.75
260.081	1721.75
260.314	1918.75
260.547	1479.75
260.779	1478.75
261.012	1720.75
261.244	1618.75
261.477	1657.75
261.71	1531.75
261.942	1301.75
262.175	1282.75
262.407	1279.75
262.64	1255.75
262.872	1489.75
263.105	1673.75
263.337	1730.75
263.57	1583.75
263.802	1025.75
264.035	903.75
264.267	862.75
264.499	778.75
264.732	714.75
264.964	708.75
265.197	720.75
265.429	764.75
265.661	808.75
265.894	833.75
266.126	896.75
266.358	1031.75
266.591	1270.75
266.823	1461.75
267.055	1405.75
267.287	1226.75
267.52	1250.75
267.752	1295.75
267.984	1461.75
268.216	1391.75
268.448	1127.75
268.681	1140.75
268.913	1171.75
269.145	1282.75
269.377	1289.75
269.609	1312.75
269.841	1214.75
270.073	1278.75
270.306	1360.75
270.538	1371.75
270.77	1399.75
271.002	1416.75
271.234	1474.75
271.466	1512.75
271.698	1454.75
271.93	1426.75
272.162	1415.75
272.394	1451.75
272.626	1378.75
272.858	1471.75
273.09	1465.75
273.322	1292.75
273.553	1289.75
273.785	1508.75
274.017	1919.75
274.249	2437.75
274.481	2503.75
274.713	2751.75
274.945	3193.75
275.176	3269.75
275.408	2871.75
275.64	2615.75
275.872	2655.75
276.104	2265.75
276.335	1941.75
276.567	1910.75
276.799	1995.75
277.031	2072.75
277.262	1604.75
277.494	1238.75
277.726	1206.75
277.957	1318.75
278.189	1477.75
278.421	1466.75
278.652	1421.75
278.884	1382.75
279.115	1286.75
279.347	1192.75
279.579	1185.75
279.81	1199.75
280.042	1200.75
280.273	1252.75
280.505	1162.75
280.736	1019.75
280.968	990.75
281.199	1109.75
281.431	1247.75
281.662	1211.75
281.894	1160.75
282.125	1244.75
282.356	1370.75
282.588	1372.75
282.819	1269.75
283.051	1367.75
283.282	1641.75
283.513	1919.75
283.745	2145.75
283.976	2164.75
284.207	1983.75
284.439	2101.75
284.67	2011.75
284.901	1813.75
285.132	1946.75
285.364	2009.75
285.595	1883.75
285.826	1993.75
286.057	2077.75
286.288	1959.75
286.52	2025.75
286.751	2118.75
286.982	2075.75
287.213	1801.75
287.444	1754.75
287.675	1885.75
287.906	1773.75
288.138	1541.75
288.369	1343.75
288.6	1290.75
288.831	1299.75
289.062	1538.75
289.293	1669.75
289.524	1585.75
289.755	1615.75
289.986	1624.75
290.217	1429.75
290.448	1136.75
290.679	995.75
290.91	912.75
291.141	898.75
291.371	968.75
291.602	984.75
291.833	997.75
292.064	1034.75
292.295	1225.75
292.526	1378.75
292.757	1479.75
292.987	1523.75
293.218	1557.75
293.449	1595.75
293.68	1641.75
293.91	1635.75
294.141	1642.75
294.372	1528.75
294.603	1414.75
294.833	1563.75
295.064	1819.75
295.295	1746.75
295.525	1325.75
295.756	1157.75
295.987	1005.75
296.217	1009.75
296.448	1037.75
296.679	1100.75
296.909	1232.75
297.14	1322.75
297.37	1457.75
297.601	1367.75
297.831	1181.75
298.062	1256.75
298.292	1459.75
298.523	1593.75
298.753	1774.75
298.984	1584.75
299.214	1281.75
299.445	1100.75
299.675	1033.75
299.905	1020.75
300.136	1076.75
300.366	1210.75
300.597	1161.75
300.827	1014.75
301.057	961.75
301.288	1025.75
301.518	1088.75
301.748	1225.75
301.979	1319.75
302.209	1450.75
302.439	1416.75
302.669	1262.75
302.9	1240.75
303.13	1120.75
303.36	1103.75
303.59	1049.75
303.82	1105.75
304.051	1240.75
304.281	1344.75
304.511	1256.75
304.741	1149.75
304.971	1182.75
305.201	1279.75
305.431	1194.75
305.661	1041.75
305.891	1065.75
306.121	1074.75
306.352	950.75
306.582	893.75
306.812	872.75
307.042	857.75
307.272	789.75
307.502	812.75
307.731	876.75
307.961	881.75
308.191	839.75
308.421	823.75
308.651	792.75
308.881	756.75
309.111	769.75
309.341	811.75
309.571	900.75
309.8	901.75
310.03	936.75
310.26	1007.75
310.49	963.75
310.72	859.75
310.949	858.75
311.179	882.75
311.409	955.75
311.639	1083.75
311.868	1390.75
312.098	1801.75
312.328	1934.75
312.557	1839.75
312.787	1885.75
313.017	1682.75
313.246	1820.75
313.476	1989.75
313.706	1607.75
313.935	1269.75
314.165	1044.75
314.394	961.75
314.624	970.75
314.853	1019.75
315.083	1042.75
315.312	1011.75
315.542	1008.75
315.771	964.75
316.001	855.75
316.23	812.75
316.46	823.75
316.689	860.75
316.919	881.75
317.148	883.75
317.377	872.75
317.607	869.75
317.836	963.75
318.065	1084.75
318.295	1222.75
318.524	1149.75
318.753	986.75
318.983	933.75
319.212	927.75
319.441	979.75
319.67	1116.75
319.9	1208.75
320.129	1143.75
320.358	961.75
320.587	956.75
320.816	1025.75
321.046	1148.75
321.275	1345.75
321.504	1312.75
321.733	1261.75
321.962	1229.75
322.191	1152.75
322.42	1106.75
322.649	1108.75
322.878	1225.75
323.108	1169.75
323.337	1110.75
323.566	1086.75
323.795	1044.75
324.024	1021.75
324.253	987.75
324.482	968.75
324.71	1080.75
324.939	1210.75
325.168	1121.75
325.397	923.75
325.626	917.75
325.855	912.75
326.084	930.75
326.313	871.75
326.542	829.75
326.77	882.75
326.999	909.75
327.228	942.75
327.457	1015.75
327.686	999.75
327.914	890.75
328.143	815.75
328.372	811.75
328.6	823.75
328.829	879.75
329.058	886.75
329.287	865.75
329.515	906.75
329.744	859.75
329.972	828.75
330.201	821.75
330.43	843.75
330.658	920.75
330.887	1052.75
331.115	1046.75
331.344	982.75
331.572	960.75
331.801	887.75
332.03	859.75
332.258	875.75
332.486	950.75
332.715	986.75
332.943	918.75
333.172	910.75
333.4	933.75
333.629	1022.75
333.857	1130.75
334.085	1096.75
334.314	1135.75
334.542	1053.75
334.771	963.75
334.999	931.75
335.227	934.75
335.455	929.75
335.684	1023.75
335.912	1187.75
336.14	1315.75
336.369	1264.75
336.597	1241.75
336.825	1349.75
337.053	1527.75
337.281	1217.75
337.51	983.75
337.738	999.75
337.966	1043.75
338.194	1194.75
338.422	1097.75
338.65	937.75
338.878	866.75
339.106	906.75
339.334	1031.75
339.562	1070.75
339.79	988.75
340.018	949.75
340.246	1037.75
340.474	1200.75
340.702	1246.75
340.93	1337.75
341.158	1313.75
341.386	1111.75
341.614	1143.75
341.842	1104.75
342.07	1163.75
342.298	1323.75
342.526	1397.75
342.754	1199.75
342.981	1106.75
343.209	1048.75
343.437	1106.75
343.665	1197.75
343.893	1171.75
344.12	1376.75
344.348	1608.75
344.576	1411.75
344.804	1182.75
345.031	1027.75
345.259	982.75
345.487	1021.75
345.714	1016.75
345.942	1092.75
346.17	1176.75
346.397	1102.75
346.625	963.75
346.853	969.75
347.08	963.75
347.308	993.75
347.535	1095.75
347.763	1173.75
347.99	1012.75
348.218	918.75
348.445	941.75
348.673	967.75
348.9	960.75
349.128	1051.75
349.355	1081.75
349.583	1045.75
349.81	1014.75
350.037	903.75
350.265	813.75
350.492	797.75
350.72	790.75
350.947	827.75
351.174	895.75
351.402	914.75
351.629	976.75
351.856	946.75
352.083	859.75
352.311	965.75
352.538	1075.75
352.765	1146.75
352.992	1038.75
353.22	982.75
353.447	994.75
353.674	982.75
353.901	966.75
354.128	958.75
354.355	1007.75
354.583	984.75
354.81	974.75
355.037	1026.75
355.264	986.75
355.491	1055.75
355.718	1174.75
355.945	1117.75
356.172	1133.75
356.399	1096.75
356.626	1322.75
356.853	1591.75
357.08	1687.75
357.307	1748.75
357.534	1321.75
357.761	1390.75
357.988	1759.75
358.215	2079.75
358.441	1933.75
358.668	1580.75
358.895	1511.75
359.122	1208.75
359.349	1178.75
359.576	1299.75
359.802	1116.75
360.029	947.75
360.256	1011.75
360.483	1256.75
360.709	1606.75
360.936	1658.75
361.163	1437.75
361.39	1135.75
361.616	1060.75
361.843	1205.75
362.07	1498.75
362.296	1402.75
362.523	1087.75
362.749	936.75
362.976	997.75
363.203	1221.75
363.429	1328.75
363.656	1057.75
363.882	964.75
364.109	999.75
364.335	1009.75
364.562	978.75
364.788	1109.75
365.015	1313.75
365.241	1168.75
365.468	981.75
365.694	860.75
365.92	837.75
366.147	804.75
366.373	794.75
366.599	812.75
366.826	808.75
367.052	781.75
367.278	831.75
367.505	829.75
367.731	894.75
367.957	1021.75
368.184	1030.75
368.41	984.75
368.636	1049.75
368.862	1045.75
369.089	1012.75
369.315	919.75
369.541	882.75
369.767	886.75
369.993	833.75
370.219	871.75
370.445	928.75
370.672	1002.75
370.898	1059.75
371.124	1057.75
371.35	945.75
371.576	894.75
371.802	982.75
372.028	1175.75
372.254	1321.75
372.48	1145.75
372.706	1023.75
372.932	1083.75
373.158	1130.75
373.384	1332.75
373.61	1800.75
373.835	1819.75
374.061	1352.75
374.287	1155.75
374.513	1383.75
374.739	1660.75
374.965	1673.75
375.191	1642.75
375.416	1155.75
375.642	1010.75
375.868	1198.75
376.094	1363.75
376.319	1186.75
376.545	1271.75
376.771	1352.75
376.997	1129.75
377.222	868.75
377.448	767.75
377.674	766.75
377.899	761.75
378.125	740.75
378.35	769.75
378.576	818.75
378.802	847.75
379.027	903.75
379.253	877.75
379.478	905.75
379.704	1001.75
379.929	1104.75
380.155	1062.75
380.38	962.75
380.606	996.75
380.831	1132.75
381.057	991.75
381.282	957.75
381.507	1199.75
381.733	1453.75
381.958	1518.75
382.184	1635.75
382.409	1718.75
382.634	1646.75
382.86	1724.75
383.085	1429.75
383.31	1124.75
383.535	1183.75
383.761	1225.75
383.986	1144.75
384.211	1408.75
384.436	1334.75
384.662	1004.75
384.887	1028.75
385.112	1025.75
385.337	1042.75
385.562	973.75
385.787	1108.75
386.013	1202.75
386.238	1269.75
386.463	999.75
386.688	943.75
386.913	936.75
387.138	901.75
387.363	970.75
387.588	983.75
387.813	961.75
388.038	1098.75
388.263	985.75
388.488	955.75
388.713	1110.75
388.938	1223.75
389.163	1006.75
389.387	895.75
389.612	890.75
389.837	943.75
390.062	962.75
390.287	996.75
390.512	1010.75
390.736	960.75
390.961	885.75
391.186	845.75
391.411	813.75
391.636	854.75
391.86	931.75
392.085	999.75
392.31	982.75
392.534	949.75
392.759	946.75
392.984	986.75
393.208	938.75
393.433	869.75
393.658	813.75
393.882	787.75
394.107	773.75
394.331	799.75
394.556	799.75
394.78	815.75
395.005	865.75
395.229	868.75
395.454	897.75
395.678	863.75
395.903	906.75
396.127	870.75
396.352	855.75
396.576	969.75
396.801	1011.75
397.025	1127.75
397.249	1136.75
397.474	912.75
397.698	917.75
397.922	965.75
398.147	895.75
398.371	914.75
398.595	964.75
398.82	957.75
399.044	960.75
399.268	1013.75
399.492	1047.75
399.717	1049.75
399.941	1110.75
400.165	1057.75
400.389	1042.75
400.613	1047.75
400.837	1030.75
401.062	961.75
401.286	894.75
401.51	922.75
401.734	925.75
401.958	909.75
402.182	892.75
402.406	898.75
402.63	929.75
402.854	948.75
403.078	1063.75
403.302	1302.75
403.526	1323.75
403.75	1193.75
403.974	1045.75
404.198	1078.75
404.422	1201.75
404.645	1433.75
404.869	1547.75
405.093	1181.75
405.317	998.75
405.541	989.75
405.765	993.75
405.988	1008.75
406.212	1099.75
406.436	1274.75
406.66	1420.75
406.883	1141.75
407.107	1162.75
407.331	1370.75
407.555	1291.75
407.778	1111.75
408.002	1068.75
408.226	1059.75
408.449	1082.75
408.673	1023.75
408.896	921.75
409.12	904.75
409.344	921.75
409.567	886.75
409.791	906.75
410.014	900.75
410.238	864.75
410.461	881.75
410.685	925.75
410.908	907.75
411.132	913.75
411.355	945.75
411.578	965.75
411.802	942.75
412.025	1006.75
412.249	994.75
412.472	935.75
412.695	966.75
412.919	951.75
413.142	966.75
413.365	1051.75
413.589	1031.75
413.812	952.75
414.035	899.75
414.258	930.75
414.482	1034.75
414.705	1086.75
414.928	925.75
415.151	891.75
415.374	873.75
415.597	938.75
415.821	914.75
416.044	888.75
416.267	884.75
416.49	862.75
416.713	858.75
416.936	879.75
417.159	854.75
417.382	908.75
417.605	941.75
417.828	907.75
418.051	920.75
418.274	943.75
418.497	954.75
418.72	964.75
418.943	943.75
419.166	1013.75
419.389	1037.75
419.611	1007.75
419.834	1046.75
420.057	1142.75
420.28	1105.75
420.503	1044.75
420.726	921.75
420.948	874.75
421.171	906.75
421.394	869.75
421.617	854.75
421.839	871.75
422.062	914.75
422.285	954.75
422.507	930.75
422.73	946.75
422.953	957.75
423.175	919.75
423.398	937.75
423.621	995.75
423.843	1045.75
424.066	978.75
424.288	936.75
424.511	881.75
424.733	919.75
424.956	954.75
425.178	1102.75
425.401	1214.75
425.623	1383.75
425.846	1158.75
426.068	1015.75
426.291	1090.75
426.513	1037.75
426.735	935.75
426.958	1038.75
427.18	1144.75
427.402	1475.75
427.625	1459.75
427.847	1188.75
428.069	909.75
428.292	893.75
428.514	890.75
428.736	879.75
428.958	943.75
429.181	1149.75
429.403	1000.75
429.625	891.75
429.847	878.75
430.069	900.75
430.292	928.75
430.514	853.75
430.736	965.75
430.958	1209.75
431.18	1081.75
431.402	828.75
431.624	832.75
431.846	801.75
432.068	777.75
432.29	809.75
432.512	936.75
432.734	1215.75
432.956	1124.75
433.178	888.75
433.4	853.75
433.622	857.75
433.844	872.75
434.066	911.75
434.287	905.75
434.509	915.75
434.731	928.75
434.953	879.75
435.175	898.75
435.397	1019.75
435.618	906.75
435.84	806.75
436.062	813.75
436.284	820.75
436.505	816.75
436.727	781.75
436.949	811.75
437.17	849.75
437.392	852.75
437.614	828.75
437.835	810.75
438.057	826.75
438.278	994.75
438.5	1426.75
438.721	1399.75
438.943	955.75
439.165	810.75
439.386	779.75
439.608	803.75
439.829	768.75
440.05	789.75
440.272	841.75
440.493	988.75
440.715	1249.75
440.936	957.75
441.158	840.75
441.379	843.75
441.6	983.75
441.822	1043.75
442.043	911.75
442.264	873.75
442.486	881.75
442.707	869.75
442.928	860.75
443.149	875.75
443.371	891.75
443.592	912.75
443.813	937.75
444.034	926.75
444.255	906.75
444.476	951.75
444.698	961.75
444.919	933.75
445.14	1049.75
445.361	994.75
445.582	973.75
445.803	919.75
446.024	960.75
446.245	935.75
446.466	913.75
446.687	891.75
446.908	871.75
447.129	837.75
447.35	817.75
447.571	790.75
447.792	792.75
448.013	770.75
448.234	770.75
448.455	783.75
448.675	817.75
448.896	805.75
449.117	809.75
449.338	811.75
449.559	838.75
449.779	858.75
450	854.75
450.221	840.75
450.442	821.75
450.662	785.75
450.883	809.75
451.104	840.75
451.324	773.75
451.545	807.75
451.766	815.75
451.986	774.75
452.207	767.75
452.428	787.75
452.648	778.75
452.869	795.75
453.089	835.75
453.31	833.75
453.53	754.75
453.751	735.75
453.971	706.75
454.192	766.75
454.412	799.75
454.633	757.75
454.853	744.75
455.073	736.75
455.294	730.75
455.514	755.75
455.734	779.75
455.955	831.75
456.175	833.75
456.395	753.75
456.616	718.75
456.836	707.75
457.056	705.75
457.276	673.75
457.497	731.75
457.717	718.75
457.937	718.75
458.157	714.75
458.377	734.75
458.598	732.75
458.818	783.75
459.038	821.75
459.258	806.75
459.478	840.75
459.698	912.75
459.918	919.75
460.138	879.75
460.358	873.75
460.578	868.75
460.798	866.75
461.018	884.75
461.238	851.75
461.458	856.75
461.678	888.75
461.898	923.75
462.118	939.75
462.338	936.75
462.558	951.75
462.777	968.75
462.997	1017.75
463.217	1016.75
463.437	1032.75
463.657	980.75
463.876	958.75
464.096	942.75
464.316	971.75
464.536	1000.75
464.755	1019.75
464.975	1023.75
465.195	966.75
465.414	1001.75
465.634	945.75
465.854	930.75
466.073	850.75
466.293	877.75
466.512	944.75
466.732	1013.75
466.951	1025.75
467.171	919.75
467.391	870.75
467.61	869.75
467.829	929.75
468.049	926.75
468.268	879.75
468.488	876.75
468.707	912.75
468.927	1071.75
469.146	1159.75
469.365	1033.75
469.585	963.75
469.804	1007.75
470.023	1110.75
470.243	959.75
470.462	905.75
470.681	915.75
470.901	905.75
471.12	977.75
471.339	974.75
471.558	925.75
471.777	913.75
471.997	1008.75
472.216	1135.75
472.435	1099.75
472.654	962.75
472.873	966.75
473.092	997.75
473.311	1029.75
473.53	941.75
473.749	932.75
473.968	985.75
474.187	999.75
474.406	936.75
474.625	916.75
474.844	979.75
475.063	1032.75
475.282	1035.75
475.501	1081.75
475.72	1124.75
475.939	1091.75
476.158	1090.75
476.377	1248.75
476.596	1458.75
476.814	1519.75
477.033	1257.75
477.252	1083.75
477.471	983.75
477.69	992.75
477.908	1084.75
478.127	1128.75
478.346	1058.75
478.564	1161.75
478.783	1087.75
479.002	1128.75
479.22	1274.75
479.439	1415.75
479.658	1201.75
479.876	1143.75
480.095	1192.75
480.313	1231.75
480.532	1135.75
480.751	1043.75
480.969	1135.75
481.188	1276.75
481.406	1287.75
481.624	1238.75
481.843	1116.75
482.061	1071.75
482.28	1202.75
482.498	1474.75
482.717	1343.75
482.935	1199.75
483.153	1149.75
483.372	1072.75
483.59	1079.75
483.808	1035.75
484.027	1039.75
484.245	1007.75
484.463	977.75
484.681	1010.75
484.9	1113.75
485.118	1181.75
485.336	1087.75
485.554	1062.75
485.772	1106.75
485.99	1171.75
486.209	1209.75
486.427	1225.75
486.645	1186.75
486.863	1262.75
487.081	1235.75
487.299	1364.75
487.517	1315.75
487.735	1236.75
487.953	1251.75
488.171	1261.75
488.389	1165.75
488.607	1123.75
488.825	1172.75
489.043	1287.75
489.261	1443.75
489.479	1538.75
489.696	1302.75
489.914	1179.75
490.132	1110.75
490.35	1128.75
490.568	1127.75
490.786	1154.75
491.003	1139.75
491.221	1176.75
491.439	1153.75
491.657	1136.75
491.874	1227.75
492.092	1504.75
492.31	1748.75
492.527	1715.75
492.745	1490.75
492.963	1345.75
493.18	1287.75
493.398	1321.75
493.615	1273.75
493.833	1235.75
494.05	1266.75
494.268	1277.75
