Data from NickelSpatula.Lamp.E10.P2_HRD10591_11-57-56-530.txt Node
Date: Tue Jul 23 11:57:56 EDT 2019
User: cochatt
Spectrometer: HR+D1059
Trigger mode: 1
Integration Time (sec): 1.000000E-1
Scans to average: 1
Electric dark correction enabled: true
Nonlinearity correction enabled: false
Boxcar width: 0
XAxis mode: Wavelengths
Number of Pixels in Spectrum: 2048
>>>>>Begin Spectral Data<<<<<
223.165	-1.25
223.4	-1.25
223.635	-1.25
223.869	-12.25
224.104	-1.25
224.338	-18.25
224.573	-13.25
224.808	-20.25
225.042	-7.25
225.277	7.75
225.511	-8.25
225.746	-4.25
225.98	-0.25
226.215	-2.25
226.449	6.75
226.683	10.75
226.918	35.75
227.152	27.75
227.387	26.75
227.621	32.75
227.856	35.75
228.09	40.75
228.324	45.75
228.559	55.75
228.793	73.75
229.027	152.75
229.262	159.75
229.496	153.75
229.73	166.75
229.964	201.75
230.199	232.75
230.433	213.75
230.667	228.75
230.901	212.75
231.136	201.75
231.37	211.75
231.604	217.75
231.838	234.75
232.072	253.75
232.306	246.75
232.541	249.75
232.775	249.75
233.009	270.75
233.243	286.75
233.477	302.75
233.711	332.75
233.945	324.75
234.179	317.75
234.413	361.75
234.647	391.75
234.881	441.75
235.115	435.75
235.349	391.75
235.583	353.75
235.817	364.75
236.051	367.75
236.285	406.75
236.519	443.75
236.753	417.75
236.987	413.75
237.221	390.75
237.455	383.75
237.689	435.75
237.922	492.75
238.156	470.75
238.39	551.75
238.624	629.75
238.858	591.75
239.091	483.75
239.325	518.75
239.559	468.75
239.793	535.75
240.027	666.75
240.26	606.75
240.494	580.75
240.728	600.75
240.961	680.75
241.195	631.75
241.429	601.75
241.662	612.75
241.896	512.75
242.13	446.75
242.363	443.75
242.597	471.75
242.83	531.75
243.064	536.75
243.298	589.75
243.531	618.75
243.765	631.75
243.998	632.75
244.232	576.75
244.465	583.75
244.699	578.75
244.932	654.75
245.166	597.75
245.399	539.75
245.633	520.75
245.866	558.75
246.099	618.75
246.333	716.75
246.566	756.75
246.8	733.75
247.033	732.75
247.266	683.75
247.5	679.75
247.733	693.75
247.966	642.75
248.2	684.75
248.433	773.75
248.666	826.75
248.899	817.75
249.133	862.75
249.366	934.75
249.599	1023.75
249.832	934.75
250.066	811.75
250.299	843.75
250.532	804.75
250.765	789.75
250.998	728.75
251.231	689.75
251.465	765.75
251.698	815.75
251.931	798.75
252.164	827.75
252.397	922.75
252.63	1025.75
252.863	1132.75
253.096	1201.75
253.329	1173.75
253.562	1095.75
253.795	1222.75
254.028	1352.75
254.261	1358.75
254.494	1212.75
254.727	1109.75
254.96	1107.75
255.193	1165.75
255.426	1083.75
255.659	855.75
255.892	790.75
256.124	860.75
256.357	1001.75
256.59	1158.75
256.823	1128.75
257.056	964.75
257.289	914.75
257.521	968.75
257.754	1127.75
257.987	1291.75
258.22	1070.75
258.452	979.75
258.685	1122.75
258.918	1253.75
259.151	1237.75
259.383	1268.75
259.616	1490.75
259.849	1563.75
260.081	1688.75
260.314	1854.75
260.547	1463.75
260.779	1457.75
261.012	1689.75
261.244	1597.75
261.477	1625.75
261.71	1507.75
261.942	1250.75
262.175	1268.75
262.407	1218.75
262.64	1236.75
262.872	1485.75
263.105	1607.75
263.337	1680.75
263.57	1476.75
263.802	1005.75
264.035	891.75
264.267	870.75
264.499	758.75
264.732	721.75
264.964	712.75
265.197	714.75
265.429	773.75
265.661	828.75
265.894	821.75
266.126	887.75
266.358	1054.75
266.591	1242.75
266.823	1451.75
267.055	1401.75
267.287	1240.75
267.52	1221.75
267.752	1301.75
267.984	1405.75
268.216	1351.75
268.448	1113.75
268.681	1077.75
268.913	1165.75
269.145	1269.75
269.377	1289.75
269.609	1262.75
269.841	1194.75
270.073	1274.75
270.306	1348.75
270.538	1402.75
270.77	1386.75
271.002	1380.75
271.234	1454.75
271.466	1481.75
271.698	1451.75
271.93	1399.75
272.162	1408.75
272.394	1383.75
272.626	1360.75
272.858	1426.75
273.09	1469.75
273.322	1314.75
273.553	1272.75
273.785	1465.75
274.017	1973.75
274.249	2380.75
274.481	2457.75
274.713	2715.75
274.945	3085.75
275.176	3194.75
275.408	2858.75
275.64	2559.75
275.872	2603.75
276.104	2196.75
276.335	1907.75
276.567	1852.75
276.799	1962.75
277.031	2022.75
277.262	1541.75
277.494	1246.75
277.726	1201.75
277.957	1306.75
278.189	1469.75
278.421	1419.75
278.652	1393.75
278.884	1357.75
279.115	1275.75
279.347	1182.75
279.579	1189.75
279.81	1187.75
280.042	1173.75
280.273	1242.75
280.505	1155.75
280.736	1013.75
280.968	1024.75
281.199	1062.75
281.431	1213.75
281.662	1212.75
281.894	1176.75
282.125	1223.75
282.356	1291.75
282.588	1363.75
282.819	1270.75
283.051	1365.75
283.282	1634.75
283.513	1929.75
283.745	2160.75
283.976	2143.75
284.207	1989.75
284.439	2095.75
284.67	1982.75
284.901	1739.75
285.132	1872.75
285.364	1945.75
285.595	1843.75
285.826	1978.75
286.057	2005.75
286.288	1901.75
286.52	1962.75
286.751	2078.75
286.982	2039.75
287.213	1751.75
287.444	1735.75
287.675	1799.75
287.906	1793.75
288.138	1524.75
288.369	1353.75
288.6	1308.75
288.831	1335.75
289.062	1502.75
289.293	1631.75
289.524	1569.75
289.755	1567.75
289.986	1608.75
290.217	1378.75
290.448	1092.75
290.679	951.75
290.91	914.75
291.141	937.75
291.371	972.75
291.602	984.75
291.833	951.75
292.064	1050.75
292.295	1178.75
292.526	1330.75
292.757	1419.75
292.987	1528.75
293.218	1550.75
293.449	1566.75
293.68	1651.75
293.91	1595.75
294.141	1601.75
294.372	1478.75
294.603	1395.75
294.833	1539.75
295.064	1788.75
295.295	1723.75
295.525	1255.75
295.756	1094.75
295.987	987.75
296.217	1034.75
296.448	1048.75
296.679	1095.75
296.909	1210.75
297.14	1293.75
297.37	1403.75
297.601	1323.75
297.831	1155.75
298.062	1231.75
298.292	1399.75
298.523	1507.75
298.753	1702.75
298.984	1549.75
299.214	1256.75
299.445	1041.75
299.675	1014.75
299.905	1020.75
300.136	1024.75
300.366	1161.75
300.597	1110.75
300.827	993.75
301.057	951.75
301.288	1004.75
301.518	1057.75
301.748	1231.75
301.979	1262.75
302.209	1391.75
302.439	1393.75
302.669	1217.75
302.9	1171.75
303.13	1145.75
303.36	1060.75
303.59	1019.75
303.82	1091.75
304.051	1187.75
304.281	1270.75
304.511	1275.75
304.741	1156.75
304.971	1157.75
305.201	1259.75
305.431	1178.75
305.661	1050.75
305.891	1028.75
306.121	1082.75
306.352	947.75
306.582	854.75
306.812	825.75
307.042	847.75
307.272	805.75
307.502	802.75
307.731	840.75
307.961	901.75
308.191	866.75
308.421	790.75
308.651	789.75
308.881	757.75
309.111	770.75
309.341	820.75
309.571	897.75
309.8	892.75
310.03	895.75
310.26	979.75
310.49	947.75
310.72	855.75
310.949	846.75
311.179	857.75
311.409	906.75
311.639	1064.75
311.868	1380.75
312.098	1763.75
312.328	1919.75
312.557	1836.75
312.787	1842.75
313.017	1665.75
313.246	1778.75
313.476	1907.75
313.706	1604.75
313.935	1260.75
314.165	1053.75
314.394	951.75
314.624	990.75
314.853	1002.75
315.083	1021.75
315.312	991.75
315.542	1014.75
315.771	931.75
316.001	837.75
316.23	807.75
316.46	814.75
316.689	854.75
316.919	893.75
317.148	893.75
317.377	849.75
317.607	876.75
317.836	936.75
318.065	1055.75
318.295	1187.75
318.524	1149.75
318.753	971.75
318.983	924.75
319.212	912.75
319.441	991.75
319.67	1121.75
319.9	1191.75
320.129	1127.75
320.358	956.75
320.587	924.75
320.816	1002.75
321.046	1144.75
321.275	1290.75
321.504	1283.75
321.733	1246.75
321.962	1159.75
322.191	1130.75
322.42	1079.75
322.649	1077.75
322.878	1134.75
323.108	1158.75
323.337	1066.75
323.566	1062.75
323.795	1026.75
324.024	1011.75
324.253	951.75
324.482	964.75
324.71	1059.75
324.939	1198.75
325.168	1085.75
325.397	897.75
325.626	889.75
325.855	917.75
326.084	914.75
326.313	895.75
326.542	825.75
326.77	889.75
326.999	895.75
327.228	933.75
327.457	1007.75
327.686	1014.75
327.914	869.75
328.143	834.75
328.372	828.75
328.6	801.75
328.829	838.75
329.058	890.75
329.287	858.75
329.515	905.75
329.744	882.75
329.972	827.75
330.201	784.75
330.43	822.75
330.658	938.75
330.887	1057.75
331.115	1027.75
331.344	979.75
331.572	957.75
331.801	895.75
332.03	836.75
332.258	855.75
332.486	952.75
332.715	975.75
332.943	915.75
333.172	906.75
333.4	906.75
333.629	1026.75
333.857	1106.75
334.085	1086.75
334.314	1101.75
334.542	1028.75
334.771	980.75
334.999	961.75
335.227	902.75
335.455	915.75
335.684	1030.75
335.912	1169.75
336.14	1270.75
336.369	1238.75
336.597	1185.75
336.825	1366.75
337.053	1495.75
337.281	1207.75
337.51	965.75
337.738	952.75
337.966	1057.75
338.194	1163.75
338.422	1100.75
338.65	955.75
338.878	873.75
339.106	909.75
339.334	984.75
339.562	1069.75
339.79	963.75
340.018	945.75
340.246	1032.75
340.474	1161.75
340.702	1232.75
340.93	1289.75
341.158	1284.75
341.386	1064.75
341.614	1099.75
341.842	1106.75
342.07	1152.75
342.298	1294.75
342.526	1380.75
342.754	1180.75
342.981	1039.75
343.209	1040.75
343.437	1121.75
343.665	1167.75
343.893	1161.75
344.12	1354.75
344.348	1564.75
344.576	1393.75
344.804	1157.75
345.031	1033.75
345.259	949.75
345.487	971.75
345.714	1009.75
345.942	1089.75
346.17	1131.75
346.397	1096.75
346.625	959.75
346.853	947.75
347.08	943.75
347.308	1000.75
347.535	1051.75
347.763	1122.75
347.99	994.75
348.218	920.75
348.445	953.75
348.673	953.75
348.9	961.75
349.128	1031.75
349.355	1012.75
349.583	1038.75
349.81	976.75
350.037	931.75
350.265	854.75
350.492	787.75
350.72	806.75
350.947	837.75
351.174	874.75
351.402	947.75
351.629	975.75
351.856	901.75
352.083	877.75
352.311	941.75
352.538	1040.75
352.765	1134.75
352.992	1010.75
353.22	957.75
353.447	970.75
353.674	956.75
353.901	936.75
354.128	951.75
354.355	994.75
354.583	974.75
354.81	956.75
355.037	999.75
355.264	1007.75
355.491	1077.75
355.718	1124.75
355.945	1097.75
356.172	1050.75
356.399	1058.75
356.626	1294.75
356.853	1556.75
357.08	1653.75
357.307	1664.75
357.534	1311.75
357.761	1353.75
357.988	1686.75
358.215	1989.75
358.441	1869.75
358.668	1562.75
358.895	1416.75
359.122	1183.75
359.349	1179.75
359.576	1267.75
359.802	1085.75
360.029	937.75
360.256	1017.75
360.483	1272.75
360.709	1537.75
360.936	1596.75
361.163	1419.75
361.39	1083.75
361.616	1003.75
361.843	1203.75
362.07	1457.75
362.296	1324.75
362.523	1076.75
362.749	931.75
362.976	943.75
363.203	1179.75
363.429	1331.75
363.656	1043.75
363.882	956.75
364.109	958.75
364.335	962.75
364.562	976.75
364.788	1084.75
365.015	1271.75
365.241	1138.75
365.468	942.75
365.694	803.75
365.92	807.75
366.147	771.75
366.373	787.75
366.599	786.75
366.826	806.75
367.052	796.75
367.278	818.75
367.505	787.75
367.731	891.75
367.957	1000.75
368.184	1011.75
368.41	974.75
368.636	998.75
368.862	1023.75
369.089	968.75
369.315	875.75
369.541	899.75
369.767	874.75
369.993	825.75
370.219	839.75
370.445	896.75
370.672	965.75
370.898	1038.75
371.124	1074.75
371.35	948.75
371.576	869.75
371.802	957.75
372.028	1125.75
372.254	1286.75
372.48	1101.75
372.706	1001.75
372.932	1062.75
373.158	1107.75
373.384	1322.75
373.61	1762.75
373.835	1777.75
374.061	1347.75
374.287	1129.75
374.513	1336.75
374.739	1590.75
374.965	1644.75
375.191	1591.75
375.416	1118.75
375.642	990.75
375.868	1194.75
376.094	1317.75
376.319	1116.75
376.545	1243.75
376.771	1318.75
376.997	1122.75
377.222	864.75
377.448	742.75
377.674	757.75
377.899	727.75
378.125	762.75
378.35	742.75
378.576	785.75
378.802	842.75
379.027	910.75
379.253	884.75
379.478	915.75
379.704	1020.75
379.929	1077.75
380.155	1051.75
380.38	927.75
380.606	979.75
380.831	1073.75
381.057	1002.75
381.282	947.75
381.507	1104.75
381.733	1379.75
381.958	1454.75
382.184	1577.75
382.409	1685.75
382.634	1619.75
382.86	1704.75
383.085	1377.75
383.31	1125.75
383.535	1167.75
383.761	1203.75
383.986	1142.75
384.211	1366.75
384.436	1303.75
384.662	1015.75
384.887	966.75
385.112	1004.75
385.337	1018.75
385.562	956.75
385.787	1065.75
386.013	1183.75
386.238	1251.75
386.463	972.75
386.688	953.75
386.913	933.75
387.138	898.75
387.363	937.75
387.588	938.75
387.813	990.75
388.038	1063.75
388.263	966.75
388.488	915.75
388.713	1055.75
388.938	1203.75
389.163	1013.75
389.387	899.75
389.612	904.75
389.837	919.75
390.062	953.75
390.287	991.75
390.512	971.75
390.736	918.75
390.961	875.75
391.186	844.75
391.411	817.75
391.636	848.75
391.86	923.75
392.085	957.75
392.31	1000.75
392.534	951.75
392.759	917.75
392.984	978.75
393.208	965.75
393.433	823.75
393.658	793.75
393.882	772.75
394.107	778.75
394.331	805.75
394.556	798.75
394.78	813.75
395.005	836.75
395.229	848.75
395.454	854.75
395.678	907.75
395.903	919.75
396.127	861.75
396.352	887.75
396.576	953.75
396.801	963.75
397.025	1069.75
397.249	1107.75
397.474	932.75
397.698	909.75
397.922	988.75
398.147	901.75
398.371	893.75
398.595	961.75
398.82	958.75
399.044	909.75
399.268	1013.75
399.492	1033.75
399.717	1034.75
399.941	1089.75
400.165	1042.75
400.389	1029.75
400.613	1037.75
400.837	1005.75
401.062	939.75
401.286	921.75
401.51	911.75
401.734	870.75
401.958	899.75
402.182	889.75
402.406	886.75
402.63	916.75
402.854	956.75
403.078	1053.75
403.302	1288.75
403.526	1319.75
403.75	1189.75
403.974	1035.75
404.198	1083.75
404.422	1224.75
404.645	1374.75
404.869	1509.75
405.093	1151.75
405.317	990.75
405.541	993.75
405.765	999.75
405.988	1011.75
406.212	1070.75
406.436	1268.75
406.66	1395.75
406.883	1113.75
407.107	1127.75
407.331	1326.75
407.555	1283.75
407.778	1103.75
408.002	1050.75
408.226	1017.75
408.449	1023.75
408.673	1005.75
408.896	946.75
409.12	937.75
409.344	902.75
409.567	903.75
409.791	901.75
410.014	885.75
410.238	870.75
410.461	910.75
410.685	883.75
410.908	901.75
411.132	939.75
411.355	935.75
411.578	933.75
411.802	926.75
412.025	954.75
412.249	977.75
412.472	945.75
412.695	949.75
412.919	958.75
413.142	942.75
413.365	1037.75
413.589	1027.75
413.812	952.75
414.035	925.75
414.258	936.75
414.482	1049.75
414.705	1060.75
414.928	895.75
415.151	865.75
415.374	859.75
415.597	927.75
415.821	907.75
416.044	879.75
416.267	878.75
416.49	858.75
416.713	874.75
416.936	867.75
417.159	857.75
417.382	871.75
417.605	887.75
417.828	893.75
418.051	903.75
418.274	934.75
418.497	929.75
418.72	920.75
418.943	946.75
419.166	994.75
419.389	980.75
419.611	987.75
419.834	1005.75
420.057	1121.75
420.28	1115.75
420.503	1035.75
420.726	892.75
420.948	867.75
421.171	899.75
421.394	882.75
421.617	831.75
421.839	887.75
422.062	929.75
422.285	914.75
422.507	901.75
422.73	929.75
422.953	957.75
423.175	912.75
423.398	926.75
423.621	982.75
423.843	1055.75
424.066	971.75
424.288	929.75
424.511	891.75
424.733	887.75
424.956	941.75
425.178	1050.75
425.401	1245.75
425.623	1341.75
425.846	1118.75
426.068	975.75
426.291	1101.75
426.513	1009.75
426.735	956.75
426.958	997.75
427.18	1151.75
427.402	1454.75
427.625	1436.75
427.847	1160.75
428.069	906.75
428.292	894.75
428.514	877.75
428.736	877.75
428.958	957.75
429.181	1092.75
429.403	953.75
429.625	886.75
429.847	872.75
430.069	878.75
430.292	888.75
430.514	875.75
430.736	943.75
430.958	1161.75
431.18	1058.75
431.402	831.75
431.624	795.75
431.846	801.75
432.068	799.75
432.29	801.75
432.512	894.75
432.734	1196.75
432.956	1093.75
433.178	843.75
433.4	832.75
433.622	858.75
433.844	887.75
434.066	936.75
434.287	907.75
434.509	881.75
434.731	937.75
434.953	853.75
435.175	905.75
435.397	1029.75
435.618	882.75
435.84	817.75
436.062	829.75
436.284	846.75
436.505	791.75
436.727	780.75
436.949	806.75
437.17	838.75
437.392	860.75
437.614	833.75
437.835	811.75
438.057	865.75
438.278	941.75
438.5	1337.75
438.721	1367.75
438.943	971.75
439.165	809.75
439.386	777.75
439.608	788.75
439.829	781.75
440.05	783.75
440.272	834.75
440.493	995.75
440.715	1193.75
440.936	958.75
441.158	845.75
441.379	855.75
441.6	949.75
441.822	1003.75
442.043	870.75
442.264	864.75
442.486	876.75
442.707	857.75
442.928	844.75
443.149	895.75
443.371	885.75
443.592	919.75
443.813	924.75
444.034	890.75
444.255	911.75
444.476	935.75
444.698	905.75
444.919	933.75
445.14	1048.75
445.361	1009.75
445.582	980.75
445.803	926.75
446.024	925.75
446.245	933.75
446.466	922.75
446.687	883.75
446.908	883.75
447.129	857.75
447.35	787.75
447.571	799.75
447.792	773.75
448.013	783.75
448.234	767.75
448.455	764.75
448.675	780.75
448.896	773.75
449.117	796.75
449.338	819.75
449.559	800.75
449.779	884.75
450	883.75
450.221	846.75
450.442	806.75
450.662	797.75
450.883	821.75
451.104	801.75
451.324	782.75
451.545	787.75
451.766	803.75
451.986	796.75
452.207	761.75
452.428	743.75
452.648	787.75
452.869	816.75
453.089	807.75
453.31	811.75
453.53	742.75
453.751	730.75
453.971	758.75
454.192	749.75
454.412	797.75
454.633	748.75
454.853	727.75
455.073	741.75
455.294	723.75
455.514	733.75
455.734	776.75
455.955	830.75
456.175	833.75
456.395	733.75
456.616	721.75
456.836	715.75
457.056	719.75
457.276	707.75
457.497	718.75
457.717	717.75
457.937	699.75
458.157	721.75
458.377	729.75
458.598	755.75
458.818	761.75
459.038	794.75
459.258	795.75
459.478	846.75
459.698	879.75
459.918	906.75
460.138	862.75
460.358	887.75
460.578	844.75
460.798	881.75
461.018	871.75
461.238	842.75
461.458	856.75
461.678	880.75
461.898	925.75
462.118	914.75
462.338	933.75
462.558	960.75
462.777	1004.75
462.997	990.75
463.217	1021.75
463.437	1027.75
463.657	984.75
463.876	955.75
464.096	965.75
464.316	957.75
464.536	983.75
464.755	1023.75
464.975	1035.75
465.195	986.75
465.414	985.75
465.634	941.75
465.854	917.75
466.073	851.75
466.293	870.75
466.512	916.75
466.732	1005.75
466.951	1011.75
467.171	923.75
467.391	871.75
467.61	872.75
467.829	957.75
468.049	911.75
468.268	874.75
468.488	865.75
468.707	897.75
468.927	1069.75
469.146	1167.75
469.365	1053.75
469.585	940.75
469.804	985.75
470.023	1078.75
470.243	958.75
470.462	937.75
470.681	901.75
470.901	914.75
471.12	977.75
471.339	961.75
471.558	918.75
471.777	931.75
471.997	984.75
472.216	1112.75
472.435	1045.75
472.654	954.75
472.873	932.75
473.092	988.75
473.311	1056.75
473.53	935.75
473.749	935.75
473.968	963.75
474.187	963.75
474.406	933.75
474.625	919.75
474.844	936.75
475.063	1007.75
475.282	1007.75
475.501	1058.75
475.72	1102.75
475.939	1102.75
476.158	1088.75
476.377	1260.75
476.596	1407.75
476.814	1469.75
477.033	1235.75
477.252	1042.75
477.471	982.75
477.69	997.75
477.908	1103.75
478.127	1147.75
478.346	1082.75
478.564	1109.75
478.783	1062.75
479.002	1149.75
479.22	1279.75
479.439	1433.75
479.658	1229.75
479.876	1112.75
480.095	1195.75
480.313	1234.75
480.532	1121.75
480.751	1077.75
480.969	1110.75
481.188	1279.75
481.406	1325.75
481.624	1207.75
481.843	1111.75
482.061	1079.75
482.28	1202.75
482.498	1443.75
482.717	1370.75
482.935	1209.75
483.153	1136.75
483.372	1056.75
483.59	1052.75
483.808	1073.75
484.027	1010.75
484.245	1025.75
484.463	971.75
484.681	1020.75
484.9	1095.75
485.118	1222.75
485.336	1132.75
485.554	1031.75
485.772	1075.75
485.99	1150.75
486.209	1235.75
486.427	1221.75
486.645	1198.75
486.863	1231.75
487.081	1219.75
487.299	1368.75
487.517	1324.75
487.735	1175.75
487.953	1194.75
488.171	1266.75
488.389	1167.75
488.607	1111.75
488.825	1147.75
489.043	1267.75
489.261	1414.75
489.479	1525.75
489.696	1273.75
489.914	1171.75
490.132	1088.75
490.35	1111.75
490.568	1114.75
490.786	1097.75
491.003	1127.75
491.221	1124.75
491.439	1115.75
491.657	1137.75
491.874	1221.75
492.092	1467.75
492.31	1712.75
492.527	1696.75
492.745	1505.75
492.963	1339.75
493.18	1304.75
493.398	1305.75
493.615	1312.75
493.833	1224.75
494.05	1223.75
494.268	1277.75
494.485	1219.75
494.703	1186.75
