Data from NickelSpatula.Lamp.E10.P2_HRD10591_11-59-13-526.txt Node
Date: Tue Jul 23 11:59:13 EDT 2019
User: cochatt
Spectrometer: HR+D1059
Trigger mode: 1
Integration Time (sec): 1.000000E-1
Scans to average: 1
Electric dark correction enabled: true
Nonlinearity correction enabled: false
Boxcar width: 0
XAxis mode: Wavelengths
Number of Pixels in Spectrum: 2048
>>>>>Begin Spectral Data<<<<<
223.165	-16.94
223.4	-16.94
223.635	-16.94
223.869	-10.94
224.104	-0.94
224.338	-11.94
224.573	-24.94
224.808	-2.94
225.042	-5.94
225.277	-17.94
225.511	-6.94
225.746	0.06
225.98	0.06
226.215	20.06
226.449	15.06
226.683	22.06
226.918	19.06
227.152	23.06
227.387	41.06
227.621	26.06
227.856	42.06
228.09	54.06
228.324	58.06
228.559	70.06
228.793	97.06
229.027	145.06
229.262	161.06
229.496	164.06
229.73	171.06
229.964	177.06
230.199	223.06
230.433	225.06
230.667	234.06
230.901	202.06
231.136	218.06
231.37	217.06
231.604	227.06
231.838	254.06
232.072	246.06
232.306	256.06
232.541	253.06
232.775	255.06
233.009	260.06
233.243	293.06
233.477	314.06
233.711	343.06
233.945	337.06
234.179	351.06
234.413	377.06
234.647	388.06
234.881	483.06
235.115	442.06
235.349	404.06
235.583	360.06
235.817	350.06
236.051	391.06
236.285	428.06
236.519	482.06
236.753	443.06
236.987	451.06
237.221	426.06
237.455	411.06
237.689	441.06
237.922	487.06
238.156	471.06
238.39	563.06
238.624	675.06
238.858	613.06
239.091	511.06
239.325	509.06
239.559	491.06
239.793	555.06
240.027	669.06
240.26	621.06
240.494	592.06
240.728	619.06
240.961	708.06
241.195	655.06
241.429	651.06
241.662	625.06
241.896	541.06
242.13	488.06
242.363	455.06
242.597	483.06
242.83	545.06
243.064	562.06
243.298	596.06
243.531	642.06
243.765	655.06
243.998	653.06
244.232	596.06
244.465	613.06
244.699	584.06
244.932	661.06
245.166	633.06
245.399	565.06
245.633	567.06
245.866	557.06
246.099	607.06
246.333	743.06
246.566	779.06
246.8	790.06
247.033	777.06
247.266	696.06
247.5	720.06
247.733	657.06
247.966	697.06
248.2	692.06
248.433	789.06
248.666	859.06
248.899	880.06
249.133	892.06
249.366	1035.06
249.599	1107.06
249.832	961.06
250.066	831.06
250.299	853.06
250.532	845.06
250.765	828.06
250.998	769.06
251.231	734.06
251.465	813.06
251.698	843.06
251.931	817.06
252.164	843.06
252.397	951.06
252.63	1071.06
252.863	1170.06
253.096	1217.06
253.329	1172.06
253.562	1108.06
253.795	1299.06
254.028	1426.06
254.261	1430.06
254.494	1264.06
254.727	1184.06
254.96	1147.06
255.193	1235.06
255.426	1152.06
255.659	891.06
255.892	813.06
256.124	883.06
256.357	1041.06
256.59	1246.06
256.823	1149.06
257.056	1032.06
257.289	936.06
257.521	965.06
257.754	1130.06
257.987	1314.06
258.22	1122.06
258.452	1015.06
258.685	1219.06
258.918	1318.06
259.151	1265.06
259.383	1321.06
259.616	1521.06
259.849	1578.06
260.081	1732.06
260.314	1932.06
260.547	1487.06
260.779	1498.06
261.012	1735.06
261.244	1654.06
261.477	1665.06
261.71	1588.06
261.942	1341.06
262.175	1308.06
262.407	1302.06
262.64	1289.06
262.872	1537.06
263.105	1673.06
263.337	1760.06
263.57	1599.06
263.802	1049.06
264.035	935.06
264.267	884.06
264.499	765.06
264.732	703.06
264.964	710.06
265.197	728.06
265.429	796.06
265.661	816.06
265.894	863.06
266.126	919.06
266.358	1071.06
266.591	1256.06
266.823	1487.06
267.055	1421.06
267.287	1284.06
267.52	1267.06
267.752	1320.06
267.984	1477.06
268.216	1385.06
268.448	1097.06
268.681	1102.06
268.913	1216.06
269.145	1301.06
269.377	1321.06
269.609	1286.06
269.841	1219.06
270.073	1329.06
270.306	1404.06
270.538	1389.06
270.77	1429.06
271.002	1425.06
271.234	1507.06
271.466	1493.06
271.698	1466.06
271.93	1461.06
272.162	1482.06
272.394	1443.06
272.626	1426.06
272.858	1475.06
273.09	1496.06
273.322	1331.06
273.553	1279.06
273.785	1545.06
274.017	2010.06
274.249	2488.06
274.481	2561.06
274.713	2792.06
274.945	3208.06
275.176	3325.06
275.408	2917.06
275.64	2682.06
275.872	2651.06
276.104	2240.06
276.335	1923.06
276.567	1953.06
276.799	1982.06
277.031	2145.06
277.262	1664.06
277.494	1263.06
277.726	1213.06
277.957	1332.06
278.189	1493.06
278.421	1486.06
278.652	1466.06
278.884	1372.06
279.115	1281.06
279.347	1204.06
279.579	1259.06
279.81	1210.06
280.042	1220.06
280.273	1267.06
280.505	1149.06
280.736	1032.06
280.968	1033.06
281.199	1146.06
281.431	1227.06
281.662	1247.06
281.894	1179.06
282.125	1276.06
282.356	1367.06
282.588	1411.06
282.819	1246.06
283.051	1397.06
283.282	1733.06
283.513	1981.06
283.745	2180.06
283.976	2229.06
284.207	2020.06
284.439	2131.06
284.67	2026.06
284.901	1823.06
285.132	2008.06
285.364	2075.06
285.595	1903.06
285.826	2049.06
286.057	2111.06
286.288	1985.06
286.52	2038.06
286.751	2155.06
286.982	2146.06
287.213	1866.06
287.444	1765.06
287.675	1872.06
287.906	1830.06
288.138	1591.06
288.369	1362.06
288.6	1321.06
288.831	1377.06
289.062	1578.06
289.293	1691.06
289.524	1606.06
289.755	1633.06
289.986	1677.06
290.217	1461.06
290.448	1108.06
290.679	966.06
290.91	938.06
291.141	947.06
291.371	990.06
291.602	987.06
291.833	984.06
292.064	1071.06
292.295	1240.06
292.526	1421.06
292.757	1497.06
292.987	1587.06
293.218	1565.06
293.449	1628.06
293.68	1713.06
293.91	1613.06
294.141	1649.06
294.372	1530.06
294.603	1419.06
294.833	1606.06
295.064	1870.06
295.295	1711.06
295.525	1338.06
295.756	1146.06
295.987	1026.06
296.217	1001.06
296.448	1034.06
296.679	1118.06
296.909	1241.06
297.14	1337.06
297.37	1446.06
297.601	1378.06
297.831	1177.06
298.062	1274.06
298.292	1466.06
298.523	1599.06
298.753	1789.06
298.984	1647.06
299.214	1268.06
299.445	1077.06
299.675	1037.06
299.905	1057.06
300.136	1094.06
300.366	1208.06
300.597	1176.06
300.827	1030.06
301.057	993.06
301.288	1013.06
301.518	1104.06
301.748	1217.06
301.979	1329.06
302.209	1483.06
302.439	1472.06
302.669	1227.06
302.9	1237.06
303.13	1128.06
303.36	1111.06
303.59	1049.06
303.82	1120.06
304.051	1253.06
304.281	1353.06
304.511	1297.06
304.741	1153.06
304.971	1210.06
305.201	1297.06
305.431	1212.06
305.661	1096.06
305.891	1047.06
306.121	1097.06
306.352	978.06
306.582	874.06
306.812	856.06
307.042	869.06
307.272	828.06
307.502	799.06
307.731	894.06
307.961	935.06
308.191	862.06
308.421	826.06
308.651	808.06
308.881	792.06
309.111	769.06
309.341	813.06
309.571	894.06
309.8	907.06
310.03	949.06
310.26	1010.06
310.49	1018.06
310.72	912.06
310.949	847.06
311.179	907.06
311.409	931.06
311.639	1107.06
311.868	1406.06
312.098	1811.06
312.328	1966.06
312.557	1888.06
312.787	1904.06
313.017	1669.06
313.246	1830.06
313.476	1973.06
313.706	1646.06
313.935	1320.06
314.165	1103.06
314.394	936.06
314.624	962.06
314.853	1017.06
315.083	1043.06
315.312	1047.06
315.542	1010.06
315.771	954.06
316.001	861.06
316.23	841.06
316.46	850.06
316.689	847.06
316.919	873.06
317.148	922.06
317.377	891.06
317.607	886.06
317.836	958.06
318.065	1139.06
318.295	1265.06
318.524	1181.06
318.753	974.06
318.983	915.06
319.212	931.06
319.441	1016.06
319.67	1161.06
319.9	1205.06
320.129	1146.06
320.358	995.06
320.587	926.06
320.816	1029.06
321.046	1204.06
321.275	1341.06
321.504	1381.06
321.733	1281.06
321.962	1252.06
322.191	1153.06
322.42	1098.06
322.649	1155.06
322.878	1233.06
323.108	1200.06
323.337	1139.06
323.566	1078.06
323.795	1061.06
324.024	1000.06
324.253	988.06
324.482	959.06
324.71	1106.06
324.939	1233.06
325.168	1105.06
325.397	950.06
325.626	929.06
325.855	913.06
326.084	969.06
326.313	894.06
326.542	869.06
326.77	854.06
326.999	908.06
327.228	961.06
327.457	1017.06
327.686	1001.06
327.914	887.06
328.143	810.06
328.372	833.06
328.6	873.06
328.829	867.06
329.058	901.06
329.287	877.06
329.515	914.06
329.744	890.06
329.972	836.06
330.201	821.06
330.43	842.06
330.658	949.06
330.887	1091.06
331.115	1050.06
331.344	999.06
331.572	959.06
331.801	903.06
332.03	843.06
332.258	865.06
332.486	965.06
332.715	993.06
332.943	929.06
333.172	933.06
333.4	930.06
333.629	1041.06
333.857	1146.06
334.085	1122.06
334.314	1112.06
334.542	1057.06
334.771	979.06
334.999	971.06
335.227	937.06
335.455	951.06
335.684	1025.06
335.912	1217.06
336.14	1331.06
336.369	1253.06
336.597	1228.06
336.825	1395.06
337.053	1557.06
337.281	1249.06
337.51	1027.06
337.738	973.06
337.966	1066.06
338.194	1220.06
338.422	1134.06
338.65	936.06
338.878	903.06
339.106	915.06
339.334	1047.06
339.562	1070.06
339.79	1018.06
340.018	962.06
340.246	1065.06
340.474	1226.06
340.702	1309.06
340.93	1326.06
341.158	1337.06
341.386	1121.06
341.614	1112.06
341.842	1121.06
342.07	1180.06
342.298	1359.06
342.526	1420.06
342.754	1212.06
342.981	1122.06
343.209	1083.06
343.437	1144.06
343.665	1203.06
343.893	1207.06
344.12	1433.06
344.348	1629.06
344.576	1463.06
344.804	1188.06
345.031	1051.06
345.259	961.06
345.487	1027.06
345.714	1039.06
345.942	1102.06
346.17	1188.06
346.397	1147.06
346.625	1015.06
346.853	983.06
347.08	925.06
347.308	995.06
347.535	1125.06
347.763	1155.06
347.99	985.06
348.218	903.06
348.445	946.06
348.673	981.06
348.9	984.06
349.128	1053.06
349.355	1113.06
349.583	1089.06
349.81	1017.06
350.037	936.06
350.265	845.06
350.492	808.06
350.72	804.06
350.947	850.06
351.174	908.06
351.402	957.06
351.629	1013.06
351.856	921.06
352.083	889.06
352.311	993.06
352.538	1103.06
352.765	1161.06
352.992	1037.06
353.22	966.06
353.447	1021.06
353.674	962.06
353.901	946.06
354.128	971.06
354.355	1021.06
354.583	1007.06
354.81	1000.06
355.037	1009.06
355.264	1019.06
355.491	1081.06
355.718	1180.06
355.945	1158.06
356.172	1124.06
356.399	1096.06
356.626	1358.06
356.853	1665.06
357.08	1722.06
357.307	1753.06
357.534	1361.06
357.761	1425.06
357.988	1793.06
358.215	2098.06
358.441	1985.06
358.668	1677.06
358.895	1477.06
359.122	1206.06
359.349	1213.06
359.576	1321.06
359.802	1139.06
360.029	965.06
360.256	1025.06
360.483	1319.06
360.709	1627.06
360.936	1693.06
361.163	1477.06
361.39	1133.06
361.616	1054.06
361.843	1257.06
362.07	1523.06
362.296	1348.06
362.523	1071.06
362.749	935.06
362.976	1005.06
363.203	1209.06
363.429	1371.06
363.656	1091.06
363.882	1009.06
364.109	1027.06
364.335	992.06
364.562	963.06
364.788	1175.06
365.015	1329.06
365.241	1166.06
365.468	959.06
365.694	874.06
365.92	805.06
366.147	793.06
366.373	820.06
366.599	795.06
366.826	821.06
367.052	847.06
367.278	862.06
367.505	833.06
367.731	914.06
367.957	1008.06
368.184	1056.06
368.41	1026.06
368.636	1012.06
368.862	1066.06
369.089	1001.06
369.315	902.06
369.541	934.06
369.767	894.06
369.993	845.06
370.219	883.06
370.445	907.06
370.672	1010.06
370.898	1103.06
371.124	1088.06
371.35	972.06
371.576	901.06
371.802	995.06
372.028	1178.06
372.254	1366.06
372.48	1165.06
372.706	1075.06
372.932	1111.06
373.158	1175.06
373.384	1389.06
373.61	1865.06
373.835	1897.06
374.061	1376.06
374.287	1178.06
374.513	1411.06
374.739	1693.06
374.965	1711.06
375.191	1604.06
375.416	1177.06
375.642	1020.06
375.868	1220.06
376.094	1394.06
376.319	1197.06
376.545	1289.06
376.771	1360.06
376.997	1169.06
377.222	874.06
377.448	783.06
377.674	755.06
377.899	750.06
378.125	741.06
378.35	751.06
378.576	789.06
378.802	855.06
379.027	913.06
379.253	882.06
379.478	931.06
379.704	1048.06
379.929	1111.06
380.155	1101.06
380.38	944.06
380.606	995.06
380.831	1147.06
381.057	1037.06
381.282	985.06
381.507	1199.06
381.733	1429.06
381.958	1533.06
382.184	1631.06
382.409	1713.06
382.634	1659.06
382.86	1770.06
383.085	1461.06
383.31	1137.06
383.535	1219.06
383.761	1227.06
383.986	1199.06
384.211	1396.06
384.436	1354.06
384.662	1069.06
384.887	1006.06
385.112	1035.06
385.337	1073.06
385.562	981.06
385.787	1117.06
386.013	1226.06
386.238	1275.06
386.463	1049.06
386.688	985.06
386.913	939.06
387.138	887.06
387.363	952.06
387.588	998.06
387.813	986.06
388.038	1083.06
388.263	979.06
388.488	951.06
388.713	1114.06
388.938	1210.06
389.163	1050.06
389.387	917.06
389.612	926.06
389.837	958.06
390.062	937.06
390.287	1005.06
390.512	1025.06
390.736	965.06
390.961	882.06
391.186	871.06
391.411	813.06
391.636	842.06
391.86	946.06
392.085	979.06
392.31	1003.06
392.534	959.06
392.759	933.06
392.984	985.06
393.208	986.06
393.433	896.06
393.658	815.06
393.882	813.06
394.107	786.06
394.331	802.06
394.556	803.06
394.78	820.06
395.005	854.06
395.229	889.06
395.454	885.06
395.678	888.06
395.903	913.06
396.127	872.06
396.352	913.06
396.576	989.06
396.801	1022.06
397.025	1121.06
397.249	1133.06
397.474	943.06
397.698	933.06
397.922	986.06
398.147	925.06
398.371	925.06
398.595	964.06
398.82	922.06
399.044	958.06
399.268	1003.06
399.492	1057.06
399.717	1065.06
399.941	1099.06
400.165	1070.06
400.389	1048.06
400.613	1026.06
400.837	1033.06
401.062	938.06
401.286	912.06
401.51	908.06
401.734	913.06
401.958	899.06
402.182	910.06
402.406	893.06
402.63	915.06
402.854	969.06
403.078	1091.06
403.302	1295.06
403.526	1358.06
403.75	1208.06
403.974	1042.06
404.198	1081.06
404.422	1209.06
404.645	1440.06
404.869	1558.06
405.093	1142.06
405.317	1011.06
405.541	1000.06
405.765	1019.06
405.988	992.06
406.212	1125.06
406.436	1318.06
406.66	1434.06
406.883	1182.06
407.107	1205.06
407.331	1375.06
407.555	1301.06
407.778	1114.06
408.002	1082.06
408.226	1077.06
408.449	1046.06
408.673	1023.06
408.896	968.06
409.12	930.06
409.344	914.06
409.567	895.06
409.791	889.06
410.014	914.06
410.238	899.06
410.461	905.06
410.685	881.06
410.908	894.06
411.132	933.06
411.355	949.06
411.578	951.06
411.802	930.06
412.025	1027.06
412.249	1006.06
412.472	968.06
412.695	943.06
412.919	988.06
413.142	971.06
413.365	1083.06
413.589	1072.06
413.812	967.06
414.035	925.06
414.258	929.06
414.482	1080.06
414.705	1041.06
414.928	930.06
415.151	878.06
415.374	895.06
415.597	941.06
415.821	942.06
416.044	890.06
416.267	918.06
416.49	892.06
416.713	866.06
416.936	869.06
417.159	850.06
417.382	891.06
417.605	897.06
417.828	949.06
418.051	941.06
418.274	924.06
418.497	922.06
418.72	936.06
418.943	958.06
419.166	998.06
419.389	1031.06
419.611	1015.06
419.834	1061.06
420.057	1143.06
420.28	1105.06
420.503	1045.06
420.726	885.06
420.948	906.06
421.171	915.06
421.394	889.06
421.617	862.06
421.839	895.06
422.062	964.06
422.285	922.06
422.507	947.06
422.73	975.06
422.953	984.06
423.175	955.06
423.398	938.06
423.621	1008.06
423.843	1065.06
424.066	958.06
424.288	941.06
424.511	911.06
424.733	930.06
424.956	964.06
425.178	1083.06
425.401	1242.06
425.623	1386.06
425.846	1144.06
426.068	1011.06
426.291	1115.06
426.513	1028.06
426.735	956.06
426.958	1007.06
427.18	1163.06
427.402	1504.06
427.625	1498.06
427.847	1215.06
428.069	920.06
428.292	931.06
428.514	906.06
428.736	886.06
428.958	968.06
429.181	1134.06
429.403	985.06
429.625	897.06
429.847	891.06
430.069	914.06
430.292	934.06
430.514	879.06
430.736	959.06
430.958	1216.06
431.18	1093.06
431.402	840.06
431.624	805.06
431.846	815.06
432.068	794.06
432.29	847.06
432.512	921.06
432.734	1221.06
432.956	1124.06
433.178	862.06
433.4	867.06
433.622	852.06
433.844	913.06
434.066	943.06
434.287	918.06
434.509	889.06
434.731	943.06
434.953	879.06
435.175	927.06
435.397	1059.06
435.618	889.06
435.84	837.06
436.062	843.06
436.284	835.06
436.505	802.06
436.727	777.06
436.949	830.06
437.17	821.06
437.392	831.06
437.614	825.06
437.835	856.06
438.057	860.06
438.278	1000.06
438.5	1402.06
438.721	1354.06
438.943	937.06
439.165	830.06
439.386	792.06
439.608	808.06
439.829	791.06
440.05	807.06
440.272	866.06
440.493	1002.06
440.715	1246.06
440.936	985.06
441.158	886.06
441.379	868.06
441.6	997.06
441.822	1050.06
442.043	909.06
442.264	881.06
442.486	889.06
442.707	869.06
442.928	863.06
443.149	891.06
443.371	903.06
443.592	936.06
443.813	903.06
444.034	923.06
444.255	927.06
444.476	949.06
444.698	940.06
444.919	925.06
445.14	1067.06
445.361	1012.06
445.582	969.06
445.803	933.06
446.024	957.06
446.245	938.06
446.466	915.06
446.687	887.06
446.908	885.06
447.129	866.06
447.35	813.06
447.571	821.06
447.792	786.06
448.013	784.06
448.234	786.06
448.455	802.06
448.675	814.06
448.896	825.06
449.117	826.06
449.338	831.06
449.559	819.06
449.779	863.06
450	870.06
450.221	820.06
450.442	803.06
450.662	810.06
450.883	806.06
451.104	826.06
451.324	806.06
451.545	799.06
451.766	795.06
451.986	793.06
452.207	774.06
452.428	776.06
452.648	785.06
452.869	829.06
453.089	854.06
453.31	854.06
453.53	755.06
453.751	740.06
453.971	745.06
454.192	795.06
454.412	791.06
454.633	757.06
454.853	769.06
455.073	744.06
455.294	753.06
455.514	743.06
455.734	768.06
455.955	800.06
456.175	837.06
456.395	737.06
456.616	689.06
456.836	753.06
457.056	698.06
457.276	715.06
457.497	702.06
457.717	725.06
457.937	722.06
458.157	711.06
458.377	771.06
458.598	738.06
458.818	768.06
459.038	813.06
459.258	811.06
459.478	866.06
459.698	909.06
459.918	909.06
460.138	890.06
460.358	903.06
460.578	888.06
460.798	898.06
461.018	909.06
461.238	842.06
461.458	880.06
461.678	919.06
461.898	936.06
462.118	913.06
462.338	954.06
462.558	968.06
462.777	1008.06
462.997	1015.06
463.217	1003.06
463.437	1043.06
463.657	1026.06
463.876	968.06
464.096	976.06
464.316	977.06
464.536	979.06
464.755	1031.06
464.975	1002.06
465.195	976.06
465.414	1006.06
465.634	978.06
465.854	954.06
466.073	864.06
466.293	877.06
466.512	947.06
466.732	1037.06
466.951	1058.06
467.171	919.06
467.391	892.06
467.61	868.06
467.829	947.06
468.049	926.06
468.268	879.06
468.488	847.06
468.707	913.06
468.927	1092.06
469.146	1165.06
469.365	1049.06
469.585	952.06
469.804	1029.06
470.023	1096.06
470.243	976.06
470.462	928.06
470.681	925.06
470.901	943.06
471.12	1007.06
471.339	982.06
471.558	927.06
471.777	929.06
471.997	989.06
472.216	1106.06
472.435	1107.06
472.654	984.06
472.873	955.06
473.092	1014.06
473.311	1066.06
473.53	977.06
473.749	947.06
473.968	991.06
474.187	994.06
474.406	980.06
474.625	933.06
474.844	960.06
475.063	1025.06
475.282	1052.06
475.501	1073.06
475.72	1147.06
475.939	1105.06
476.158	1133.06
476.377	1261.06
476.596	1486.06
476.814	1535.06
477.033	1284.06
477.252	1051.06
477.471	993.06
477.69	1034.06
477.908	1148.06
478.127	1209.06
478.346	1075.06
478.564	1154.06
478.783	1094.06
479.002	1145.06
479.22	1336.06
479.439	1413.06
479.658	1244.06
479.876	1129.06
480.095	1201.06
480.313	1238.06
480.532	1117.06
480.751	1125.06
480.969	1151.06
481.188	1297.06
481.406	1322.06
481.624	1254.06
481.843	1184.06
482.061	1094.06
482.28	1235.06
482.498	1489.06
482.717	1404.06
482.935	1220.06
483.153	1149.06
483.372	1095.06
483.59	1075.06
483.808	1059.06
484.027	1026.06
484.245	1017.06
484.463	990.06
484.681	1043.06
484.9	1126.06
485.118	1200.06
485.336	1131.06
485.554	1086.06
485.772	1105.06
485.99	1188.06
486.209	1295.06
486.427	1229.06
486.645	1232.06
486.863	1267.06
487.081	1242.06
487.299	1393.06
487.517	1345.06
487.735	1206.06
487.953	1246.06
488.171	1244.06
488.389	1216.06
488.607	1122.06
488.825	1219.06
489.043	1325.06
489.261	1479.06
489.479	1601.06
489.696	1317.06
489.914	1203.06
490.132	1151.06
490.35	1146.06
490.568	1124.06
490.786	1145.06
491.003	1161.06
491.221	1203.06
491.439	1141.06
491.657	1149.06
491.874	1242.06
492.092	1533.06
492.31	1816.06
492.527	1765.06
492.745	1560.06
492.963	1374.06
493.18	1316.06
493.398	1335.06
493.615	1305.06
493.833	1280.06
494.05	1276.06
