Data from NickelSpatula.Lamp.E5.5.P2_HRD10591_11-50-57-564.txt Node
Date: Tue Jul 23 11:50:57 EDT 2019
User: cochatt
Spectrometer: HR+D1059
Trigger mode: 1
Integration Time (sec): 1.000000E-1
Scans to average: 1
Electric dark correction enabled: true
Nonlinearity correction enabled: false
Boxcar width: 0
XAxis mode: Wavelengths
Number of Pixels in Spectrum: 2048
>>>>>Begin Spectral Data<<<<<
223.165	-19.31
223.4	-19.31
223.635	-19.31
223.869	-15.31
224.104	-19.31
224.338	-12.31
224.573	-19.31
224.808	-15.31
225.042	-26.31
225.277	-2.31
225.511	-11.31
225.746	-9.31
225.98	12.69
226.215	18.69
226.449	36.69
226.683	20.69
226.918	29.69
227.152	31.69
227.387	40.69
227.621	30.69
227.856	45.69
228.09	23.69
228.324	50.69
228.559	59.69
228.793	65.69
229.027	67.69
229.262	80.69
229.496	80.69
229.73	70.69
229.964	85.69
230.199	93.69
230.433	90.69
230.667	84.69
230.901	83.69
231.136	104.69
231.37	89.69
231.604	96.69
231.838	100.69
232.072	107.69
232.306	101.69
232.541	101.69
232.775	105.69
233.009	92.69
233.243	115.69
233.477	111.69
233.711	115.69
233.945	118.69
234.179	111.69
234.413	112.69
234.647	119.69
234.881	135.69
235.115	120.69
235.349	119.69
235.583	121.69
235.817	117.69
236.051	103.69
236.285	107.69
236.519	129.69
236.753	125.69
236.987	108.69
237.221	110.69
237.455	103.69
237.689	110.69
237.922	121.69
238.156	136.69
238.39	136.69
238.624	143.69
238.858	133.69
239.091	127.69
239.325	105.69
239.559	118.69
239.793	139.69
240.027	147.69
240.26	147.69
240.494	131.69
240.728	126.69
240.961	133.69
241.195	145.69
241.429	120.69
241.662	124.69
241.896	132.69
242.13	118.69
242.363	121.69
242.597	148.69
242.83	150.69
243.064	127.69
243.298	143.69
243.531	136.69
243.765	141.69
243.998	153.69
244.232	149.69
244.465	155.69
244.699	133.69
244.932	147.69
245.166	149.69
245.399	138.69
245.633	133.69
245.866	129.69
246.099	148.69
246.333	158.69
246.566	173.69
246.8	171.69
247.033	149.69
247.266	148.69
247.5	145.69
247.733	165.69
247.966	139.69
248.2	142.69
248.433	168.69
248.666	162.69
248.899	155.69
249.133	167.69
249.366	159.69
249.599	197.69
249.832	176.69
250.066	171.69
250.299	163.69
250.532	164.69
250.765	172.69
250.998	155.69
251.231	171.69
251.465	167.69
251.698	181.69
251.931	171.69
252.164	171.69
252.397	171.69
252.63	190.69
252.863	197.69
253.096	215.69
253.329	201.69
253.562	205.69
253.795	206.69
254.028	253.69
254.261	251.69
254.494	216.69
254.727	217.69
254.96	210.69
255.193	219.69
255.426	222.69
255.659	168.69
255.892	166.69
256.124	169.69
256.357	213.69
256.59	216.69
256.823	214.69
257.056	190.69
257.289	187.69
257.521	193.69
257.754	233.69
257.987	233.69
258.22	232.69
258.452	192.69
258.685	215.69
258.918	244.69
259.151	244.69
259.383	243.69
259.616	268.69
259.849	257.69
260.081	285.69
260.314	283.69
260.547	251.69
260.779	273.69
261.012	297.69
261.244	275.69
261.477	273.69
261.71	271.69
261.942	234.69
262.175	233.69
262.407	225.69
262.64	230.69
262.872	249.69
263.105	266.69
263.337	285.69
263.57	258.69
263.802	193.69
264.035	196.69
264.267	201.69
264.499	160.69
264.732	175.69
264.964	161.69
265.197	185.69
265.429	176.69
265.661	181.69
265.894	189.69
266.126	193.69
266.358	216.69
266.591	235.69
266.823	259.69
267.055	262.69
267.287	234.69
267.52	236.69
267.752	269.69
267.984	267.69
268.216	261.69
268.448	232.69
268.681	212.69
268.913	235.69
269.145	236.69
269.377	238.69
269.609	255.69
269.841	237.69
270.073	269.69
270.306	273.69
270.538	244.69
270.77	260.69
271.002	265.69
271.234	282.69
271.466	271.69
271.698	259.69
271.93	248.69
272.162	272.69
272.394	253.69
272.626	248.69
272.858	253.69
273.09	255.69
273.322	240.69
273.553	227.69
273.785	253.69
274.017	295.69
274.249	349.69
274.481	379.69
274.713	379.69
274.945	434.69
275.176	469.69
275.408	431.69
275.64	387.69
275.872	388.69
276.104	333.69
276.335	337.69
276.567	323.69
276.799	318.69
277.031	319.69
277.262	281.69
277.494	223.69
277.726	237.69
277.957	249.69
278.189	269.69
278.421	268.69
278.652	270.69
278.884	264.69
279.115	219.69
279.347	228.69
279.579	248.69
279.81	235.69
280.042	230.69
280.273	259.69
280.505	224.69
280.736	207.69
280.968	236.69
281.199	224.69
281.431	255.69
281.662	253.69
281.894	230.69
282.125	256.69
282.356	251.69
282.588	279.69
282.819	245.69
283.051	261.69
283.282	291.69
283.513	313.69
283.745	339.69
283.976	375.69
284.207	331.69
284.439	331.69
284.67	349.69
284.901	313.69
285.132	332.69
285.364	354.69
285.595	320.69
285.826	317.69
286.057	327.69
286.288	310.69
286.52	311.69
286.751	351.69
286.982	337.69
287.213	321.69
287.444	320.69
287.675	317.69
287.906	307.69
288.138	271.69
288.369	253.69
288.6	258.69
288.831	258.69
289.062	293.69
289.293	305.69
289.524	287.69
289.755	297.69
289.986	295.69
290.217	281.69
290.448	242.69
290.679	217.69
290.91	203.69
291.141	210.69
291.371	217.69
291.602	219.69
291.833	207.69
292.064	213.69
292.295	251.69
292.526	257.69
292.757	253.69
292.987	275.69
293.218	285.69
293.449	293.69
293.68	308.69
293.91	281.69
294.141	315.69
294.372	283.69
294.603	279.69
294.833	312.69
295.064	333.69
295.295	320.69
295.525	275.69
295.756	226.69
295.987	217.69
296.217	228.69
296.448	229.69
296.679	220.69
296.909	241.69
297.14	258.69
297.37	264.69
297.601	273.69
297.831	238.69
298.062	259.69
298.292	263.69
298.523	258.69
298.753	303.69
298.984	294.69
299.214	248.69
299.445	227.69
299.675	227.69
299.905	226.69
300.136	202.69
300.366	229.69
300.597	220.69
300.827	206.69
301.057	220.69
301.288	225.69
301.518	226.69
301.748	255.69
301.979	273.69
302.209	274.69
302.439	288.69
302.669	242.69
302.9	230.69
303.13	232.69
303.36	218.69
303.59	221.69
303.82	213.69
304.051	242.69
304.281	273.69
304.511	260.69
304.741	257.69
304.971	257.69
305.201	239.69
305.431	256.69
305.661	231.69
305.891	226.69
306.121	210.69
306.352	193.69
306.582	180.69
306.812	208.69
307.042	200.69
307.272	182.69
307.502	185.69
307.731	207.69
307.961	207.69
308.191	192.69
308.421	185.69
308.651	188.69
308.881	181.69
309.111	176.69
309.341	196.69
309.571	195.69
309.8	183.69
310.03	214.69
310.26	200.69
310.49	219.69
310.72	207.69
310.949	198.69
311.179	202.69
311.409	201.69
311.639	216.69
311.868	272.69
312.098	311.69
312.328	325.69
312.557	294.69
312.787	319.69
313.017	296.69
313.246	311.69
313.476	339.69
313.706	290.69
313.935	265.69
314.165	209.69
314.394	208.69
314.624	199.69
314.853	214.69
315.083	213.69
315.312	220.69
315.542	197.69
315.771	219.69
316.001	198.69
316.23	183.69
316.46	203.69
316.689	194.69
316.919	208.69
317.148	205.69
317.377	198.69
317.607	199.69
317.836	204.69
318.065	212.69
318.295	231.69
318.524	245.69
318.753	195.69
318.983	199.69
319.212	196.69
319.441	205.69
319.67	226.69
319.9	222.69
320.129	223.69
320.358	208.69
320.587	211.69
320.816	206.69
321.046	226.69
321.275	239.69
321.504	254.69
321.733	237.69
321.962	225.69
322.191	236.69
322.42	205.69
322.649	227.69
322.878	228.69
323.108	220.69
323.337	207.69
323.566	223.69
323.795	209.69
324.024	210.69
324.253	214.69
324.482	207.69
324.71	233.69
324.939	248.69
325.168	219.69
325.397	211.69
325.626	189.69
325.855	205.69
326.084	212.69
326.313	207.69
326.542	205.69
326.77	198.69
326.999	197.69
327.228	217.69
327.457	205.69
327.686	215.69
327.914	206.69
328.143	183.69
328.372	182.69
328.6	196.69
328.829	188.69
329.058	206.69
329.287	192.69
329.515	200.69
329.744	200.69
329.972	200.69
330.201	205.69
330.43	192.69
330.658	211.69
330.887	204.69
331.115	223.69
331.344	227.69
331.572	200.69
331.801	184.69
332.03	204.69
332.258	196.69
332.486	227.69
332.715	215.69
332.943	204.69
333.172	227.69
333.4	226.69
333.629	233.69
333.857	253.69
334.085	243.69
334.314	233.69
334.542	225.69
334.771	237.69
334.999	207.69
335.227	201.69
335.455	228.69
335.684	224.69
335.912	235.69
336.14	263.69
336.369	244.69
336.597	259.69
336.825	260.69
337.053	275.69
337.281	256.69
337.51	228.69
337.738	206.69
337.966	208.69
338.194	215.69
338.422	227.69
338.65	214.69
338.878	195.69
339.106	200.69
339.334	219.69
339.562	207.69
339.79	217.69
340.018	191.69
340.246	214.69
340.474	236.69
340.702	240.69
340.93	273.69
341.158	252.69
341.386	249.69
341.614	221.69
341.842	227.69
342.07	210.69
342.298	231.69
342.526	264.69
342.754	242.69
342.981	224.69
343.209	210.69
343.437	233.69
343.665	265.69
343.893	250.69
344.12	272.69
344.348	327.69
344.576	299.69
344.804	239.69
345.031	216.69
345.259	215.69
345.487	209.69
345.714	202.69
345.942	239.69
346.17	248.69
346.397	241.69
346.625	199.69
346.853	221.69
347.08	216.69
347.308	211.69
347.535	215.69
347.763	232.69
347.99	215.69
348.218	198.69
348.445	207.69
348.673	193.69
348.9	212.69
349.128	243.69
349.355	219.69
349.583	219.69
349.81	222.69
350.037	211.69
350.265	213.69
350.492	187.69
350.72	191.69
350.947	186.69
351.174	208.69
351.402	207.69
351.629	206.69
351.856	193.69
352.083	185.69
352.311	205.69
352.538	207.69
352.765	233.69
352.992	228.69
353.22	212.69
353.447	224.69
353.674	222.69
353.901	210.69
354.128	215.69
354.355	211.69
354.583	220.69
354.81	217.69
355.037	224.69
355.264	214.69
355.491	211.69
355.718	220.69
355.945	234.69
356.172	232.69
356.399	226.69
356.626	257.69
356.853	303.69
357.08	297.69
357.307	333.69
357.534	260.69
357.761	265.69
357.988	320.69
358.215	370.69
358.441	341.69
358.668	280.69
358.895	291.69
359.122	253.69
359.349	274.69
359.576	271.69
359.802	250.69
360.029	212.69
360.256	219.69
360.483	258.69
360.709	321.69
360.936	314.69
361.163	268.69
361.39	235.69
361.616	228.69
361.843	235.69
362.07	290.69
362.296	271.69
362.523	217.69
362.749	192.69
362.976	197.69
363.203	254.69
363.429	257.69
363.656	228.69
363.882	203.69
364.109	233.69
364.335	204.69
364.562	223.69
364.788	220.69
365.015	267.69
365.241	237.69
365.468	198.69
365.694	199.69
365.92	200.69
366.147	189.69
366.373	196.69
366.599	179.69
366.826	173.69
367.052	193.69
367.278	200.69
367.505	181.69
367.731	204.69
367.957	220.69
368.184	225.69
368.41	220.69
368.636	192.69
368.862	236.69
369.089	216.69
369.315	185.69
369.541	200.69
369.767	204.69
369.993	192.69
370.219	195.69
370.445	199.69
370.672	226.69
370.898	243.69
371.124	235.69
371.35	213.69
371.576	205.69
371.802	224.69
372.028	239.69
372.254	276.69
372.48	247.69
372.706	216.69
372.932	243.69
373.158	259.69
373.384	275.69
373.61	322.69
373.835	361.69
374.061	275.69
374.287	236.69
374.513	284.69
374.739	336.69
374.965	320.69
375.191	324.69
375.416	255.69
375.642	216.69
375.868	251.69
376.094	261.69
376.319	243.69
376.545	247.69
376.771	255.69
376.997	251.69
377.222	209.69
377.448	186.69
377.674	173.69
377.899	200.69
378.125	179.69
378.35	205.69
378.576	205.69
378.802	189.69
379.027	208.69
379.253	207.69
379.478	201.69
379.704	245.69
379.929	235.69
380.155	243.69
380.38	222.69
380.606	221.69
380.831	242.69
381.057	235.69
381.282	228.69
381.507	240.69
381.733	277.69
381.958	293.69
382.184	317.69
382.409	346.69
382.634	316.69
382.86	343.69
383.085	294.69
383.31	250.69
383.535	261.69
383.761	273.69
383.986	250.69
384.211	289.69
384.436	266.69
384.662	222.69
384.887	253.69
385.112	225.69
385.337	227.69
385.562	258.69
385.787	253.69
386.013	285.69
386.238	271.69
386.463	235.69
386.688	222.69
386.913	227.69
387.138	208.69
387.363	214.69
387.588	235.69
387.813	237.69
388.038	257.69
388.263	228.69
388.488	222.69
388.713	259.69
388.938	269.69
389.163	223.69
389.387	198.69
389.612	208.69
389.837	215.69
390.062	224.69
390.287	225.69
390.512	252.69
390.736	218.69
390.961	210.69
391.186	208.69
391.411	212.69
391.636	217.69
391.86	228.69
392.085	231.69
392.31	241.69
392.534	232.69
392.759	237.69
392.984	239.69
393.208	230.69
393.433	219.69
393.658	199.69
393.882	191.69
394.107	210.69
394.331	196.69
394.556	190.69
394.78	214.69
395.005	212.69
395.229	203.69
395.454	200.69
395.678	225.69
395.903	222.69
396.127	204.69
396.352	220.69
396.576	216.69
396.801	231.69
397.025	226.69
397.249	247.69
397.474	235.69
397.698	227.69
397.922	232.69
398.147	214.69
398.371	230.69
398.595	241.69
398.82	237.69
399.044	247.69
399.268	272.69
399.492	262.69
399.717	271.69
399.941	285.69
400.165	279.69
400.389	236.69
400.613	236.69
400.837	237.69
401.062	204.69
401.286	217.69
401.51	220.69
401.734	219.69
401.958	233.69
402.182	223.69
402.406	227.69
402.63	234.69
402.854	235.69
403.078	283.69
403.302	333.69
403.526	367.69
403.75	323.69
403.974	273.69
404.198	291.69
404.422	299.69
404.645	312.69
404.869	328.69
405.093	294.69
405.317	249.69
405.541	261.69
405.765	269.69
405.988	240.69
406.212	262.69
406.436	272.69
406.66	303.69
406.883	276.69
407.107	274.69
407.331	310.69
407.555	287.69
407.778	272.69
408.002	264.69
408.226	273.69
408.449	263.69
408.673	271.69
408.896	250.69
409.12	232.69
409.344	255.69
409.567	239.69
409.791	231.69
410.014	249.69
410.238	221.69
410.461	229.69
410.685	243.69
410.908	242.69
411.132	226.69
411.355	237.69
411.578	228.69
411.802	242.69
412.025	252.69
412.249	230.69
412.472	232.69
412.695	223.69
412.919	230.69
413.142	251.69
413.365	253.69
413.589	262.69
413.812	238.69
414.035	230.69
414.258	227.69
414.482	257.69
414.705	267.69
414.928	228.69
415.151	232.69
415.374	230.69
415.597	230.69
415.821	217.69
416.044	241.69
416.267	207.69
416.49	238.69
416.713	214.69
416.936	222.69
417.159	240.69
417.382	219.69
417.605	224.69
417.828	227.69
418.051	239.69
418.274	231.69
418.497	224.69
418.72	241.69
418.943	228.69
419.166	235.69
419.389	261.69
419.611	254.69
419.834	253.69
420.057	270.69
420.28	254.69
420.503	228.69
420.726	241.69
420.948	216.69
421.171	232.69
421.394	232.69
421.617	236.69
421.839	228.69
422.062	222.69
422.285	241.69
422.507	232.69
422.73	241.69
422.953	261.69
423.175	238.69
423.398	263.69
423.621	240.69
423.843	270.69
424.066	241.69
424.288	244.69
424.511	238.69
424.733	227.69
424.956	237.69
425.178	252.69
425.401	283.69
425.623	356.69
425.846	283.69
426.068	249.69
426.291	256.69
426.513	241.69
426.735	225.69
426.958	244.69
427.18	257.69
427.402	316.69
427.625	320.69
427.847	278.69
428.069	238.69
428.292	239.69
428.514	243.69
428.736	230.69
428.958	248.69
429.181	293.69
429.403	255.69
429.625	224.69
429.847	246.69
430.069	226.69
430.292	237.69
430.514	227.69
430.736	246.69
430.958	259.69
431.18	245.69
431.402	221.69
431.624	211.69
431.846	210.69
432.068	212.69
432.29	215.69
432.512	221.69
432.734	267.69
432.956	281.69
433.178	241.69
433.4	208.69
433.622	216.69
433.844	223.69
434.066	247.69
434.287	247.69
434.509	227.69
434.731	242.69
434.953	240.69
435.175	249.69
435.397	266.69
435.618	239.69
435.84	215.69
436.062	205.69
436.284	219.69
436.505	211.69
436.727	207.69
436.949	219.69
437.17	212.69
437.392	220.69
437.614	213.69
437.835	219.69
438.057	207.69
438.278	240.69
438.5	286.69
438.721	302.69
438.943	232.69
439.165	205.69
439.386	204.69
439.608	206.69
439.829	219.69
440.05	207.69
440.272	215.69
440.493	241.69
440.715	271.69
440.936	252.69
441.158	207.69
441.379	222.69
441.6	228.69
441.822	275.69
442.043	241.69
442.264	224.69
442.486	230.69
442.707	222.69
442.928	246.69
443.149	224.69
443.371	211.69
443.592	211.69
443.813	240.69
444.034	247.69
444.255	243.69
444.476	259.69
444.698	243.69
444.919	245.69
445.14	383.69
445.361	309.69
445.582	252.69
445.803	249.69
446.024	255.69
446.245	236.69
446.466	229.69
446.687	229.69
446.908	228.69
447.129	205.69
447.35	212.69
447.571	210.69
447.792	199.69
448.013	201.69
448.234	200.69
448.455	207.69
448.675	208.69
448.896	212.69
449.117	203.69
449.338	214.69
449.559	208.69
449.779	232.69
450	222.69
450.221	206.69
450.442	197.69
450.662	216.69
450.883	207.69
451.104	208.69
451.324	191.69
451.545	213.69
451.766	216.69
451.986	201.69
452.207	207.69
452.428	201.69
452.648	209.69
452.869	222.69
453.089	216.69
453.31	231.69
453.53	202.69
453.751	196.69
453.971	206.69
454.192	206.69
454.412	202.69
454.633	210.69
454.853	201.69
455.073	183.69
455.294	187.69
455.514	189.69
455.734	212.69
455.955	216.69
456.175	198.69
456.395	206.69
456.616	175.69
456.836	191.69
457.056	200.69
457.276	201.69
457.497	189.69
457.717	195.69
457.937	196.69
458.157	212.69
458.377	188.69
458.598	210.69
458.818	207.69
459.038	219.69
459.258	216.69
459.478	221.69
459.698	229.69
459.918	240.69
460.138	247.69
460.358	228.69
460.578	235.69
460.798	245.69
461.018	223.69
461.238	225.69
461.458	236.69
461.678	217.69
461.898	237.69
462.118	247.69
462.338	248.69
462.558	251.69
462.777	255.69
462.997	289.69
463.217	277.69
463.437	288.69
463.657	254.69
463.876	270.69
464.096	273.69
464.316	276.69
464.536	261.69
464.755	271.69
464.975	291.69
465.195	256.69
465.414	263.69
465.634	239.69
465.854	224.69
466.073	230.69
466.293	223.69
466.512	228.69
466.732	236.69
466.951	244.69
467.171	224.69
467.391	225.69
467.61	218.69
467.829	218.69
468.049	228.69
468.268	223.69
468.488	228.69
468.707	227.69
468.927	232.69
469.146	229.69
469.365	229.69
469.585	229.69
469.804	237.69
470.023	257.69
470.243	242.69
470.462	238.69
470.681	228.69
470.901	215.69
471.12	233.69
471.339	232.69
471.558	209.69
471.777	211.69
471.997	237.69
472.216	250.69
472.435	264.69
472.654	230.69
472.873	220.69
473.092	254.69
473.311	242.69
473.53	226.69
473.749	241.69
473.968	244.69
474.187	223.69
474.406	219.69
474.625	221.69
474.844	222.69
475.063	216.69
475.282	241.69
475.501	232.69
475.72	255.69
475.939	252.69
476.158	235.69
476.377	275.69
476.596	294.69
476.814	296.69
477.033	280.69
477.252	251.69
477.471	221.69
477.69	244.69
477.908	242.69
478.127	254.69
478.346	266.69
478.564	262.69
478.783	259.69
479.002	269.69
479.22	281.69
479.439	278.69
479.658	265.69
479.876	285.69
480.095	263.69
480.313	281.69
480.532	287.69
480.751	271.69
480.969	271.69
481.188	277.69
481.406	289.69
481.624	250.69
481.843	246.69
482.061	253.69
482.28	239.69
482.498	296.69
482.717	283.69
482.935	249.69
483.153	251.69
483.372	251.69
483.59	251.69
483.808	229.69
484.027	239.69
484.245	253.69
484.463	241.69
484.681	254.69
484.9	241.69
485.118	257.69
485.336	255.69
485.554	274.69
485.772	274.69
485.99	289.69
486.209	291.69
486.427	286.69
486.645	279.69
486.863	273.69
487.081	278.69
487.299	288.69
487.517	271.69
487.735	260.69
487.953	281.69
488.171	261.69
488.389	288.69
488.607	253.69
488.825	257.69
489.043	283.69
489.261	294.69
489.479	315.69
489.696	275.69
489.914	265.69
490.132	229.69
490.35	265.69
490.568	261.69
490.786	251.69
491.003	249.69
491.221	248.69
491.439	258.69
491.657	256.69
491.874	265.69
492.092	299.69
492.31	338.69
492.527	342.69
492.745	304.69
492.963	265.69
493.18	270.69
493.398	293.69
493.615	282.69
493.833	275.69
494.05	257.69
494.268	274.69
494.485	273.69
494.703	276.69
494.92	256.69
495.138	272.69
495.355	262.69
495.573	271.69
495.79	295.69
496.008	348.69
496.225	291.69
496.442	274.69
496.66	271.69
496.877	297.69
497.094	312.69
497.312	279.69
497.529	280.69
497.746	290.69
497.963	275.69
498.181	295.69
498.398	335.69
498.615	337.69
498.832	343.69
499.049	364.69
499.267	357.69
499.484	389.69
499.701	403.69
499.918	421.69
500.135	509.69
500.352	520.69
500.569	534.69
500.786	545.69
501.003	519.69
501.22	449.69
501.437	421.69
501.654	399.69
501.871	378.69
502.088	377.69
502.305	342.69
