Data from NickelSpatula.Lamp.E10.P2_HRD10591_12-00-03-524.txt Node
Date: Tue Jul 23 12:00:03 EDT 2019
User: cochatt
Spectrometer: HR+D1059
Trigger mode: 1
Integration Time (sec): 1.000000E-1
Scans to average: 1
Electric dark correction enabled: true
Nonlinearity correction enabled: false
Boxcar width: 0
XAxis mode: Wavelengths
Number of Pixels in Spectrum: 2048
>>>>>Begin Spectral Data<<<<<
223.165	-2.56
223.4	-2.56
223.635	-2.56
223.869	-27.56
224.104	-16.56
224.338	-22.56
224.573	-17.56
224.808	-13.56
225.042	-19.56
225.277	-3.56
225.511	-3.56
225.746	10.44
225.98	10.44
226.215	6.44
226.449	23.44
226.683	26.44
226.918	16.44
227.152	33.44
227.387	39.44
227.621	19.44
227.856	38.44
228.09	31.44
228.324	36.44
228.559	61.44
228.793	92.44
229.027	132.44
229.262	145.44
229.496	171.44
229.73	162.44
229.964	183.44
230.199	201.44
230.433	195.44
230.667	201.44
230.901	212.44
231.136	182.44
231.37	204.44
231.604	231.44
231.838	250.44
232.072	227.44
232.306	251.44
232.541	246.44
232.775	247.44
233.009	261.44
233.243	300.44
233.477	309.44
233.711	347.44
233.945	333.44
234.179	330.44
234.413	339.44
234.647	390.44
234.881	445.44
235.115	437.44
235.349	399.44
235.583	352.44
235.817	361.44
236.051	357.44
236.285	433.44
236.519	477.44
236.753	424.44
236.987	432.44
237.221	407.44
237.455	401.44
237.689	428.44
237.922	468.44
238.156	476.44
238.39	531.44
238.624	659.44
238.858	576.44
239.091	483.44
239.325	541.44
239.559	484.44
239.793	537.44
240.027	639.44
240.26	629.44
240.494	592.44
240.728	604.44
240.961	711.44
241.195	637.44
241.429	633.44
241.662	642.44
241.896	538.44
242.13	501.44
242.363	442.44
242.597	494.44
242.83	539.44
243.064	562.44
243.298	593.44
243.531	621.44
243.765	639.44
243.998	628.44
244.232	589.44
244.465	617.44
244.699	594.44
244.932	661.44
245.166	655.44
245.399	557.44
245.633	560.44
245.866	575.44
246.099	619.44
246.333	733.44
246.566	772.44
246.8	804.44
247.033	767.44
247.266	706.44
247.5	685.44
247.733	672.44
247.966	698.44
248.2	685.44
248.433	766.44
248.666	867.44
248.899	855.44
249.133	882.44
249.366	996.44
249.599	1075.44
249.832	963.44
250.066	816.44
250.299	860.44
250.532	826.44
250.765	821.44
250.998	777.44
251.231	720.44
251.465	787.44
251.698	864.44
251.931	811.44
252.164	860.44
252.397	963.44
252.63	1045.44
252.863	1184.44
253.096	1224.44
253.329	1161.44
253.562	1127.44
253.795	1287.44
254.028	1386.44
254.261	1401.44
254.494	1233.44
254.727	1160.44
254.96	1147.44
255.193	1202.44
255.426	1129.44
255.659	853.44
255.892	789.44
256.124	891.44
256.357	1066.44
256.59	1231.44
256.823	1174.44
257.056	981.44
257.289	932.44
257.521	978.44
257.754	1125.44
257.987	1262.44
258.22	1137.44
258.452	1007.44
258.685	1166.44
258.918	1313.44
259.151	1253.44
259.383	1298.44
259.616	1517.44
259.849	1588.44
260.081	1702.44
260.314	1945.44
260.547	1500.44
260.779	1476.44
261.012	1728.44
261.244	1629.44
261.477	1669.44
261.71	1565.44
261.942	1327.44
262.175	1301.44
262.407	1249.44
262.64	1265.44
262.872	1499.44
263.105	1669.44
263.337	1759.44
263.57	1583.44
263.802	1014.44
264.035	909.44
264.267	854.44
264.499	767.44
264.732	728.44
264.964	716.44
265.197	735.44
265.429	787.44
265.661	817.44
265.894	853.44
266.126	931.44
266.358	1029.44
266.591	1264.44
266.823	1513.44
267.055	1401.44
267.287	1256.44
267.52	1262.44
267.752	1324.44
267.984	1438.44
268.216	1378.44
268.448	1163.44
268.681	1137.44
268.913	1208.44
269.145	1289.44
269.377	1310.44
269.609	1328.44
269.841	1229.44
270.073	1285.44
270.306	1368.44
270.538	1394.44
270.77	1376.44
271.002	1418.44
271.234	1437.44
271.466	1492.44
271.698	1465.44
271.93	1412.44
272.162	1475.44
272.394	1414.44
272.626	1406.44
272.858	1467.44
273.09	1505.44
273.322	1333.44
273.553	1273.44
273.785	1572.44
274.017	2037.44
274.249	2511.44
274.481	2573.44
274.713	2809.44
274.945	3172.44
275.176	3317.44
275.408	2915.44
275.64	2661.44
275.872	2669.44
276.104	2281.44
276.335	1945.44
276.567	1901.44
276.799	2011.44
277.031	2074.44
277.262	1625.44
277.494	1276.44
277.726	1213.44
277.957	1337.44
278.189	1489.44
278.421	1485.44
278.652	1459.44
278.884	1381.44
279.115	1268.44
279.347	1207.44
279.579	1231.44
279.81	1203.44
280.042	1208.44
280.273	1265.44
280.505	1159.44
280.736	1010.44
280.968	1005.44
281.199	1116.44
281.431	1238.44
281.662	1207.44
281.894	1220.44
282.125	1292.44
282.356	1327.44
282.588	1375.44
282.819	1282.44
283.051	1369.44
283.282	1702.44
283.513	1965.44
283.745	2159.44
283.976	2202.44
284.207	1991.44
284.439	2107.44
284.67	2038.44
284.901	1790.44
285.132	2005.44
285.364	2054.44
285.595	1852.44
285.826	1950.44
286.057	2104.44
286.288	1981.44
286.52	2026.44
286.751	2143.44
286.982	2137.44
287.213	1791.44
287.444	1765.44
287.675	1850.44
287.906	1870.44
288.138	1558.44
288.369	1392.44
288.6	1290.44
288.831	1339.44
289.062	1566.44
289.293	1727.44
289.524	1562.44
289.755	1575.44
289.986	1662.44
290.217	1421.44
290.448	1109.44
290.679	977.44
290.91	902.44
291.141	909.44
291.371	990.44
291.602	963.44
291.833	991.44
292.064	1045.44
292.295	1232.44
292.526	1375.44
292.757	1445.44
292.987	1571.44
293.218	1586.44
293.449	1634.44
293.68	1691.44
293.91	1617.44
294.141	1638.44
294.372	1494.44
294.603	1435.44
294.833	1585.44
295.064	1833.44
295.295	1729.44
295.525	1314.44
295.756	1161.44
295.987	1019.44
296.217	1043.44
296.448	1013.44
296.679	1093.44
296.909	1251.44
297.14	1308.44
297.37	1437.44
297.601	1357.44
297.831	1150.44
298.062	1259.44
298.292	1410.44
298.523	1563.44
298.753	1791.44
298.984	1603.44
299.214	1277.44
299.445	1103.44
299.675	1034.44
299.905	1039.44
300.136	1085.44
300.366	1183.44
300.597	1168.44
300.827	1034.44
301.057	1019.44
301.288	1018.44
301.518	1108.44
301.748	1226.44
301.979	1341.44
302.209	1437.44
302.439	1452.44
302.669	1226.44
302.9	1237.44
303.13	1139.44
303.36	1088.44
303.59	1053.44
303.82	1119.44
304.051	1203.44
304.281	1363.44
304.511	1313.44
304.741	1185.44
304.971	1232.44
305.201	1293.44
305.431	1209.44
305.661	1039.44
305.891	1053.44
306.121	1084.44
306.352	951.44
306.582	880.44
306.812	843.44
307.042	865.44
307.272	802.44
307.502	812.44
307.731	887.44
307.961	957.44
308.191	879.44
308.421	797.44
308.651	780.44
308.881	764.44
309.111	803.44
309.341	831.44
309.571	905.44
309.8	915.44
310.03	923.44
310.26	976.44
310.49	1000.44
310.72	868.44
310.949	846.44
311.179	880.44
311.409	923.44
311.639	1135.44
311.868	1392.44
312.098	1778.44
312.328	1972.44
312.557	1842.44
312.787	1885.44
313.017	1687.44
313.246	1813.44
313.476	1995.44
313.706	1645.44
313.935	1321.44
314.165	1013.44
314.394	945.44
314.624	965.44
314.853	1002.44
315.083	1068.44
315.312	1013.44
315.542	1028.44
315.771	949.44
316.001	876.44
316.23	829.44
316.46	835.44
316.689	845.44
316.919	865.44
317.148	869.44
317.377	880.44
317.607	891.44
317.836	951.44
318.065	1114.44
318.295	1234.44
318.524	1127.44
318.753	981.44
318.983	961.44
319.212	913.44
319.441	1005.44
319.67	1137.44
319.9	1201.44
320.129	1115.44
320.358	977.44
320.587	967.44
320.816	1030.44
321.046	1168.44
321.275	1315.44
321.504	1301.44
321.733	1284.44
321.962	1232.44
322.191	1183.44
322.42	1093.44
322.649	1120.44
322.878	1202.44
323.108	1220.44
323.337	1098.44
323.566	1065.44
323.795	1074.44
324.024	1011.44
324.253	964.44
324.482	973.44
324.71	1103.44
324.939	1217.44
325.168	1145.44
325.397	961.44
325.626	942.44
325.855	915.44
326.084	918.44
326.313	861.44
326.542	805.44
326.77	886.44
326.999	948.44
327.228	981.44
327.457	1040.44
327.686	1011.44
327.914	885.44
328.143	844.44
328.372	853.44
328.6	835.44
328.829	873.44
329.058	911.44
329.287	884.44
329.515	884.44
329.744	876.44
329.972	851.44
330.201	813.44
330.43	839.44
330.658	977.44
330.887	1086.44
331.115	1013.44
331.344	997.44
331.572	940.44
331.801	915.44
332.03	862.44
332.258	877.44
332.486	961.44
332.715	969.44
332.943	909.44
333.172	913.44
333.4	906.44
333.629	1030.44
333.857	1113.44
334.085	1091.44
334.314	1102.44
334.542	1057.44
334.771	967.44
334.999	971.44
335.227	934.44
335.455	959.44
335.684	1043.44
335.912	1176.44
336.14	1327.44
336.369	1265.44
336.597	1211.44
336.825	1359.44
337.053	1514.44
337.281	1213.44
337.51	995.44
337.738	984.44
337.966	1057.44
338.194	1195.44
338.422	1125.44
338.65	972.44
338.878	871.44
339.106	925.44
339.334	1021.44
339.562	1087.44
339.79	1035.44
340.018	982.44
340.246	1057.44
340.474	1205.44
340.702	1249.44
340.93	1335.44
341.158	1344.44
341.386	1132.44
341.614	1116.44
341.842	1118.44
342.07	1160.44
342.298	1335.44
342.526	1391.44
342.754	1197.44
342.981	1105.44
343.209	1046.44
343.437	1156.44
343.665	1180.44
343.893	1205.44
344.12	1393.44
344.348	1577.44
344.576	1430.44
344.804	1188.44
345.031	1051.44
345.259	964.44
345.487	1003.44
345.714	1044.44
345.942	1126.44
346.17	1211.44
346.397	1134.44
346.625	973.44
346.853	969.44
347.08	927.44
347.308	992.44
347.535	1117.44
347.763	1129.44
347.99	1003.44
348.218	907.44
348.445	928.44
348.673	961.44
348.9	973.44
349.128	1060.44
349.355	1094.44
349.583	1076.44
349.81	967.44
350.037	943.44
350.265	832.44
350.492	797.44
350.72	819.44
350.947	876.44
351.174	893.44
351.402	940.44
351.629	983.44
351.856	942.44
352.083	889.44
352.311	972.44
352.538	1078.44
352.765	1153.44
352.992	1049.44
353.22	981.44
353.447	978.44
353.674	967.44
353.901	983.44
354.128	962.44
354.355	996.44
354.583	980.44
354.81	1006.44
355.037	1014.44
355.264	994.44
355.491	1089.44
355.718	1161.44
355.945	1125.44
356.172	1101.44
356.399	1099.44
356.626	1360.44
356.853	1618.44
357.08	1709.44
357.307	1757.44
357.534	1376.44
357.761	1384.44
357.988	1757.44
358.215	2080.44
358.441	1972.44
358.668	1614.44
358.895	1513.44
359.122	1222.44
359.349	1216.44
359.576	1333.44
359.802	1072.44
360.029	943.44
360.256	1005.44
360.483	1279.44
360.709	1652.44
360.936	1652.44
361.163	1487.44
361.39	1135.44
361.616	1050.44
361.843	1235.44
362.07	1529.44
362.296	1391.44
362.523	1078.44
362.749	930.44
362.976	1011.44
363.203	1235.44
363.429	1353.44
363.656	1055.44
363.882	1003.44
364.109	1024.44
364.335	998.44
364.562	961.44
364.788	1145.44
365.015	1316.44
365.241	1197.44
365.468	953.44
365.694	841.44
365.92	825.44
366.147	780.44
366.373	783.44
366.599	809.44
366.826	785.44
367.052	840.44
367.278	842.44
367.505	827.44
367.731	911.44
367.957	1014.44
368.184	1058.44
368.41	1017.44
368.636	1043.44
368.862	1058.44
369.089	1014.44
369.315	916.44
369.541	897.44
369.767	873.44
369.993	863.44
370.219	834.44
370.445	907.44
370.672	1035.44
370.898	1100.44
371.124	1101.44
371.35	957.44
371.576	915.44
371.802	969.44
372.028	1182.44
372.254	1326.44
372.48	1132.44
372.706	1063.44
372.932	1092.44
373.158	1157.44
373.384	1395.44
373.61	1849.44
373.835	1880.44
374.061	1372.44
374.287	1199.44
374.513	1420.44
374.739	1665.44
374.965	1735.44
375.191	1664.44
375.416	1161.44
375.642	1044.44
375.868	1248.44
376.094	1370.44
376.319	1161.44
376.545	1328.44
376.771	1371.44
376.997	1145.44
377.222	847.44
377.448	749.44
377.674	747.44
377.899	745.44
378.125	756.44
378.35	758.44
378.576	798.44
378.802	871.44
379.027	944.44
379.253	883.44
379.478	917.44
379.704	1060.44
379.929	1103.44
380.155	1077.44
380.38	952.44
380.606	1023.44
380.831	1118.44
381.057	1015.44
381.282	1006.44
381.507	1171.44
381.733	1439.44
381.958	1579.44
382.184	1666.44
382.409	1728.44
382.634	1655.44
382.86	1791.44
383.085	1437.44
383.31	1132.44
383.535	1246.44
383.761	1235.44
383.986	1178.44
384.211	1403.44
384.436	1359.44
384.662	1054.44
384.887	990.44
385.112	1013.44
385.337	1065.44
385.562	959.44
385.787	1099.44
386.013	1188.44
386.238	1275.44
386.463	1038.44
386.688	973.44
386.913	962.44
387.138	894.44
387.363	990.44
387.588	977.44
387.813	995.44
388.038	1107.44
388.263	1012.44
388.488	950.44
388.713	1134.44
388.938	1246.44
389.163	1011.44
389.387	931.44
389.612	919.44
389.837	948.44
390.062	967.44
390.287	993.44
390.512	1010.44
390.736	938.44
390.961	897.44
391.186	865.44
391.411	849.44
391.636	861.44
391.86	945.44
392.085	1021.44
392.31	994.44
392.534	931.44
392.759	941.44
392.984	971.44
393.208	977.44
393.433	859.44
393.658	815.44
393.882	788.44
394.107	785.44
394.331	789.44
394.556	788.44
394.78	843.44
395.005	855.44
395.229	872.44
395.454	880.44
395.678	867.44
395.903	918.44
396.127	898.44
396.352	915.44
396.576	968.44
396.801	1004.44
397.025	1089.44
397.249	1139.44
397.474	946.44
397.698	949.44
397.922	993.44
398.147	904.44
398.371	911.44
398.595	979.44
398.82	967.44
399.044	921.44
399.268	990.44
399.492	1012.44
399.717	1065.44
399.941	1094.44
400.165	1044.44
400.389	1018.44
400.613	1063.44
400.837	1063.44
401.062	950.44
401.286	903.44
401.51	921.44
401.734	902.44
401.958	930.44
402.182	907.44
402.406	894.44
402.63	939.44
402.854	926.44
403.078	1055.44
403.302	1302.44
403.526	1350.44
403.75	1207.44
403.974	1051.44
404.198	1111.44
404.422	1230.44
404.645	1452.44
404.869	1583.44
405.093	1195.44
405.317	1014.44
405.541	973.44
405.765	1010.44
405.988	1058.44
406.212	1129.44
406.436	1301.44
406.66	1445.44
406.883	1150.44
407.107	1163.44
407.331	1361.44
407.555	1303.44
407.778	1130.44
408.002	1070.44
408.226	1032.44
408.449	1042.44
408.673	992.44
408.896	957.44
409.12	921.44
409.344	899.44
409.567	904.44
409.791	885.44
410.014	919.44
410.238	891.44
410.461	882.44
410.685	892.44
410.908	905.44
411.132	949.44
411.355	936.44
411.578	963.44
411.802	930.44
412.025	1003.44
412.249	994.44
412.472	982.44
412.695	954.44
412.919	948.44
413.142	963.44
413.365	1039.44
413.589	1057.44
413.812	948.44
414.035	917.44
414.258	928.44
414.482	1042.44
414.705	1072.44
414.928	908.44
415.151	886.44
415.374	888.44
415.597	927.44
415.821	947.44
416.044	885.44
416.267	845.44
416.49	861.44
416.713	843.44
416.936	844.44
417.159	835.44
417.382	891.44
417.605	923.44
417.828	910.44
418.051	914.44
418.274	932.44
418.497	962.44
418.72	914.44
418.943	955.44
419.166	1018.44
419.389	1021.44
419.611	1039.44
419.834	1053.44
420.057	1134.44
420.28	1139.44
420.503	1026.44
420.726	908.44
420.948	881.44
421.171	886.44
421.394	899.44
421.617	864.44
421.839	882.44
422.062	951.44
422.285	923.44
422.507	946.44
422.73	947.44
422.953	981.44
423.175	937.44
423.398	929.44
423.621	998.44
423.843	1033.44
424.066	1003.44
424.288	938.44
424.511	913.44
424.733	907.44
424.956	965.44
425.178	1083.44
425.401	1220.44
425.623	1373.44
425.846	1151.44
426.068	1009.44
426.291	1113.44
426.513	985.44
426.735	956.44
426.958	993.44
427.18	1204.44
427.402	1476.44
427.625	1454.44
427.847	1192.44
428.069	919.44
428.292	950.44
428.514	907.44
428.736	859.44
428.958	971.44
429.181	1098.44
429.403	982.44
429.625	882.44
429.847	852.44
430.069	907.44
430.292	926.44
430.514	883.44
430.736	950.44
430.958	1188.44
431.18	1094.44
431.402	850.44
431.624	817.44
431.846	786.44
432.068	818.44
432.29	821.44
432.512	910.44
432.734	1236.44
432.956	1130.44
433.178	871.44
433.4	863.44
433.622	880.44
433.844	901.44
434.066	926.44
434.287	896.44
434.509	883.44
434.731	912.44
434.953	866.44
435.175	926.44
435.397	1048.44
435.618	914.44
435.84	834.44
436.062	833.44
436.284	811.44
436.505	794.44
436.727	803.44
436.949	815.44
437.17	849.44
437.392	843.44
437.614	838.44
437.835	827.44
438.057	833.44
438.278	991.44
438.5	1425.44
438.721	1399.44
438.943	967.44
439.165	816.44
439.386	778.44
439.608	805.44
439.829	790.44
440.05	805.44
440.272	853.44
440.493	987.44
440.715	1249.44
440.936	970.44
441.158	858.44
441.379	858.44
441.6	985.44
441.822	1046.44
442.043	899.44
442.264	877.44
442.486	876.44
442.707	870.44
442.928	876.44
443.149	885.44
443.371	894.44
443.592	953.44
443.813	911.44
444.034	904.44
444.255	937.44
444.476	957.44
444.698	917.44
444.919	938.44
445.14	1071.44
445.361	1032.44
445.582	955.44
445.803	948.44
446.024	923.44
446.245	949.44
446.466	902.44
446.687	868.44
446.908	871.44
447.129	828.44
447.35	812.44
447.571	790.44
447.792	797.44
448.013	795.44
448.234	781.44
448.455	789.44
448.675	802.44
448.896	801.44
449.117	788.44
449.338	801.44
449.559	850.44
449.779	859.44
450	852.44
450.221	845.44
450.442	819.44
450.662	796.44
450.883	815.44
451.104	816.44
451.324	813.44
451.545	845.44
451.766	811.44
451.986	782.44
452.207	779.44
452.428	790.44
452.648	757.44
452.869	831.44
453.089	818.44
453.31	814.44
453.53	749.44
453.751	766.44
453.971	754.44
454.192	800.44
454.412	815.44
454.633	766.44
454.853	774.44
455.073	733.44
455.294	722.44
455.514	773.44
455.734	777.44
455.955	789.44
456.175	834.44
456.395	757.44
456.616	734.44
456.836	712.44
457.056	703.44
457.276	694.44
457.497	697.44
457.717	740.44
457.937	725.44
458.157	759.44
458.377	743.44
458.598	745.44
458.818	763.44
459.038	806.44
459.258	838.44
459.478	849.44
459.698	892.44
459.918	876.44
460.138	903.44
460.358	913.44
460.578	881.44
460.798	900.44
461.018	912.44
461.238	862.44
461.458	883.44
461.678	891.44
461.898	923.44
462.118	906.44
462.338	946.44
462.558	957.44
462.777	999.44
462.997	986.44
463.217	1014.44
463.437	1034.44
463.657	1042.44
463.876	971.44
464.096	957.44
464.316	957.44
464.536	961.44
464.755	1030.44
464.975	1021.44
465.195	959.44
465.414	1006.44
465.634	965.44
465.854	941.44
466.073	878.44
466.293	883.44
466.512	931.44
466.732	1038.44
466.951	1048.44
467.171	934.44
467.391	905.44
467.61	900.44
467.829	939.44
468.049	957.44
468.268	856.44
468.488	864.44
468.707	908.44
468.927	1072.44
469.146	1175.44
469.365	1046.44
469.585	941.44
469.804	1021.44
470.023	1134.44
470.243	974.44
470.462	939.44
470.681	929.44
470.901	930.44
471.12	976.44
471.339	996.44
471.558	914.44
471.777	913.44
471.997	1024.44
472.216	1125.44
472.435	1100.44
472.654	990.44
472.873	959.44
473.092	996.44
473.311	1059.44
473.53	977.44
473.749	931.44
473.968	989.44
474.187	992.44
474.406	959.44
474.625	942.44
474.844	954.44
475.063	1037.44
475.282	1026.44
475.501	1093.44
475.72	1100.44
475.939	1085.44
476.158	1109.44
476.377	1275.44
476.596	1449.44
476.814	1554.44
477.033	1250.44
477.252	1060.44
477.471	987.44
477.69	994.44
477.908	1108.44
478.127	1169.44
478.346	1083.44
478.564	1107.44
478.783	1103.44
479.002	1137.44
479.22	1318.44
479.439	1438.44
479.658	1251.44
479.876	1138.44
480.095	1219.44
480.313	1263.44
480.532	1139.44
480.751	1090.44
480.969	1131.44
481.188	1287.44
481.406	1310.44
481.624	1249.44
481.843	1117.44
482.061	1096.44
482.28	1216.44
482.498	1485.44
482.717	1355.44
482.935	1197.44
483.153	1131.44
483.372	1072.44
483.59	1078.44
483.808	1081.44
484.027	1041.44
484.245	1002.44
484.463	998.44
484.681	1028.44
484.9	1135.44
485.118	1195.44
485.336	1113.44
485.554	1041.44
485.772	1087.44
485.99	1159.44
486.209	1232.44
486.427	1247.44
486.645	1233.44
486.863	1269.44
487.081	1241.44
487.299	1363.44
487.517	1364.44
487.735	1186.44
487.953	1228.44
488.171	1273.44
488.389	1181.44
488.607	1102.44
488.825	1177.44
489.043	1251.44
489.261	1488.44
489.479	1558.44
489.696	1291.44
489.914	1188.44
490.132	1123.44
490.35	1099.44
490.568	1147.44
490.786	1129.44
491.003	1141.44
491.221	1175.44
491.439	1140.44
491.657	1158.44
491.874	1219.44
492.092	1519.44
492.31	1771.44
492.527	1723.44
492.745	1522.44
492.963	1341.44
493.18	1325.44
493.398	1313.44
493.615	1284.44
493.833	1249.44
494.05	1224.44
494.268	1279.44
