Data from NickelSpatula.Lamp.E10.P2_HRD10591_11-58-22-529.txt Node
Date: Tue Jul 23 11:58:22 EDT 2019
User: cochatt
Spectrometer: HR+D1059
Trigger mode: 1
Integration Time (sec): 1.000000E-1
Scans to average: 1
Electric dark correction enabled: true
Nonlinearity correction enabled: false
Boxcar width: 0
XAxis mode: Wavelengths
Number of Pixels in Spectrum: 2048
>>>>>Begin Spectral Data<<<<<
223.165	-16.62
223.4	-16.62
223.635	-16.62
223.869	-24.62
224.104	-23.62
224.338	-17.62
224.573	-10.62
224.808	-18.62
225.042	-6.62
225.277	-4.62
225.511	-16.62
225.746	8.38
225.98	5.38
226.215	12.38
226.449	23.38
226.683	23.38
226.918	34.38
227.152	32.38
227.387	35.38
227.621	35.38
227.856	52.38
228.09	50.38
228.324	58.38
228.559	54.38
228.793	79.38
229.027	126.38
229.262	149.38
229.496	153.38
229.73	162.38
229.964	180.38
230.199	193.38
230.433	203.38
230.667	209.38
230.901	207.38
231.136	187.38
231.37	203.38
231.604	224.38
231.838	242.38
232.072	249.38
232.306	270.38
232.541	241.38
232.775	234.38
233.009	260.38
233.243	290.38
233.477	302.38
233.711	347.38
233.945	341.38
234.179	353.38
234.413	350.38
234.647	380.38
234.881	451.38
235.115	400.38
235.349	394.38
235.583	347.38
235.817	352.38
236.051	370.38
236.285	405.38
236.519	465.38
236.753	424.38
236.987	432.38
237.221	412.38
237.455	432.38
237.689	433.38
237.922	440.38
238.156	465.38
238.39	534.38
238.624	638.38
238.858	543.38
239.091	494.38
239.325	494.38
239.559	482.38
239.793	540.38
240.027	648.38
240.26	587.38
240.494	593.38
240.728	596.38
240.961	703.38
241.195	627.38
241.429	636.38
241.662	624.38
241.896	516.38
242.13	473.38
242.363	469.38
242.597	461.38
242.83	529.38
243.064	500.38
243.298	579.38
243.531	639.38
243.765	629.38
243.998	602.38
244.232	588.38
244.465	598.38
244.699	574.38
244.932	673.38
245.166	649.38
245.399	549.38
245.633	545.38
245.866	549.38
246.099	600.38
246.333	722.38
246.566	779.38
246.8	765.38
247.033	737.38
247.266	666.38
247.5	666.38
247.733	674.38
247.966	655.38
248.2	669.38
248.433	754.38
248.666	804.38
248.899	856.38
249.133	864.38
249.366	1025.38
249.599	1026.38
249.832	943.38
250.066	795.38
250.299	842.38
250.532	806.38
250.765	786.38
250.998	743.38
251.231	699.38
251.465	754.38
251.698	831.38
251.931	804.38
252.164	835.38
252.397	920.38
252.63	1039.38
252.863	1151.38
253.096	1197.38
253.329	1166.38
253.562	1111.38
253.795	1244.38
254.028	1333.38
254.261	1365.38
254.494	1237.38
254.727	1170.38
254.96	1129.38
255.193	1187.38
255.426	1128.38
255.659	849.38
255.892	786.38
256.124	847.38
256.357	999.38
256.59	1169.38
256.823	1141.38
257.056	959.38
257.289	933.38
257.521	961.38
257.754	1119.38
257.987	1275.38
258.22	1097.38
258.452	982.38
258.685	1147.38
258.918	1268.38
259.151	1213.38
259.383	1270.38
259.616	1492.38
259.849	1521.38
260.081	1726.38
260.314	1902.38
260.547	1457.38
260.779	1433.38
261.012	1701.38
261.244	1592.38
261.477	1617.38
261.71	1558.38
261.942	1240.38
262.175	1278.38
262.407	1231.38
262.64	1258.38
262.872	1458.38
263.105	1602.38
263.337	1744.38
263.57	1505.38
263.802	1037.38
264.035	899.38
264.267	862.38
264.499	749.38
264.732	687.38
264.964	682.38
265.197	730.38
265.429	768.38
265.661	819.38
265.894	849.38
266.126	921.38
266.358	1008.38
266.591	1265.38
266.823	1468.38
267.055	1405.38
267.287	1223.38
267.52	1219.38
267.752	1327.38
267.984	1407.38
268.216	1355.38
268.448	1094.38
268.681	1100.38
268.913	1229.38
269.145	1270.38
269.377	1276.38
269.609	1270.38
269.841	1207.38
270.073	1305.38
270.306	1347.38
270.538	1335.38
270.77	1393.38
271.002	1397.38
271.234	1437.38
271.466	1487.38
271.698	1454.38
271.93	1383.38
272.162	1424.38
272.394	1396.38
272.626	1365.38
272.858	1431.38
273.09	1487.38
273.322	1286.38
273.553	1256.38
273.785	1513.38
274.017	1953.38
274.249	2388.38
274.481	2481.38
274.713	2701.38
274.945	3107.38
275.176	3213.38
275.408	2798.38
275.64	2571.38
275.872	2607.38
276.104	2203.38
276.335	1855.38
276.567	1892.38
276.799	1951.38
277.031	2041.38
277.262	1579.38
277.494	1224.38
277.726	1174.38
277.957	1312.38
278.189	1457.38
278.421	1471.38
278.652	1412.38
278.884	1351.38
279.115	1249.38
279.347	1183.38
279.579	1209.38
279.81	1222.38
280.042	1197.38
280.273	1231.38
280.505	1126.38
280.736	1037.38
280.968	1016.38
281.199	1089.38
281.431	1194.38
281.662	1189.38
281.894	1168.38
282.125	1220.38
282.356	1362.38
282.588	1369.38
282.819	1247.38
283.051	1370.38
283.282	1642.38
283.513	1924.38
283.745	2177.38
283.976	2124.38
284.207	1993.38
284.439	2041.38
284.67	1987.38
284.901	1756.38
285.132	1894.38
285.364	1971.38
285.595	1832.38
285.826	1937.38
286.057	1993.38
286.288	1944.38
286.52	1970.38
286.751	2092.38
286.982	2079.38
287.213	1793.38
287.444	1712.38
287.675	1847.38
287.906	1815.38
288.138	1495.38
288.369	1334.38
288.6	1277.38
288.831	1313.38
289.062	1514.38
289.293	1665.38
289.524	1594.38
289.755	1597.38
289.986	1603.38
290.217	1416.38
290.448	1125.38
290.679	963.38
290.91	902.38
291.141	920.38
291.371	948.38
291.602	962.38
291.833	953.38
292.064	1042.38
292.295	1200.38
292.526	1398.38
292.757	1446.38
292.987	1512.38
293.218	1533.38
293.449	1532.38
293.68	1652.38
293.91	1577.38
294.141	1620.38
294.372	1491.38
294.603	1389.38
294.833	1573.38
295.064	1803.38
295.295	1673.38
295.525	1297.38
295.756	1111.38
295.987	982.38
296.217	1005.38
296.448	1036.38
296.679	1075.38
296.909	1192.38
297.14	1315.38
297.37	1425.38
297.601	1331.38
297.831	1124.38
298.062	1279.38
298.292	1447.38
298.523	1547.38
298.753	1762.38
298.984	1570.38
299.214	1237.38
299.445	1069.38
299.675	1014.38
299.905	1024.38
300.136	1056.38
300.366	1159.38
300.597	1142.38
300.827	1019.38
301.057	996.38
301.288	1015.38
301.518	1090.38
301.748	1231.38
301.979	1359.38
302.209	1441.38
302.439	1426.38
302.669	1209.38
302.9	1236.38
303.13	1148.38
303.36	1091.38
303.59	1042.38
303.82	1075.38
304.051	1219.38
304.281	1329.38
304.511	1276.38
304.741	1137.38
304.971	1174.38
305.201	1239.38
305.431	1183.38
305.661	1047.38
305.891	1065.38
306.121	1072.38
306.352	958.38
306.582	879.38
306.812	836.38
307.042	857.38
307.272	834.38
307.502	793.38
307.731	855.38
307.961	900.38
308.191	831.38
308.421	805.38
308.651	795.38
308.881	777.38
309.111	758.38
309.341	797.38
309.571	873.38
309.8	908.38
310.03	952.38
310.26	998.38
310.49	987.38
310.72	862.38
310.949	849.38
311.179	873.38
311.409	918.38
311.639	1091.38
311.868	1347.38
312.098	1758.38
312.328	1935.38
312.557	1837.38
312.787	1914.38
313.017	1647.38
313.246	1785.38
313.476	1966.38
313.706	1560.38
313.935	1266.38
314.165	1030.38
314.394	930.38
314.624	964.38
314.853	1007.38
315.083	1011.38
315.312	1019.38
315.542	1007.38
315.771	930.38
316.001	873.38
316.23	841.38
316.46	826.38
316.689	865.38
316.919	870.38
317.148	891.38
317.377	855.38
317.607	872.38
317.836	945.38
318.065	1124.38
318.295	1221.38
318.524	1147.38
318.753	966.38
318.983	951.38
319.212	885.38
319.441	992.38
319.67	1106.38
319.9	1218.38
320.129	1135.38
320.358	990.38
320.587	932.38
320.816	998.38
321.046	1165.38
321.275	1284.38
321.504	1311.38
321.733	1291.38
321.962	1212.38
322.191	1149.38
322.42	1124.38
322.649	1125.38
322.878	1164.38
323.108	1165.38
323.337	1119.38
323.566	1099.38
323.795	1036.38
324.024	993.38
324.253	968.38
324.482	961.38
324.71	1057.38
324.939	1225.38
325.168	1083.38
325.397	930.38
325.626	915.38
325.855	910.38
326.084	923.38
326.313	849.38
326.542	852.38
326.77	882.38
326.999	893.38
327.228	960.38
327.457	1012.38
327.686	996.38
327.914	888.38
328.143	837.38
328.372	818.38
328.6	838.38
328.829	890.38
329.058	881.38
329.287	861.38
329.515	878.38
329.744	881.38
329.972	847.38
330.201	806.38
330.43	822.38
330.658	925.38
330.887	1071.38
331.115	1011.38
331.344	980.38
331.572	961.38
331.801	864.38
332.03	883.38
332.258	885.38
332.486	946.38
332.715	966.38
332.943	904.38
333.172	898.38
333.4	925.38
333.629	1002.38
333.857	1098.38
334.085	1111.38
334.314	1120.38
334.542	1037.38
334.771	950.38
334.999	897.38
335.227	891.38
335.455	920.38
335.684	970.38
335.912	1191.38
336.14	1323.38
336.369	1249.38
336.597	1225.38
336.825	1361.38
337.053	1526.38
337.281	1199.38
337.51	1011.38
337.738	985.38
337.966	1051.38
338.194	1167.38
338.422	1121.38
338.65	925.38
338.878	874.38
339.106	888.38
339.334	1009.38
339.562	1059.38
339.79	968.38
340.018	950.38
340.246	1008.38
340.474	1194.38
340.702	1256.38
340.93	1326.38
341.158	1283.38
341.386	1097.38
341.614	1105.38
341.842	1083.38
342.07	1142.38
342.298	1310.38
342.526	1395.38
342.754	1160.38
342.981	1098.38
343.209	1053.38
343.437	1125.38
343.665	1187.38
343.893	1181.38
344.12	1380.38
344.348	1566.38
344.576	1429.38
344.804	1179.38
345.031	1008.38
345.259	972.38
345.487	1013.38
345.714	1021.38
345.942	1071.38
346.17	1175.38
346.397	1118.38
346.625	997.38
346.853	959.38
347.08	943.38
347.308	997.38
347.535	1120.38
347.763	1133.38
347.99	994.38
348.218	905.38
348.445	957.38
348.673	993.38
348.9	987.38
349.128	1074.38
349.355	1088.38
349.583	1041.38
349.81	997.38
350.037	937.38
350.265	798.38
350.492	796.38
350.72	789.38
350.947	833.38
351.174	868.38
351.402	962.38
351.629	989.38
351.856	923.38
352.083	891.38
352.311	949.38
352.538	1078.38
352.765	1156.38
352.992	1040.38
353.22	980.38
353.447	989.38
353.674	930.38
353.901	954.38
354.128	965.38
354.355	1019.38
354.583	986.38
354.81	982.38
355.037	1000.38
355.264	995.38
355.491	1066.38
355.718	1170.38
355.945	1136.38
356.172	1098.38
356.399	1063.38
356.626	1322.38
356.853	1641.38
357.08	1727.38
357.307	1757.38
357.534	1330.38
357.761	1378.38
357.988	1711.38
358.215	2047.38
358.441	1933.38
358.668	1608.38
358.895	1515.38
359.122	1183.38
359.349	1144.38
359.576	1313.38
359.802	1083.38
360.029	939.38
360.256	1014.38
360.483	1245.38
360.709	1629.38
360.936	1659.38
361.163	1474.38
361.39	1133.38
361.616	1044.38
361.843	1232.38
362.07	1520.38
362.296	1380.38
362.523	1092.38
362.749	935.38
362.976	990.38
363.203	1183.38
363.429	1354.38
363.656	1081.38
363.882	986.38
364.109	1005.38
364.335	992.38
364.562	961.38
364.788	1113.38
365.015	1314.38
365.241	1176.38
365.468	928.38
365.694	829.38
365.92	824.38
366.147	763.38
366.373	767.38
366.599	793.38
366.826	795.38
367.052	815.38
367.278	824.38
367.505	823.38
367.731	888.38
367.957	1024.38
368.184	1030.38
368.41	1009.38
368.636	1000.38
368.862	1057.38
369.089	999.38
369.315	915.38
369.541	883.38
369.767	847.38
369.993	823.38
370.219	875.38
370.445	921.38
370.672	1016.38
370.898	1093.38
371.124	1086.38
371.35	943.38
371.576	893.38
371.802	968.38
372.028	1155.38
372.254	1309.38
372.48	1104.38
372.706	994.38
372.932	1084.38
373.158	1145.38
373.384	1371.38
373.61	1827.38
373.835	1882.38
374.061	1385.38
374.287	1151.38
374.513	1400.38
374.739	1638.38
374.965	1674.38
375.191	1675.38
375.416	1185.38
375.642	1006.38
375.868	1175.38
376.094	1336.38
376.319	1182.38
376.545	1266.38
376.771	1333.38
376.997	1152.38
377.222	831.38
377.448	735.38
377.674	751.38
377.899	738.38
378.125	732.38
378.35	743.38
378.576	762.38
378.802	873.38
379.027	924.38
379.253	903.38
379.478	908.38
379.704	1057.38
379.929	1060.38
380.155	1077.38
380.38	952.38
380.606	989.38
380.831	1111.38
381.057	1007.38
381.282	982.38
381.507	1151.38
381.733	1482.38
381.958	1535.38
382.184	1623.38
382.409	1673.38
382.634	1674.38
382.86	1741.38
383.085	1432.38
383.31	1122.38
383.535	1227.38
383.761	1209.38
383.986	1164.38
384.211	1381.38
384.436	1376.38
384.662	1030.38
384.887	995.38
385.112	1042.38
385.337	1035.38
385.562	982.38
385.787	1099.38
386.013	1219.38
386.238	1247.38
386.463	1013.38
386.688	990.38
386.913	947.38
387.138	897.38
387.363	965.38
387.588	968.38
387.813	968.38
388.038	1107.38
388.263	973.38
388.488	967.38
388.713	1119.38
388.938	1173.38
389.163	1050.38
389.387	929.38
389.612	918.38
389.837	933.38
390.062	933.38
390.287	998.38
390.512	1011.38
390.736	935.38
390.961	855.38
391.186	829.38
391.411	826.38
391.636	863.38
391.86	927.38
392.085	1001.38
392.31	1001.38
392.534	974.38
392.759	943.38
392.984	1011.38
393.208	964.38
393.433	855.38
393.658	808.38
393.882	758.38
394.107	760.38
394.331	781.38
394.556	812.38
394.78	783.38
395.005	861.38
395.229	877.38
395.454	857.38
395.678	895.38
395.903	921.38
396.127	845.38
396.352	869.38
396.576	981.38
396.801	990.38
397.025	1114.38
397.249	1148.38
397.474	934.38
397.698	913.38
397.922	975.38
398.147	883.38
398.371	915.38
398.595	986.38
398.82	946.38
399.044	943.38
399.268	1015.38
399.492	1019.38
399.717	1044.38
399.941	1071.38
400.165	1058.38
400.389	1035.38
400.613	1053.38
400.837	998.38
401.062	919.38
401.286	931.38
401.51	886.38
401.734	885.38
401.958	886.38
402.182	879.38
402.406	891.38
402.63	886.38
402.854	981.38
403.078	1067.38
403.302	1282.38
403.526	1335.38
403.75	1177.38
403.974	1031.38
404.198	1105.38
404.422	1213.38
404.645	1433.38
404.869	1557.38
405.093	1174.38
405.317	977.38
405.541	962.38
405.765	1031.38
405.988	1011.38
406.212	1107.38
406.436	1295.38
406.66	1387.38
406.883	1132.38
407.107	1179.38
407.331	1357.38
407.555	1319.38
407.778	1081.38
408.002	1082.38
408.226	1068.38
408.449	1023.38
408.673	1003.38
408.896	942.38
409.12	911.38
409.344	909.38
409.567	874.38
409.791	895.38
410.014	901.38
410.238	869.38
410.461	907.38
410.685	913.38
410.908	905.38
411.132	953.38
411.355	921.38
411.578	932.38
411.802	928.38
412.025	978.38
412.249	993.38
412.472	931.38
412.695	968.38
412.919	932.38
413.142	961.38
413.365	1052.38
413.589	1039.38
413.812	945.38
414.035	907.38
414.258	947.38
414.482	1043.38
414.705	1053.38
414.928	905.38
415.151	877.38
415.374	871.38
415.597	923.38
415.821	915.38
416.044	878.38
416.267	854.38
416.49	861.38
416.713	889.38
416.936	851.38
417.159	851.38
417.382	856.38
417.605	906.38
417.828	894.38
418.051	903.38
418.274	911.38
418.497	907.38
418.72	911.38
418.943	963.38
419.166	992.38
419.389	1037.38
419.611	980.38
419.834	988.38
420.057	1143.38
420.28	1127.38
420.503	1044.38
420.726	892.38
420.948	870.38
421.171	871.38
421.394	866.38
421.617	822.38
421.839	883.38
422.062	911.38
422.285	925.38
422.507	926.38
422.73	913.38
422.953	975.38
423.175	921.38
423.398	938.38
423.621	1028.38
423.843	1043.38
424.066	987.38
424.288	907.38
424.511	910.38
424.733	906.38
424.956	961.38
425.178	1077.38
425.401	1204.38
425.623	1386.38
425.846	1149.38
426.068	1011.38
426.291	1147.38
426.513	1041.38
426.735	933.38
426.958	981.38
427.18	1133.38
427.402	1493.38
427.625	1461.38
427.847	1199.38
428.069	895.38
428.292	882.38
428.514	891.38
428.736	878.38
428.958	950.38
429.181	1117.38
429.403	962.38
429.625	891.38
429.847	873.38
430.069	893.38
430.292	902.38
430.514	869.38
430.736	931.38
430.958	1205.38
431.18	1085.38
431.402	856.38
431.624	799.38
431.846	815.38
432.068	785.38
432.29	826.38
432.512	930.38
432.734	1209.38
432.956	1134.38
433.178	865.38
433.4	847.38
433.622	817.38
433.844	867.38
434.066	933.38
434.287	910.38
434.509	868.38
434.731	909.38
434.953	870.38
435.175	925.38
435.397	1013.38
435.618	889.38
435.84	814.38
436.062	829.38
436.284	824.38
436.505	772.38
436.727	793.38
436.949	800.38
437.17	807.38
437.392	843.38
437.614	853.38
437.835	809.38
438.057	838.38
438.278	953.38
438.5	1372.38
438.721	1373.38
438.943	912.38
439.165	794.38
439.386	787.38
439.608	757.38
439.829	781.38
440.05	791.38
440.272	837.38
440.493	985.38
440.715	1222.38
440.936	1002.38
441.158	844.38
441.379	868.38
441.6	967.38
441.822	1033.38
442.043	874.38
442.264	851.38
442.486	869.38
442.707	873.38
442.928	867.38
443.149	885.38
443.371	879.38
443.592	935.38
443.813	894.38
444.034	887.38
444.255	916.38
444.476	946.38
444.698	921.38
444.919	936.38
445.14	1049.38
445.361	1005.38
445.582	971.38
445.803	943.38
446.024	939.38
446.245	921.38
446.466	887.38
446.687	858.38
446.908	889.38
447.129	838.38
447.35	807.38
447.571	785.38
447.792	798.38
448.013	781.38
448.234	769.38
448.455	803.38
448.675	784.38
448.896	820.38
449.117	804.38
449.338	795.38
449.559	815.38
449.779	878.38
450	863.38
450.221	835.38
450.442	821.38
450.662	790.38
450.883	815.38
451.104	807.38
451.324	791.38
451.545	797.38
451.766	794.38
451.986	771.38
452.207	753.38
452.428	782.38
452.648	772.38
452.869	820.38
453.089	826.38
453.31	841.38
453.53	753.38
453.751	763.38
453.971	711.38
454.192	748.38
454.412	771.38
454.633	701.38
454.853	747.38
455.073	710.38
455.294	731.38
455.514	739.38
455.734	754.38
455.955	802.38
456.175	794.38
456.395	731.38
456.616	693.38
456.836	681.38
457.056	719.38
457.276	697.38
457.497	707.38
457.717	752.38
457.937	696.38
458.157	704.38
458.377	742.38
458.598	743.38
458.818	766.38
459.038	814.38
459.258	833.38
459.478	849.38
459.698	893.38
459.918	903.38
460.138	894.38
460.358	903.38
460.578	865.38
460.798	876.38
461.018	885.38
461.238	839.38
461.458	870.38
461.678	879.38
461.898	925.38
462.118	925.38
462.338	933.38
462.558	963.38
462.777	983.38
462.997	1007.38
463.217	1000.38
463.437	1025.38
463.657	1029.38
463.876	983.38
464.096	951.38
464.316	937.38
464.536	992.38
464.755	1007.38
464.975	1029.38
465.195	957.38
465.414	980.38
465.634	957.38
465.854	931.38
466.073	872.38
466.293	842.38
466.512	919.38
466.732	1011.38
466.951	996.38
467.171	919.38
467.391	865.38
467.61	869.38
467.829	937.38
468.049	924.38
468.268	884.38
468.488	874.38
468.707	901.38
468.927	1056.38
469.146	1131.38
469.365	1034.38
469.585	951.38
469.804	1025.38
470.023	1107.38
470.243	986.38
470.462	929.38
470.681	897.38
470.901	931.38
471.12	961.38
471.339	981.38
471.558	901.38
471.777	965.38
471.997	982.38
472.216	1107.38
472.435	1086.38
472.654	977.38
472.873	933.38
473.092	1001.38
473.311	1053.38
473.53	953.38
473.749	921.38
473.968	988.38
474.187	960.38
474.406	949.38
474.625	922.38
474.844	947.38
475.063	1025.38
475.282	1021.38
475.501	1091.38
475.72	1147.38
475.939	1114.38
476.158	1082.38
476.377	1221.38
476.596	1432.38
476.814	1469.38
477.033	1233.38
477.252	1057.38
477.471	981.38
477.69	985.38
477.908	1110.38
478.127	1101.38
478.346	1036.38
478.564	1125.38
478.783	1073.38
479.002	1077.38
479.22	1268.38
479.439	1409.38
479.658	1221.38
479.876	1099.38
480.095	1177.38
480.313	1210.38
480.532	1118.38
480.751	1075.38
480.969	1133.38
481.188	1245.38
481.406	1326.38
481.624	1241.38
481.843	1113.38
482.061	1072.38
482.28	1203.38
482.498	1466.38
482.717	1364.38
482.935	1188.38
483.153	1129.38
483.372	1049.38
483.59	1050.38
483.808	1074.38
484.027	1039.38
484.245	1007.38
484.463	963.38
484.681	1036.38
484.9	1098.38
485.118	1176.38
485.336	1079.38
485.554	1038.38
485.772	1065.38
485.99	1154.38
486.209	1219.38
486.427	1193.38
486.645	1177.38
486.863	1233.38
487.081	1217.38
487.299	1360.38
487.517	1348.38
487.735	1199.38
487.953	1231.38
488.171	1255.38
488.389	1181.38
488.607	1085.38
488.825	1152.38
489.043	1267.38
489.261	1419.38
489.479	1561.38
489.696	1294.38
489.914	1173.38
490.132	1119.38
490.35	1139.38
490.568	1109.38
490.786	1112.38
491.003	1140.38
491.221	1167.38
491.439	1109.38
491.657	1130.38
491.874	1216.38
492.092	1485.38
492.31	1775.38
492.527	1731.38
492.745	1517.38
492.963	1332.38
493.18	1314.38
493.398	1315.38
493.615	1289.38
493.833	1234.38
494.05	1231.38
494.268	1254.38
494.485	1234.38
