Data from NickelSpatula.Lamp.E5.5.P2_HRD10591_11-52-27-555.txt Node
Date: Tue Jul 23 11:52:27 EDT 2019
User: cochatt
Spectrometer: HR+D1059
Trigger mode: 1
Integration Time (sec): 1.000000E-1
Scans to average: 1
Electric dark correction enabled: true
Nonlinearity correction enabled: false
Boxcar width: 0
XAxis mode: Wavelengths
Number of Pixels in Spectrum: 2048
>>>>>Begin Spectral Data<<<<<
223.165	-12.88
223.4	-12.88
223.635	-12.88
223.869	-30.88
224.104	-17.88
224.338	-22.88
224.573	-15.88
224.808	-16.88
225.042	-0.88
225.277	8.12
225.511	-5.88
225.746	2.12
225.98	3.12
226.215	11.12
226.449	18.12
226.683	22.12
226.918	22.12
227.152	37.12
227.387	27.12
227.621	49.12
227.856	43.12
228.09	32.12
228.324	57.12
228.559	52.12
228.793	63.12
229.027	69.12
229.262	82.12
229.496	74.12
229.73	83.12
229.964	90.12
230.199	91.12
230.433	83.12
230.667	96.12
230.901	94.12
231.136	91.12
231.37	107.12
231.604	119.12
231.838	99.12
232.072	104.12
232.306	99.12
232.541	107.12
232.775	123.12
233.009	118.12
233.243	110.12
233.477	116.12
233.711	109.12
233.945	120.12
234.179	117.12
234.413	132.12
234.647	138.12
234.881	167.12
235.115	160.12
235.349	145.12
235.583	123.12
235.817	135.12
236.051	137.12
236.285	132.12
236.519	159.12
236.753	146.12
236.987	144.12
237.221	123.12
237.455	145.12
237.689	144.12
237.922	135.12
238.156	150.12
238.39	150.12
238.624	178.12
238.858	169.12
239.091	156.12
239.325	147.12
239.559	146.12
239.793	169.12
240.027	199.12
240.26	167.12
240.494	169.12
240.728	168.12
240.961	190.12
241.195	185.12
241.429	194.12
241.662	182.12
241.896	150.12
242.13	148.12
242.363	145.12
242.597	143.12
242.83	163.12
243.064	166.12
243.298	178.12
243.531	186.12
243.765	197.12
243.998	187.12
244.232	182.12
244.465	195.12
244.699	181.12
244.932	196.12
245.166	177.12
245.399	176.12
245.633	157.12
245.866	162.12
246.099	172.12
246.333	195.12
246.566	216.12
246.8	212.12
247.033	214.12
247.266	175.12
247.5	178.12
247.733	189.12
247.966	183.12
248.2	199.12
248.433	209.12
248.666	225.12
248.899	209.12
249.133	220.12
249.366	235.12
249.599	252.12
249.832	225.12
250.066	214.12
250.299	209.12
250.532	213.12
250.765	214.12
250.998	203.12
251.231	178.12
251.465	204.12
251.698	225.12
251.931	216.12
252.164	212.12
252.397	238.12
252.63	267.12
252.863	265.12
253.096	279.12
253.329	278.12
253.562	277.12
253.795	306.12
254.028	332.12
254.261	340.12
254.494	306.12
254.727	285.12
254.96	293.12
255.193	292.12
255.426	289.12
255.659	225.12
255.892	208.12
256.124	211.12
256.357	261.12
256.59	299.12
256.823	289.12
257.056	250.12
257.289	242.12
257.521	242.12
257.754	300.12
257.987	326.12
258.22	283.12
258.452	261.12
258.685	290.12
258.918	288.12
259.151	296.12
259.383	326.12
259.616	376.12
259.849	388.12
260.081	414.12
260.314	422.12
260.547	363.12
260.779	352.12
261.012	419.12
261.244	395.12
261.477	398.12
261.71	371.12
261.942	316.12
262.175	316.12
262.407	284.12
262.64	323.12
262.872	377.12
263.105	385.12
263.337	393.12
263.57	372.12
263.802	265.12
264.035	236.12
264.267	256.12
264.499	210.12
264.732	190.12
264.964	182.12
265.197	172.12
265.429	212.12
265.661	210.12
265.894	224.12
266.126	234.12
266.358	251.12
266.591	314.12
266.823	374.12
267.055	360.12
267.287	304.12
267.52	314.12
267.752	336.12
267.984	342.12
268.216	353.12
268.448	287.12
268.681	267.12
268.913	296.12
269.145	310.12
269.377	315.12
269.609	317.12
269.841	295.12
270.073	311.12
270.306	344.12
270.538	341.12
270.77	355.12
271.002	334.12
271.234	369.12
271.466	358.12
271.698	350.12
271.93	332.12
272.162	330.12
272.394	330.12
272.626	302.12
272.858	322.12
273.09	344.12
273.322	322.12
273.553	290.12
273.785	329.12
274.017	447.12
274.249	542.12
274.481	540.12
274.713	584.12
274.945	669.12
275.176	715.12
275.408	628.12
275.64	586.12
275.872	577.12
276.104	487.12
276.335	431.12
276.567	441.12
276.799	438.12
277.031	496.12
277.262	386.12
277.494	304.12
277.726	299.12
277.957	302.12
278.189	342.12
278.421	327.12
278.652	334.12
278.884	308.12
279.115	306.12
279.347	293.12
279.579	292.12
279.81	314.12
280.042	299.12
280.273	310.12
280.505	286.12
280.736	249.12
280.968	250.12
281.199	288.12
281.431	303.12
281.662	283.12
281.894	297.12
282.125	302.12
282.356	320.12
282.588	310.12
282.819	299.12
283.051	322.12
283.282	404.12
283.513	447.12
283.745	486.12
283.976	479.12
284.207	443.12
284.439	478.12
284.67	467.12
284.901	411.12
285.132	437.12
285.364	440.12
285.595	423.12
285.826	446.12
286.057	439.12
286.288	434.12
286.52	448.12
286.751	467.12
286.982	470.12
287.213	403.12
287.444	425.12
287.675	457.12
287.906	414.12
288.138	348.12
288.369	334.12
288.6	296.12
288.831	336.12
289.062	378.12
289.293	410.12
289.524	396.12
289.755	377.12
289.986	383.12
290.217	356.12
290.448	276.12
290.679	234.12
290.91	224.12
291.141	216.12
291.371	231.12
291.602	261.12
291.833	243.12
292.064	261.12
292.295	281.12
292.526	318.12
292.757	333.12
292.987	354.12
293.218	374.12
293.449	384.12
293.68	430.12
293.91	386.12
294.141	410.12
294.372	377.12
294.603	348.12
294.833	359.12
295.064	440.12
295.295	428.12
295.525	323.12
295.756	298.12
295.987	242.12
296.217	244.12
296.448	261.12
296.679	238.12
296.909	282.12
297.14	322.12
297.37	343.12
297.601	312.12
297.831	275.12
298.062	284.12
298.292	332.12
298.523	357.12
298.753	386.12
298.984	375.12
299.214	329.12
299.445	256.12
299.675	250.12
299.905	262.12
300.136	250.12
300.366	272.12
300.597	286.12
300.827	269.12
301.057	240.12
301.288	257.12
301.518	260.12
301.748	299.12
301.979	314.12
302.209	320.12
302.439	320.12
302.669	290.12
302.9	290.12
303.13	271.12
303.36	264.12
303.59	256.12
303.82	274.12
304.051	299.12
304.281	342.12
304.511	323.12
304.741	289.12
304.971	283.12
305.201	318.12
305.431	304.12
305.661	263.12
305.891	267.12
306.121	264.12
306.352	230.12
306.582	229.12
306.812	227.12
307.042	213.12
307.272	198.12
307.502	203.12
307.731	239.12
307.961	230.12
308.191	214.12
308.421	212.12
308.651	209.12
308.881	207.12
309.111	198.12
309.341	183.12
309.571	217.12
309.8	225.12
310.03	232.12
310.26	243.12
310.49	244.12
310.72	210.12
310.949	206.12
311.179	228.12
311.409	227.12
311.639	240.12
311.868	323.12
312.098	414.12
312.328	428.12
312.557	406.12
312.787	416.12
313.017	384.12
313.246	388.12
313.476	458.12
313.706	390.12
313.935	292.12
314.165	274.12
314.394	261.12
314.624	232.12
314.853	258.12
315.083	244.12
315.312	245.12
315.542	228.12
315.771	236.12
316.001	206.12
316.23	225.12
316.46	217.12
316.689	209.12
316.919	198.12
317.148	208.12
317.377	212.12
317.607	223.12
317.836	226.12
318.065	250.12
318.295	296.12
318.524	261.12
318.753	235.12
318.983	217.12
319.212	234.12
319.441	239.12
319.67	250.12
319.9	289.12
320.129	264.12
320.358	218.12
320.587	225.12
320.816	221.12
321.046	258.12
321.275	294.12
321.504	294.12
321.733	275.12
321.962	266.12
322.191	267.12
322.42	264.12
322.649	263.12
322.878	271.12
323.108	290.12
323.337	262.12
323.566	254.12
323.795	261.12
324.024	268.12
324.253	245.12
324.482	231.12
324.71	266.12
324.939	270.12
325.168	271.12
325.397	227.12
325.626	225.12
325.855	226.12
326.084	230.12
326.313	230.12
326.542	216.12
326.77	225.12
326.999	243.12
327.228	237.12
327.457	232.12
327.686	256.12
327.914	219.12
328.143	220.12
328.372	219.12
328.6	193.12
328.829	204.12
329.058	195.12
329.287	212.12
329.515	222.12
329.744	216.12
329.972	205.12
330.201	206.12
330.43	214.12
330.658	241.12
330.887	250.12
331.115	239.12
331.344	234.12
331.572	244.12
331.801	232.12
332.03	197.12
332.258	233.12
332.486	231.12
332.715	241.12
332.943	233.12
333.172	252.12
333.4	244.12
333.629	263.12
333.857	267.12
334.085	253.12
334.314	260.12
334.542	245.12
334.771	252.12
334.999	238.12
335.227	238.12
335.455	243.12
335.684	252.12
335.912	289.12
336.14	322.12
336.369	308.12
336.597	286.12
336.825	310.12
337.053	356.12
337.281	280.12
337.51	257.12
337.738	242.12
337.966	252.12
338.194	263.12
338.422	261.12
338.65	233.12
338.878	220.12
339.106	217.12
339.334	253.12
339.562	269.12
339.79	248.12
340.018	217.12
340.246	250.12
340.474	289.12
340.702	286.12
340.93	292.12
341.158	306.12
341.386	263.12
341.614	254.12
341.842	247.12
342.07	260.12
342.298	290.12
342.526	321.12
342.754	274.12
342.981	268.12
343.209	233.12
343.437	273.12
343.665	276.12
343.893	296.12
344.12	322.12
344.348	382.12
344.576	332.12
344.804	273.12
345.031	250.12
345.259	223.12
345.487	242.12
345.714	238.12
345.942	258.12
346.17	286.12
346.397	281.12
346.625	233.12
346.853	236.12
347.08	225.12
347.308	244.12
347.535	272.12
347.763	281.12
347.99	262.12
348.218	239.12
348.445	252.12
348.673	244.12
348.9	239.12
349.128	264.12
349.355	254.12
349.583	245.12
349.81	242.12
350.037	248.12
350.265	201.12
350.492	194.12
350.72	189.12
350.947	213.12
351.174	231.12
351.402	238.12
351.629	235.12
351.856	215.12
352.083	202.12
352.311	230.12
352.538	255.12
352.765	260.12
352.992	251.12
353.22	219.12
353.447	248.12
353.674	235.12
353.901	225.12
354.128	245.12
354.355	226.12
354.583	239.12
354.81	230.12
355.037	250.12
355.264	213.12
355.491	256.12
355.718	256.12
355.945	269.12
356.172	234.12
356.399	266.12
356.626	298.12
356.853	348.12
357.08	360.12
357.307	385.12
357.534	317.12
357.761	306.12
357.988	408.12
358.215	436.12
358.441	421.12
358.668	363.12
358.895	341.12
359.122	285.12
359.349	299.12
359.576	331.12
359.802	283.12
360.029	231.12
360.256	239.12
360.483	293.12
360.709	333.12
360.936	375.12
361.163	299.12
361.39	263.12
361.616	266.12
361.843	275.12
362.07	332.12
362.296	295.12
362.523	242.12
362.749	216.12
362.976	225.12
363.203	265.12
363.429	308.12
363.656	249.12
363.882	236.12
364.109	232.12
364.335	250.12
364.562	245.12
364.788	247.12
365.015	298.12
365.241	286.12
365.468	234.12
365.694	208.12
365.92	208.12
366.147	213.12
366.373	213.12
366.599	204.12
366.826	208.12
367.052	200.12
367.278	191.12
367.505	204.12
367.731	223.12
367.957	230.12
368.184	251.12
368.41	225.12
368.636	230.12
368.862	244.12
369.089	244.12
369.315	229.12
369.541	219.12
369.767	223.12
369.993	209.12
370.219	206.12
370.445	223.12
370.672	241.12
370.898	271.12
371.124	274.12
371.35	256.12
371.576	216.12
371.802	235.12
372.028	258.12
372.254	314.12
372.48	267.12
372.706	255.12
372.932	243.12
373.158	261.12
373.384	294.12
373.61	386.12
373.835	417.12
374.061	326.12
374.287	267.12
374.513	317.12
374.739	373.12
374.965	371.12
375.191	376.12
375.416	268.12
375.642	234.12
375.868	294.12
376.094	315.12
376.319	278.12
376.545	302.12
376.771	303.12
376.997	276.12
377.222	218.12
377.448	212.12
377.674	199.12
377.899	183.12
378.125	202.12
378.35	200.12
378.576	193.12
378.802	225.12
379.027	249.12
379.253	240.12
379.478	224.12
379.704	225.12
379.929	240.12
380.155	261.12
380.38	219.12
380.606	234.12
380.831	270.12
381.057	251.12
381.282	224.12
381.507	282.12
381.733	322.12
381.958	322.12
382.184	358.12
382.409	374.12
382.634	371.12
382.86	389.12
383.085	321.12
383.31	265.12
383.535	293.12
383.761	291.12
383.986	284.12
384.211	300.12
384.436	318.12
384.662	263.12
384.887	238.12
385.112	247.12
385.337	266.12
385.562	258.12
385.787	277.12
386.013	282.12
386.238	296.12
386.463	234.12
386.688	239.12
386.913	227.12
387.138	231.12
387.363	241.12
387.588	252.12
387.813	246.12
388.038	270.12
388.263	242.12
388.488	240.12
388.713	266.12
388.938	270.12
389.163	265.12
389.387	231.12
389.612	225.12
389.837	259.12
390.062	258.12
390.287	247.12
390.512	248.12
390.736	240.12
390.961	227.12
391.186	222.12
391.411	204.12
391.636	207.12
391.86	225.12
392.085	256.12
392.31	259.12
392.534	248.12
392.759	227.12
392.984	263.12
393.208	249.12
393.433	209.12
393.658	207.12
393.882	214.12
394.107	210.12
394.331	198.12
394.556	223.12
394.78	228.12
395.005	205.12
395.229	222.12
395.454	223.12
395.678	225.12
395.903	234.12
396.127	219.12
396.352	199.12
396.576	242.12
396.801	238.12
397.025	271.12
397.249	268.12
397.474	245.12
397.698	232.12
397.922	258.12
398.147	238.12
398.371	207.12
398.595	250.12
398.82	237.12
399.044	244.12
399.268	256.12
399.492	293.12
399.717	272.12
399.941	289.12
400.165	265.12
400.389	268.12
400.613	255.12
400.837	258.12
401.062	231.12
401.286	223.12
401.51	233.12
401.734	233.12
401.958	217.12
402.182	259.12
402.406	235.12
402.63	228.12
402.854	265.12
403.078	306.12
403.302	374.12
403.526	391.12
403.75	330.12
403.974	267.12
404.198	301.12
404.422	337.12
404.645	343.12
404.869	377.12
405.093	317.12
405.317	252.12
405.541	250.12
405.765	255.12
405.988	263.12
406.212	285.12
406.436	304.12
406.66	347.12
406.883	291.12
407.107	305.12
407.331	334.12
407.555	316.12
407.778	279.12
408.002	274.12
408.226	278.12
408.449	263.12
408.673	266.12
408.896	254.12
409.12	232.12
409.344	244.12
409.567	228.12
409.791	254.12
410.014	239.12
410.238	257.12
410.461	256.12
410.685	238.12
410.908	260.12
411.132	232.12
411.355	248.12
411.578	247.12
411.802	232.12
412.025	233.12
412.249	248.12
412.472	262.12
412.695	247.12
412.919	245.12
413.142	254.12
413.365	246.12
413.589	248.12
413.812	244.12
414.035	235.12
414.258	239.12
414.482	257.12
414.705	254.12
414.928	236.12
415.151	221.12
415.374	218.12
415.597	230.12
415.821	233.12
416.044	216.12
416.267	221.12
416.49	225.12
416.713	238.12
416.936	233.12
417.159	216.12
417.382	234.12
417.605	227.12
417.828	240.12
418.051	242.12
418.274	237.12
418.497	257.12
418.72	248.12
418.943	245.12
419.166	256.12
419.389	250.12
419.611	250.12
419.834	258.12
420.057	278.12
420.28	263.12
420.503	280.12
420.726	240.12
420.948	235.12
421.171	232.12
421.394	244.12
421.617	234.12
421.839	219.12
422.062	233.12
422.285	232.12
422.507	236.12
422.73	252.12
422.953	233.12
423.175	263.12
423.398	231.12
423.621	256.12
423.843	260.12
424.066	263.12
424.288	235.12
424.511	254.12
424.733	244.12
424.956	269.12
425.178	267.12
425.401	307.12
425.623	376.12
425.846	312.12
426.068	264.12
426.291	280.12
426.513	264.12
426.735	247.12
426.958	242.12
427.18	277.12
427.402	331.12
427.625	402.12
427.847	324.12
428.069	247.12
428.292	240.12
428.514	229.12
428.736	238.12
428.958	242.12
429.181	317.12
429.403	276.12
429.625	236.12
429.847	249.12
430.069	212.12
430.292	226.12
430.514	215.12
430.736	231.12
430.958	283.12
431.18	274.12
431.402	221.12
431.624	216.12
431.846	216.12
432.068	222.12
432.29	221.12
432.512	243.12
432.734	297.12
432.956	290.12
433.178	227.12
433.4	232.12
433.622	223.12
433.844	240.12
434.066	264.12
434.287	253.12
434.509	235.12
434.731	255.12
434.953	218.12
435.175	246.12
435.397	295.12
435.618	256.12
435.84	248.12
436.062	233.12
436.284	218.12
436.505	217.12
436.727	210.12
436.949	233.12
437.17	209.12
437.392	236.12
437.614	207.12
437.835	220.12
438.057	232.12
438.278	238.12
438.5	329.12
438.721	336.12
438.943	236.12
439.165	218.12
439.386	211.12
439.608	234.12
439.829	210.12
440.05	222.12
440.272	235.12
440.493	255.12
440.715	292.12
440.936	251.12
441.158	233.12
441.379	225.12
441.6	242.12
441.822	268.12
442.043	236.12
442.264	256.12
442.486	258.12
442.707	234.12
442.928	232.12
443.149	240.12
443.371	228.12
443.592	224.12
443.813	247.12
444.034	235.12
444.255	259.12
444.476	235.12
444.698	258.12
444.919	250.12
445.14	356.12
445.361	314.12
445.582	251.12
445.803	257.12
446.024	257.12
446.245	244.12
446.466	240.12
446.687	238.12
446.908	224.12
447.129	227.12
447.35	222.12
447.571	211.12
447.792	223.12
448.013	191.12
448.234	210.12
448.455	199.12
448.675	210.12
448.896	219.12
449.117	226.12
449.338	221.12
449.559	229.12
449.779	220.12
450	246.12
450.221	212.12
450.442	230.12
450.662	219.12
450.883	227.12
451.104	214.12
451.324	234.12
451.545	230.12
451.766	231.12
451.986	222.12
452.207	211.12
452.428	214.12
452.648	215.12
452.869	210.12
453.089	217.12
453.31	211.12
453.53	201.12
453.751	222.12
453.971	212.12
454.192	214.12
454.412	223.12
454.633	215.12
454.853	210.12
455.073	203.12
455.294	195.12
455.514	205.12
455.734	208.12
455.955	211.12
456.175	202.12
456.395	229.12
456.616	198.12
456.836	203.12
457.056	189.12
457.276	203.12
457.497	194.12
457.717	194.12
457.937	192.12
458.157	211.12
458.377	194.12
458.598	202.12
458.818	219.12
459.038	219.12
459.258	220.12
459.478	242.12
459.698	233.12
459.918	241.12
460.138	260.12
460.358	245.12
460.578	238.12
460.798	233.12
461.018	226.12
461.238	241.12
461.458	240.12
461.678	229.12
461.898	258.12
462.118	244.12
462.338	279.12
462.558	273.12
462.777	280.12
462.997	285.12
463.217	288.12
463.437	303.12
463.657	297.12
463.876	282.12
464.096	278.12
464.316	274.12
464.536	277.12
464.755	298.12
464.975	273.12
465.195	278.12
465.414	266.12
465.634	234.12
465.854	240.12
466.073	217.12
466.293	238.12
466.512	253.12
466.732	272.12
466.951	269.12
467.171	244.12
467.391	242.12
467.61	224.12
467.829	238.12
468.049	245.12
468.268	224.12
468.488	217.12
468.707	240.12
468.927	269.12
469.146	290.12
469.365	265.12
469.585	250.12
469.804	251.12
470.023	272.12
470.243	255.12
470.462	240.12
470.681	258.12
470.901	229.12
471.12	246.12
471.339	254.12
471.558	256.12
471.777	250.12
471.997	259.12
472.216	268.12
472.435	266.12
472.654	249.12
472.873	248.12
473.092	244.12
473.311	262.12
473.53	254.12
473.749	234.12
473.968	256.12
474.187	236.12
474.406	235.12
474.625	216.12
474.844	223.12
475.063	247.12
475.282	249.12
475.501	278.12
475.72	283.12
475.939	269.12
476.158	264.12
476.377	320.12
476.596	333.12
476.814	379.12
477.033	308.12
477.252	273.12
477.471	273.12
477.69	250.12
477.908	261.12
478.127	289.12
478.346	277.12
478.564	293.12
478.783	274.12
479.002	296.12
479.22	318.12
479.439	344.12
479.658	313.12
479.876	287.12
480.095	303.12
480.313	312.12
480.532	285.12
480.751	278.12
480.969	276.12
481.188	308.12
481.406	321.12
481.624	310.12
481.843	274.12
482.061	277.12
482.28	303.12
482.498	371.12
482.717	354.12
482.935	282.12
483.153	267.12
483.372	258.12
483.59	276.12
483.808	242.12
484.027	252.12
484.245	244.12
484.463	255.12
484.681	255.12
484.9	273.12
485.118	294.12
485.336	283.12
485.554	272.12
485.772	283.12
485.99	297.12
486.209	308.12
486.427	323.12
486.645	298.12
486.863	310.12
487.081	303.12
487.299	323.12
487.517	307.12
487.735	289.12
487.953	294.12
488.171	298.12
488.389	291.12
488.607	262.12
488.825	286.12
489.043	299.12
489.261	312.12
489.479	346.12
489.696	307.12
489.914	286.12
490.132	257.12
490.35	285.12
490.568	266.12
490.786	269.12
491.003	297.12
491.221	259.12
491.439	288.12
491.657	270.12
491.874	306.12
492.092	329.12
492.31	370.12
492.527	384.12
492.745	354.12
492.963	302.12
493.18	296.12
493.398	304.12
493.615	306.12
493.833	307.12
494.05	298.12
494.268	294.12
494.485	291.12
494.703	302.12
494.92	302.12
495.138	283.12
495.355	291.12
495.573	288.12
495.79	312.12
496.008	396.12
496.225	337.12
496.442	308.12
496.66	326.12
496.877	319.12
497.094	326.12
497.312	286.12
497.529	299.12
497.746	309.12
497.963	337.12
498.181	356.12
498.398	375.12
498.615	374.12
498.832	394.12
499.049	414.12
499.267	375.12
499.484	390.12
499.701	408.12
499.918	454.12
500.135	511.12
500.352	510.12
500.569	552.12
500.786	551.12
501.003	538.12
501.22	503.12
501.437	438.12
501.654	397.12
501.871	397.12
502.088	381.12
502.305	347.12
502.522	346.12
