Data from NickelSpatula.Lamp.E5.5.P2_HRD10591_11-53-26-549.txt Node
Date: Tue Jul 23 11:53:26 EDT 2019
User: cochatt
Spectrometer: HR+D1059
Trigger mode: 1
Integration Time (sec): 1.000000E-1
Scans to average: 1
Electric dark correction enabled: true
Nonlinearity correction enabled: false
Boxcar width: 0
XAxis mode: Wavelengths
Number of Pixels in Spectrum: 2048
>>>>>Begin Spectral Data<<<<<
223.165	-2.75
223.4	-2.75
223.635	-2.75
223.869	-20.75
224.104	-22.75
224.338	-21.75
224.573	-6.75
224.808	-13.75
225.042	-13.75
225.277	3.25
225.511	-7.75
225.746	9.25
225.98	10.25
226.215	15.25
226.449	16.25
226.683	6.25
226.918	22.25
227.152	27.25
227.387	47.25
227.621	42.25
227.856	46.25
228.09	43.25
228.324	41.25
228.559	54.25
228.793	63.25
229.027	72.25
229.262	91.25
229.496	88.25
229.73	97.25
229.964	96.25
230.199	97.25
230.433	101.25
230.667	98.25
230.901	95.25
231.136	117.25
231.37	104.25
231.604	92.25
231.838	93.25
232.072	107.25
232.306	111.25
232.541	88.25
232.775	93.25
233.009	99.25
233.243	103.25
233.477	118.25
233.711	113.25
233.945	122.25
234.179	114.25
234.413	115.25
234.647	123.25
234.881	139.25
235.115	139.25
235.349	130.25
235.583	120.25
235.817	104.25
236.051	132.25
236.285	130.25
236.519	137.25
236.753	127.25
236.987	136.25
237.221	120.25
237.455	136.25
237.689	139.25
237.922	146.25
238.156	145.25
238.39	148.25
238.624	165.25
238.858	164.25
239.091	162.25
239.325	157.25
239.559	138.25
239.793	150.25
240.027	174.25
240.26	136.25
240.494	154.25
240.728	144.25
240.961	170.25
241.195	161.25
241.429	167.25
241.662	165.25
241.896	154.25
242.13	133.25
242.363	133.25
242.597	150.25
242.83	155.25
243.064	141.25
243.298	171.25
243.531	167.25
243.765	165.25
243.998	167.25
244.232	171.25
244.465	148.25
244.699	170.25
244.932	156.25
245.166	169.25
245.399	158.25
245.633	155.25
245.866	161.25
246.099	148.25
246.333	182.25
246.566	184.25
246.8	178.25
247.033	186.25
247.266	172.25
247.5	166.25
247.733	170.25
247.966	155.25
248.2	169.25
248.433	178.25
248.666	216.25
248.899	202.25
249.133	192.25
249.366	228.25
249.599	235.25
249.832	205.25
250.066	200.25
250.299	198.25
250.532	185.25
250.765	196.25
250.998	169.25
251.231	182.25
251.465	168.25
251.698	195.25
251.931	197.25
252.164	204.25
252.397	196.25
252.63	220.25
252.863	257.25
253.096	274.25
253.329	255.25
253.562	240.25
253.795	267.25
254.028	278.25
254.261	282.25
254.494	272.25
254.727	245.25
254.96	219.25
255.193	265.25
255.426	238.25
255.659	209.25
255.892	194.25
256.124	215.25
256.357	223.25
256.59	264.25
256.823	264.25
257.056	216.25
257.289	202.25
257.521	182.25
257.754	256.25
257.987	286.25
258.22	257.25
258.452	239.25
258.685	241.25
258.918	283.25
259.151	270.25
259.383	283.25
259.616	318.25
259.849	339.25
260.081	343.25
260.314	371.25
260.547	317.25
260.779	308.25
261.012	358.25
261.244	328.25
261.477	312.25
261.71	302.25
261.942	275.25
262.175	282.25
262.407	272.25
262.64	272.25
262.872	288.25
263.105	340.25
263.337	368.25
263.57	323.25
263.802	243.25
264.035	211.25
264.267	211.25
264.499	195.25
264.732	198.25
264.964	178.25
265.197	175.25
265.429	186.25
265.661	203.25
265.894	207.25
266.126	216.25
266.358	230.25
266.591	262.25
266.823	327.25
267.055	291.25
267.287	263.25
267.52	254.25
267.752	278.25
267.984	295.25
268.216	293.25
268.448	266.25
268.681	260.25
268.913	262.25
269.145	269.25
269.377	264.25
269.609	291.25
269.841	261.25
270.073	279.25
270.306	290.25
270.538	299.25
270.77	293.25
271.002	310.25
271.234	307.25
271.466	305.25
271.698	297.25
271.93	293.25
272.162	292.25
272.394	281.25
272.626	301.25
272.858	292.25
273.09	298.25
273.322	269.25
273.553	248.25
273.785	290.25
274.017	352.25
274.249	450.25
274.481	471.25
274.713	483.25
274.945	575.25
275.176	578.25
275.408	512.25
275.64	500.25
275.872	472.25
276.104	420.25
276.335	365.25
276.567	371.25
276.799	394.25
277.031	386.25
277.262	323.25
277.494	264.25
277.726	262.25
277.957	263.25
278.189	294.25
278.421	299.25
278.652	294.25
278.884	299.25
279.115	256.25
279.347	259.25
279.579	263.25
279.81	252.25
280.042	250.25
280.273	270.25
280.505	243.25
280.736	228.25
280.968	229.25
281.199	252.25
281.431	267.25
281.662	267.25
281.894	246.25
282.125	257.25
282.356	282.25
282.588	301.25
282.819	262.25
283.051	262.25
283.282	323.25
283.513	383.25
283.745	420.25
283.976	419.25
284.207	394.25
284.439	374.25
284.67	375.25
284.901	348.25
285.132	375.25
285.364	378.25
285.595	366.25
285.826	391.25
286.057	398.25
286.288	370.25
286.52	384.25
286.751	403.25
286.982	378.25
287.213	372.25
287.444	346.25
287.675	360.25
287.906	341.25
288.138	308.25
288.369	293.25
288.6	271.25
288.831	280.25
289.062	330.25
289.293	348.25
289.524	331.25
289.755	335.25
289.986	335.25
290.217	308.25
290.448	249.25
290.679	223.25
290.91	206.25
291.141	218.25
291.371	217.25
291.602	230.25
291.833	241.25
292.064	237.25
292.295	265.25
292.526	265.25
292.757	312.25
292.987	316.25
293.218	325.25
293.449	344.25
293.68	364.25
293.91	328.25
294.141	357.25
294.372	335.25
294.603	315.25
294.833	340.25
295.064	372.25
295.295	359.25
295.525	278.25
295.756	263.25
295.987	247.25
296.217	227.25
296.448	228.25
296.679	238.25
296.909	258.25
297.14	259.25
297.37	300.25
297.601	300.25
297.831	245.25
298.062	280.25
298.292	268.25
298.523	323.25
298.753	369.25
298.984	315.25
299.214	282.25
299.445	229.25
299.675	232.25
299.905	220.25
300.136	229.25
300.366	247.25
300.597	239.25
300.827	251.25
301.057	227.25
301.288	235.25
301.518	256.25
301.748	262.25
301.979	287.25
302.209	291.25
302.439	308.25
302.669	252.25
302.9	269.25
303.13	249.25
303.36	267.25
303.59	240.25
303.82	241.25
304.051	267.25
304.281	284.25
304.511	290.25
304.741	240.25
304.971	282.25
305.201	275.25
305.431	253.25
305.661	246.25
305.891	243.25
306.121	224.25
306.352	210.25
306.582	206.25
306.812	207.25
307.042	217.25
307.272	198.25
307.502	207.25
307.731	222.25
307.961	230.25
308.191	190.25
308.421	195.25
308.651	210.25
308.881	174.25
309.111	195.25
309.341	191.25
309.571	215.25
309.8	224.25
310.03	200.25
310.26	228.25
310.49	219.25
310.72	202.25
310.949	210.25
311.179	209.25
311.409	211.25
311.639	239.25
311.868	280.25
312.098	340.25
312.328	368.25
312.557	354.25
312.787	359.25
313.017	308.25
313.246	345.25
313.476	385.25
313.706	331.25
313.935	273.25
314.165	243.25
314.394	203.25
314.624	219.25
314.853	233.25
315.083	251.25
315.312	226.25
315.542	226.25
315.771	198.25
316.001	214.25
316.23	195.25
316.46	186.25
316.689	172.25
316.919	212.25
317.148	207.25
317.377	200.25
317.607	206.25
317.836	203.25
318.065	236.25
318.295	267.25
318.524	266.25
318.753	226.25
318.983	222.25
319.212	222.25
319.441	226.25
319.67	215.25
319.9	229.25
320.129	226.25
320.358	230.25
320.587	211.25
320.816	220.25
321.046	239.25
321.275	253.25
321.504	268.25
321.733	257.25
321.962	247.25
322.191	256.25
322.42	225.25
322.649	232.25
322.878	256.25
323.108	265.25
323.337	242.25
323.566	231.25
323.795	233.25
324.024	224.25
324.253	212.25
324.482	219.25
324.71	210.25
324.939	276.25
325.168	258.25
325.397	219.25
325.626	195.25
325.855	224.25
326.084	199.25
326.313	213.25
326.542	198.25
326.77	204.25
326.999	217.25
327.228	223.25
327.457	242.25
327.686	229.25
327.914	199.25
328.143	200.25
328.372	194.25
328.6	178.25
328.829	216.25
329.058	211.25
329.287	215.25
329.515	201.25
329.744	209.25
329.972	212.25
330.201	180.25
330.43	202.25
330.658	226.25
330.887	229.25
331.115	232.25
331.344	224.25
331.572	223.25
331.801	225.25
332.03	214.25
332.258	203.25
332.486	220.25
332.715	223.25
332.943	238.25
333.172	244.25
333.4	232.25
333.629	262.25
333.857	270.25
334.085	251.25
334.314	249.25
334.542	239.25
334.771	238.25
334.999	226.25
335.227	217.25
335.455	211.25
335.684	232.25
335.912	269.25
336.14	265.25
336.369	278.25
336.597	270.25
336.825	286.25
337.053	299.25
337.281	288.25
337.51	232.25
337.738	233.25
337.966	220.25
338.194	243.25
338.422	239.25
338.65	225.25
338.878	222.25
339.106	225.25
339.334	224.25
339.562	231.25
339.79	239.25
340.018	222.25
340.246	225.25
340.474	259.25
340.702	250.25
340.93	283.25
341.158	261.25
341.386	227.25
341.614	246.25
341.842	235.25
342.07	251.25
342.298	265.25
342.526	271.25
342.754	262.25
342.981	246.25
343.209	237.25
343.437	242.25
343.665	259.25
343.893	261.25
344.12	317.25
344.348	345.25
344.576	313.25
344.804	262.25
345.031	238.25
345.259	212.25
345.487	240.25
345.714	230.25
345.942	247.25
346.17	258.25
346.397	254.25
346.625	229.25
346.853	239.25
347.08	232.25
347.308	229.25
347.535	254.25
347.763	266.25
347.99	231.25
348.218	234.25
348.445	219.25
348.673	225.25
348.9	217.25
349.128	243.25
349.355	234.25
349.583	245.25
349.81	240.25
350.037	216.25
350.265	209.25
350.492	190.25
350.72	201.25
350.947	193.25
351.174	197.25
351.402	231.25
351.629	218.25
351.856	222.25
352.083	211.25
352.311	246.25
352.538	228.25
352.765	252.25
352.992	241.25
353.22	217.25
353.447	234.25
353.674	219.25
353.901	238.25
354.128	214.25
354.355	211.25
354.583	215.25
354.81	215.25
355.037	230.25
355.264	225.25
355.491	252.25
355.718	264.25
355.945	261.25
356.172	235.25
356.399	244.25
356.626	278.25
356.853	331.25
357.08	349.25
357.307	350.25
357.534	286.25
357.761	306.25
357.988	373.25
358.215	404.25
358.441	369.25
358.668	325.25
358.895	308.25
359.122	262.25
359.349	271.25
359.576	292.25
359.802	259.25
360.029	240.25
360.256	242.25
360.483	287.25
360.709	337.25
360.936	346.25
361.163	304.25
361.39	273.25
361.616	223.25
361.843	267.25
362.07	297.25
362.296	280.25
362.523	238.25
362.749	202.25
362.976	219.25
363.203	260.25
363.429	282.25
363.656	233.25
363.882	223.25
364.109	221.25
364.335	215.25
364.562	218.25
364.788	252.25
365.015	275.25
365.241	235.25
365.468	208.25
365.694	205.25
365.92	190.25
366.147	190.25
366.373	194.25
366.599	203.25
366.826	195.25
367.052	223.25
367.278	197.25
367.505	191.25
367.731	198.25
367.957	226.25
368.184	235.25
368.41	226.25
368.636	221.25
368.862	240.25
369.089	227.25
369.315	204.25
369.541	195.25
369.767	223.25
369.993	213.25
370.219	216.25
370.445	215.25
370.672	228.25
370.898	247.25
371.124	243.25
371.35	220.25
371.576	228.25
371.802	244.25
372.028	258.25
372.254	292.25
372.48	270.25
372.706	242.25
372.932	248.25
373.158	260.25
373.384	301.25
373.61	348.25
373.835	365.25
374.061	279.25
374.287	266.25
374.513	274.25
374.739	341.25
374.965	361.25
375.191	344.25
375.416	279.25
375.642	241.25
375.868	264.25
376.094	306.25
376.319	242.25
376.545	265.25
376.771	288.25
376.997	245.25
377.222	231.25
377.448	200.25
377.674	193.25
377.899	183.25
378.125	182.25
378.35	189.25
378.576	204.25
378.802	204.25
379.027	228.25
379.253	222.25
379.478	222.25
379.704	242.25
379.929	249.25
380.155	242.25
380.38	219.25
380.606	233.25
380.831	248.25
381.057	241.25
381.282	211.25
381.507	245.25
381.733	289.25
381.958	303.25
382.184	330.25
382.409	348.25
382.634	354.25
382.86	347.25
383.085	312.25
383.31	254.25
383.535	286.25
383.761	299.25
383.986	276.25
384.211	307.25
384.436	293.25
384.662	225.25
384.887	233.25
385.112	259.25
385.337	262.25
385.562	234.25
385.787	266.25
386.013	267.25
386.238	289.25
386.463	252.25
386.688	237.25
386.913	209.25
387.138	219.25
387.363	241.25
387.588	247.25
387.813	251.25
388.038	257.25
388.263	250.25
388.488	219.25
388.713	258.25
388.938	285.25
389.163	238.25
389.387	231.25
389.612	209.25
389.837	219.25
390.062	213.25
390.287	225.25
390.512	224.25
390.736	234.25
390.961	224.25
391.186	228.25
391.411	209.25
391.636	201.25
391.86	223.25
392.085	256.25
392.31	269.25
392.534	251.25
392.759	210.25
392.984	239.25
393.208	225.25
393.433	212.25
393.658	216.25
393.882	205.25
394.107	209.25
394.331	207.25
394.556	206.25
394.78	206.25
395.005	226.25
395.229	221.25
395.454	223.25
395.678	230.25
395.903	232.25
396.127	221.25
396.352	210.25
396.576	220.25
396.801	253.25
397.025	254.25
397.249	244.25
397.474	236.25
397.698	234.25
397.922	229.25
398.147	224.25
398.371	222.25
398.595	243.25
398.82	238.25
399.044	247.25
399.268	261.25
399.492	291.25
399.717	299.25
399.941	295.25
400.165	276.25
400.389	266.25
400.613	242.25
400.837	244.25
401.062	213.25
401.286	231.25
401.51	216.25
401.734	238.25
401.958	232.25
402.182	224.25
402.406	224.25
402.63	256.25
402.854	268.25
403.078	301.25
403.302	344.25
403.526	361.25
403.75	330.25
403.974	292.25
404.198	278.25
404.422	309.25
404.645	324.25
404.869	351.25
405.093	289.25
405.317	248.25
405.541	263.25
405.765	258.25
405.988	272.25
406.212	273.25
406.436	290.25
406.66	340.25
406.883	282.25
407.107	290.25
407.331	327.25
407.555	310.25
407.778	291.25
408.002	284.25
408.226	266.25
408.449	271.25
408.673	268.25
408.896	240.25
409.12	242.25
409.344	238.25
409.567	235.25
409.791	253.25
410.014	230.25
410.238	221.25
410.461	224.25
410.685	229.25
410.908	228.25
411.132	247.25
411.355	236.25
411.578	246.25
411.802	230.25
412.025	262.25
412.249	247.25
412.472	242.25
412.695	244.25
412.919	228.25
413.142	242.25
413.365	255.25
413.589	274.25
413.812	255.25
414.035	238.25
414.258	230.25
414.482	240.25
414.705	260.25
414.928	243.25
415.151	247.25
415.374	233.25
415.597	246.25
415.821	223.25
416.044	232.25
416.267	232.25
416.49	231.25
416.713	218.25
416.936	232.25
417.159	230.25
417.382	241.25
417.605	225.25
417.828	228.25
418.051	247.25
418.274	235.25
418.497	214.25
418.72	240.25
418.943	240.25
419.166	254.25
419.389	258.25
419.611	257.25
419.834	265.25
420.057	276.25
420.28	267.25
420.503	248.25
420.726	235.25
420.948	247.25
421.171	241.25
421.394	242.25
421.617	236.25
421.839	232.25
422.062	225.25
422.285	235.25
422.507	230.25
422.73	242.25
422.953	252.25
423.175	245.25
423.398	246.25
423.621	278.25
423.843	274.25
424.066	247.25
424.288	248.25
424.511	232.25
424.733	229.25
424.956	254.25
425.178	269.25
425.401	307.25
425.623	356.25
425.846	288.25
426.068	255.25
426.291	271.25
426.513	251.25
426.735	240.25
426.958	243.25
427.18	276.25
427.402	324.25
427.625	374.25
427.847	322.25
428.069	247.25
428.292	228.25
428.514	225.25
428.736	217.25
428.958	271.25
429.181	306.25
429.403	261.25
429.625	220.25
429.847	214.25
430.069	225.25
430.292	234.25
430.514	228.25
430.736	230.25
430.958	278.25
431.18	263.25
431.402	236.25
431.624	231.25
431.846	214.25
432.068	219.25
432.29	227.25
432.512	231.25
432.734	285.25
432.956	268.25
433.178	226.25
433.4	234.25
433.622	212.25
433.844	240.25
434.066	256.25
434.287	247.25
434.509	216.25
434.731	261.25
434.953	227.25
435.175	243.25
435.397	255.25
435.618	255.25
435.84	238.25
436.062	211.25
436.284	216.25
436.505	214.25
436.727	200.25
436.949	213.25
437.17	200.25
437.392	211.25
437.614	220.25
437.835	206.25
438.057	213.25
438.278	239.25
438.5	306.25
438.721	323.25
438.943	254.25
439.165	218.25
439.386	187.25
439.608	209.25
439.829	204.25
440.05	215.25
440.272	219.25
440.493	248.25
440.715	286.25
440.936	259.25
441.158	227.25
441.379	216.25
441.6	256.25
441.822	268.25
442.043	215.25
442.264	236.25
442.486	240.25
442.707	231.25
442.928	246.25
443.149	235.25
443.371	238.25
443.592	258.25
443.813	247.25
444.034	235.25
444.255	245.25
444.476	254.25
444.698	236.25
444.919	258.25
445.14	350.25
445.361	304.25
445.582	246.25
445.803	254.25
446.024	244.25
446.245	233.25
446.466	234.25
446.687	242.25
446.908	223.25
447.129	222.25
447.35	211.25
447.571	217.25
447.792	205.25
448.013	199.25
448.234	204.25
448.455	202.25
448.675	199.25
448.896	203.25
449.117	218.25
449.338	210.25
449.559	217.25
449.779	221.25
450	219.25
450.221	217.25
450.442	226.25
450.662	213.25
450.883	204.25
451.104	215.25
451.324	200.25
451.545	220.25
451.766	211.25
451.986	214.25
452.207	207.25
452.428	215.25
452.648	208.25
452.869	219.25
453.089	219.25
453.31	223.25
453.53	203.25
453.751	210.25
453.971	195.25
454.192	192.25
454.412	210.25
454.633	192.25
454.853	194.25
455.073	207.25
455.294	202.25
455.514	200.25
455.734	211.25
455.955	209.25
456.175	220.25
456.395	199.25
456.616	207.25
456.836	210.25
457.056	183.25
457.276	198.25
457.497	200.25
457.717	199.25
457.937	222.25
458.157	205.25
458.377	209.25
458.598	195.25
458.818	210.25
459.038	234.25
459.258	213.25
459.478	219.25
459.698	233.25
459.918	239.25
460.138	238.25
460.358	250.25
460.578	240.25
460.798	228.25
461.018	247.25
461.238	256.25
461.458	231.25
461.678	229.25
461.898	264.25
462.118	239.25
462.338	249.25
462.558	274.25
462.777	282.25
462.997	278.25
463.217	290.25
463.437	293.25
463.657	277.25
463.876	260.25
464.096	274.25
464.316	278.25
464.536	272.25
464.755	282.25
464.975	279.25
465.195	259.25
465.414	255.25
465.634	230.25
465.854	244.25
466.073	226.25
466.293	226.25
466.512	223.25
466.732	252.25
466.951	239.25
467.171	234.25
467.391	214.25
467.61	223.25
467.829	229.25
468.049	237.25
468.268	217.25
468.488	224.25
468.707	230.25
468.927	233.25
469.146	261.25
469.365	268.25
469.585	232.25
469.804	251.25
470.023	266.25
470.243	250.25
470.462	244.25
470.681	245.25
470.901	224.25
471.12	254.25
471.339	248.25
471.558	258.25
471.777	223.25
471.997	258.25
472.216	290.25
472.435	263.25
472.654	254.25
472.873	247.25
473.092	250.25
473.311	240.25
473.53	259.25
473.749	224.25
473.968	229.25
474.187	237.25
474.406	209.25
474.625	234.25
474.844	238.25
475.063	262.25
475.282	250.25
475.501	253.25
475.72	286.25
475.939	258.25
476.158	246.25
476.377	287.25
476.596	340.25
476.814	339.25
477.033	290.25
477.252	256.25
477.471	245.25
477.69	252.25
477.908	260.25
478.127	272.25
478.346	256.25
478.564	283.25
478.783	270.25
479.002	272.25
479.22	307.25
479.439	316.25
479.658	280.25
479.876	272.25
480.095	279.25
480.313	291.25
480.532	270.25
480.751	276.25
480.969	265.25
481.188	278.25
481.406	321.25
481.624	289.25
481.843	258.25
482.061	261.25
482.28	270.25
482.498	324.25
482.717	318.25
482.935	280.25
483.153	274.25
483.372	241.25
483.59	267.25
483.808	239.25
484.027	242.25
484.245	254.25
484.463	226.25
484.681	249.25
484.9	264.25
485.118	294.25
485.336	268.25
485.554	260.25
485.772	260.25
485.99	281.25
486.209	291.25
486.427	302.25
486.645	285.25
486.863	294.25
487.081	296.25
487.299	316.25
487.517	304.25
487.735	274.25
487.953	265.25
488.171	296.25
488.389	260.25
488.607	259.25
488.825	275.25
489.043	282.25
489.261	315.25
489.479	337.25
489.696	280.25
489.914	277.25
490.132	260.25
490.35	269.25
490.568	246.25
490.786	263.25
491.003	264.25
491.221	266.25
491.439	257.25
491.657	261.25
491.874	262.25
492.092	300.25
492.31	336.25
492.527	354.25
492.745	326.25
492.963	299.25
493.18	297.25
493.398	297.25
493.615	281.25
493.833	276.25
494.05	299.25
494.268	285.25
494.485	294.25
494.703	275.25
494.92	294.25
495.138	278.25
495.355	275.25
495.573	274.25
495.79	315.25
496.008	359.25
496.225	331.25
496.442	311.25
496.66	293.25
496.877	328.25
497.094	303.25
497.312	310.25
497.529	311.25
497.746	285.25
497.963	314.25
498.181	336.25
498.398	343.25
498.615	346.25
498.832	384.25
499.049	386.25
499.267	367.25
499.484	388.25
499.701	410.25
499.918	445.25
500.135	503.25
500.352	518.25
500.569	559.25
500.786	529.25
501.003	529.25
501.22	476.25
501.437	447.25
501.654	402.25
501.871	390.25
502.088	370.25
502.305	346.25
502.522	345.25
