Data from NickelSpatula.Lamp.E10.P2_HRD10591_11-58-59-526.txt Node
Date: Tue Jul 23 11:58:59 EDT 2019
User: cochatt
Spectrometer: HR+D1059
Trigger mode: 1
Integration Time (sec): 1.000000E-1
Scans to average: 1
Electric dark correction enabled: true
Nonlinearity correction enabled: false
Boxcar width: 0
XAxis mode: Wavelengths
Number of Pixels in Spectrum: 2048
>>>>>Begin Spectral Data<<<<<
223.165	-12.88
223.4	-12.88
223.635	-12.88
223.869	-14.88
224.104	-11.88
224.338	-24.88
224.573	-20.88
224.808	-0.88
225.042	-3.88
225.277	0.12
225.511	3.12
225.746	-9.88
225.98	7.12
226.215	12.12
226.449	4.12
226.683	19.12
226.918	24.12
227.152	30.12
227.387	30.12
227.621	37.12
227.856	55.12
228.09	44.12
228.324	39.12
228.559	59.12
228.793	91.12
229.027	156.12
229.262	165.12
229.496	143.12
229.73	161.12
229.964	193.12
230.199	213.12
230.433	218.12
230.667	216.12
230.901	203.12
231.136	192.12
231.37	208.12
231.604	215.12
231.838	230.12
232.072	259.12
232.306	240.12
232.541	246.12
232.775	247.12
233.009	254.12
233.243	312.12
233.477	308.12
233.711	343.12
233.945	331.12
234.179	314.12
234.413	344.12
234.647	405.12
234.881	444.12
235.115	424.12
235.349	418.12
235.583	361.12
235.817	361.12
236.051	369.12
236.285	440.12
236.519	461.12
236.753	443.12
236.987	441.12
237.221	390.12
237.455	424.12
237.689	455.12
237.922	463.12
238.156	495.12
238.39	559.12
238.624	674.12
238.858	594.12
239.091	497.12
239.325	520.12
239.559	486.12
239.793	545.12
240.027	648.12
240.26	605.12
240.494	575.12
240.728	595.12
240.961	676.12
241.195	624.12
241.429	629.12
241.662	629.12
241.896	514.12
242.13	470.12
242.363	451.12
242.597	485.12
242.83	550.12
243.064	534.12
243.298	602.12
243.531	591.12
243.765	632.12
243.998	620.12
244.232	608.12
244.465	622.12
244.699	588.12
244.932	648.12
245.166	626.12
245.399	546.12
245.633	536.12
245.866	570.12
246.099	629.12
246.333	724.12
246.566	781.12
246.8	796.12
247.033	769.12
247.266	707.12
247.5	686.12
247.733	678.12
247.966	682.12
248.2	691.12
248.433	768.12
248.666	858.12
248.899	832.12
249.133	885.12
249.366	986.12
249.599	1085.12
249.832	940.12
250.066	842.12
250.299	841.12
250.532	826.12
250.765	799.12
250.998	743.12
251.231	713.12
251.465	781.12
251.698	839.12
251.931	807.12
252.164	860.12
252.397	961.12
252.63	1058.12
252.863	1196.12
253.096	1187.12
253.329	1172.12
253.562	1118.12
253.795	1254.12
254.028	1356.12
254.261	1392.12
254.494	1271.12
254.727	1166.12
254.96	1124.12
255.193	1178.12
255.426	1132.12
255.659	860.12
255.892	810.12
256.124	881.12
256.357	1016.12
256.59	1217.12
256.823	1143.12
257.056	956.12
257.289	927.12
257.521	970.12
257.754	1142.12
257.987	1291.12
258.22	1115.12
258.452	973.12
258.685	1143.12
258.918	1290.12
259.151	1239.12
259.383	1310.12
259.616	1511.12
259.849	1589.12
260.081	1712.12
260.314	1909.12
260.547	1484.12
260.779	1493.12
261.012	1720.12
261.244	1617.12
261.477	1636.12
261.71	1561.12
261.942	1313.12
262.175	1310.12
262.407	1232.12
262.64	1282.12
262.872	1512.12
263.105	1630.12
263.337	1729.12
263.57	1540.12
263.802	1066.12
264.035	924.12
264.267	873.12
264.499	803.12
264.732	691.12
264.964	674.12
265.197	729.12
265.429	770.12
265.661	830.12
265.894	850.12
266.126	946.12
266.358	1049.12
266.591	1262.12
266.823	1528.12
267.055	1421.12
267.287	1259.12
267.52	1259.12
267.752	1329.12
267.984	1448.12
268.216	1412.12
268.448	1141.12
268.681	1092.12
268.913	1231.12
269.145	1282.12
269.377	1304.12
269.609	1298.12
269.841	1220.12
270.073	1290.12
270.306	1343.12
270.538	1367.12
270.77	1396.12
271.002	1418.12
271.234	1474.12
271.466	1507.12
271.698	1436.12
271.93	1435.12
272.162	1452.12
272.394	1407.12
272.626	1401.12
272.858	1455.12
273.09	1497.12
273.322	1304.12
273.553	1301.12
273.785	1518.12
274.017	2002.12
274.249	2462.12
274.481	2444.12
274.713	2768.12
274.945	3174.12
275.176	3312.12
275.408	2883.12
275.64	2648.12
275.872	2661.12
276.104	2227.12
276.335	1935.12
276.567	1902.12
276.799	1977.12
277.031	2079.12
277.262	1607.12
277.494	1266.12
277.726	1203.12
277.957	1342.12
278.189	1518.12
278.421	1467.12
278.652	1451.12
278.884	1356.12
279.115	1287.12
279.347	1195.12
279.579	1183.12
279.81	1182.12
280.042	1215.12
280.273	1233.12
280.505	1154.12
280.736	1040.12
280.968	1024.12
281.199	1104.12
281.431	1236.12
281.662	1218.12
281.894	1158.12
282.125	1274.12
282.356	1343.12
282.588	1426.12
282.819	1236.12
283.051	1367.12
283.282	1721.12
283.513	1966.12
283.745	2180.12
283.976	2177.12
284.207	1963.12
284.439	2060.12
284.67	2049.12
284.901	1816.12
285.132	1962.12
285.364	2011.12
285.595	1859.12
285.826	1990.12
286.057	2068.12
286.288	1980.12
286.52	2004.12
286.751	2122.12
286.982	2111.12
287.213	1811.12
287.444	1747.12
287.675	1860.12
287.906	1846.12
288.138	1513.12
288.369	1376.12
288.6	1266.12
288.831	1322.12
289.062	1546.12
289.293	1710.12
289.524	1618.12
289.755	1604.12
289.986	1608.12
290.217	1426.12
290.448	1108.12
290.679	968.12
290.91	900.12
291.141	923.12
291.371	1001.12
291.602	994.12
291.833	998.12
292.064	1069.12
292.295	1229.12
292.526	1401.12
292.757	1444.12
292.987	1565.12
293.218	1570.12
293.449	1623.12
293.68	1668.12
293.91	1592.12
294.141	1622.12
294.372	1522.12
294.603	1423.12
294.833	1596.12
295.064	1825.12
295.295	1757.12
295.525	1340.12
295.756	1144.12
295.987	1007.12
296.217	1009.12
296.448	1023.12
296.679	1112.12
296.909	1214.12
297.14	1336.12
297.37	1454.12
297.601	1381.12
297.831	1170.12
298.062	1254.12
298.292	1450.12
298.523	1540.12
298.753	1827.12
298.984	1585.12
299.214	1267.12
299.445	1089.12
299.675	1079.12
299.905	1043.12
300.136	1065.12
300.366	1206.12
300.597	1161.12
300.827	1025.12
301.057	971.12
301.288	1021.12
301.518	1073.12
301.748	1213.12
301.979	1342.12
302.209	1446.12
302.439	1458.12
302.669	1268.12
302.9	1262.12
303.13	1150.12
303.36	1109.12
303.59	1066.12
303.82	1100.12
304.051	1220.12
304.281	1371.12
304.511	1290.12
304.741	1147.12
304.971	1187.12
305.201	1278.12
305.431	1224.12
305.661	1046.12
305.891	1074.12
306.121	1066.12
306.352	960.12
306.582	874.12
306.812	850.12
307.042	842.12
307.272	799.12
307.502	811.12
307.731	896.12
307.961	908.12
308.191	854.12
308.421	830.12
308.651	798.12
308.881	771.12
309.111	761.12
309.341	807.12
309.571	879.12
309.8	924.12
310.03	937.12
310.26	990.12
310.49	994.12
310.72	859.12
310.949	859.12
311.179	881.12
311.409	927.12
311.639	1088.12
311.868	1394.12
312.098	1798.12
312.328	1904.12
312.557	1853.12
312.787	1897.12
313.017	1651.12
313.246	1855.12
313.476	1974.12
313.706	1646.12
313.935	1259.12
314.165	1032.12
314.394	984.12
314.624	943.12
314.853	998.12
315.083	1036.12
315.312	1011.12
315.542	1010.12
315.771	961.12
316.001	866.12
316.23	842.12
316.46	850.12
316.689	856.12
316.919	873.12
317.148	910.12
317.377	880.12
317.607	890.12
317.836	970.12
318.065	1139.12
318.295	1221.12
318.524	1151.12
318.753	991.12
318.983	934.12
319.212	902.12
319.441	1013.12
319.67	1167.12
319.9	1194.12
320.129	1129.12
320.358	992.12
320.587	953.12
320.816	1014.12
321.046	1182.12
321.275	1349.12
321.504	1328.12
321.733	1281.12
321.962	1235.12
322.191	1144.12
322.42	1084.12
322.649	1123.12
322.878	1186.12
323.108	1193.12
323.337	1121.12
323.566	1119.12
323.795	1052.12
324.024	1006.12
324.253	998.12
324.482	954.12
324.71	1094.12
324.939	1220.12
325.168	1115.12
325.397	925.12
325.626	882.12
325.855	937.12
326.084	912.12
326.313	847.12
326.542	860.12
326.77	869.12
326.999	910.12
327.228	946.12
327.457	1019.12
327.686	995.12
327.914	885.12
328.143	820.12
328.372	822.12
328.6	852.12
328.829	904.12
329.058	907.12
329.287	872.12
329.515	915.12
329.744	880.12
329.972	839.12
330.201	810.12
330.43	850.12
330.658	950.12
330.887	1062.12
331.115	1030.12
331.344	1018.12
331.572	959.12
331.801	884.12
332.03	846.12
332.258	870.12
332.486	968.12
332.715	962.12
332.943	914.12
333.172	911.12
333.4	931.12
333.629	1021.12
333.857	1145.12
334.085	1095.12
334.314	1134.12
334.542	1044.12
334.771	961.12
334.999	937.12
335.227	915.12
335.455	933.12
335.684	1022.12
335.912	1167.12
336.14	1320.12
336.369	1288.12
336.597	1220.12
336.825	1370.12
337.053	1546.12
337.281	1249.12
337.51	990.12
337.738	990.12
337.966	1032.12
338.194	1179.12
338.422	1104.12
338.65	944.12
338.878	892.12
339.106	914.12
339.334	1001.12
339.562	1076.12
339.79	1037.12
340.018	965.12
340.246	1029.12
340.474	1176.12
340.702	1257.12
340.93	1351.12
341.158	1272.12
341.386	1113.12
341.614	1107.12
341.842	1109.12
342.07	1170.12
342.298	1343.12
342.526	1401.12
342.754	1184.12
342.981	1099.12
343.209	1035.12
343.437	1150.12
343.665	1184.12
343.893	1186.12
344.12	1403.12
344.348	1604.12
344.576	1418.12
344.804	1188.12
345.031	1018.12
345.259	980.12
345.487	986.12
345.714	1011.12
345.942	1084.12
346.17	1194.12
346.397	1121.12
346.625	1001.12
346.853	982.12
347.08	978.12
347.308	1026.12
347.535	1120.12
347.763	1131.12
347.99	988.12
348.218	923.12
348.445	963.12
348.673	995.12
348.9	977.12
349.128	1062.12
349.355	1094.12
349.583	1105.12
349.81	1011.12
350.037	945.12
350.265	833.12
350.492	797.12
350.72	786.12
350.947	843.12
351.174	879.12
351.402	921.12
351.629	988.12
351.856	915.12
352.083	893.12
352.311	994.12
352.538	1084.12
352.765	1129.12
352.992	1046.12
353.22	983.12
353.447	1032.12
353.674	979.12
353.901	990.12
354.128	963.12
354.355	1033.12
354.583	967.12
354.81	976.12
355.037	998.12
355.264	1026.12
355.491	1104.12
355.718	1166.12
355.945	1150.12
356.172	1120.12
356.399	1083.12
356.626	1328.12
356.853	1648.12
357.08	1708.12
357.307	1772.12
357.534	1349.12
357.761	1391.12
357.988	1771.12
358.215	2086.12
358.441	1958.12
358.668	1641.12
358.895	1481.12
359.122	1234.12
359.349	1222.12
359.576	1332.12
359.802	1096.12
360.029	946.12
360.256	1022.12
360.483	1296.12
360.709	1632.12
360.936	1660.12
361.163	1437.12
361.39	1136.12
361.616	1065.12
361.843	1225.12
362.07	1526.12
362.296	1353.12
362.523	1066.12
362.749	938.12
362.976	1023.12
363.203	1210.12
363.429	1352.12
363.656	1100.12
363.882	971.12
364.109	997.12
364.335	1025.12
364.562	987.12
364.788	1104.12
365.015	1326.12
365.241	1160.12
365.468	953.12
365.694	846.12
365.92	797.12
366.147	805.12
366.373	781.12
366.599	804.12
366.826	818.12
367.052	810.12
367.278	829.12
367.505	784.12
367.731	900.12
367.957	1056.12
368.184	1048.12
368.41	1011.12
368.636	1025.12
368.862	1078.12
369.089	986.12
369.315	916.12
369.541	904.12
369.767	873.12
369.993	844.12
370.219	871.12
370.445	907.12
370.672	1035.12
370.898	1091.12
371.124	1074.12
371.35	946.12
371.576	906.12
371.802	990.12
372.028	1148.12
372.254	1342.12
372.48	1126.12
372.706	1028.12
372.932	1081.12
373.158	1144.12
373.384	1382.12
373.61	1861.12
373.835	1883.12
374.061	1364.12
374.287	1162.12
374.513	1428.12
374.739	1646.12
374.965	1710.12
375.191	1666.12
375.416	1156.12
375.642	1014.12
375.868	1205.12
376.094	1371.12
376.319	1186.12
376.545	1279.12
376.771	1397.12
376.997	1180.12
377.222	894.12
377.448	734.12
377.674	769.12
377.899	750.12
378.125	745.12
378.35	736.12
378.576	783.12
378.802	882.12
379.027	926.12
379.253	898.12
379.478	937.12
379.704	1052.12
379.929	1102.12
380.155	1054.12
380.38	951.12
380.606	980.12
380.831	1097.12
381.057	1017.12
381.282	980.12
381.507	1172.12
381.733	1496.12
381.958	1552.12
382.184	1669.12
382.409	1700.12
382.634	1666.12
382.86	1789.12
383.085	1427.12
383.31	1154.12
383.535	1228.12
383.761	1215.12
383.986	1175.12
384.211	1418.12
384.436	1341.12
384.662	1050.12
384.887	988.12
385.112	1026.12
385.337	1058.12
385.562	989.12
385.787	1070.12
386.013	1195.12
386.238	1282.12
386.463	1058.12
386.688	996.12
386.913	960.12
387.138	906.12
387.363	975.12
387.588	986.12
387.813	991.12
388.038	1120.12
388.263	976.12
388.488	941.12
388.713	1125.12
388.938	1243.12
389.163	1020.12
389.387	902.12
389.612	906.12
389.837	983.12
390.062	948.12
390.287	1002.12
390.512	1000.12
390.736	928.12
390.961	887.12
391.186	827.12
391.411	841.12
391.636	845.12
391.86	942.12
392.085	1018.12
392.31	1011.12
392.534	930.12
392.759	904.12
392.984	966.12
393.208	976.12
393.433	865.12
393.658	832.12
393.882	779.12
394.107	784.12
394.331	798.12
394.556	811.12
394.78	833.12
395.005	836.12
395.229	867.12
395.454	886.12
395.678	896.12
395.903	918.12
396.127	873.12
396.352	920.12
396.576	992.12
396.801	981.12
397.025	1131.12
397.249	1108.12
397.474	956.12
397.698	920.12
397.922	952.12
398.147	905.12
398.371	905.12
398.595	987.12
398.82	932.12
399.044	976.12
399.268	1015.12
399.492	1027.12
399.717	1067.12
399.941	1086.12
400.165	1032.12
400.389	1065.12
400.613	1046.12
400.837	1030.12
401.062	912.12
401.286	892.12
401.51	897.12
401.734	920.12
401.958	910.12
402.182	914.12
402.406	913.12
402.63	913.12
402.854	961.12
403.078	1063.12
403.302	1306.12
403.526	1319.12
403.75	1202.12
403.974	1066.12
404.198	1062.12
404.422	1215.12
404.645	1422.12
404.869	1574.12
405.093	1167.12
405.317	1011.12
405.541	1016.12
405.765	1041.12
405.988	1029.12
406.212	1101.12
406.436	1302.12
406.66	1430.12
406.883	1125.12
407.107	1159.12
407.331	1379.12
407.555	1334.12
407.778	1090.12
408.002	1070.12
408.226	1051.12
408.449	1065.12
408.673	1033.12
408.896	922.12
409.12	920.12
409.344	945.12
409.567	866.12
409.791	902.12
410.014	894.12
410.238	896.12
410.461	885.12
410.685	924.12
410.908	903.12
411.132	932.12
411.355	908.12
411.578	929.12
411.802	925.12
412.025	995.12
412.249	983.12
412.472	967.12
412.695	970.12
412.919	943.12
413.142	975.12
413.365	1043.12
413.589	1036.12
413.812	949.12
414.035	917.12
414.258	931.12
414.482	1048.12
414.705	1066.12
414.928	887.12
415.151	887.12
415.374	872.12
415.597	930.12
415.821	924.12
416.044	901.12
416.267	871.12
416.49	865.12
416.713	842.12
416.936	865.12
417.159	867.12
417.382	900.12
417.605	884.12
417.828	902.12
418.051	901.12
418.274	954.12
418.497	955.12
418.72	930.12
418.943	956.12
419.166	1003.12
419.389	1049.12
419.611	980.12
419.834	1018.12
420.057	1104.12
420.28	1098.12
420.503	989.12
420.726	894.12
420.948	873.12
421.171	888.12
421.394	868.12
421.617	879.12
421.839	877.12
422.062	932.12
422.285	944.12
422.507	939.12
422.73	950.12
422.953	952.12
423.175	938.12
423.398	910.12
423.621	999.12
423.843	1071.12
424.066	977.12
424.288	960.12
424.511	914.12
424.733	910.12
424.956	986.12
425.178	1059.12
425.401	1230.12
425.623	1373.12
425.846	1139.12
426.068	981.12
426.291	1094.12
426.513	1020.12
426.735	980.12
426.958	1006.12
427.18	1162.12
427.402	1540.12
427.625	1502.12
427.847	1195.12
428.069	884.12
428.292	906.12
428.514	927.12
428.736	884.12
428.958	938.12
429.181	1091.12
429.403	969.12
429.625	885.12
429.847	876.12
430.069	907.12
430.292	921.12
430.514	862.12
430.736	962.12
430.958	1178.12
431.18	1061.12
431.402	834.12
431.624	797.12
431.846	818.12
432.068	788.12
432.29	803.12
432.512	926.12
432.734	1248.12
432.956	1131.12
433.178	871.12
433.4	849.12
433.622	864.12
433.844	869.12
434.066	942.12
434.287	904.12
434.509	889.12
434.731	950.12
434.953	854.12
435.175	922.12
435.397	1069.12
435.618	896.12
435.84	824.12
436.062	825.12
436.284	840.12
436.505	810.12
436.727	789.12
436.949	802.12
437.17	849.12
437.392	850.12
437.614	820.12
437.835	835.12
438.057	847.12
438.278	981.12
438.5	1440.12
438.721	1397.12
438.943	930.12
439.165	797.12
439.386	776.12
439.608	774.12
439.829	763.12
440.05	794.12
440.272	830.12
440.493	1013.12
440.715	1217.12
440.936	988.12
441.158	874.12
441.379	872.12
441.6	987.12
441.822	1067.12
442.043	891.12
442.264	866.12
442.486	868.12
442.707	867.12
442.928	874.12
443.149	856.12
443.371	899.12
443.592	899.12
443.813	928.12
444.034	892.12
444.255	902.12
444.476	976.12
444.698	919.12
444.919	921.12
445.14	1090.12
445.361	1034.12
445.582	966.12
445.803	913.12
446.024	966.12
446.245	952.12
446.466	924.12
446.687	896.12
446.908	883.12
447.129	833.12
447.35	831.12
447.571	820.12
447.792	802.12
448.013	804.12
448.234	788.12
448.455	785.12
448.675	804.12
448.896	802.12
449.117	790.12
449.338	811.12
449.559	834.12
449.779	867.12
450	866.12
450.221	878.12
450.442	828.12
450.662	827.12
450.883	802.12
451.104	818.12
451.324	796.12
451.545	816.12
451.766	804.12
451.986	760.12
452.207	775.12
452.428	780.12
452.648	772.12
452.869	821.12
453.089	832.12
453.31	820.12
453.53	737.12
453.751	741.12
453.971	751.12
454.192	776.12
454.412	805.12
454.633	753.12
454.853	751.12
455.073	744.12
455.294	712.12
455.514	735.12
455.734	796.12
455.955	795.12
456.175	845.12
456.395	764.12
456.616	695.12
456.836	708.12
457.056	698.12
457.276	704.12
457.497	705.12
457.717	717.12
457.937	719.12
458.157	725.12
458.377	739.12
458.598	745.12
458.818	787.12
459.038	799.12
459.258	849.12
459.478	843.12
459.698	904.12
459.918	884.12
460.138	882.12
460.358	892.12
460.578	874.12
460.798	911.12
461.018	902.12
461.238	848.12
461.458	854.12
461.678	883.12
461.898	916.12
462.118	915.12
462.338	922.12
462.558	986.12
462.777	1000.12
462.997	1005.12
463.217	1042.12
463.437	1036.12
463.657	1026.12
463.876	952.12
464.096	953.12
464.316	967.12
464.536	949.12
464.755	1009.12
464.975	1031.12
465.195	937.12
465.414	1035.12
465.634	993.12
465.854	941.12
466.073	850.12
466.293	871.12
466.512	932.12
466.732	1059.12
466.951	1047.12
467.171	946.12
467.391	870.12
467.61	835.12
467.829	933.12
468.049	933.12
468.268	857.12
468.488	868.12
468.707	907.12
468.927	1055.12
469.146	1152.12
469.365	1027.12
469.585	950.12
469.804	1022.12
470.023	1089.12
470.243	995.12
470.462	956.12
470.681	950.12
470.901	907.12
471.12	968.12
471.339	968.12
471.558	918.12
471.777	937.12
471.997	996.12
472.216	1126.12
472.435	1087.12
472.654	982.12
472.873	962.12
473.092	1015.12
473.311	1032.12
473.53	933.12
473.749	929.12
473.968	998.12
474.187	959.12
474.406	935.12
474.625	928.12
474.844	975.12
475.063	1044.12
475.282	1034.12
475.501	1082.12
475.72	1116.12
475.939	1108.12
476.158	1135.12
476.377	1238.12
476.596	1452.12
476.814	1504.12
477.033	1267.12
477.252	1113.12
477.471	1031.12
477.69	1011.12
477.908	1106.12
478.127	1150.12
478.346	1040.12
478.564	1130.12
478.783	1092.12
479.002	1115.12
479.22	1312.12
479.439	1443.12
479.658	1256.12
479.876	1139.12
480.095	1204.12
480.313	1254.12
480.532	1128.12
480.751	1086.12
480.969	1106.12
481.188	1286.12
481.406	1313.12
481.624	1238.12
481.843	1114.12
482.061	1088.12
482.28	1211.12
482.498	1462.12
482.717	1379.12
482.935	1220.12
483.153	1112.12
483.372	1039.12
483.59	1042.12
483.808	1034.12
484.027	1040.12
484.245	1009.12
484.463	978.12
484.681	1013.12
484.9	1104.12
485.118	1231.12
485.336	1097.12
485.554	1035.12
485.772	1079.12
485.99	1175.12
486.209	1214.12
486.427	1228.12
486.645	1188.12
486.863	1251.12
487.081	1253.12
487.299	1376.12
487.517	1339.12
487.735	1206.12
487.953	1251.12
488.171	1278.12
488.389	1191.12
488.607	1112.12
488.825	1171.12
489.043	1260.12
489.261	1460.12
489.479	1542.12
489.696	1314.12
489.914	1179.12
490.132	1099.12
490.35	1127.12
490.568	1143.12
490.786	1131.12
491.003	1138.12
491.221	1177.12
491.439	1124.12
491.657	1144.12
491.874	1231.12
492.092	1494.12
492.31	1818.12
492.527	1781.12
492.745	1510.12
492.963	1348.12
493.18	1316.12
493.398	1303.12
493.615	1304.12
493.833	1259.12
494.05	1242.12
494.268	1288.12
