Data from NickelSpatula.Lamp.E5.5.P2_HRD10591_11-53-15-550.txt Node
Date: Tue Jul 23 11:53:15 EDT 2019
User: cochatt
Spectrometer: HR+D1059
Trigger mode: 1
Integration Time (sec): 1.000000E-1
Scans to average: 1
Electric dark correction enabled: true
Nonlinearity correction enabled: false
Boxcar width: 0
XAxis mode: Wavelengths
Number of Pixels in Spectrum: 2048
>>>>>Begin Spectral Data<<<<<
223.165	-16.69
223.4	-16.69
223.635	-16.69
223.869	-21.69
224.104	-29.69
224.338	-16.69
224.573	-7.69
224.808	4.31
225.042	-12.69
225.277	-1.69
225.511	4.31
225.746	-1.69
225.98	12.31
226.215	8.31
226.449	23.31
226.683	18.31
226.918	11.31
227.152	26.31
227.387	36.31
227.621	44.31
227.856	44.31
228.09	57.31
228.324	45.31
228.559	56.31
228.793	70.31
229.027	78.31
229.262	75.31
229.496	85.31
229.73	80.31
229.964	80.31
230.199	101.31
230.433	115.31
230.667	98.31
230.901	100.31
231.136	105.31
231.37	99.31
231.604	97.31
231.838	114.31
232.072	114.31
232.306	101.31
232.541	96.31
232.775	105.31
233.009	100.31
233.243	109.31
233.477	113.31
233.711	128.31
233.945	116.31
234.179	118.31
234.413	135.31
234.647	132.31
234.881	142.31
235.115	122.31
235.349	132.31
235.583	127.31
235.817	120.31
236.051	111.31
236.285	129.31
236.519	136.31
236.753	128.31
236.987	138.31
237.221	136.31
237.455	130.31
237.689	127.31
237.922	131.31
238.156	125.31
238.39	155.31
238.624	160.31
238.858	160.31
239.091	135.31
239.325	139.31
239.559	145.31
239.793	148.31
240.027	178.31
240.26	186.31
240.494	157.31
240.728	154.31
240.961	168.31
241.195	169.31
241.429	165.31
241.662	149.31
241.896	144.31
242.13	142.31
242.363	132.31
242.597	148.31
242.83	152.31
243.064	152.31
243.298	165.31
243.531	178.31
243.765	176.31
243.998	157.31
244.232	173.31
244.465	164.31
244.699	181.31
244.932	170.31
245.166	166.31
245.399	149.31
245.633	138.31
245.866	158.31
246.099	161.31
246.333	189.31
246.566	177.31
246.8	206.31
247.033	180.31
247.266	184.31
247.5	170.31
247.733	165.31
247.966	163.31
248.2	150.31
248.433	193.31
248.666	194.31
248.899	181.31
249.133	199.31
249.366	223.31
249.599	254.31
249.832	228.31
250.066	189.31
250.299	201.31
250.532	189.31
250.765	198.31
250.998	190.31
251.231	186.31
251.465	197.31
251.698	192.31
251.931	192.31
252.164	195.31
252.397	224.31
252.63	253.31
252.863	248.31
253.096	260.31
253.329	250.31
253.562	270.31
253.795	256.31
254.028	301.31
254.261	303.31
254.494	278.31
254.727	252.31
254.96	238.31
255.193	258.31
255.426	272.31
255.659	206.31
255.892	198.31
256.124	217.31
256.357	246.31
256.59	262.31
256.823	274.31
257.056	222.31
257.289	192.31
257.521	227.31
257.754	259.31
257.987	298.31
258.22	276.31
258.452	248.31
258.685	272.31
258.918	275.31
259.151	276.31
259.383	301.31
259.616	340.31
259.849	352.31
260.081	353.31
260.314	409.31
260.547	314.31
260.779	336.31
261.012	370.31
261.244	351.31
261.477	359.31
261.71	328.31
261.942	294.31
262.175	282.31
262.407	279.31
262.64	279.31
262.872	320.31
263.105	369.31
263.337	396.31
263.57	336.31
263.802	226.31
264.035	228.31
264.267	239.31
264.499	193.31
264.732	188.31
264.964	159.31
265.197	177.31
265.429	196.31
265.661	210.31
265.894	216.31
266.126	233.31
266.358	231.31
266.591	269.31
266.823	339.31
267.055	333.31
267.287	297.31
267.52	287.31
267.752	284.31
267.984	317.31
268.216	327.31
268.448	256.31
268.681	242.31
268.913	288.31
269.145	281.31
269.377	292.31
269.609	282.31
269.841	265.31
270.073	303.31
270.306	318.31
270.538	324.31
270.77	316.31
271.002	335.31
271.234	325.31
271.466	320.31
271.698	312.31
271.93	320.31
272.162	316.31
272.394	283.31
272.626	288.31
272.858	306.31
273.09	315.31
273.322	277.31
273.553	281.31
273.785	289.31
274.017	374.31
274.249	465.31
274.481	481.31
274.713	527.31
274.945	632.31
275.176	627.31
275.408	564.31
275.64	521.31
275.872	533.31
276.104	442.31
276.335	399.31
276.567	384.31
276.799	416.31
277.031	415.31
277.262	338.31
277.494	271.31
277.726	261.31
277.957	283.31
278.189	309.31
278.421	312.31
278.652	312.31
278.884	292.31
279.115	268.31
279.347	272.31
279.579	288.31
279.81	264.31
280.042	264.31
280.273	284.31
280.505	273.31
280.736	227.31
280.968	252.31
281.199	229.31
281.431	279.31
281.662	289.31
281.894	245.31
282.125	277.31
282.356	304.31
282.588	296.31
282.819	266.31
283.051	285.31
283.282	339.31
283.513	421.31
283.745	445.31
283.976	424.31
284.207	404.31
284.439	421.31
284.67	436.31
284.901	358.31
285.132	390.31
285.364	433.31
285.595	414.31
285.826	413.31
286.057	410.31
286.288	397.31
286.52	406.31
286.751	436.31
286.982	444.31
287.213	371.31
287.444	378.31
287.675	387.31
287.906	394.31
288.138	339.31
288.369	316.31
288.6	278.31
288.831	308.31
289.062	343.31
289.293	393.31
289.524	351.31
289.755	340.31
289.986	361.31
290.217	322.31
290.448	264.31
290.679	232.31
290.91	227.31
291.141	228.31
291.371	228.31
291.602	230.31
291.833	231.31
292.064	248.31
292.295	262.31
292.526	298.31
292.757	311.31
292.987	326.31
293.218	318.31
293.449	367.31
293.68	382.31
293.91	372.31
294.141	378.31
294.372	358.31
294.603	295.31
294.833	352.31
295.064	405.31
295.295	398.31
295.525	311.31
295.756	262.31
295.987	233.31
296.217	219.31
296.448	226.31
296.679	242.31
296.909	277.31
297.14	265.31
297.37	308.31
297.601	308.31
297.831	258.31
298.062	286.31
298.292	294.31
298.523	334.31
298.753	371.31
298.984	324.31
299.214	263.31
299.445	269.31
299.675	243.31
299.905	241.31
300.136	238.31
300.366	260.31
300.597	255.31
300.827	243.31
301.057	238.31
301.288	238.31
301.518	232.31
301.748	265.31
301.979	294.31
302.209	305.31
302.439	312.31
302.669	266.31
302.9	276.31
303.13	241.31
303.36	241.31
303.59	261.31
303.82	240.31
304.051	266.31
304.281	302.31
304.511	304.31
304.741	246.31
304.971	286.31
305.201	279.31
305.431	268.31
305.661	241.31
305.891	252.31
306.121	252.31
306.352	231.31
306.582	218.31
306.812	201.31
307.042	195.31
307.272	214.31
307.502	188.31
307.731	193.31
307.961	214.31
308.191	206.31
308.421	199.31
308.651	200.31
308.881	199.31
309.111	178.31
309.341	197.31
309.571	210.31
309.8	212.31
310.03	212.31
310.26	232.31
310.49	222.31
310.72	218.31
310.949	206.31
311.179	220.31
311.409	232.31
311.639	224.31
311.868	297.31
312.098	374.31
312.328	388.31
312.557	361.31
312.787	374.31
313.017	332.31
313.246	374.31
313.476	416.31
313.706	351.31
313.935	265.31
314.165	240.31
314.394	214.31
314.624	216.31
314.853	246.31
315.083	229.31
315.312	214.31
315.542	237.31
315.771	221.31
316.001	198.31
316.23	206.31
316.46	200.31
316.689	203.31
316.919	210.31
317.148	195.31
317.377	216.31
317.607	208.31
317.836	211.31
318.065	240.31
318.295	264.31
318.524	264.31
318.753	235.31
318.983	212.31
319.212	225.31
319.441	210.31
319.67	260.31
319.9	248.31
320.129	233.31
320.358	226.31
320.587	232.31
320.816	217.31
321.046	247.31
321.275	286.31
321.504	255.31
321.733	252.31
321.962	262.31
322.191	269.31
322.42	231.31
322.649	226.31
322.878	237.31
323.108	252.31
323.337	238.31
323.566	241.31
323.795	238.31
324.024	213.31
324.253	206.31
324.482	195.31
324.71	240.31
324.939	271.31
325.168	247.31
325.397	212.31
325.626	230.31
325.855	203.31
326.084	201.31
326.313	205.31
326.542	194.31
326.77	216.31
326.999	219.31
327.228	227.31
327.457	226.31
327.686	229.31
327.914	208.31
328.143	196.31
328.372	194.31
328.6	193.31
328.829	209.31
329.058	188.31
329.287	209.31
329.515	210.31
329.744	200.31
329.972	195.31
330.201	198.31
330.43	190.31
330.658	213.31
330.887	236.31
331.115	231.31
331.344	230.31
331.572	230.31
331.801	224.31
332.03	203.31
332.258	208.31
332.486	218.31
332.715	236.31
332.943	220.31
333.172	238.31
333.4	240.31
333.629	245.31
333.857	242.31
334.085	252.31
334.314	260.31
334.542	244.31
334.771	252.31
334.999	226.31
335.227	219.31
335.455	226.31
335.684	230.31
335.912	259.31
336.14	292.31
336.369	266.31
336.597	272.31
336.825	281.31
337.053	337.31
337.281	275.31
337.51	229.31
337.738	236.31
337.966	237.31
338.194	261.31
338.422	270.31
338.65	223.31
338.878	215.31
339.106	204.31
339.334	243.31
339.562	241.31
339.79	233.31
340.018	217.31
340.246	231.31
340.474	260.31
340.702	268.31
340.93	296.31
341.158	278.31
341.386	246.31
341.614	235.31
341.842	229.31
342.07	236.31
342.298	276.31
342.526	296.31
342.754	255.31
342.981	245.31
343.209	221.31
343.437	241.31
343.665	256.31
343.893	290.31
344.12	320.31
344.348	337.31
344.576	316.31
344.804	269.31
345.031	233.31
345.259	217.31
345.487	240.31
345.714	229.31
345.942	243.31
346.17	272.31
346.397	262.31
346.625	246.31
346.853	233.31
347.08	234.31
347.308	232.31
347.535	266.31
347.763	265.31
347.99	257.31
348.218	217.31
348.445	224.31
348.673	222.31
348.9	232.31
349.128	246.31
349.355	243.31
349.583	245.31
349.81	240.31
350.037	208.31
350.265	202.31
350.492	190.31
350.72	196.31
350.947	196.31
351.174	210.31
351.402	217.31
351.629	223.31
351.856	219.31
352.083	199.31
352.311	214.31
352.538	246.31
352.765	258.31
352.992	254.31
353.22	240.31
353.447	229.31
353.674	224.31
353.901	209.31
354.128	215.31
354.355	223.31
354.583	221.31
354.81	214.31
355.037	244.31
355.264	227.31
355.491	250.31
355.718	250.31
355.945	244.31
356.172	246.31
356.399	260.31
356.626	272.31
356.853	334.31
357.08	343.31
357.307	329.31
357.534	289.31
357.761	318.31
357.988	361.31
358.215	400.31
358.441	366.31
358.668	315.31
358.895	306.31
359.122	265.31
359.349	273.31
359.576	318.31
359.802	250.31
360.029	213.31
360.256	212.31
360.483	282.31
360.709	347.31
360.936	337.31
361.163	312.31
361.39	239.31
361.616	234.31
361.843	270.31
362.07	301.31
362.296	278.31
362.523	219.31
362.749	229.31
362.976	214.31
363.203	258.31
363.429	287.31
363.656	256.31
363.882	223.31
364.109	222.31
364.335	230.31
364.562	212.31
364.788	241.31
365.015	263.31
365.241	254.31
365.468	221.31
365.694	204.31
365.92	214.31
366.147	195.31
366.373	191.31
366.599	196.31
366.826	180.31
367.052	202.31
367.278	221.31
367.505	182.31
367.731	216.31
367.957	226.31
368.184	233.31
368.41	221.31
368.636	225.31
368.862	245.31
369.089	221.31
369.315	215.31
369.541	220.31
369.767	203.31
369.993	200.31
370.219	200.31
370.445	225.31
370.672	217.31
370.898	253.31
371.124	237.31
371.35	232.31
371.576	205.31
371.802	218.31
372.028	266.31
372.254	295.31
372.48	256.31
372.706	231.31
372.932	248.31
373.158	230.31
373.384	286.31
373.61	348.31
373.835	379.31
374.061	300.31
374.287	264.31
374.513	301.31
374.739	329.31
374.965	367.31
375.191	349.31
375.416	262.31
375.642	238.31
375.868	265.31
376.094	281.31
376.319	264.31
376.545	267.31
376.771	292.31
376.997	254.31
377.222	214.31
377.448	184.31
377.674	204.31
377.899	182.31
378.125	177.31
378.35	200.31
378.576	210.31
378.802	201.31
379.027	209.31
379.253	245.31
379.478	206.31
379.704	232.31
379.929	252.31
380.155	245.31
380.38	212.31
380.606	229.31
380.831	244.31
381.057	250.31
381.282	207.31
381.507	248.31
381.733	304.31
381.958	308.31
382.184	323.31
382.409	346.31
382.634	351.31
382.86	376.31
383.085	292.31
383.31	260.31
383.535	273.31
383.761	276.31
383.986	253.31
384.211	294.31
384.436	284.31
384.662	236.31
384.887	237.31
385.112	257.31
385.337	267.31
385.562	260.31
385.787	256.31
386.013	292.31
386.238	280.31
386.463	234.31
386.688	231.31
386.913	232.31
387.138	223.31
387.363	241.31
387.588	238.31
387.813	241.31
388.038	246.31
388.263	230.31
388.488	225.31
388.713	241.31
388.938	272.31
389.163	243.31
389.387	205.31
389.612	212.31
389.837	222.31
390.062	225.31
390.287	239.31
390.512	243.31
390.736	216.31
390.961	223.31
391.186	219.31
391.411	208.31
391.636	217.31
391.86	251.31
392.085	270.31
392.31	259.31
392.534	227.31
392.759	226.31
392.984	261.31
393.208	242.31
393.433	227.31
393.658	206.31
393.882	195.31
394.107	194.31
394.331	213.31
394.556	192.31
394.78	197.31
395.005	199.31
395.229	200.31
395.454	215.31
395.678	208.31
395.903	225.31
396.127	212.31
396.352	211.31
396.576	226.31
396.801	240.31
397.025	270.31
397.249	261.31
397.474	210.31
397.698	226.31
397.922	243.31
398.147	210.31
398.371	218.31
398.595	237.31
398.82	236.31
399.044	240.31
399.268	249.31
399.492	284.31
399.717	277.31
399.941	281.31
400.165	270.31
400.389	245.31
400.613	227.31
400.837	254.31
401.062	222.31
401.286	238.31
401.51	218.31
401.734	229.31
401.958	234.31
402.182	229.31
402.406	245.31
402.63	226.31
402.854	264.31
403.078	276.31
403.302	361.31
403.526	360.31
403.75	328.31
403.974	286.31
404.198	266.31
404.422	315.31
404.645	336.31
404.869	371.31
405.093	301.31
405.317	248.31
405.541	245.31
405.765	229.31
405.988	246.31
406.212	272.31
406.436	277.31
406.66	313.31
406.883	267.31
407.107	285.31
407.331	317.31
407.555	298.31
407.778	273.31
408.002	261.31
408.226	292.31
408.449	281.31
408.673	265.31
408.896	222.31
409.12	248.31
409.344	248.31
409.567	244.31
409.791	229.31
410.014	239.31
410.238	236.31
410.461	249.31
410.685	243.31
410.908	238.31
411.132	237.31
411.355	238.31
411.578	253.31
411.802	247.31
412.025	252.31
412.249	256.31
412.472	241.31
412.695	246.31
412.919	253.31
413.142	237.31
413.365	253.31
413.589	263.31
413.812	238.31
414.035	234.31
414.258	232.31
414.482	257.31
414.705	264.31
414.928	234.31
415.151	216.31
415.374	233.31
415.597	229.31
415.821	217.31
416.044	230.31
416.267	241.31
416.49	230.31
416.713	238.31
416.936	220.31
417.159	215.31
417.382	221.31
417.605	223.31
417.828	228.31
418.051	234.31
418.274	244.31
418.497	248.31
418.72	234.31
418.943	235.31
419.166	247.31
419.389	261.31
419.611	267.31
419.834	256.31
420.057	262.31
420.28	258.31
420.503	238.31
420.726	213.31
420.948	242.31
421.171	243.31
421.394	218.31
421.617	223.31
421.839	238.31
422.062	223.31
422.285	230.31
422.507	232.31
422.73	240.31
422.953	233.31
423.175	258.31
423.398	243.31
423.621	255.31
423.843	274.31
424.066	244.31
424.288	249.31
424.511	247.31
424.733	240.31
424.956	236.31
425.178	242.31
425.401	296.31
425.623	368.31
425.846	291.31
426.068	238.31
426.291	247.31
426.513	250.31
426.735	228.31
426.958	245.31
427.18	267.31
427.402	340.31
427.625	361.31
427.847	313.31
428.069	217.31
428.292	242.31
428.514	222.31
428.736	224.31
428.958	257.31
429.181	304.31
429.403	230.31
429.625	216.31
429.847	221.31
430.069	244.31
430.292	229.31
430.514	228.31
430.736	229.31
430.958	256.31
431.18	256.31
431.402	207.31
431.624	215.31
431.846	213.31
432.068	228.31
432.29	211.31
432.512	240.31
432.734	271.31
432.956	261.31
433.178	226.31
433.4	212.31
433.622	215.31
433.844	226.31
434.066	247.31
434.287	257.31
434.509	225.31
434.731	234.31
434.953	242.31
435.175	243.31
435.397	271.31
435.618	252.31
435.84	210.31
436.062	213.31
436.284	213.31
436.505	215.31
436.727	207.31
436.949	205.31
437.17	205.31
437.392	222.31
437.614	224.31
437.835	215.31
438.057	212.31
438.278	246.31
438.5	322.31
438.721	306.31
438.943	250.31
439.165	215.31
439.386	205.31
439.608	221.31
439.829	201.31
440.05	199.31
440.272	210.31
440.493	225.31
440.715	276.31
440.936	236.31
441.158	233.31
441.379	224.31
441.6	249.31
441.822	248.31
442.043	237.31
442.264	252.31
442.486	236.31
442.707	223.31
442.928	221.31
443.149	236.31
443.371	222.31
443.592	239.31
443.813	245.31
444.034	228.31
444.255	231.31
444.476	245.31
444.698	265.31
444.919	266.31
445.14	358.31
445.361	287.31
445.582	258.31
445.803	236.31
446.024	233.31
446.245	232.31
446.466	243.31
446.687	232.31
446.908	238.31
447.129	216.31
447.35	209.31
447.571	206.31
447.792	205.31
448.013	212.31
448.234	209.31
448.455	195.31
448.675	212.31
448.896	209.31
449.117	214.31
449.338	212.31
449.559	222.31
449.779	234.31
450	212.31
450.221	236.31
450.442	217.31
450.662	202.31
450.883	220.31
451.104	219.31
451.324	215.31
451.545	224.31
451.766	222.31
451.986	207.31
452.207	216.31
452.428	208.31
452.648	209.31
452.869	222.31
453.089	224.31
453.31	223.31
453.53	217.31
453.751	227.31
453.971	215.31
454.192	195.31
454.412	206.31
454.633	200.31
454.853	205.31
455.073	210.31
455.294	199.31
455.514	199.31
455.734	197.31
455.955	207.31
456.175	212.31
456.395	200.31
456.616	202.31
456.836	180.31
457.056	192.31
457.276	177.31
457.497	185.31
457.717	184.31
457.937	194.31
458.157	198.31
458.377	190.31
458.598	198.31
458.818	199.31
459.038	209.31
459.258	217.31
459.478	221.31
459.698	222.31
459.918	240.31
460.138	246.31
460.358	259.31
460.578	221.31
460.798	231.31
461.018	243.31
461.238	241.31
461.458	225.31
461.678	237.31
461.898	253.31
462.118	239.31
462.338	238.31
462.558	243.31
462.777	275.31
462.997	264.31
463.217	297.31
463.437	277.31
463.657	272.31
463.876	267.31
464.096	259.31
464.316	276.31
464.536	267.31
464.755	254.31
464.975	272.31
465.195	259.31
465.414	250.31
465.634	247.31
465.854	229.31
466.073	225.31
466.293	237.31
466.512	226.31
466.732	245.31
466.951	256.31
467.171	245.31
467.391	227.31
467.61	221.31
467.829	238.31
468.049	244.31
468.268	224.31
468.488	218.31
468.707	218.31
468.927	253.31
469.146	276.31
469.365	254.31
469.585	249.31
469.804	240.31
470.023	256.31
470.243	229.31
470.462	245.31
470.681	232.31
470.901	248.31
471.12	227.31
471.339	230.31
471.558	213.31
471.777	219.31
471.997	245.31
472.216	264.31
472.435	261.31
472.654	216.31
472.873	232.31
473.092	241.31
473.311	246.31
473.53	231.31
473.749	237.31
473.968	246.31
474.187	230.31
474.406	239.31
474.625	225.31
474.844	240.31
475.063	247.31
475.282	252.31
475.501	267.31
475.72	280.31
475.939	265.31
476.158	264.31
476.377	293.31
476.596	308.31
476.814	364.31
477.033	302.31
477.252	256.31
477.471	243.31
477.69	247.31
477.908	262.31
478.127	280.31
478.346	264.31
478.564	280.31
478.783	282.31
479.002	266.31
479.22	292.31
479.439	330.31
479.658	304.31
479.876	275.31
480.095	284.31
480.313	284.31
480.532	263.31
480.751	281.31
480.969	272.31
481.188	306.31
481.406	315.31
481.624	289.31
481.843	267.31
482.061	250.31
482.28	279.31
482.498	333.31
482.717	345.31
482.935	294.31
483.153	257.31
483.372	251.31
483.59	263.31
483.808	268.31
484.027	268.31
484.245	240.31
484.463	236.31
484.681	257.31
484.9	260.31
485.118	286.31
485.336	268.31
485.554	266.31
485.772	262.31
485.99	281.31
486.209	291.31
486.427	290.31
486.645	282.31
486.863	281.31
487.081	316.31
487.299	306.31
487.517	300.31
487.735	286.31
487.953	273.31
488.171	299.31
488.389	275.31
488.607	272.31
488.825	290.31
489.043	294.31
489.261	320.31
489.479	346.31
489.696	302.31
489.914	280.31
490.132	268.31
490.35	267.31
490.568	272.31
490.786	256.31
491.003	269.31
491.221	260.31
491.439	263.31
491.657	272.31
491.874	266.31
492.092	321.31
492.31	366.31
492.527	349.31
492.745	332.31
492.963	290.31
493.18	290.31
493.398	288.31
493.615	293.31
493.833	286.31
494.05	288.31
494.268	290.31
494.485	296.31
494.703	278.31
494.92	272.31
495.138	270.31
495.355	278.31
495.573	273.31
495.79	309.31
496.008	366.31
496.225	321.31
496.442	296.31
496.66	307.31
496.877	314.31
497.094	315.31
497.312	285.31
497.529	301.31
497.746	289.31
497.963	308.31
498.181	314.31
498.398	356.31
498.615	361.31
498.832	360.31
499.049	392.31
499.267	363.31
499.484	370.31
499.701	409.31
499.918	442.31
500.135	493.31
500.352	514.31
500.569	546.31
500.786	540.31
501.003	525.31
501.22	476.31
501.437	438.31
501.654	420.31
501.871	392.31
502.088	372.31
502.305	350.31
502.522	358.31
