Data from NickelSpatula_HRD10591_16-36-01-126.txt Node
Date: Mon Jul 22 16:36:01 EDT 2019
User: cochatt
Spectrometer: HR+D1059
Trigger mode: 1
Integration Time (sec): 1.000000E-1
Scans to average: 1
Electric dark correction enabled: true
Nonlinearity correction enabled: false
Boxcar width: 0
XAxis mode: Wavelengths
Number of Pixels in Spectrum: 2048
>>>>>Begin Spectral Data<<<<<
223.165	-27.88
223.4	-27.88
223.635	-27.88
223.869	-16.88
224.104	-8.88
224.338	-4.88
224.573	-13.88
224.808	-5.88
225.042	-2.88
225.277	-9.88
225.511	-9.88
225.746	7.12
225.98	0.12
226.215	17.12
226.449	22.12
226.683	13.12
226.918	22.12
227.152	19.12
227.387	37.12
227.621	34.12
227.856	47.12
228.09	44.12
228.324	45.12
228.559	60.12
228.793	55.12
229.027	71.12
229.262	68.12
229.496	68.12
229.73	63.12
229.964	82.12
230.199	78.12
230.433	95.12
230.667	95.12
230.901	88.12
231.136	88.12
231.37	83.12
231.604	91.12
231.838	100.12
232.072	75.12
232.306	80.12
232.541	105.12
232.775	108.12
233.009	106.12
233.243	99.12
233.477	118.12
233.711	99.12
233.945	103.12
234.179	112.12
234.413	102.12
234.647	114.12
234.881	104.12
235.115	119.12
235.349	102.12
235.583	122.12
235.817	105.12
236.051	95.12
236.285	114.12
236.519	114.12
236.753	113.12
236.987	123.12
237.221	124.12
237.455	101.12
237.689	114.12
237.922	118.12
238.156	117.12
238.39	114.12
238.624	130.12
238.858	130.12
239.091	129.12
239.325	119.12
239.559	114.12
239.793	107.12
240.027	134.12
240.26	126.12
240.494	133.12
240.728	139.12
240.961	129.12
241.195	134.12
241.429	118.12
241.662	126.12
241.896	123.12
242.13	117.12
242.363	127.12
242.597	102.12
242.83	110.12
243.064	128.12
243.298	121.12
243.531	138.12
243.765	139.12
243.998	125.12
244.232	122.12
244.465	130.12
244.699	131.12
244.932	151.12
245.166	139.12
245.399	130.12
245.633	132.12
245.866	130.12
246.099	136.12
246.333	140.12
246.566	134.12
246.8	153.12
247.033	138.12
247.266	152.12
247.5	125.12
247.733	128.12
247.966	132.12
248.2	149.12
248.433	140.12
248.666	150.12
248.899	135.12
249.133	165.12
249.366	165.12
249.599	167.12
249.832	160.12
250.066	144.12
250.299	147.12
250.532	149.12
250.765	140.12
250.998	139.12
251.231	145.12
251.465	140.12
251.698	152.12
251.931	146.12
252.164	146.12
252.397	154.12
252.63	171.12
252.863	182.12
253.096	215.12
253.329	187.12
253.562	178.12
253.795	198.12
254.028	201.12
254.261	202.12
254.494	196.12
254.727	179.12
254.96	184.12
255.193	192.12
255.426	172.12
255.659	158.12
255.892	145.12
256.124	140.12
256.357	172.12
256.59	186.12
256.823	176.12
257.056	163.12
257.289	162.12
257.521	181.12
257.754	184.12
257.987	194.12
258.22	192.12
258.452	167.12
258.685	186.12
258.918	196.12
259.151	199.12
259.383	198.12
259.616	235.12
259.849	238.12
260.081	242.12
260.314	240.12
260.547	226.12
260.779	201.12
261.012	245.12
261.244	236.12
261.477	242.12
261.71	224.12
261.942	195.12
262.175	200.12
262.407	186.12
262.64	188.12
262.872	201.12
263.105	218.12
263.337	228.12
263.57	216.12
263.802	154.12
264.035	143.12
264.267	141.12
264.499	145.12
264.732	126.12
264.964	128.12
265.197	134.12
265.429	148.12
265.661	140.12
265.894	140.12
266.126	158.12
266.358	168.12
266.591	204.12
266.823	217.12
267.055	194.12
267.287	188.12
267.52	206.12
267.752	202.12
267.984	215.12
268.216	202.12
268.448	175.12
268.681	178.12
268.913	178.12
269.145	191.12
269.377	196.12
269.609	195.12
269.841	182.12
270.073	196.12
270.306	207.12
270.538	210.12
270.77	216.12
271.002	213.12
271.234	214.12
271.466	227.12
271.698	193.12
271.93	192.12
272.162	220.12
272.394	212.12
272.626	215.12
272.858	217.12
273.09	220.12
273.322	195.12
273.553	203.12
273.785	224.12
274.017	254.12
274.249	309.12
274.481	309.12
274.713	328.12
274.945	371.12
275.176	378.12
275.408	353.12
275.64	332.12
275.872	323.12
276.104	278.12
276.335	256.12
276.567	268.12
276.799	275.12
277.031	259.12
277.262	223.12
277.494	194.12
277.726	188.12
277.957	219.12
278.189	223.12
278.421	217.12
278.652	216.12
278.884	190.12
279.115	210.12
279.347	171.12
279.579	197.12
279.81	188.12
280.042	192.12
280.273	194.12
280.505	182.12
280.736	164.12
280.968	161.12
281.199	174.12
281.431	196.12
281.662	192.12
281.894	182.12
282.125	184.12
282.356	192.12
282.588	218.12
282.819	199.12
283.051	209.12
283.282	231.12
283.513	268.12
283.745	282.12
283.976	299.12
284.207	263.12
284.439	263.12
284.67	259.12
284.901	247.12
285.132	270.12
285.364	280.12
285.595	258.12
285.826	264.12
286.057	268.12
286.288	260.12
286.52	264.12
286.751	297.12
286.982	284.12
287.213	247.12
287.444	251.12
287.675	246.12
287.906	261.12
288.138	207.12
288.369	178.12
288.6	195.12
288.831	196.12
289.062	226.12
289.293	234.12
289.524	250.12
289.755	232.12
289.986	214.12
290.217	208.12
290.448	156.12
290.679	154.12
290.91	150.12
291.141	154.12
291.371	166.12
291.602	158.12
291.833	167.12
292.064	179.12
292.295	184.12
292.526	198.12
292.757	215.12
292.987	206.12
293.218	196.12
293.449	225.12
293.68	244.12
293.91	223.12
294.141	219.12
294.372	218.12
294.603	211.12
294.833	214.12
295.064	254.12
295.295	224.12
295.525	176.12
295.756	182.12
295.987	166.12
296.217	151.12
296.448	159.12
296.679	167.12
296.909	168.12
297.14	188.12
297.37	190.12
297.601	181.12
297.831	185.12
298.062	199.12
298.292	216.12
298.523	222.12
298.753	231.12
298.984	214.12
299.214	180.12
299.445	175.12
299.675	167.12
299.905	158.12
300.136	175.12
300.366	171.12
300.597	169.12
300.827	162.12
301.057	160.12
301.288	165.12
301.518	174.12
301.748	174.12
301.979	199.12
302.209	207.12
302.439	184.12
302.669	175.12
302.9	180.12
303.13	178.12
303.36	168.12
303.59	170.12
303.82	172.12
304.051	182.12
304.281	200.12
304.511	176.12
304.741	171.12
304.971	186.12
305.201	185.12
305.431	183.12
305.661	167.12
305.891	154.12
306.121	155.12
306.352	164.12
306.582	159.12
306.812	150.12
307.042	134.12
307.272	133.12
307.502	126.12
307.731	143.12
307.961	138.12
308.191	138.12
308.421	131.12
308.651	133.12
308.881	138.12
309.111	134.12
309.341	140.12
309.571	143.12
309.8	153.12
310.03	153.12
310.26	170.12
310.49	160.12
310.72	164.12
310.949	139.12
311.179	159.12
311.409	150.12
311.639	162.12
311.868	200.12
312.098	266.12
312.328	264.12
312.557	251.12
312.787	265.12
313.017	223.12
313.246	253.12
313.476	258.12
313.706	222.12
313.935	200.12
314.165	162.12
314.394	142.12
314.624	158.12
314.853	170.12
315.083	166.12
315.312	163.12
315.542	166.12
315.771	146.12
316.001	155.12
316.23	150.12
316.46	151.12
316.689	130.12
316.919	158.12
317.148	134.12
317.377	127.12
317.607	158.12
317.836	160.12
318.065	151.12
318.295	176.12
318.524	172.12
318.753	152.12
318.983	164.12
319.212	150.12
319.441	162.12
319.67	170.12
319.9	171.12
320.129	158.12
320.358	166.12
320.587	152.12
320.816	157.12
321.046	191.12
321.275	194.12
321.504	181.12
321.733	171.12
321.962	190.12
322.191	179.12
322.42	167.12
322.649	167.12
322.878	183.12
323.108	171.12
323.337	157.12
323.566	158.12
323.795	154.12
324.024	156.12
324.253	163.12
324.482	159.12
324.71	166.12
324.939	185.12
325.168	174.12
325.397	158.12
325.626	155.12
325.855	156.12
326.084	144.12
326.313	143.12
326.542	134.12
326.77	140.12
326.999	129.12
327.228	152.12
327.457	153.12
327.686	138.12
327.914	136.12
328.143	148.12
328.372	142.12
328.6	146.12
328.829	151.12
329.058	134.12
329.287	145.12
329.515	151.12
329.744	144.12
329.972	147.12
330.201	142.12
330.43	135.12
330.658	146.12
330.887	166.12
331.115	168.12
331.344	155.12
331.572	149.12
331.801	132.12
332.03	137.12
332.258	148.12
332.486	146.12
332.715	153.12
332.943	150.12
333.172	146.12
333.4	141.12
333.629	150.12
333.857	175.12
334.085	169.12
334.314	162.12
334.542	148.12
334.771	151.12
334.999	157.12
335.227	140.12
335.455	141.12
335.684	162.12
335.912	163.12
336.14	193.12
336.369	181.12
336.597	184.12
336.825	202.12
337.053	198.12
337.281	176.12
337.51	148.12
337.738	148.12
337.966	153.12
338.194	165.12
338.422	171.12
338.65	144.12
338.878	123.12
339.106	141.12
339.334	152.12
339.562	156.12
339.79	153.12
340.018	149.12
340.246	153.12
340.474	160.12
340.702	176.12
340.93	175.12
341.158	189.12
341.386	160.12
341.614	154.12
341.842	142.12
342.07	164.12
342.298	202.12
342.526	198.12
342.754	180.12
342.981	169.12
343.209	153.12
343.437	175.12
343.665	178.12
343.893	160.12
344.12	187.12
344.348	208.12
344.576	208.12
344.804	166.12
345.031	170.12
345.259	149.12
345.487	145.12
345.714	158.12
345.942	152.12
346.17	187.12
346.397	164.12
346.625	155.12
346.853	151.12
347.08	141.12
347.308	164.12
347.535	168.12
347.763	193.12
347.99	146.12
348.218	150.12
348.445	143.12
348.673	163.12
348.9	163.12
349.128	151.12
349.355	151.12
349.583	150.12
349.81	158.12
350.037	158.12
350.265	129.12
350.492	122.12
350.72	133.12
350.947	147.12
351.174	143.12
351.402	147.12
351.629	148.12
351.856	148.12
352.083	150.12
352.311	153.12
352.538	163.12
352.765	178.12
352.992	171.12
353.22	151.12
353.447	161.12
353.674	150.12
353.901	146.12
354.128	160.12
354.355	156.12
354.583	155.12
354.81	144.12
355.037	162.12
355.264	183.12
355.491	158.12
355.718	163.12
355.945	174.12
356.172	162.12
356.399	169.12
356.626	186.12
356.853	239.12
357.08	254.12
357.307	253.12
357.534	198.12
357.761	207.12
357.988	239.12
358.215	255.12
358.441	226.12
358.668	217.12
358.895	215.12
359.122	184.12
359.349	172.12
359.576	188.12
359.802	159.12
360.029	168.12
360.256	150.12
360.483	194.12
360.709	215.12
360.936	234.12
361.163	198.12
361.39	159.12
361.616	158.12
361.843	180.12
362.07	213.12
362.296	178.12
362.523	168.12
362.749	147.12
362.976	153.12
363.203	177.12
363.429	196.12
363.656	163.12
363.882	174.12
364.109	154.12
364.335	166.12
364.562	156.12
364.788	154.12
365.015	181.12
365.241	164.12
365.468	150.12
365.694	137.12
365.92	128.12
366.147	128.12
366.373	146.12
366.599	124.12
366.826	134.12
367.052	150.12
367.278	142.12
367.505	132.12
367.731	144.12
367.957	164.12
368.184	152.12
368.41	144.12
368.636	162.12
368.862	170.12
369.089	156.12
369.315	160.12
369.541	146.12
369.767	135.12
369.993	138.12
370.219	141.12
370.445	145.12
370.672	159.12
370.898	179.12
371.124	155.12
371.35	159.12
371.576	144.12
371.802	163.12
372.028	171.12
372.254	184.12
372.48	155.12
372.706	170.12
372.932	168.12
373.158	169.12
373.384	204.12
373.61	227.12
373.835	229.12
374.061	183.12
374.287	186.12
374.513	201.12
374.739	229.12
374.965	222.12
375.191	228.12
375.416	164.12
375.642	152.12
375.868	175.12
376.094	197.12
376.319	181.12
376.545	161.12
376.771	185.12
376.997	169.12
377.222	148.12
377.448	126.12
377.674	122.12
377.899	132.12
378.125	146.12
378.35	107.12
378.576	141.12
378.802	150.12
379.027	142.12
379.253	170.12
379.478	174.12
379.704	155.12
379.929	165.12
380.155	172.12
380.38	151.12
380.606	154.12
380.831	174.12
381.057	154.12
381.282	147.12
381.507	187.12
381.733	193.12
381.958	218.12
382.184	236.12
382.409	243.12
382.634	226.12
382.86	240.12
383.085	207.12
383.31	173.12
383.535	190.12
383.761	186.12
383.986	186.12
384.211	200.12
384.436	197.12
384.662	166.12
384.887	163.12
385.112	156.12
385.337	169.12
385.562	168.12
385.787	174.12
386.013	185.12
386.238	181.12
386.463	164.12
386.688	154.12
386.913	161.12
387.138	136.12
387.363	142.12
387.588	154.12
387.813	156.12
388.038	160.12
388.263	159.12
388.488	155.12
388.713	180.12
388.938	177.12
389.163	164.12
389.387	143.12
389.612	163.12
389.837	140.12
390.062	173.12
390.287	163.12
390.512	166.12
390.736	155.12
390.961	150.12
391.186	152.12
391.411	161.12
391.636	141.12
391.86	147.12
392.085	132.12
392.31	167.12
392.534	157.12
392.759	161.12
392.984	170.12
393.208	153.12
393.433	133.12
393.658	136.12
393.882	135.12
394.107	132.12
394.331	128.12
394.556	132.12
394.78	134.12
395.005	150.12
395.229	156.12
395.454	169.12
395.678	151.12
395.903	160.12
396.127	135.12
396.352	145.12
396.576	154.12
396.801	166.12
397.025	184.12
397.249	172.12
397.474	144.12
397.698	145.12
397.922	163.12
398.147	134.12
398.371	161.12
398.595	166.12
398.82	138.12
399.044	138.12
399.268	172.12
399.492	156.12
399.717	144.12
399.941	167.12
400.165	153.12
400.389	160.12
400.613	152.12
400.837	166.12
401.062	154.12
401.286	151.12
401.51	146.12
401.734	148.12
401.958	158.12
402.182	159.12
402.406	140.12
402.63	146.12
402.854	141.12
403.078	174.12
403.302	203.12
403.526	214.12
403.75	192.12
403.974	168.12
404.198	166.12
404.422	192.12
404.645	205.12
404.869	228.12
405.093	184.12
405.317	150.12
405.541	153.12
405.765	159.12
405.988	163.12
406.212	171.12
406.436	191.12
406.66	210.12
406.883	164.12
407.107	166.12
407.331	199.12
407.555	182.12
407.778	159.12
408.002	157.12
408.226	156.12
408.449	155.12
408.673	161.12
408.896	145.12
409.12	150.12
409.344	151.12
409.567	143.12
409.791	136.12
410.014	133.12
410.238	130.12
410.461	127.12
410.685	136.12
410.908	119.12
411.132	145.12
411.355	166.12
411.578	137.12
411.802	144.12
412.025	156.12
412.249	155.12
412.472	154.12
412.695	148.12
412.919	150.12
413.142	152.12
413.365	167.12
413.589	145.12
413.812	147.12
414.035	169.12
414.258	146.12
414.482	175.12
414.705	174.12
414.928	150.12
415.151	145.12
415.374	145.12
415.597	151.12
415.821	143.12
416.044	141.12
416.267	138.12
416.49	133.12
416.713	140.12
416.936	150.12
417.159	148.12
417.382	137.12
417.605	144.12
417.828	148.12
418.051	148.12
418.274	154.12
418.497	146.12
418.72	146.12
418.943	153.12
419.166	155.12
419.389	154.12
419.611	146.12
419.834	162.12
420.057	171.12
420.28	178.12
420.503	152.12
420.726	162.12
420.948	136.12
421.171	134.12
421.394	141.12
421.617	139.12
421.839	149.12
422.062	161.12
422.285	141.12
422.507	139.12
422.73	163.12
422.953	168.12
423.175	145.12
423.398	157.12
423.621	160.12
423.843	163.12
424.066	156.12
424.288	158.12
424.511	147.12
424.733	152.12
424.956	163.12
425.178	187.12
425.401	195.12
425.623	210.12
425.846	163.12
426.068	164.12
426.291	195.12
426.513	159.12
426.735	164.12
426.958	163.12
427.18	186.12
427.402	218.12
427.625	200.12
427.847	190.12
428.069	148.12
428.292	152.12
428.514	140.12
428.736	144.12
428.958	160.12
429.181	188.12
429.403	163.12
429.625	154.12
429.847	130.12
430.069	165.12
430.292	169.12
430.514	134.12
430.736	150.12
430.958	192.12
431.18	165.12
431.402	141.12
431.624	147.12
431.846	148.12
432.068	127.12
432.29	139.12
432.512	156.12
432.734	193.12
432.956	175.12
433.178	160.12
433.4	138.12
433.622	132.12
433.844	139.12
434.066	152.12
434.287	149.12
434.509	138.12
434.731	169.12
434.953	156.12
435.175	147.12
435.397	170.12
435.618	149.12
435.84	153.12
436.062	147.12
436.284	144.12
436.505	129.12
436.727	134.12
436.949	136.12
437.17	145.12
437.392	158.12
437.614	139.12
437.835	149.12
438.057	131.12
438.278	158.12
438.5	212.12
438.721	190.12
438.943	132.12
439.165	141.12
439.386	138.12
439.608	133.12
439.829	130.12
440.05	150.12
440.272	133.12
440.493	156.12
440.715	178.12
440.936	168.12
441.158	146.12
441.379	140.12
441.6	166.12
441.822	150.12
442.043	140.12
442.264	139.12
442.486	160.12
442.707	158.12
442.928	137.12
443.149	146.12
443.371	134.12
443.592	156.12
443.813	153.12
444.034	142.12
444.255	158.12
444.476	143.12
444.698	142.12
444.919	150.12
445.14	277.12
445.361	226.12
445.582	170.12
445.803	156.12
446.024	170.12
446.245	158.12
446.466	145.12
446.687	160.12
446.908	124.12
447.129	136.12
447.35	127.12
447.571	137.12
447.792	138.12
448.013	142.12
448.234	135.12
448.455	136.12
448.675	127.12
448.896	127.12
449.117	135.12
449.338	121.12
449.559	144.12
449.779	148.12
450	146.12
450.221	141.12
450.442	133.12
450.662	138.12
450.883	150.12
451.104	129.12
451.324	151.12
451.545	130.12
451.766	138.12
451.986	145.12
452.207	140.12
452.428	125.12
452.648	128.12
452.869	146.12
453.089	135.12
453.31	138.12
453.53	139.12
453.751	126.12
453.971	143.12
454.192	138.12
454.412	161.12
454.633	136.12
454.853	140.12
455.073	136.12
455.294	114.12
455.514	121.12
455.734	135.12
455.955	130.12
456.175	146.12
456.395	136.12
456.616	113.12
456.836	127.12
457.056	123.12
457.276	134.12
457.497	128.12
457.717	129.12
457.937	136.12
458.157	129.12
458.377	128.12
458.598	127.12
458.818	144.12
459.038	136.12
459.258	158.12
459.478	137.12
459.698	133.12
459.918	140.12
460.138	137.12
460.358	156.12
460.578	138.12
460.798	128.12
461.018	139.12
461.238	158.12
461.458	147.12
461.678	146.12
461.898	154.12
462.118	146.12
462.338	147.12
462.558	161.12
462.777	177.12
462.997	153.12
463.217	138.12
463.437	166.12
463.657	154.12
463.876	162.12
464.096	148.12
464.316	138.12
464.536	152.12
464.755	161.12
464.975	179.12
465.195	153.12
465.414	167.12
465.634	155.12
465.854	154.12
466.073	138.12
466.293	144.12
466.512	142.12
466.732	153.12
466.951	162.12
467.171	144.12
467.391	142.12
467.61	130.12
467.829	141.12
468.049	152.12
468.268	144.12
468.488	132.12
468.707	144.12
468.927	161.12
469.146	174.12
469.365	168.12
469.585	150.12
469.804	157.12
470.023	168.12
470.243	163.12
470.462	151.12
470.681	149.12
470.901	156.12
471.12	142.12
471.339	140.12
471.558	148.12
471.777	148.12
471.997	158.12
472.216	172.12
472.435	171.12
472.654	156.12
472.873	159.12
473.092	149.12
473.311	162.12
473.53	158.12
473.749	145.12
473.968	170.12
474.187	166.12
474.406	151.12
474.625	140.12
474.844	157.12
475.063	138.12
475.282	169.12
475.501	166.12
475.72	181.12
475.939	180.12
476.158	173.12
476.377	195.12
476.596	213.12
476.814	232.12
477.033	196.12
477.252	158.12
477.471	162.12
477.69	154.12
477.908	164.12
478.127	163.12
478.346	158.12
478.564	185.12
478.783	175.12
479.002	149.12
479.22	194.12
479.439	190.12
479.658	180.12
479.876	172.12
480.095	161.12
480.313	180.12
480.532	184.12
480.751	158.12
480.969	161.12
481.188	168.12
481.406	180.12
481.624	176.12
481.843	158.12
482.061	160.12
482.28	168.12
482.498	214.12
482.717	220.12
482.935	180.12
483.153	185.12
483.372	153.12
483.59	163.12
483.808	181.12
484.027	138.12
484.245	148.12
484.463	156.12
484.681	160.12
484.9	177.12
485.118	178.12
485.336	177.12
485.554	147.12
485.772	152.12
485.99	159.12
486.209	177.12
486.427	154.12
486.645	176.12
486.863	173.12
487.081	180.12
487.299	212.12
487.517	209.12
487.735	171.12
487.953	201.12
488.171	160.12
488.389	186.12
488.607	168.12
488.825	183.12
489.043	200.12
489.261	213.12
489.479	222.12
489.696	166.12
489.914	171.12
490.132	153.12
490.35	159.12
490.568	174.12
490.786	174.12
491.003	161.12
491.221	183.12
491.439	158.12
491.657	176.12
491.874	174.12
492.092	210.12
492.31	263.12
492.527	244.12
492.745	196.12
492.963	183.12
493.18	171.12
493.398	189.12
493.615	189.12
493.833	185.12
494.05	200.12
494.268	183.12
494.485	164.12
494.703	179.12
494.92	167.12
495.138	192.12
495.355	176.12
495.573	185.12
495.79	200.12
496.008	260.12
496.225	208.12
496.442	179.12
496.66	208.12
496.877	195.12
497.094	203.12
497.312	181.12
497.529	174.12
497.746	186.12
497.963	175.12
498.181	198.12
498.398	225.12
498.615	219.12
498.832	216.12
499.049	226.12
499.267	208.12
499.484	206.12
499.701	214.12
499.918	222.12
500.135	245.12
500.352	262.12
500.569	254.12
500.786	259.12
501.003	272.12
501.22	230.12
501.437	223.12
501.654	219.12
501.871	217.12
502.088	207.12
502.305	199.12
502.522	198.12
502.739	198.12
