Data from NickelSpatula.Lamp.E5.5.P2_HRD10591_11-52-19-555.txt Node
Date: Tue Jul 23 11:52:19 EDT 2019
User: cochatt
Spectrometer: HR+D1059
Trigger mode: 1
Integration Time (sec): 1.000000E-1
Scans to average: 1
Electric dark correction enabled: true
Nonlinearity correction enabled: false
Boxcar width: 0
XAxis mode: Wavelengths
Number of Pixels in Spectrum: 2048
>>>>>Begin Spectral Data<<<<<
223.165	-25.5
223.4	-25.5
223.635	-25.5
223.869	-22.5
224.104	-19.5
224.338	-8.5
224.573	-6.5
224.808	-17.5
225.042	-5.5
225.277	-15.5
225.511	-8.5
225.746	5.5
225.98	-3.5
226.215	31.5
226.449	25.5
226.683	2.5
226.918	28.5
227.152	39.5
227.387	25.5
227.621	37.5
227.856	44.5
228.09	55.5
228.324	59.5
228.559	65.5
228.793	53.5
229.027	69.5
229.262	94.5
229.496	67.5
229.73	82.5
229.964	83.5
230.199	93.5
230.433	97.5
230.667	105.5
230.901	90.5
231.136	86.5
231.37	93.5
231.604	88.5
231.838	102.5
232.072	99.5
232.306	115.5
232.541	104.5
232.775	110.5
233.009	113.5
233.243	122.5
233.477	118.5
233.711	127.5
233.945	151.5
234.179	121.5
234.413	111.5
234.647	136.5
234.881	150.5
235.115	137.5
235.349	138.5
235.583	119.5
235.817	133.5
236.051	131.5
236.285	143.5
236.519	149.5
236.753	131.5
236.987	129.5
237.221	150.5
237.455	137.5
237.689	139.5
237.922	137.5
238.156	135.5
238.39	147.5
238.624	179.5
238.858	164.5
239.091	143.5
239.325	136.5
239.559	163.5
239.793	148.5
240.027	183.5
240.26	165.5
240.494	165.5
240.728	170.5
240.961	181.5
241.195	184.5
241.429	155.5
241.662	163.5
241.896	153.5
242.13	145.5
242.363	129.5
242.597	140.5
242.83	157.5
243.064	143.5
243.298	170.5
243.531	160.5
243.765	175.5
243.998	181.5
244.232	169.5
244.465	169.5
244.699	150.5
244.932	186.5
245.166	159.5
245.399	150.5
245.633	159.5
245.866	163.5
246.099	157.5
246.333	185.5
246.566	209.5
246.8	205.5
247.033	199.5
247.266	180.5
247.5	174.5
247.733	165.5
247.966	153.5
248.2	181.5
248.433	202.5
248.666	206.5
248.899	202.5
249.133	215.5
249.366	219.5
249.599	238.5
249.832	227.5
250.066	203.5
250.299	201.5
250.532	202.5
250.765	200.5
250.998	183.5
251.231	180.5
251.465	194.5
251.698	203.5
251.931	182.5
252.164	208.5
252.397	230.5
252.63	239.5
252.863	256.5
253.096	263.5
253.329	274.5
253.562	255.5
253.795	278.5
254.028	309.5
254.261	323.5
254.494	269.5
254.727	263.5
254.96	241.5
255.193	278.5
255.426	275.5
255.659	223.5
255.892	207.5
256.124	202.5
256.357	253.5
256.59	286.5
256.823	265.5
257.056	246.5
257.289	228.5
257.521	226.5
257.754	267.5
257.987	316.5
258.22	269.5
258.452	249.5
258.685	277.5
258.918	306.5
259.151	270.5
259.383	291.5
259.616	345.5
259.849	352.5
260.081	371.5
260.314	396.5
260.547	326.5
260.779	345.5
261.012	365.5
261.244	350.5
261.477	346.5
261.71	333.5
261.942	293.5
262.175	288.5
262.407	292.5
262.64	276.5
262.872	351.5
263.105	350.5
263.337	380.5
263.57	354.5
263.802	240.5
264.035	209.5
264.267	209.5
264.499	198.5
264.732	157.5
264.964	184.5
265.197	181.5
265.429	204.5
265.661	205.5
265.894	195.5
266.126	226.5
266.358	233.5
266.591	285.5
266.823	346.5
267.055	323.5
267.287	293.5
267.52	302.5
267.752	321.5
267.984	330.5
268.216	329.5
268.448	278.5
268.681	273.5
268.913	267.5
269.145	303.5
269.377	309.5
269.609	308.5
269.841	271.5
270.073	307.5
270.306	318.5
270.538	327.5
270.77	322.5
271.002	331.5
271.234	332.5
271.466	344.5
271.698	311.5
271.93	312.5
272.162	308.5
272.394	296.5
272.626	312.5
272.858	314.5
273.09	343.5
273.322	288.5
273.553	280.5
273.785	288.5
274.017	393.5
274.249	486.5
274.481	506.5
274.713	528.5
274.945	623.5
275.176	612.5
275.408	561.5
275.64	527.5
275.872	502.5
276.104	454.5
276.335	403.5
276.567	401.5
276.799	389.5
277.031	434.5
277.262	333.5
277.494	283.5
277.726	260.5
277.957	293.5
278.189	302.5
278.421	328.5
278.652	326.5
278.884	309.5
279.115	291.5
279.347	273.5
279.579	291.5
279.81	291.5
280.042	298.5
280.273	272.5
280.505	260.5
280.736	248.5
280.968	243.5
281.199	249.5
281.431	292.5
281.662	278.5
281.894	265.5
282.125	282.5
282.356	286.5
282.588	309.5
282.819	285.5
283.051	296.5
283.282	340.5
283.513	399.5
283.745	455.5
283.976	440.5
284.207	424.5
284.439	434.5
284.67	417.5
284.901	369.5
285.132	409.5
285.364	430.5
285.595	387.5
285.826	405.5
286.057	416.5
286.288	430.5
286.52	422.5
286.751	433.5
286.982	433.5
287.213	388.5
287.444	383.5
287.675	394.5
287.906	417.5
288.138	355.5
288.369	312.5
288.6	306.5
288.831	313.5
289.062	341.5
289.293	387.5
289.524	369.5
289.755	371.5
289.986	363.5
290.217	347.5
290.448	286.5
290.679	237.5
290.91	211.5
291.141	225.5
291.371	226.5
291.602	231.5
291.833	240.5
292.064	237.5
292.295	271.5
292.526	310.5
292.757	318.5
292.987	343.5
293.218	355.5
293.449	357.5
293.68	389.5
293.91	361.5
294.141	385.5
294.372	351.5
294.603	333.5
294.833	355.5
295.064	426.5
295.295	415.5
295.525	325.5
295.756	259.5
295.987	251.5
296.217	242.5
296.448	249.5
296.679	257.5
296.909	255.5
297.14	278.5
297.37	326.5
297.601	287.5
297.831	268.5
298.062	265.5
298.292	310.5
298.523	341.5
298.753	376.5
298.984	335.5
299.214	287.5
299.445	254.5
299.675	250.5
299.905	249.5
300.136	264.5
300.366	274.5
300.597	264.5
300.827	243.5
301.057	244.5
301.288	250.5
301.518	254.5
301.748	278.5
301.979	298.5
302.209	309.5
302.439	327.5
302.669	274.5
302.9	275.5
303.13	267.5
303.36	266.5
303.59	240.5
303.82	271.5
304.051	286.5
304.281	297.5
304.511	293.5
304.741	270.5
304.971	286.5
305.201	283.5
305.431	253.5
305.661	238.5
305.891	250.5
306.121	232.5
306.352	211.5
306.582	212.5
306.812	218.5
307.042	228.5
307.272	216.5
307.502	187.5
307.731	211.5
307.961	213.5
308.191	200.5
308.421	209.5
308.651	205.5
308.881	203.5
309.111	193.5
309.341	209.5
309.571	209.5
309.8	217.5
310.03	227.5
310.26	226.5
310.49	226.5
310.72	215.5
310.949	210.5
311.179	209.5
311.409	225.5
311.639	229.5
311.868	296.5
312.098	373.5
312.328	421.5
312.557	415.5
312.787	405.5
313.017	362.5
313.246	372.5
313.476	412.5
313.706	353.5
313.935	294.5
314.165	256.5
314.394	218.5
314.624	232.5
314.853	237.5
315.083	244.5
315.312	238.5
315.542	235.5
315.771	220.5
316.001	207.5
316.23	210.5
316.46	199.5
316.689	209.5
316.919	207.5
317.148	229.5
317.377	223.5
317.607	221.5
317.836	209.5
318.065	249.5
318.295	281.5
318.524	267.5
318.753	235.5
318.983	213.5
319.212	219.5
319.441	223.5
319.67	257.5
319.9	281.5
320.129	248.5
320.358	230.5
320.587	205.5
320.816	211.5
321.046	258.5
321.275	281.5
321.504	281.5
321.733	265.5
321.962	263.5
322.191	240.5
322.42	228.5
322.649	234.5
322.878	270.5
323.108	275.5
323.337	246.5
323.566	237.5
323.795	224.5
324.024	231.5
324.253	228.5
324.482	222.5
324.71	239.5
324.939	272.5
325.168	239.5
325.397	238.5
325.626	215.5
325.855	222.5
326.084	230.5
326.313	214.5
326.542	208.5
326.77	221.5
326.999	203.5
327.228	232.5
327.457	247.5
327.686	229.5
327.914	220.5
328.143	196.5
328.372	201.5
328.6	207.5
328.829	214.5
329.058	203.5
329.287	199.5
329.515	221.5
329.744	224.5
329.972	212.5
330.201	190.5
330.43	200.5
330.658	219.5
330.887	229.5
331.115	233.5
331.344	253.5
331.572	241.5
331.801	212.5
332.03	206.5
332.258	210.5
332.486	226.5
332.715	240.5
332.943	208.5
333.172	239.5
333.4	234.5
333.629	249.5
333.857	256.5
334.085	260.5
334.314	258.5
334.542	261.5
334.771	242.5
334.999	244.5
335.227	224.5
335.455	234.5
335.684	255.5
335.912	268.5
336.14	279.5
336.369	295.5
336.597	285.5
336.825	299.5
337.053	331.5
337.281	283.5
337.51	227.5
337.738	219.5
337.966	237.5
338.194	241.5
338.422	241.5
338.65	226.5
338.878	235.5
339.106	216.5
339.334	253.5
339.562	239.5
339.79	226.5
340.018	211.5
340.246	243.5
340.474	253.5
340.702	274.5
340.93	287.5
341.158	297.5
341.386	243.5
341.614	246.5
341.842	235.5
342.07	244.5
342.298	289.5
342.526	307.5
342.754	273.5
342.981	244.5
343.209	247.5
343.437	260.5
343.665	277.5
343.893	279.5
344.12	299.5
344.348	344.5
344.576	322.5
344.804	273.5
345.031	229.5
345.259	224.5
345.487	234.5
345.714	222.5
345.942	250.5
346.17	264.5
346.397	270.5
346.625	228.5
346.853	225.5
347.08	217.5
347.308	246.5
347.535	257.5
347.763	281.5
347.99	229.5
348.218	225.5
348.445	237.5
348.673	241.5
348.9	234.5
349.128	246.5
349.355	226.5
349.583	236.5
349.81	217.5
350.037	226.5
350.265	201.5
350.492	196.5
350.72	182.5
350.947	189.5
351.174	205.5
351.402	221.5
351.629	229.5
351.856	225.5
352.083	213.5
352.311	211.5
352.538	232.5
352.765	227.5
352.992	225.5
353.22	225.5
353.447	246.5
353.674	201.5
353.901	227.5
354.128	209.5
354.355	224.5
354.583	230.5
354.81	232.5
355.037	243.5
355.264	229.5
355.491	243.5
355.718	271.5
355.945	231.5
356.172	249.5
356.399	242.5
356.626	281.5
356.853	339.5
357.08	370.5
357.307	365.5
357.534	298.5
357.761	301.5
357.988	362.5
358.215	433.5
358.441	391.5
358.668	337.5
358.895	307.5
359.122	275.5
359.349	291.5
359.576	308.5
359.802	275.5
360.029	208.5
360.256	229.5
360.483	287.5
360.709	341.5
360.936	366.5
361.163	305.5
361.39	237.5
361.616	227.5
361.843	261.5
362.07	298.5
362.296	270.5
362.523	225.5
362.749	218.5
362.976	235.5
363.203	256.5
363.429	293.5
363.656	241.5
363.882	222.5
364.109	231.5
364.335	239.5
364.562	237.5
364.788	244.5
365.015	276.5
365.241	266.5
365.468	233.5
365.694	212.5
365.92	223.5
366.147	191.5
366.373	189.5
366.599	189.5
366.826	209.5
367.052	203.5
367.278	203.5
367.505	211.5
367.731	213.5
367.957	224.5
368.184	240.5
368.41	230.5
368.636	241.5
368.862	247.5
369.089	229.5
369.315	214.5
369.541	216.5
369.767	202.5
369.993	203.5
370.219	208.5
370.445	208.5
370.672	239.5
370.898	249.5
371.124	245.5
371.35	218.5
371.576	231.5
371.802	220.5
372.028	278.5
372.254	292.5
372.48	275.5
372.706	242.5
372.932	244.5
373.158	262.5
373.384	289.5
373.61	381.5
373.835	370.5
374.061	312.5
374.287	277.5
374.513	299.5
374.739	361.5
374.965	363.5
375.191	351.5
375.416	246.5
375.642	240.5
375.868	266.5
376.094	298.5
376.319	283.5
376.545	292.5
376.771	292.5
376.997	262.5
377.222	201.5
377.448	183.5
377.674	211.5
377.899	206.5
378.125	191.5
378.35	202.5
378.576	194.5
378.802	195.5
379.027	198.5
379.253	227.5
379.478	219.5
379.704	226.5
379.929	253.5
380.155	271.5
380.38	233.5
380.606	223.5
380.831	252.5
381.057	258.5
381.282	226.5
381.507	249.5
381.733	309.5
381.958	307.5
382.184	343.5
382.409	350.5
382.634	361.5
382.86	389.5
383.085	325.5
383.31	275.5
383.535	277.5
383.761	296.5
383.986	253.5
384.211	298.5
384.436	307.5
384.662	243.5
384.887	238.5
385.112	252.5
385.337	260.5
385.562	259.5
385.787	272.5
386.013	307.5
386.238	310.5
386.463	249.5
386.688	246.5
386.913	224.5
387.138	223.5
387.363	225.5
387.588	238.5
387.813	253.5
388.038	245.5
388.263	230.5
388.488	230.5
388.713	261.5
388.938	293.5
389.163	233.5
389.387	215.5
389.612	222.5
389.837	222.5
390.062	246.5
390.287	231.5
390.512	241.5
390.736	205.5
390.961	221.5
391.186	227.5
391.411	212.5
391.636	215.5
391.86	237.5
392.085	241.5
392.31	260.5
392.534	244.5
392.759	230.5
392.984	259.5
393.208	226.5
393.433	245.5
393.658	209.5
393.882	207.5
394.107	214.5
394.331	201.5
394.556	195.5
394.78	201.5
395.005	203.5
395.229	208.5
395.454	233.5
395.678	234.5
395.903	224.5
396.127	232.5
396.352	221.5
396.576	237.5
396.801	234.5
397.025	255.5
397.249	274.5
397.474	219.5
397.698	225.5
397.922	228.5
398.147	229.5
398.371	234.5
398.595	251.5
398.82	237.5
399.044	216.5
399.268	240.5
399.492	288.5
399.717	293.5
399.941	271.5
400.165	266.5
400.389	251.5
400.613	252.5
400.837	250.5
401.062	241.5
401.286	221.5
401.51	246.5
401.734	224.5
401.958	231.5
402.182	245.5
402.406	219.5
402.63	240.5
402.854	256.5
403.078	298.5
403.302	368.5
403.526	387.5
403.75	341.5
403.974	285.5
404.198	279.5
404.422	318.5
404.645	328.5
404.869	356.5
405.093	297.5
405.317	270.5
405.541	257.5
405.765	262.5
405.988	266.5
406.212	266.5
406.436	282.5
406.66	330.5
406.883	276.5
407.107	282.5
407.331	325.5
407.555	323.5
407.778	278.5
408.002	275.5
408.226	281.5
408.449	254.5
408.673	258.5
408.896	268.5
409.12	254.5
409.344	238.5
409.567	238.5
409.791	248.5
410.014	236.5
410.238	229.5
410.461	246.5
410.685	237.5
410.908	232.5
411.132	249.5
411.355	235.5
411.578	225.5
411.802	223.5
412.025	240.5
412.249	251.5
412.472	257.5
412.695	244.5
412.919	226.5
413.142	259.5
413.365	256.5
413.589	257.5
413.812	229.5
414.035	242.5
414.258	214.5
414.482	257.5
414.705	254.5
414.928	249.5
415.151	238.5
415.374	216.5
415.597	237.5
415.821	235.5
416.044	218.5
416.267	224.5
416.49	228.5
416.713	230.5
416.936	227.5
417.159	231.5
417.382	223.5
417.605	253.5
417.828	235.5
418.051	235.5
418.274	249.5
418.497	232.5
418.72	228.5
418.943	258.5
419.166	257.5
419.389	256.5
419.611	256.5
419.834	255.5
420.057	278.5
420.28	262.5
420.503	245.5
420.726	233.5
420.948	219.5
421.171	252.5
421.394	221.5
421.617	237.5
421.839	230.5
422.062	230.5
422.285	246.5
422.507	242.5
422.73	246.5
422.953	238.5
423.175	238.5
423.398	256.5
423.621	261.5
423.843	258.5
424.066	257.5
424.288	268.5
424.511	243.5
424.733	230.5
424.956	257.5
425.178	269.5
425.401	282.5
425.623	364.5
425.846	305.5
426.068	259.5
426.291	273.5
426.513	259.5
426.735	233.5
426.958	241.5
427.18	276.5
427.402	336.5
427.625	353.5
427.847	294.5
428.069	247.5
428.292	218.5
428.514	228.5
428.736	217.5
428.958	257.5
429.181	304.5
429.403	250.5
429.625	216.5
429.847	239.5
430.069	226.5
430.292	232.5
430.514	230.5
430.736	241.5
430.958	273.5
431.18	246.5
431.402	213.5
431.624	214.5
431.846	202.5
432.068	207.5
432.29	207.5
432.512	224.5
432.734	283.5
432.956	279.5
433.178	225.5
433.4	208.5
433.622	239.5
433.844	234.5
434.066	253.5
434.287	253.5
434.509	250.5
434.731	240.5
434.953	247.5
435.175	246.5
435.397	282.5
435.618	244.5
435.84	226.5
436.062	212.5
436.284	207.5
436.505	211.5
436.727	219.5
436.949	198.5
437.17	226.5
437.392	217.5
437.614	212.5
437.835	215.5
438.057	224.5
438.278	240.5
438.5	327.5
438.721	321.5
438.943	240.5
439.165	204.5
439.386	220.5
439.608	200.5
439.829	210.5
440.05	229.5
440.272	229.5
440.493	232.5
440.715	293.5
440.936	242.5
441.158	225.5
441.379	224.5
441.6	255.5
441.822	258.5
442.043	230.5
442.264	237.5
442.486	227.5
442.707	242.5
442.928	232.5
443.149	226.5
443.371	228.5
443.592	230.5
443.813	226.5
444.034	243.5
444.255	241.5
444.476	252.5
444.698	259.5
444.919	260.5
445.14	367.5
445.361	288.5
445.582	265.5
445.803	255.5
446.024	253.5
446.245	260.5
446.466	236.5
446.687	223.5
446.908	216.5
447.129	209.5
447.35	205.5
447.571	210.5
447.792	204.5
448.013	206.5
448.234	215.5
448.455	211.5
448.675	202.5
448.896	221.5
449.117	215.5
449.338	220.5
449.559	213.5
449.779	233.5
450	218.5
450.221	213.5
450.442	210.5
450.662	205.5
450.883	223.5
451.104	207.5
451.324	193.5
451.545	218.5
451.766	237.5
451.986	211.5
452.207	194.5
452.428	212.5
452.648	206.5
452.869	218.5
453.089	222.5
453.31	217.5
453.53	203.5
453.751	199.5
453.971	198.5
454.192	212.5
454.412	232.5
454.633	212.5
454.853	224.5
455.073	190.5
455.294	208.5
455.514	203.5
455.734	209.5
455.955	214.5
456.175	213.5
456.395	197.5
456.616	201.5
456.836	187.5
457.056	208.5
457.276	202.5
457.497	194.5
457.717	191.5
457.937	191.5
458.157	207.5
458.377	186.5
458.598	203.5
458.818	194.5
459.038	201.5
459.258	213.5
459.478	218.5
459.698	247.5
459.918	237.5
460.138	232.5
460.358	262.5
460.578	224.5
460.798	217.5
461.018	239.5
461.238	236.5
461.458	233.5
461.678	235.5
461.898	258.5
462.118	244.5
462.338	255.5
462.558	256.5
462.777	267.5
462.997	278.5
463.217	274.5
463.437	272.5
463.657	267.5
463.876	261.5
464.096	259.5
464.316	257.5
464.536	277.5
464.755	265.5
464.975	283.5
465.195	259.5
465.414	271.5
465.634	248.5
465.854	242.5
466.073	235.5
466.293	239.5
466.512	242.5
466.732	243.5
466.951	270.5
467.171	230.5
467.391	213.5
467.61	226.5
467.829	227.5
468.049	240.5
468.268	229.5
468.488	223.5
468.707	221.5
468.927	258.5
469.146	281.5
469.365	263.5
469.585	232.5
469.804	231.5
470.023	271.5
470.243	259.5
470.462	260.5
470.681	245.5
470.901	221.5
471.12	234.5
471.339	237.5
471.558	247.5
471.777	242.5
471.997	243.5
472.216	257.5
472.435	263.5
472.654	221.5
472.873	231.5
473.092	218.5
473.311	237.5
473.53	235.5
473.749	240.5
473.968	231.5
474.187	234.5
474.406	228.5
474.625	228.5
474.844	246.5
475.063	255.5
475.282	247.5
475.501	254.5
475.72	291.5
475.939	261.5
476.158	269.5
476.377	296.5
476.596	326.5
476.814	348.5
477.033	284.5
477.252	257.5
477.471	231.5
477.69	235.5
477.908	275.5
478.127	282.5
478.346	260.5
478.564	306.5
478.783	291.5
479.002	282.5
479.22	291.5
479.439	346.5
479.658	295.5
479.876	266.5
480.095	305.5
480.313	314.5
480.532	283.5
480.751	280.5
480.969	275.5
481.188	305.5
481.406	323.5
481.624	293.5
481.843	266.5
482.061	264.5
482.28	296.5
482.498	334.5
482.717	329.5
482.935	287.5
483.153	264.5
483.372	275.5
483.59	256.5
483.808	250.5
484.027	239.5
484.245	262.5
484.463	259.5
484.681	263.5
484.9	273.5
485.118	303.5
485.336	290.5
485.554	266.5
485.772	277.5
485.99	275.5
486.209	299.5
486.427	289.5
486.645	282.5
486.863	305.5
487.081	291.5
487.299	296.5
487.517	317.5
487.735	285.5
487.953	295.5
488.171	302.5
488.389	267.5
488.607	268.5
488.825	277.5
489.043	284.5
489.261	334.5
489.479	335.5
489.696	293.5
489.914	281.5
490.132	255.5
490.35	266.5
490.568	258.5
490.786	273.5
491.003	275.5
491.221	271.5
491.439	273.5
491.657	271.5
491.874	285.5
492.092	328.5
492.31	361.5
492.527	373.5
492.745	341.5
492.963	294.5
493.18	304.5
493.398	315.5
493.615	301.5
493.833	298.5
494.05	299.5
494.268	293.5
494.485	288.5
494.703	297.5
494.92	298.5
495.138	294.5
495.355	302.5
495.573	274.5
495.79	301.5
496.008	374.5
496.225	334.5
496.442	325.5
496.66	323.5
496.877	325.5
497.094	310.5
497.312	309.5
497.529	300.5
497.746	297.5
497.963	331.5
498.181	347.5
498.398	357.5
498.615	370.5
498.832	413.5
499.049	391.5
499.267	376.5
499.484	377.5
499.701	417.5
499.918	449.5
500.135	496.5
500.352	527.5
500.569	570.5
500.786	554.5
501.003	537.5
501.22	469.5
501.437	446.5
501.654	385.5
501.871	365.5
502.088	383.5
502.305	350.5
502.522	342.5
502.739	350.5
502.956	325.5
503.172	317.5
503.389	300.5
503.606	309.5
503.823	277.5
504.04	316.5
504.256	309.5
504.473	323.5
504.69	328.5
504.907	315.5
505.123	321.5
505.34	351.5
505.557	329.5
505.773	306.5
505.99	285.5
506.207	296.5
506.423	288.5
506.64	259.5
506.856	279.5
507.073	318.5
507.289	293.5
507.506	299.5
507.722	329.5
507.939	310.5
508.155	343.5
508.372	284.5
508.588	298.5
508.805	291.5
509.021	265.5
509.238	283.5
509.454	273.5
509.67	257.5
509.887	264.5
510.103	323.5
510.319	308.5
510.536	281.5
510.752	250.5
510.968	258.5
511.184	228.5
511.401	258.5
511.617	239.5
511.833	268.5
512.049	260.5
512.265	260.5
512.481	273.5
512.698	296.5
512.914	303.5
513.13	298.5
513.346	267.5
513.562	280.5
513.778	269.5
513.994	273.5
514.21	268.5
514.426	281.5
514.642	258.5
514.858	278.5
515.074	257.5
515.29	305.5
515.506	330.5
515.721	304.5
515.937	288.5
516.153	277.5
516.369	256.5
516.585	283.5
516.801	314.5
517.016	370.5
517.232	365.5
517.448	359.5
517.664	339.5
517.879	320.5
518.095	328.5
518.311	321.5
518.527	327.5
518.742	335.5
518.958	347.5
519.173	331.5
519.389	331.5
519.605	328.5
519.82	327.5
520.036	379.5
520.251	386.5
520.467	385.5
