Data from NickelSpatula_HRD10591_16-33-30-126.txt Node
Date: Mon Jul 22 16:33:30 EDT 2019
User: cochatt
Spectrometer: HR+D1059
Trigger mode: 1
Integration Time (sec): 1.000000E-1
Scans to average: 1
Electric dark correction enabled: true
Nonlinearity correction enabled: false
Boxcar width: 0
XAxis mode: Wavelengths
Number of Pixels in Spectrum: 2048
>>>>>Begin Spectral Data<<<<<
223.165	-12.06
223.4	-12.06
223.635	-12.06
223.869	-19.06
224.104	-21.06
224.338	3.94
224.573	-17.06
224.808	-5.06
225.042	0.94
225.277	-4.06
225.511	-9.06
225.746	-6.06
225.98	7.94
226.215	13.94
226.449	5.94
226.683	21.94
226.918	23.94
227.152	14.94
227.387	31.94
227.621	41.94
227.856	51.94
228.09	43.94
228.324	56.94
228.559	52.94
228.793	69.94
229.027	70.94
229.262	80.94
229.496	62.94
229.73	76.94
229.964	75.94
230.199	94.94
230.433	83.94
230.667	90.94
230.901	95.94
231.136	76.94
231.37	93.94
231.604	106.94
231.838	107.94
232.072	108.94
232.306	102.94
232.541	105.94
232.775	100.94
233.009	112.94
233.243	109.94
233.477	123.94
233.711	106.94
233.945	121.94
234.179	110.94
234.413	125.94
234.647	128.94
234.881	145.94
235.115	137.94
235.349	123.94
235.583	124.94
235.817	137.94
236.051	113.94
236.285	139.94
236.519	149.94
236.753	119.94
236.987	146.94
237.221	126.94
237.455	131.94
237.689	134.94
237.922	120.94
238.156	136.94
238.39	142.94
238.624	167.94
238.858	145.94
239.091	140.94
239.325	137.94
239.559	139.94
239.793	135.94
240.027	148.94
240.26	131.94
240.494	155.94
240.728	161.94
240.961	168.94
241.195	164.94
241.429	156.94
241.662	169.94
241.896	132.94
242.13	125.94
242.363	135.94
242.597	127.94
242.83	157.94
243.064	156.94
243.298	152.94
243.531	168.94
243.765	157.94
243.998	166.94
244.232	156.94
244.465	160.94
244.699	149.94
244.932	174.94
245.166	178.94
245.399	171.94
245.633	149.94
245.866	158.94
246.099	165.94
246.333	167.94
246.566	194.94
246.8	181.94
247.033	185.94
247.266	179.94
247.5	209.94
247.733	158.94
247.966	162.94
248.2	166.94
248.433	177.94
248.666	193.94
248.899	187.94
249.133	187.94
249.366	205.94
249.599	213.94
249.832	212.94
250.066	194.94
250.299	206.94
250.532	180.94
250.765	195.94
250.998	177.94
251.231	181.94
251.465	177.94
251.698	192.94
251.931	198.94
252.164	191.94
252.397	207.94
252.63	236.94
252.863	243.94
253.096	268.94
253.329	252.94
253.562	247.94
253.795	263.94
254.028	282.94
254.261	303.94
254.494	277.94
254.727	266.94
254.96	257.94
255.193	280.94
255.426	273.94
255.659	214.94
255.892	188.94
256.124	207.94
256.357	231.94
256.59	266.94
256.823	270.94
257.056	217.94
257.289	201.94
257.521	210.94
257.754	253.94
257.987	292.94
258.22	261.94
258.452	201.94
258.685	230.94
258.918	277.94
259.151	252.94
259.383	297.94
259.616	339.94
259.849	333.94
260.081	345.94
260.314	383.94
260.547	296.94
260.779	329.94
261.012	355.94
261.244	320.94
261.477	345.94
261.71	311.94
261.942	279.94
262.175	280.94
262.407	285.94
262.64	285.94
262.872	322.94
263.105	336.94
263.337	351.94
263.57	316.94
263.802	247.94
264.035	212.94
264.267	225.94
264.499	195.94
264.732	198.94
264.964	182.94
265.197	165.94
265.429	183.94
265.661	192.94
265.894	209.94
266.126	210.94
266.358	233.94
266.591	270.94
266.823	345.94
267.055	295.94
267.287	273.94
267.52	282.94
267.752	304.94
267.984	315.94
268.216	308.94
268.448	269.94
268.681	263.94
268.913	250.94
269.145	284.94
269.377	293.94
269.609	302.94
269.841	277.94
270.073	302.94
270.306	291.94
270.538	301.94
270.77	312.94
271.002	318.94
271.234	338.94
271.466	344.94
271.698	308.94
271.93	288.94
272.162	294.94
272.394	298.94
272.626	297.94
272.858	313.94
273.09	311.94
273.322	276.94
273.553	256.94
273.785	291.94
274.017	385.94
274.249	429.94
274.481	461.94
274.713	500.94
274.945	565.94
275.176	565.94
275.408	536.94
275.64	494.94
275.872	487.94
276.104	433.94
276.335	388.94
276.567	397.94
276.799	405.94
277.031	428.94
277.262	343.94
277.494	267.94
277.726	257.94
277.957	275.94
278.189	307.94
278.421	327.94
278.652	300.94
278.884	294.94
279.115	269.94
279.347	251.94
279.579	264.94
279.81	256.94
280.042	248.94
280.273	281.94
280.505	259.94
280.736	238.94
280.968	229.94
281.199	251.94
281.431	262.94
281.662	284.94
281.894	244.94
282.125	275.94
282.356	293.94
282.588	305.94
282.819	263.94
283.051	283.94
283.282	345.94
283.513	387.94
283.745	437.94
283.976	418.94
284.207	389.94
284.439	413.94
284.67	415.94
284.901	338.94
285.132	385.94
285.364	407.94
285.595	375.94
285.826	415.94
286.057	425.94
286.288	423.94
286.52	417.94
286.751	451.94
286.982	436.94
287.213	367.94
287.444	345.94
287.675	372.94
287.906	385.94
288.138	318.94
288.369	318.94
288.6	278.94
288.831	299.94
289.062	330.94
289.293	359.94
289.524	346.94
289.755	347.94
289.986	356.94
290.217	321.94
290.448	236.94
290.679	224.94
290.91	204.94
291.141	190.94
291.371	216.94
291.602	214.94
291.833	211.94
292.064	226.94
292.295	259.94
292.526	296.94
292.757	326.94
292.987	317.94
293.218	339.94
293.449	340.94
293.68	362.94
293.91	343.94
294.141	363.94
294.372	354.94
294.603	310.94
294.833	334.94
295.064	394.94
295.295	394.94
295.525	297.94
295.756	273.94
295.987	223.94
296.217	215.94
296.448	222.94
296.679	243.94
296.909	271.94
297.14	265.94
297.37	287.94
297.601	270.94
297.831	241.94
298.062	269.94
298.292	268.94
298.523	295.94
298.753	342.94
298.984	329.94
299.214	275.94
299.445	242.94
299.675	222.94
299.905	220.94
300.136	218.94
300.366	239.94
300.597	227.94
300.827	215.94
301.057	215.94
301.288	227.94
301.518	236.94
301.748	240.94
301.979	275.94
302.209	278.94
302.439	251.94
302.669	257.94
302.9	249.94
303.13	244.94
303.36	237.94
303.59	219.94
303.82	225.94
304.051	270.94
304.281	285.94
304.511	275.94
304.741	246.94
304.971	250.94
305.201	268.94
305.431	275.94
305.661	233.94
305.891	211.94
306.121	217.94
306.352	206.94
306.582	198.94
306.812	195.94
307.042	202.94
307.272	178.94
307.502	191.94
307.731	179.94
307.961	199.94
308.191	197.94
308.421	183.94
308.651	179.94
308.881	195.94
309.111	187.94
309.341	181.94
309.571	205.94
309.8	210.94
310.03	190.94
310.26	225.94
310.49	189.94
310.72	200.94
310.949	179.94
311.179	204.94
311.409	202.94
311.639	223.94
311.868	269.94
312.098	371.94
312.328	394.94
312.557	378.94
312.787	379.94
313.017	323.94
313.246	357.94
313.476	376.94
313.706	312.94
313.935	264.94
314.165	226.94
314.394	210.94
314.624	208.94
314.853	211.94
315.083	234.94
315.312	222.94
315.542	219.94
315.771	204.94
316.001	192.94
316.23	171.94
316.46	191.94
316.689	191.94
316.919	194.94
317.148	204.94
317.377	197.94
317.607	189.94
317.836	189.94
318.065	238.94
318.295	248.94
318.524	245.94
318.753	215.94
318.983	183.94
319.212	189.94
319.441	219.94
319.67	238.94
319.9	228.94
320.129	233.94
320.358	199.94
320.587	198.94
320.816	203.94
321.046	235.94
321.275	265.94
321.504	262.94
321.733	249.94
321.962	233.94
322.191	225.94
322.42	218.94
322.649	230.94
322.878	230.94
323.108	246.94
323.337	225.94
323.566	247.94
323.795	229.94
324.024	209.94
324.253	196.94
324.482	202.94
324.71	218.94
324.939	241.94
325.168	213.94
325.397	195.94
325.626	205.94
325.855	204.94
326.084	198.94
326.313	195.94
326.542	185.94
326.77	192.94
326.999	179.94
327.228	192.94
327.457	213.94
327.686	202.94
327.914	193.94
328.143	190.94
328.372	186.94
328.6	175.94
328.829	188.94
329.058	191.94
329.287	203.94
329.515	190.94
329.744	204.94
329.972	204.94
330.201	174.94
330.43	183.94
330.658	214.94
330.887	219.94
331.115	218.94
331.344	224.94
331.572	197.94
331.801	188.94
332.03	194.94
332.258	193.94
332.486	198.94
332.715	221.94
332.943	204.94
333.172	212.94
333.4	232.94
333.629	249.94
333.857	246.94
334.085	227.94
334.314	225.94
334.542	233.94
334.771	206.94
334.999	216.94
335.227	207.94
335.455	199.94
335.684	223.94
335.912	257.94
336.14	274.94
336.369	255.94
336.597	241.94
336.825	270.94
337.053	299.94
337.281	246.94
337.51	204.94
337.738	210.94
337.966	222.94
338.194	224.94
338.422	206.94
338.65	204.94
338.878	187.94
339.106	209.94
339.334	215.94
339.562	228.94
339.79	203.94
340.018	207.94
340.246	211.94
340.474	233.94
340.702	248.94
340.93	260.94
341.158	265.94
341.386	223.94
341.614	214.94
341.842	204.94
342.07	220.94
342.298	269.94
342.526	275.94
342.754	230.94
342.981	230.94
343.209	213.94
343.437	245.94
343.665	264.94
343.893	250.94
344.12	278.94
344.348	317.94
344.576	291.94
344.804	259.94
345.031	211.94
345.259	207.94
345.487	194.94
345.714	209.94
345.942	227.94
346.17	236.94
346.397	221.94
346.625	208.94
346.853	202.94
347.08	195.94
347.308	206.94
347.535	232.94
347.763	234.94
347.99	198.94
348.218	206.94
348.445	211.94
348.673	202.94
348.9	189.94
349.128	220.94
349.355	237.94
349.583	218.94
349.81	213.94
350.037	195.94
350.265	173.94
350.492	163.94
350.72	171.94
350.947	167.94
351.174	170.94
351.402	175.94
351.629	204.94
351.856	189.94
352.083	187.94
352.311	201.94
352.538	213.94
352.765	228.94
352.992	213.94
353.22	205.94
353.447	214.94
353.674	212.94
353.901	188.94
354.128	192.94
354.355	208.94
354.583	178.94
354.81	197.94
355.037	217.94
355.264	200.94
355.491	220.94
355.718	210.94
355.945	213.94
356.172	225.94
356.399	192.94
356.626	232.94
356.853	281.94
357.08	300.94
357.307	309.94
357.534	263.94
357.761	265.94
357.988	309.94
358.215	323.94
358.441	322.94
358.668	285.94
358.895	267.94
359.122	246.94
359.349	231.94
359.576	253.94
359.802	212.94
360.029	181.94
360.256	215.94
360.483	240.94
360.709	278.94
360.936	285.94
361.163	275.94
361.39	218.94
361.616	221.94
361.843	217.94
362.07	256.94
362.296	243.94
362.523	197.94
362.749	198.94
362.976	179.94
363.203	218.94
363.429	244.94
363.656	201.94
363.882	205.94
364.109	188.94
364.335	214.94
364.562	199.94
364.788	206.94
365.015	234.94
365.241	224.94
365.468	191.94
365.694	177.94
365.92	171.94
366.147	168.94
366.373	174.94
366.599	167.94
366.826	171.94
367.052	173.94
367.278	173.94
367.505	171.94
367.731	181.94
367.957	216.94
368.184	219.94
368.41	196.94
368.636	203.94
368.862	206.94
369.089	196.94
369.315	200.94
369.541	170.94
369.767	181.94
369.993	170.94
370.219	171.94
370.445	178.94
370.672	195.94
370.898	207.94
371.124	198.94
371.35	197.94
371.576	181.94
371.802	192.94
372.028	221.94
372.254	243.94
372.48	226.94
372.706	192.94
372.932	219.94
373.158	228.94
373.384	241.94
373.61	322.94
373.835	305.94
374.061	244.94
374.287	229.94
374.513	257.94
374.739	281.94
374.965	297.94
375.191	298.94
375.416	232.94
375.642	197.94
375.868	218.94
376.094	241.94
376.319	226.94
376.545	230.94
376.771	218.94
376.997	218.94
377.222	181.94
377.448	181.94
377.674	163.94
377.899	170.94
378.125	174.94
378.35	154.94
378.576	165.94
378.802	187.94
379.027	194.94
379.253	187.94
379.478	170.94
379.704	200.94
379.929	225.94
380.155	221.94
380.38	190.94
380.606	203.94
380.831	213.94
381.057	200.94
381.282	180.94
381.507	229.94
381.733	255.94
381.958	262.94
382.184	291.94
382.409	285.94
382.634	287.94
382.86	305.94
383.085	263.94
383.31	213.94
383.535	240.94
383.761	237.94
383.986	203.94
384.211	256.94
384.436	261.94
384.662	209.94
384.887	193.94
385.112	209.94
385.337	236.94
385.562	209.94
385.787	218.94
386.013	241.94
386.238	245.94
386.463	193.94
386.688	198.94
386.913	208.94
387.138	201.94
387.363	187.94
387.588	204.94
387.813	207.94
388.038	228.94
388.263	223.94
388.488	201.94
388.713	219.94
388.938	250.94
389.163	200.94
389.387	193.94
389.612	189.94
389.837	193.94
390.062	198.94
390.287	206.94
390.512	207.94
390.736	218.94
390.961	200.94
391.186	186.94
391.411	187.94
391.636	200.94
391.86	201.94
392.085	227.94
392.31	212.94
392.534	209.94
392.759	207.94
392.984	214.94
393.208	214.94
393.433	195.94
393.658	190.94
393.882	174.94
394.107	179.94
394.331	183.94
394.556	162.94
394.78	188.94
395.005	191.94
395.229	202.94
395.454	201.94
395.678	193.94
395.903	199.94
396.127	171.94
396.352	179.94
396.576	206.94
396.801	197.94
397.025	226.94
397.249	237.94
397.474	203.94
397.698	190.94
397.922	202.94
398.147	190.94
398.371	203.94
398.595	203.94
398.82	222.94
399.044	201.94
399.268	213.94
399.492	234.94
399.717	220.94
399.941	257.94
400.165	211.94
400.389	211.94
400.613	223.94
400.837	209.94
401.062	200.94
401.286	198.94
401.51	205.94
401.734	202.94
401.958	188.94
402.182	203.94
402.406	197.94
402.63	182.94
402.854	203.94
403.078	214.94
403.302	282.94
403.526	280.94
403.75	271.94
403.974	234.94
404.198	239.94
404.422	268.94
404.645	264.94
404.869	283.94
405.093	241.94
405.317	219.94
405.541	219.94
405.765	236.94
405.988	225.94
406.212	215.94
406.436	248.94
406.66	275.94
406.883	235.94
407.107	245.94
407.331	263.94
407.555	268.94
407.778	237.94
408.002	233.94
408.226	244.94
408.449	229.94
408.673	220.94
408.896	210.94
409.12	200.94
409.344	203.94
409.567	188.94
409.791	220.94
410.014	201.94
410.238	197.94
410.461	197.94
410.685	198.94
410.908	190.94
411.132	197.94
411.355	226.94
411.578	208.94
411.802	195.94
412.025	195.94
412.249	211.94
412.472	203.94
412.695	182.94
412.919	200.94
413.142	221.94
413.365	224.94
413.589	219.94
413.812	211.94
414.035	201.94
414.258	215.94
414.482	211.94
414.705	236.94
414.928	196.94
415.151	196.94
415.374	192.94
415.597	199.94
415.821	228.94
416.044	181.94
416.267	190.94
416.49	198.94
416.713	183.94
416.936	201.94
417.159	193.94
417.382	211.94
417.605	206.94
417.828	193.94
418.051	180.94
418.274	201.94
418.497	197.94
418.72	194.94
418.943	232.94
419.166	215.94
419.389	232.94
419.611	207.94
419.834	227.94
420.057	222.94
420.28	221.94
420.503	211.94
420.726	188.94
420.948	183.94
421.171	193.94
421.394	190.94
421.617	190.94
421.839	198.94
422.062	195.94
422.285	209.94
422.507	199.94
422.73	201.94
422.953	213.94
423.175	197.94
423.398	200.94
423.621	204.94
423.843	232.94
424.066	212.94
424.288	212.94
424.511	205.94
424.733	186.94
424.956	209.94
425.178	215.94
425.401	229.94
425.623	283.94
425.846	230.94
426.068	214.94
426.291	233.94
426.513	221.94
426.735	209.94
426.958	208.94
427.18	231.94
427.402	276.94
427.625	285.94
427.847	227.94
428.069	191.94
428.292	187.94
428.514	198.94
428.736	191.94
428.958	209.94
429.181	238.94
429.403	214.94
429.625	185.94
429.847	195.94
430.069	194.94
430.292	202.94
430.514	171.94
430.736	190.94
430.958	242.94
431.18	223.94
431.402	185.94
431.624	190.94
431.846	166.94
432.068	191.94
432.29	165.94
432.512	187.94
432.734	225.94
432.956	235.94
433.178	193.94
433.4	187.94
433.622	189.94
433.844	196.94
434.066	206.94
434.287	186.94
434.509	207.94
434.731	205.94
434.953	204.94
435.175	205.94
435.397	235.94
435.618	200.94
435.84	180.94
436.062	194.94
436.284	188.94
436.505	179.94
436.727	171.94
436.949	191.94
437.17	190.94
437.392	188.94
437.614	184.94
437.835	180.94
438.057	191.94
438.278	194.94
438.5	246.94
438.721	270.94
438.943	205.94
439.165	188.94
439.386	170.94
439.608	180.94
439.829	180.94
440.05	179.94
440.272	183.94
440.493	206.94
440.715	248.94
440.936	202.94
441.158	199.94
441.379	197.94
441.6	222.94
441.822	215.94
442.043	194.94
442.264	197.94
442.486	209.94
442.707	192.94
442.928	196.94
443.149	181.94
443.371	203.94
443.592	190.94
443.813	211.94
444.034	195.94
444.255	205.94
444.476	198.94
444.698	197.94
444.919	218.94
445.14	315.94
445.361	249.94
445.582	198.94
445.803	215.94
446.024	217.94
446.245	215.94
446.466	206.94
446.687	205.94
446.908	211.94
447.129	187.94
447.35	206.94
447.571	185.94
447.792	181.94
448.013	197.94
448.234	165.94
448.455	172.94
448.675	182.94
448.896	175.94
449.117	189.94
449.338	190.94
449.559	182.94
449.779	193.94
450	209.94
450.221	180.94
450.442	188.94
450.662	187.94
450.883	178.94
451.104	192.94
451.324	182.94
451.545	170.94
451.766	183.94
451.986	177.94
452.207	173.94
452.428	168.94
452.648	184.94
452.869	170.94
453.089	183.94
453.31	197.94
453.53	168.94
453.751	174.94
453.971	174.94
454.192	168.94
454.412	179.94
454.633	168.94
454.853	189.94
455.073	164.94
455.294	161.94
455.514	174.94
455.734	171.94
455.955	173.94
456.175	182.94
456.395	174.94
456.616	170.94
456.836	167.94
457.056	157.94
457.276	169.94
457.497	158.94
457.717	155.94
457.937	154.94
458.157	165.94
458.377	177.94
458.598	169.94
458.818	183.94
459.038	184.94
459.258	184.94
459.478	197.94
459.698	196.94
459.918	193.94
460.138	205.94
460.358	209.94
460.578	211.94
460.798	203.94
461.018	206.94
461.238	191.94
461.458	173.94
461.678	178.94
461.898	198.94
462.118	218.94
462.338	199.94
462.558	202.94
462.777	234.94
462.997	227.94
463.217	238.94
463.437	234.94
463.657	215.94
463.876	216.94
464.096	215.94
464.316	213.94
464.536	227.94
464.755	227.94
464.975	222.94
465.195	218.94
465.414	225.94
465.634	199.94
465.854	205.94
466.073	184.94
466.293	175.94
466.512	197.94
466.732	202.94
466.951	210.94
467.171	187.94
467.391	201.94
467.61	195.94
467.829	189.94
468.049	181.94
468.268	179.94
468.488	195.94
468.707	207.94
468.927	208.94
469.146	247.94
469.365	223.94
469.585	201.94
469.804	204.94
470.023	226.94
470.243	211.94
470.462	195.94
470.681	203.94
470.901	216.94
471.12	222.94
471.339	223.94
471.558	202.94
471.777	192.94
471.997	214.94
472.216	227.94
472.435	238.94
472.654	210.94
472.873	205.94
473.092	203.94
473.311	230.94
473.53	211.94
473.749	203.94
473.968	210.94
474.187	193.94
474.406	198.94
474.625	207.94
474.844	197.94
475.063	223.94
475.282	186.94
475.501	219.94
475.72	235.94
475.939	227.94
476.158	222.94
476.377	260.94
476.596	285.94
476.814	289.94
477.033	243.94
477.252	212.94
477.471	203.94
477.69	221.94
477.908	217.94
478.127	241.94
478.346	233.94
478.564	245.94
478.783	220.94
479.002	217.94
479.22	244.94
479.439	283.94
479.658	237.94
479.876	225.94
480.095	235.94
480.313	232.94
480.532	243.94
480.751	217.94
480.969	225.94
481.188	244.94
481.406	249.94
481.624	236.94
481.843	217.94
482.061	216.94
482.28	230.94
482.498	301.94
482.717	292.94
482.935	237.94
483.153	229.94
483.372	183.94
483.59	226.94
483.808	228.94
484.027	229.94
484.245	221.94
484.463	188.94
484.681	207.94
484.9	199.94
485.118	243.94
485.336	223.94
485.554	213.94
485.772	218.94
485.99	223.94
486.209	258.94
486.427	242.94
486.645	232.94
486.863	232.94
487.081	225.94
487.299	254.94
487.517	270.94
487.735	233.94
487.953	236.94
488.171	238.94
488.389	220.94
488.607	206.94
488.825	216.94
489.043	242.94
489.261	277.94
489.479	298.94
489.696	251.94
489.914	238.94
490.132	223.94
490.35	218.94
490.568	207.94
490.786	216.94
491.003	211.94
491.221	227.94
491.439	200.94
491.657	224.94
491.874	235.94
492.092	283.94
492.31	325.94
492.527	327.94
492.745	271.94
492.963	245.94
493.18	256.94
493.398	265.94
493.615	250.94
493.833	231.94
494.05	247.94
494.268	252.94
494.485	241.94
494.703	233.94
494.92	233.94
495.138	227.94
495.355	232.94
495.573	248.94
495.79	263.94
496.008	348.94
496.225	285.94
496.442	261.94
496.66	245.94
496.877	254.94
497.094	267.94
497.312	253.94
497.529	234.94
497.746	250.94
497.963	249.94
498.181	272.94
498.398	299.94
498.615	311.94
498.832	338.94
499.049	312.94
499.267	309.94
499.484	319.94
499.701	322.94
499.918	341.94
500.135	408.94
500.352	399.94
500.569	429.94
500.786	435.94
501.003	426.94
501.22	393.94
501.437	360.94
501.654	341.94
501.871	324.94
502.088	330.94
502.305	277.94
502.522	306.94
502.739	302.94
