Data from NickelSpatula.Lamp.E5.5.P2_HRD10591_11-53-17-550.txt Node
Date: Tue Jul 23 11:53:17 EDT 2019
User: cochatt
Spectrometer: HR+D1059
Trigger mode: 1
Integration Time (sec): 1.000000E-1
Scans to average: 1
Electric dark correction enabled: true
Nonlinearity correction enabled: false
Boxcar width: 0
XAxis mode: Wavelengths
Number of Pixels in Spectrum: 2048
>>>>>Begin Spectral Data<<<<<
223.165	-17.19
223.4	-17.19
223.635	-17.19
223.869	-6.19
224.104	-23.19
224.338	2.81
224.573	-0.19
224.808	-0.19
225.042	-14.19
225.277	-5.19
225.511	-18.19
225.746	-7.19
225.98	-0.19
226.215	1.81
226.449	13.81
226.683	21.81
226.918	14.81
227.152	36.81
227.387	43.81
227.621	50.81
227.856	47.81
228.09	28.81
228.324	58.81
228.559	57.81
228.793	59.81
229.027	75.81
229.262	85.81
229.496	72.81
229.73	74.81
229.964	91.81
230.199	91.81
230.433	81.81
230.667	93.81
230.901	102.81
231.136	98.81
231.37	101.81
231.604	94.81
231.838	96.81
232.072	111.81
232.306	92.81
232.541	111.81
232.775	86.81
233.009	106.81
233.243	110.81
233.477	102.81
233.711	129.81
233.945	118.81
234.179	101.81
234.413	117.81
234.647	132.81
234.881	150.81
235.115	125.81
235.349	120.81
235.583	111.81
235.817	116.81
236.051	124.81
236.285	119.81
236.519	131.81
236.753	127.81
236.987	119.81
237.221	114.81
237.455	123.81
237.689	128.81
237.922	138.81
238.156	120.81
238.39	141.81
238.624	153.81
238.858	146.81
239.091	133.81
239.325	142.81
239.559	130.81
239.793	138.81
240.027	171.81
240.26	172.81
240.494	146.81
240.728	151.81
240.961	173.81
241.195	162.81
241.429	158.81
241.662	174.81
241.896	147.81
242.13	137.81
242.363	122.81
242.597	126.81
242.83	137.81
243.064	128.81
243.298	150.81
243.531	151.81
243.765	172.81
243.998	160.81
244.232	139.81
244.465	146.81
244.699	158.81
244.932	159.81
245.166	177.81
245.399	140.81
245.633	140.81
245.866	169.81
246.099	159.81
246.333	186.81
246.566	196.81
246.8	173.81
247.033	162.81
247.266	190.81
247.5	158.81
247.733	163.81
247.966	155.81
248.2	148.81
248.433	186.81
248.666	177.81
248.899	186.81
249.133	188.81
249.366	206.81
249.599	224.81
249.832	199.81
250.066	176.81
250.299	196.81
250.532	187.81
250.765	168.81
250.998	158.81
251.231	162.81
251.465	185.81
251.698	183.81
251.931	186.81
252.164	192.81
252.397	193.81
252.63	230.81
252.863	236.81
253.096	254.81
253.329	239.81
253.562	225.81
253.795	241.81
254.028	284.81
254.261	281.81
254.494	250.81
254.727	240.81
254.96	231.81
255.193	243.81
255.426	222.81
255.659	191.81
255.892	188.81
256.124	196.81
256.357	231.81
256.59	237.81
256.823	228.81
257.056	200.81
257.289	199.81
257.521	218.81
257.754	243.81
257.987	258.81
258.22	245.81
258.452	214.81
258.685	242.81
258.918	270.81
259.151	266.81
259.383	271.81
259.616	305.81
259.849	320.81
260.081	333.81
260.314	365.81
260.547	298.81
260.779	306.81
261.012	344.81
261.244	322.81
261.477	315.81
261.71	293.81
261.942	270.81
262.175	279.81
262.407	248.81
262.64	262.81
262.872	290.81
263.105	325.81
263.337	324.81
263.57	314.81
263.802	208.81
264.035	209.81
264.267	195.81
264.499	176.81
264.732	156.81
264.964	155.81
265.197	167.81
265.429	184.81
265.661	187.81
265.894	189.81
266.126	202.81
266.358	221.81
266.591	254.81
266.823	306.81
267.055	277.81
267.287	258.81
267.52	278.81
267.752	276.81
267.984	299.81
268.216	300.81
268.448	263.81
268.681	246.81
268.913	253.81
269.145	256.81
269.377	278.81
269.609	259.81
269.841	237.81
270.073	271.81
270.306	276.81
270.538	282.81
270.77	292.81
271.002	287.81
271.234	292.81
271.466	303.81
271.698	278.81
271.93	278.81
272.162	299.81
272.394	284.81
272.626	268.81
272.858	284.81
273.09	288.81
273.322	262.81
273.553	250.81
273.785	274.81
274.017	337.81
274.249	443.81
274.481	447.81
274.713	478.81
274.945	534.81
275.176	574.81
275.408	508.81
275.64	477.81
275.872	474.81
276.104	402.81
276.335	363.81
276.567	352.81
276.799	368.81
277.031	413.81
277.262	338.81
277.494	254.81
277.726	241.81
277.957	270.81
278.189	304.81
278.421	294.81
278.652	278.81
278.884	283.81
279.115	265.81
279.347	241.81
279.579	236.81
279.81	259.81
280.042	259.81
280.273	265.81
280.505	260.81
280.736	232.81
280.968	242.81
281.199	234.81
281.431	256.81
281.662	248.81
281.894	229.81
282.125	251.81
282.356	266.81
282.588	276.81
282.819	266.81
283.051	279.81
283.282	318.81
283.513	378.81
283.745	396.81
283.976	409.81
284.207	358.81
284.439	372.81
284.67	372.81
284.901	336.81
285.132	380.81
285.364	390.81
285.595	362.81
285.826	380.81
286.057	384.81
286.288	378.81
286.52	374.81
286.751	372.81
286.982	399.81
287.213	343.81
287.444	353.81
287.675	364.81
287.906	365.81
288.138	302.81
288.369	271.81
288.6	265.81
288.831	276.81
289.062	320.81
289.293	329.81
289.524	306.81
289.755	329.81
289.986	327.81
290.217	284.81
290.448	255.81
290.679	210.81
290.91	221.81
291.141	219.81
291.371	206.81
291.602	205.81
291.833	202.81
292.064	218.81
292.295	234.81
292.526	275.81
292.757	288.81
292.987	303.81
293.218	316.81
293.449	332.81
293.68	351.81
293.91	323.81
294.141	328.81
294.372	315.81
294.603	278.81
294.833	311.81
295.064	370.81
295.295	364.81
295.525	280.81
295.756	260.81
295.987	210.81
296.217	242.81
296.448	221.81
296.679	228.81
296.909	241.81
297.14	282.81
297.37	291.81
297.601	275.81
297.831	245.81
298.062	252.81
298.292	281.81
298.523	314.81
298.753	332.81
298.984	316.81
299.214	259.81
299.445	237.81
299.675	226.81
299.905	230.81
300.136	235.81
300.366	250.81
300.597	237.81
300.827	234.81
301.057	226.81
301.288	242.81
301.518	234.81
301.748	268.81
301.979	275.81
302.209	288.81
302.439	286.81
302.669	247.81
302.9	249.81
303.13	255.81
303.36	251.81
303.59	226.81
303.82	232.81
304.051	280.81
304.281	284.81
304.511	282.81
304.741	255.81
304.971	244.81
305.201	273.81
305.431	252.81
305.661	229.81
305.891	235.81
306.121	230.81
306.352	213.81
306.582	189.81
306.812	203.81
307.042	188.81
307.272	180.81
307.502	182.81
307.731	206.81
307.961	200.81
308.191	179.81
308.421	187.81
308.651	183.81
308.881	182.81
309.111	181.81
309.341	191.81
309.571	203.81
309.8	204.81
310.03	200.81
310.26	225.81
310.49	207.81
310.72	194.81
310.949	198.81
311.179	199.81
311.409	207.81
311.639	216.81
311.868	262.81
312.098	327.81
312.328	350.81
312.557	327.81
312.787	342.81
313.017	316.81
313.246	327.81
313.476	368.81
313.706	331.81
313.935	260.81
314.165	218.81
314.394	202.81
314.624	210.81
314.853	221.81
315.083	235.81
315.312	219.81
315.542	201.81
315.771	198.81
316.001	198.81
316.23	186.81
316.46	190.81
316.689	189.81
316.919	190.81
317.148	200.81
317.377	210.81
317.607	189.81
317.836	196.81
318.065	227.81
318.295	259.81
318.524	215.81
318.753	212.81
318.983	190.81
319.212	206.81
319.441	205.81
319.67	231.81
319.9	251.81
320.129	235.81
320.358	203.81
320.587	209.81
320.816	213.81
321.046	234.81
321.275	259.81
321.504	260.81
321.733	251.81
321.962	224.81
322.191	234.81
322.42	228.81
322.649	216.81
322.878	261.81
323.108	240.81
323.337	206.81
323.566	234.81
323.795	209.81
324.024	226.81
324.253	220.81
324.482	209.81
324.71	214.81
324.939	254.81
325.168	239.81
325.397	200.81
325.626	206.81
325.855	204.81
326.084	205.81
326.313	208.81
326.542	203.81
326.77	220.81
326.999	209.81
327.228	227.81
327.457	215.81
327.686	214.81
327.914	203.81
328.143	198.81
328.372	191.81
328.6	201.81
328.829	197.81
329.058	188.81
329.287	198.81
329.515	199.81
329.744	199.81
329.972	194.81
330.201	174.81
330.43	194.81
330.658	188.81
330.887	214.81
331.115	226.81
331.344	216.81
331.572	226.81
331.801	194.81
332.03	191.81
332.258	217.81
332.486	215.81
332.715	219.81
332.943	206.81
333.172	203.81
333.4	224.81
333.629	230.81
333.857	247.81
334.085	231.81
334.314	246.81
334.542	239.81
334.771	232.81
334.999	216.81
335.227	209.81
335.455	211.81
335.684	213.81
335.912	239.81
336.14	281.81
336.369	265.81
336.597	260.81
336.825	265.81
337.053	296.81
337.281	250.81
337.51	222.81
337.738	220.81
337.966	235.81
338.194	239.81
338.422	232.81
338.65	196.81
338.878	207.81
339.106	204.81
339.334	216.81
339.562	223.81
339.79	222.81
340.018	216.81
340.246	219.81
340.474	239.81
340.702	247.81
340.93	261.81
341.158	273.81
341.386	228.81
341.614	221.81
341.842	227.81
342.07	234.81
342.298	241.81
342.526	262.81
342.754	252.81
342.981	230.81
343.209	213.81
343.437	236.81
343.665	271.81
343.893	263.81
344.12	312.81
344.348	334.81
344.576	311.81
344.804	258.81
345.031	222.81
345.259	232.81
345.487	208.81
345.714	213.81
345.942	217.81
346.17	253.81
346.397	232.81
346.625	227.81
346.853	215.81
347.08	212.81
347.308	234.81
347.535	257.81
347.763	258.81
347.99	231.81
348.218	223.81
348.445	209.81
348.673	219.81
348.9	222.81
349.128	243.81
349.355	239.81
349.583	236.81
349.81	227.81
350.037	211.81
350.265	206.81
350.492	182.81
350.72	185.81
350.947	179.81
351.174	178.81
351.402	200.81
351.629	210.81
351.856	202.81
352.083	188.81
352.311	227.81
352.538	225.81
352.765	249.81
352.992	219.81
353.22	227.81
353.447	225.81
353.674	203.81
353.901	220.81
354.128	205.81
354.355	213.81
354.583	220.81
354.81	232.81
355.037	215.81
355.264	218.81
355.491	238.81
355.718	227.81
355.945	235.81
356.172	242.81
356.399	236.81
356.626	250.81
356.853	316.81
357.08	342.81
357.307	348.81
357.534	287.81
357.761	309.81
357.988	346.81
358.215	404.81
358.441	370.81
358.668	307.81
358.895	293.81
359.122	252.81
359.349	252.81
359.576	294.81
359.802	239.81
360.029	220.81
360.256	242.81
360.483	283.81
360.709	313.81
360.936	307.81
361.163	288.81
361.39	237.81
361.616	217.81
361.843	244.81
362.07	289.81
362.296	285.81
362.523	221.81
362.749	210.81
362.976	218.81
363.203	242.81
363.429	258.81
363.656	231.81
363.882	228.81
364.109	220.81
364.335	231.81
364.562	208.81
364.788	227.81
365.015	270.81
365.241	230.81
365.468	218.81
365.694	192.81
365.92	199.81
366.147	173.81
366.373	200.81
366.599	192.81
366.826	207.81
367.052	194.81
367.278	196.81
367.505	179.81
367.731	210.81
367.957	234.81
368.184	219.81
368.41	210.81
368.636	215.81
368.862	222.81
369.089	224.81
369.315	220.81
369.541	207.81
369.767	210.81
369.993	196.81
370.219	179.81
370.445	197.81
370.672	242.81
370.898	253.81
371.124	243.81
371.35	221.81
371.576	216.81
371.802	218.81
372.028	231.81
372.254	285.81
372.48	260.81
372.706	224.81
372.932	228.81
373.158	219.81
373.384	276.81
373.61	339.81
373.835	363.81
374.061	283.81
374.287	271.81
374.513	290.81
374.739	329.81
374.965	317.81
375.191	347.81
375.416	259.81
375.642	245.81
375.868	257.81
376.094	305.81
376.319	255.81
376.545	254.81
376.771	276.81
376.997	254.81
377.222	210.81
377.448	176.81
377.674	175.81
377.899	191.81
378.125	201.81
378.35	166.81
378.576	183.81
378.802	199.81
379.027	211.81
379.253	187.81
379.478	195.81
379.704	222.81
379.929	219.81
380.155	236.81
380.38	226.81
380.606	216.81
380.831	252.81
381.057	227.81
381.282	228.81
381.507	251.81
381.733	295.81
381.958	312.81
382.184	331.81
382.409	343.81
382.634	340.81
382.86	350.81
383.085	295.81
383.31	258.81
383.535	266.81
383.761	261.81
383.986	229.81
384.211	281.81
384.436	292.81
384.662	239.81
384.887	236.81
385.112	254.81
385.337	250.81
385.562	231.81
385.787	246.81
386.013	273.81
386.238	281.81
386.463	228.81
386.688	238.81
386.913	227.81
387.138	202.81
387.363	218.81
387.588	231.81
387.813	242.81
388.038	254.81
388.263	230.81
388.488	240.81
388.713	237.81
388.938	260.81
389.163	224.81
389.387	214.81
389.612	198.81
389.837	222.81
390.062	230.81
390.287	223.81
390.512	203.81
390.736	214.81
390.961	221.81
391.186	200.81
391.411	211.81
391.636	209.81
391.86	212.81
392.085	230.81
392.31	226.81
392.534	241.81
392.759	231.81
392.984	244.81
393.208	250.81
393.433	215.81
393.658	206.81
393.882	187.81
394.107	190.81
394.331	215.81
394.556	195.81
394.78	208.81
395.005	206.81
395.229	200.81
395.454	204.81
395.678	200.81
395.903	215.81
396.127	221.81
396.352	238.81
396.576	241.81
396.801	235.81
397.025	260.81
397.249	256.81
397.474	220.81
397.698	222.81
397.922	242.81
398.147	193.81
398.371	209.81
398.595	222.81
398.82	211.81
399.044	235.81
399.268	244.81
399.492	280.81
399.717	298.81
399.941	286.81
400.165	253.81
400.389	235.81
400.613	244.81
400.837	237.81
401.062	222.81
401.286	222.81
401.51	211.81
401.734	213.81
401.958	223.81
402.182	213.81
402.406	216.81
402.63	222.81
402.854	249.81
403.078	284.81
403.302	367.81
403.526	351.81
403.75	329.81
403.974	276.81
404.198	270.81
404.422	321.81
404.645	328.81
404.869	350.81
405.093	282.81
405.317	253.81
405.541	250.81
405.765	262.81
405.988	250.81
406.212	247.81
406.436	278.81
406.66	314.81
406.883	269.81
407.107	270.81
407.331	296.81
407.555	290.81
407.778	255.81
408.002	251.81
408.226	249.81
408.449	269.81
408.673	250.81
408.896	242.81
409.12	246.81
409.344	250.81
409.567	239.81
409.791	248.81
410.014	247.81
410.238	221.81
410.461	213.81
410.685	242.81
410.908	231.81
411.132	217.81
411.355	227.81
411.578	228.81
411.802	225.81
412.025	250.81
412.249	215.81
412.472	227.81
412.695	229.81
412.919	219.81
413.142	227.81
413.365	240.81
413.589	246.81
413.812	228.81
414.035	225.81
414.258	229.81
414.482	251.81
414.705	257.81
414.928	233.81
415.151	211.81
415.374	204.81
415.597	238.81
415.821	216.81
416.044	204.81
416.267	209.81
416.49	214.81
416.713	238.81
416.936	206.81
417.159	211.81
417.382	224.81
417.605	231.81
417.828	220.81
418.051	231.81
418.274	223.81
418.497	222.81
418.72	225.81
418.943	241.81
419.166	228.81
419.389	246.81
419.611	256.81
419.834	246.81
420.057	260.81
420.28	256.81
420.503	245.81
420.726	220.81
420.948	226.81
421.171	222.81
421.394	221.81
421.617	214.81
421.839	217.81
422.062	223.81
422.285	224.81
422.507	243.81
422.73	252.81
422.953	245.81
423.175	229.81
423.398	225.81
423.621	257.81
423.843	275.81
424.066	242.81
424.288	253.81
424.511	250.81
424.733	242.81
424.956	234.81
425.178	229.81
425.401	280.81
425.623	348.81
425.846	280.81
426.068	224.81
426.291	272.81
426.513	248.81
426.735	227.81
426.958	239.81
427.18	258.81
427.402	346.81
427.625	347.81
427.847	300.81
428.069	244.81
428.292	234.81
428.514	224.81
428.736	210.81
428.958	254.81
429.181	305.81
429.403	240.81
429.625	208.81
429.847	205.81
430.069	222.81
430.292	217.81
430.514	207.81
430.736	216.81
430.958	273.81
431.18	243.81
431.402	213.81
431.624	212.81
431.846	200.81
432.068	209.81
432.29	198.81
432.512	224.81
432.734	283.81
432.956	262.81
433.178	222.81
433.4	220.81
433.622	223.81
433.844	236.81
434.066	262.81
434.287	237.81
434.509	238.81
434.731	243.81
434.953	219.81
435.175	222.81
435.397	257.81
435.618	220.81
435.84	200.81
436.062	213.81
436.284	202.81
436.505	189.81
436.727	200.81
436.949	196.81
437.17	195.81
437.392	221.81
437.614	216.81
437.835	196.81
438.057	220.81
438.278	223.81
438.5	299.81
438.721	308.81
438.943	252.81
439.165	206.81
439.386	205.81
439.608	207.81
439.829	205.81
440.05	214.81
440.272	214.81
440.493	229.81
440.715	283.81
440.936	245.81
441.158	216.81
441.379	202.81
441.6	247.81
441.822	272.81
442.043	218.81
442.264	229.81
442.486	207.81
442.707	211.81
442.928	239.81
443.149	225.81
443.371	229.81
443.592	236.81
443.813	238.81
444.034	231.81
444.255	215.81
444.476	218.81
444.698	248.81
444.919	252.81
445.14	341.81
445.361	284.81
445.582	245.81
445.803	221.81
446.024	222.81
446.245	219.81
446.466	223.81
446.687	227.81
446.908	215.81
447.129	197.81
447.35	211.81
447.571	213.81
447.792	215.81
448.013	210.81
448.234	199.81
448.455	186.81
448.675	189.81
448.896	209.81
449.117	210.81
449.338	205.81
449.559	194.81
449.779	210.81
450	194.81
450.221	192.81
450.442	199.81
450.662	194.81
450.883	190.81
451.104	211.81
451.324	211.81
451.545	225.81
451.766	224.81
451.986	197.81
452.207	201.81
452.428	199.81
452.648	208.81
452.869	211.81
453.089	231.81
453.31	218.81
453.53	202.81
453.751	199.81
453.971	198.81
454.192	183.81
454.412	200.81
454.633	193.81
454.853	201.81
455.073	206.81
455.294	187.81
455.514	218.81
455.734	202.81
455.955	219.81
456.175	226.81
456.395	202.81
456.616	181.81
456.836	205.81
457.056	179.81
457.276	190.81
457.497	186.81
457.717	186.81
457.937	165.81
458.157	163.81
458.377	163.81
458.598	177.81
458.818	186.81
459.038	206.81
459.258	209.81
459.478	238.81
459.698	227.81
459.918	238.81
460.138	219.81
460.358	225.81
460.578	238.81
460.798	234.81
461.018	234.81
461.238	231.81
461.458	220.81
461.678	229.81
461.898	239.81
462.118	251.81
462.338	244.81
462.558	260.81
462.777	253.81
462.997	272.81
463.217	274.81
463.437	293.81
463.657	255.81
463.876	250.81
464.096	261.81
464.316	253.81
464.536	246.81
464.755	268.81
464.975	270.81
465.195	242.81
465.414	261.81
465.634	228.81
465.854	204.81
466.073	228.81
466.293	202.81
466.512	202.81
466.732	244.81
466.951	229.81
467.171	207.81
467.391	218.81
467.61	210.81
467.829	213.81
468.049	229.81
468.268	227.81
468.488	207.81
468.707	200.81
468.927	253.81
469.146	260.81
469.365	237.81
469.585	205.81
469.804	246.81
470.023	253.81
470.243	220.81
470.462	229.81
470.681	224.81
470.901	236.81
471.12	234.81
471.339	228.81
471.558	231.81
471.777	215.81
471.997	244.81
472.216	262.81
472.435	236.81
472.654	223.81
472.873	249.81
473.092	253.81
473.311	242.81
473.53	229.81
473.749	228.81
473.968	222.81
474.187	234.81
474.406	223.81
474.625	216.81
474.844	214.81
475.063	234.81
475.282	237.81
475.501	257.81
475.72	268.81
475.939	236.81
476.158	264.81
476.377	292.81
476.596	307.81
476.814	323.81
477.033	275.81
477.252	251.81
477.471	223.81
477.69	235.81
477.908	256.81
478.127	284.81
478.346	242.81
478.564	279.81
478.783	274.81
479.002	272.81
479.22	273.81
479.439	316.81
479.658	274.81
479.876	251.81
480.095	263.81
480.313	281.81
480.532	262.81
480.751	262.81
480.969	262.81
481.188	282.81
481.406	292.81
481.624	258.81
481.843	277.81
482.061	261.81
482.28	270.81
482.498	320.81
482.717	327.81
482.935	277.81
483.153	262.81
483.372	237.81
483.59	233.81
483.808	232.81
484.027	240.81
484.245	238.81
484.463	249.81
484.681	234.81
484.9	256.81
485.118	272.81
485.336	268.81
485.554	245.81
485.772	262.81
485.99	274.81
486.209	293.81
486.427	283.81
486.645	280.81
486.863	278.81
487.081	276.81
487.299	279.81
487.517	277.81
487.735	283.81
487.953	270.81
488.171	292.81
488.389	262.81
488.607	242.81
488.825	262.81
489.043	281.81
489.261	284.81
489.479	330.81
489.696	280.81
489.914	260.81
490.132	257.81
490.35	242.81
490.568	259.81
490.786	253.81
491.003	228.81
491.221	252.81
491.439	251.81
491.657	254.81
491.874	272.81
492.092	312.81
492.31	355.81
492.527	359.81
492.745	293.81
492.963	279.81
493.18	274.81
493.398	290.81
493.615	276.81
493.833	267.81
494.05	267.81
494.268	272.81
494.485	287.81
494.703	264.81
494.92	252.81
495.138	261.81
495.355	252.81
495.573	295.81
495.79	300.81
496.008	351.81
496.225	314.81
496.442	272.81
496.66	286.81
496.877	281.81
497.094	284.81
497.312	280.81
497.529	275.81
497.746	271.81
497.963	299.81
498.181	298.81
498.398	339.81
498.615	351.81
498.832	355.81
499.049	375.81
499.267	362.81
499.484	350.81
499.701	414.81
499.918	433.81
500.135	483.81
500.352	500.81
500.569	520.81
500.786	538.81
501.003	521.81
501.22	440.81
501.437	420.81
501.654	376.81
501.871	377.81
502.088	363.81
502.305	337.81
502.522	315.81
