Data from NickelSpatula.Lamp.E10.P2_HRD10591_11-59-05-526.txt Node
Date: Tue Jul 23 11:59:05 EDT 2019
User: cochatt
Spectrometer: HR+D1059
Trigger mode: 1
Integration Time (sec): 1.000000E-1
Scans to average: 1
Electric dark correction enabled: true
Nonlinearity correction enabled: false
Boxcar width: 0
XAxis mode: Wavelengths
Number of Pixels in Spectrum: 2048
>>>>>Begin Spectral Data<<<<<
223.165	-15.06
223.4	-15.06
223.635	-15.06
223.869	-15.06
224.104	-12.06
224.338	-12.06
224.573	-7.06
224.808	-16.06
225.042	-7.06
225.277	-0.06
225.511	-0.06
225.746	6.94
225.98	-9.06
226.215	6.94
226.449	10.94
226.683	15.94
226.918	19.94
227.152	32.94
227.387	43.94
227.621	38.94
227.856	36.94
228.09	49.94
228.324	43.94
228.559	63.94
228.793	81.94
229.027	143.94
229.262	155.94
229.496	160.94
229.73	168.94
229.964	185.94
230.199	208.94
230.433	229.94
230.667	202.94
230.901	213.94
231.136	195.94
231.37	204.94
231.604	227.94
231.838	226.94
232.072	256.94
232.306	237.94
232.541	237.94
232.775	241.94
233.009	262.94
233.243	278.94
233.477	321.94
233.711	365.94
233.945	327.94
234.179	305.94
234.413	351.94
234.647	376.94
234.881	447.94
235.115	425.94
235.349	397.94
235.583	343.94
235.817	355.94
236.051	368.94
236.285	433.94
236.519	458.94
236.753	420.94
236.987	422.94
237.221	394.94
237.455	413.94
237.689	424.94
237.922	449.94
238.156	452.94
238.39	537.94
238.624	661.94
238.858	573.94
239.091	507.94
239.325	488.94
239.559	473.94
239.793	559.94
240.027	641.94
240.26	595.94
240.494	555.94
240.728	561.94
240.961	685.94
241.195	653.94
241.429	619.94
241.662	595.94
241.896	495.94
242.13	458.94
242.363	451.94
242.597	453.94
242.83	547.94
243.064	516.94
243.298	589.94
243.531	607.94
243.765	616.94
243.998	606.94
244.232	582.94
244.465	591.94
244.699	585.94
244.932	639.94
245.166	626.94
245.399	559.94
245.633	521.94
245.866	550.94
246.099	592.94
246.333	699.94
246.566	781.94
246.8	755.94
247.033	727.94
247.266	668.94
247.5	663.94
247.733	645.94
247.966	629.94
248.2	690.94
248.433	753.94
248.666	821.94
248.899	837.94
249.133	853.94
249.366	979.94
249.599	1039.94
249.832	893.94
250.066	799.94
250.299	816.94
250.532	820.94
250.765	783.94
250.998	716.94
251.231	671.94
251.465	774.94
251.698	807.94
251.931	768.94
252.164	807.94
252.397	921.94
252.63	1027.94
252.863	1143.94
253.096	1171.94
253.329	1113.94
253.562	1075.94
253.795	1214.94
254.028	1296.94
254.261	1319.94
254.494	1189.94
254.727	1121.94
254.96	1109.94
255.193	1174.94
255.426	1072.94
255.659	821.94
255.892	781.94
256.124	873.94
256.357	986.94
256.59	1188.94
256.823	1109.94
257.056	967.94
257.289	895.94
257.521	928.94
257.754	1114.94
257.987	1254.94
258.22	1101.94
258.452	967.94
258.685	1100.94
258.918	1253.94
259.151	1161.94
259.383	1293.94
259.616	1459.94
259.849	1496.94
260.081	1638.94
260.314	1853.94
260.547	1445.94
260.779	1441.94
261.012	1686.94
261.244	1599.94
261.477	1597.94
261.71	1512.94
261.942	1256.94
262.175	1252.94
262.407	1192.94
262.64	1249.94
262.872	1482.94
263.105	1606.94
263.337	1704.94
263.57	1492.94
263.802	999.94
264.035	885.94
264.267	833.94
264.499	735.94
264.732	707.94
264.964	711.94
265.197	676.94
265.429	749.94
265.661	817.94
265.894	848.94
266.126	904.94
266.358	985.94
266.591	1222.94
266.823	1419.94
267.055	1377.94
267.287	1190.94
267.52	1227.94
267.752	1248.94
267.984	1422.94
268.216	1344.94
268.448	1133.94
268.681	1107.94
268.913	1166.94
269.145	1237.94
269.377	1289.94
269.609	1291.94
269.841	1162.94
270.073	1287.94
270.306	1328.94
270.538	1369.94
270.77	1379.94
271.002	1356.94
271.234	1449.94
271.466	1455.94
271.698	1421.94
271.93	1389.94
272.162	1405.94
272.394	1371.94
272.626	1353.94
272.858	1394.94
273.09	1469.94
273.322	1275.94
273.553	1226.94
273.785	1503.94
274.017	1927.94
274.249	2358.94
274.481	2449.94
274.713	2741.94
274.945	3101.94
275.176	3244.94
275.408	2817.94
275.64	2573.94
275.872	2568.94
276.104	2189.94
276.335	1887.94
276.567	1845.94
276.799	1953.94
277.031	2027.94
277.262	1566.94
277.494	1220.94
277.726	1182.94
277.957	1295.94
278.189	1479.94
278.421	1439.94
278.652	1397.94
278.884	1335.94
279.115	1254.94
279.347	1161.94
279.579	1157.94
279.81	1180.94
280.042	1152.94
280.273	1232.94
280.505	1128.94
280.736	973.94
280.968	980.94
281.199	1078.94
281.431	1203.94
281.662	1190.94
281.894	1159.94
282.125	1199.94
282.356	1315.94
282.588	1358.94
282.819	1252.94
283.051	1337.94
283.282	1659.94
283.513	1959.94
283.745	2112.94
283.976	2152.94
284.207	1996.94
284.439	2041.94
284.67	2012.94
284.901	1763.94
285.132	1866.94
285.364	1975.94
285.595	1832.94
285.826	1915.94
286.057	1969.94
286.288	1948.94
286.52	1943.94
286.751	2027.94
286.982	2033.94
287.213	1741.94
287.444	1675.94
287.675	1840.94
287.906	1788.94
288.138	1491.94
288.369	1299.94
288.6	1261.94
288.831	1296.94
289.062	1488.94
289.293	1682.94
289.524	1561.94
289.755	1552.94
289.986	1580.94
290.217	1386.94
290.448	1095.94
290.679	945.94
290.91	893.94
291.141	887.94
291.371	941.94
291.602	957.94
291.833	965.94
292.064	1039.94
292.295	1175.94
292.526	1373.94
292.757	1447.94
292.987	1518.94
293.218	1510.94
293.449	1545.94
293.68	1666.94
293.91	1553.94
294.141	1579.94
294.372	1489.94
294.603	1401.94
294.833	1528.94
295.064	1805.94
295.295	1663.94
295.525	1245.94
295.756	1101.94
295.987	950.94
296.217	991.94
296.448	999.94
296.679	1101.94
296.909	1171.94
297.14	1295.94
297.37	1373.94
297.601	1333.94
297.831	1153.94
298.062	1221.94
298.292	1383.94
298.523	1549.94
298.753	1720.94
298.984	1567.94
299.214	1251.94
299.445	1051.94
299.675	1000.94
299.905	989.94
300.136	1034.94
300.366	1134.94
300.597	1092.94
300.827	981.94
301.057	974.94
301.288	963.94
301.518	1053.94
301.748	1215.94
301.979	1254.94
302.209	1407.94
302.439	1422.94
302.669	1201.94
302.9	1187.94
303.13	1132.94
303.36	1081.94
303.59	1037.94
303.82	1048.94
304.051	1186.94
304.281	1329.94
304.511	1260.94
304.741	1128.94
304.971	1183.94
305.201	1231.94
305.431	1141.94
305.661	1027.94
305.891	1049.94
306.121	1040.94
306.352	929.94
306.582	852.94
306.812	829.94
307.042	843.94
307.272	795.94
307.502	772.94
307.731	827.94
307.961	888.94
308.191	842.94
308.421	762.94
308.651	783.94
308.881	751.94
309.111	764.94
309.341	818.94
309.571	877.94
309.8	908.94
310.03	920.94
310.26	971.94
310.49	930.94
310.72	838.94
310.949	858.94
311.179	862.94
311.409	904.94
311.639	1049.94
311.868	1366.94
312.098	1752.94
312.328	1891.94
312.557	1839.94
312.787	1819.94
313.017	1645.94
313.246	1773.94
313.476	1903.94
313.706	1575.94
313.935	1244.94
314.165	1032.94
314.394	931.94
314.624	936.94
314.853	985.94
315.083	1010.94
315.312	967.94
315.542	1010.94
315.771	903.94
316.001	844.94
316.23	839.94
316.46	803.94
316.689	852.94
316.919	855.94
317.148	861.94
317.377	861.94
317.607	862.94
317.836	944.94
318.065	1062.94
318.295	1200.94
318.524	1108.94
318.753	958.94
318.983	900.94
319.212	912.94
319.441	1013.94
319.67	1096.94
319.9	1180.94
320.129	1107.94
320.358	966.94
320.587	941.94
320.816	987.94
321.046	1123.94
321.275	1290.94
321.504	1311.94
321.733	1235.94
321.962	1195.94
322.191	1129.94
322.42	1064.94
322.649	1077.94
322.878	1179.94
323.108	1157.94
323.337	1084.94
323.566	1081.94
323.795	1019.94
324.024	1022.94
324.253	960.94
324.482	933.94
324.71	1054.94
324.939	1166.94
325.168	1077.94
325.397	911.94
325.626	897.94
325.855	899.94
326.084	924.94
326.313	861.94
326.542	831.94
326.77	858.94
326.999	889.94
327.228	955.94
327.457	965.94
327.686	991.94
327.914	859.94
328.143	820.94
328.372	796.94
328.6	839.94
328.829	847.94
329.058	870.94
329.287	882.94
329.515	851.94
329.744	871.94
329.972	833.94
330.201	785.94
330.43	811.94
330.658	912.94
330.887	1065.94
331.115	994.94
331.344	952.94
331.572	946.94
331.801	872.94
332.03	829.94
332.258	827.94
332.486	927.94
332.715	955.94
332.943	896.94
333.172	877.94
333.4	910.94
333.629	971.94
333.857	1095.94
334.085	1062.94
334.314	1064.94
334.542	1013.94
334.771	933.94
334.999	942.94
335.227	931.94
335.455	924.94
335.684	993.94
335.912	1180.94
336.14	1288.94
336.369	1221.94
336.597	1188.94
336.825	1310.94
337.053	1474.94
337.281	1193.94
337.51	984.94
337.738	959.94
337.966	1001.94
338.194	1142.94
338.422	1061.94
338.65	941.94
338.878	864.94
339.106	864.94
339.334	1012.94
339.562	1049.94
339.79	955.94
340.018	939.94
340.246	1025.94
340.474	1187.94
340.702	1219.94
340.93	1288.94
341.158	1275.94
341.386	1073.94
341.614	1135.94
341.842	1073.94
342.07	1117.94
342.298	1302.94
342.526	1379.94
342.754	1181.94
342.981	1063.94
343.209	1039.94
343.437	1089.94
343.665	1147.94
343.893	1131.94
344.12	1387.94
344.348	1539.94
344.576	1381.94
344.804	1140.94
345.031	976.94
345.259	947.94
345.487	971.94
345.714	997.94
345.942	1077.94
346.17	1153.94
346.397	1088.94
346.625	996.94
346.853	954.94
347.08	909.94
347.308	989.94
347.535	1098.94
347.763	1109.94
347.99	970.94
348.218	911.94
348.445	942.94
348.673	956.94
348.9	985.94
349.128	1011.94
349.355	1047.94
349.583	1033.94
349.81	1005.94
350.037	925.94
350.265	833.94
350.492	789.94
350.72	789.94
350.947	811.94
351.174	881.94
351.402	915.94
351.629	966.94
351.856	932.94
352.083	872.94
352.311	973.94
352.538	1059.94
352.765	1097.94
352.992	1010.94
353.22	954.94
353.447	988.94
353.674	917.94
353.901	894.94
354.128	944.94
354.355	944.94
354.583	971.94
354.81	957.94
355.037	1008.94
355.264	972.94
355.491	1046.94
355.718	1122.94
355.945	1092.94
356.172	1087.94
356.399	1067.94
356.626	1269.94
356.853	1549.94
357.08	1670.94
357.307	1696.94
357.534	1307.94
357.761	1365.94
357.988	1647.94
358.215	1981.94
358.441	1878.94
358.668	1549.94
358.895	1437.94
359.122	1202.94
359.349	1189.94
359.576	1275.94
359.802	1046.94
360.029	911.94
360.256	980.94
360.483	1251.94
360.709	1576.94
360.936	1606.94
361.163	1380.94
361.39	1101.94
361.616	1037.94
361.843	1180.94
362.07	1452.94
362.296	1323.94
362.523	1040.94
362.749	885.94
362.976	959.94
363.203	1171.94
363.429	1295.94
363.656	1060.94
363.882	971.94
364.109	994.94
364.335	992.94
364.562	956.94
364.788	1081.94
365.015	1255.94
365.241	1120.94
365.468	929.94
365.694	827.94
365.92	805.94
366.147	747.94
366.373	751.94
366.599	748.94
366.826	795.94
367.052	805.94
367.278	803.94
367.505	807.94
367.731	886.94
367.957	996.94
368.184	1018.94
368.41	984.94
368.636	982.94
368.862	1024.94
369.089	995.94
369.315	875.94
369.541	852.94
369.767	857.94
369.993	836.94
370.219	821.94
370.445	902.94
370.672	984.94
370.898	1055.94
371.124	1050.94
371.35	905.94
371.576	904.94
371.802	966.94
372.028	1147.94
372.254	1252.94
372.48	1106.94
372.706	1014.94
372.932	1063.94
373.158	1128.94
373.384	1295.94
373.61	1707.94
373.835	1784.94
374.061	1333.94
374.287	1114.94
374.513	1319.94
374.739	1599.94
374.965	1650.94
375.191	1599.94
375.416	1123.94
375.642	1007.94
375.868	1169.94
376.094	1343.94
376.319	1139.94
376.545	1244.94
376.771	1296.94
376.997	1111.94
377.222	821.94
377.448	751.94
377.674	715.94
377.899	723.94
378.125	751.94
378.35	727.94
378.576	773.94
378.802	827.94
379.027	889.94
379.253	859.94
379.478	885.94
379.704	1014.94
379.929	1057.94
380.155	1042.94
380.38	879.94
380.606	977.94
380.831	1051.94
381.057	1006.94
381.282	963.94
381.507	1141.94
381.733	1384.94
381.958	1517.94
382.184	1599.94
382.409	1634.94
382.634	1623.94
382.86	1671.94
383.085	1372.94
383.31	1104.94
383.535	1185.94
383.761	1221.94
383.986	1135.94
384.211	1383.94
384.436	1345.94
384.662	991.94
384.887	975.94
385.112	1001.94
385.337	969.94
385.562	960.94
385.787	1061.94
386.013	1182.94
386.238	1207.94
386.463	1015.94
386.688	994.94
386.913	945.94
387.138	891.94
387.363	956.94
387.588	964.94
387.813	955.94
388.038	1057.94
388.263	947.94
388.488	905.94
388.713	1051.94
388.938	1172.94
389.163	1012.94
389.387	890.94
389.612	896.94
389.837	927.94
390.062	943.94
390.287	987.94
390.512	1018.94
390.736	936.94
390.961	866.94
391.186	836.94
391.411	831.94
391.636	848.94
391.86	899.94
392.085	965.94
392.31	977.94
392.534	952.94
392.759	912.94
392.984	952.94
393.208	930.94
393.433	863.94
393.658	828.94
393.882	789.94
394.107	783.94
394.331	773.94
394.556	793.94
394.78	782.94
395.005	805.94
395.229	840.94
395.454	860.94
395.678	862.94
395.903	904.94
396.127	862.94
396.352	888.94
396.576	963.94
396.801	1003.94
397.025	1065.94
397.249	1113.94
397.474	931.94
397.698	903.94
397.922	949.94
398.147	889.94
398.371	917.94
398.595	922.94
398.82	914.94
399.044	929.94
399.268	983.94
399.492	1011.94
399.717	1059.94
399.941	1092.94
400.165	1029.94
400.389	1005.94
400.613	1002.94
400.837	1004.94
401.062	897.94
401.286	873.94
401.51	917.94
401.734	860.94
401.958	891.94
402.182	879.94
402.406	889.94
402.63	893.94
402.854	960.94
403.078	1057.94
403.302	1272.94
403.526	1295.94
403.75	1145.94
403.974	1031.94
404.198	1061.94
404.422	1203.94
404.645	1380.94
404.869	1531.94
405.093	1135.94
405.317	987.94
405.541	969.94
405.765	988.94
405.988	1031.94
406.212	1090.94
406.436	1276.94
406.66	1366.94
406.883	1080.94
407.107	1163.94
407.331	1330.94
407.555	1260.94
407.778	1073.94
408.002	1025.94
408.226	1021.94
408.449	1038.94
408.673	1001.94
408.896	911.94
409.12	907.94
409.344	880.94
409.567	869.94
409.791	876.94
410.014	893.94
410.238	868.94
410.461	863.94
410.685	891.94
410.908	880.94
411.132	900.94
411.355	915.94
411.578	944.94
411.802	891.94
412.025	935.94
412.249	981.94
412.472	914.94
412.695	931.94
412.919	922.94
413.142	962.94
413.365	1056.94
413.589	1019.94
413.812	931.94
414.035	906.94
414.258	891.94
414.482	1015.94
414.705	1032.94
414.928	902.94
415.151	847.94
415.374	867.94
415.597	905.94
415.821	883.94
416.044	885.94
416.267	843.94
416.49	847.94
416.713	816.94
416.936	872.94
417.159	860.94
417.382	846.94
417.605	877.94
417.828	882.94
418.051	915.94
418.274	896.94
418.497	930.94
418.72	896.94
418.943	929.94
419.166	966.94
419.389	1003.94
419.611	959.94
419.834	998.94
420.057	1085.94
420.28	1085.94
420.503	976.94
420.726	871.94
420.948	857.94
421.171	868.94
421.394	856.94
421.617	860.94
421.839	875.94
422.062	953.94
422.285	929.94
422.507	918.94
422.73	943.94
422.953	957.94
423.175	934.94
423.398	915.94
423.621	974.94
423.843	1024.94
424.066	941.94
424.288	904.94
424.511	900.94
424.733	904.94
424.956	939.94
425.178	1023.94
425.401	1200.94
425.623	1336.94
425.846	1136.94
426.068	1001.94
426.291	1079.94
426.513	1025.94
426.735	908.94
426.958	951.94
427.18	1142.94
427.402	1447.94
427.625	1423.94
427.847	1136.94
428.069	905.94
428.292	870.94
428.514	901.94
428.736	847.94
428.958	934.94
429.181	1117.94
429.403	953.94
429.625	880.94
429.847	856.94
430.069	879.94
430.292	870.94
430.514	870.94
430.736	942.94
430.958	1148.94
431.18	1029.94
431.402	837.94
431.624	795.94
431.846	777.94
432.068	774.94
432.29	797.94
432.512	892.94
432.734	1201.94
432.956	1108.94
433.178	860.94
433.4	815.94
433.622	826.94
433.844	861.94
434.066	900.94
434.287	912.94
434.509	859.94
434.731	913.94
434.953	829.94
435.175	909.94
435.397	1010.94
435.618	887.94
435.84	800.94
436.062	819.94
436.284	841.94
436.505	781.94
436.727	769.94
436.949	771.94
437.17	831.94
437.392	841.94
437.614	815.94
437.835	840.94
438.057	859.94
438.278	939.94
438.5	1333.94
438.721	1353.94
438.943	922.94
439.165	800.94
439.386	780.94
439.608	782.94
439.829	760.94
440.05	771.94
440.272	849.94
440.493	973.94
440.715	1231.94
440.936	939.94
441.158	851.94
441.379	845.94
441.6	971.94
441.822	1021.94
442.043	885.94
442.264	817.94
442.486	855.94
442.707	830.94
442.928	870.94
443.149	867.94
443.371	877.94
443.592	920.94
443.813	893.94
444.034	865.94
444.255	896.94
444.476	932.94
444.698	918.94
444.919	929.94
445.14	1066.94
445.361	1003.94
445.582	927.94
445.803	917.94
446.024	905.94
446.245	915.94
446.466	917.94
446.687	868.94
446.908	853.94
447.129	820.94
447.35	777.94
447.571	797.94
447.792	787.94
448.013	755.94
448.234	785.94
448.455	744.94
448.675	777.94
448.896	801.94
449.117	800.94
449.338	779.94
449.559	820.94
449.779	845.94
450	828.94
450.221	832.94
450.442	798.94
450.662	776.94
450.883	783.94
451.104	779.94
451.324	782.94
451.545	803.94
451.766	787.94
451.986	769.94
452.207	770.94
452.428	753.94
452.648	755.94
452.869	799.94
453.089	836.94
453.31	813.94
453.53	759.94
453.751	738.94
453.971	742.94
454.192	751.94
454.412	786.94
454.633	723.94
454.853	752.94
455.073	735.94
455.294	721.94
455.514	726.94
455.734	774.94
455.955	771.94
456.175	829.94
456.395	736.94
456.616	685.94
456.836	687.94
457.056	691.94
457.276	698.94
457.497	707.94
457.717	689.94
457.937	684.94
458.157	694.94
458.377	732.94
458.598	733.94
458.818	764.94
459.038	799.94
459.258	792.94
459.478	821.94
459.698	881.94
459.918	896.94
460.138	892.94
460.358	905.94
460.578	867.94
460.798	875.94
461.018	884.94
461.238	863.94
461.458	861.94
461.678	889.94
461.898	899.94
462.118	916.94
462.338	934.94
462.558	960.94
462.777	961.94
462.997	973.94
463.217	999.94
463.437	995.94
463.657	1006.94
463.876	935.94
464.096	958.94
464.316	954.94
464.536	937.94
464.755	1027.94
464.975	1007.94
465.195	946.94
465.414	985.94
465.634	946.94
465.854	935.94
466.073	863.94
466.293	839.94
466.512	913.94
466.732	993.94
466.951	1019.94
467.171	911.94
467.391	875.94
467.61	878.94
467.829	888.94
468.049	919.94
468.268	868.94
468.488	856.94
468.707	895.94
468.927	1043.94
469.146	1141.94
469.365	1036.94
469.585	929.94
469.804	992.94
470.023	1073.94
470.243	914.94
470.462	906.94
470.681	902.94
470.901	908.94
471.12	964.94
471.339	935.94
471.558	900.94
471.777	907.94
471.997	1027.94
472.216	1086.94
472.435	1073.94
472.654	969.94
472.873	925.94
473.092	960.94
473.311	1037.94
473.53	952.94
473.749	893.94
473.968	929.94
474.187	957.94
474.406	901.94
474.625	924.94
474.844	953.94
475.063	1000.94
475.282	1023.94
475.501	1064.94
475.72	1092.94
475.939	1039.94
476.158	1065.94
476.377	1250.94
476.596	1405.94
476.814	1485.94
477.033	1217.94
477.252	1063.94
477.471	968.94
477.69	1009.94
477.908	1069.94
478.127	1134.94
478.346	1047.94
478.564	1117.94
478.783	1086.94
479.002	1102.94
479.22	1283.94
479.439	1382.94
479.658	1197.94
479.876	1091.94
480.095	1192.94
480.313	1195.94
480.532	1092.94
480.751	1085.94
480.969	1100.94
481.188	1248.94
481.406	1282.94
481.624	1203.94
481.843	1106.94
482.061	1073.94
482.28	1175.94
482.498	1469.94
482.717	1367.94
482.935	1184.94
483.153	1119.94
483.372	1053.94
483.59	1052.94
483.808	1022.94
484.027	992.94
484.245	973.94
484.463	937.94
484.681	1015.94
484.9	1082.94
485.118	1156.94
485.336	1092.94
485.554	1029.94
485.772	1065.94
485.99	1167.94
486.209	1226.94
486.427	1207.94
486.645	1173.94
486.863	1183.94
487.081	1202.94
487.299	1317.94
487.517	1316.94
487.735	1208.94
487.953	1248.94
488.171	1249.94
488.389	1171.94
488.607	1112.94
488.825	1165.94
489.043	1237.94
489.261	1385.94
489.479	1511.94
489.696	1271.94
489.914	1157.94
490.132	1136.94
490.35	1109.94
490.568	1133.94
490.786	1096.94
491.003	1125.94
491.221	1151.94
491.439	1116.94
491.657	1161.94
491.874	1236.94
492.092	1467.94
492.31	1720.94
492.527	1679.94
492.745	1510.94
492.963	1283.94
493.18	1312.94
493.398	1289.94
493.615	1264.94
493.833	1227.94
494.05	1222.94
494.268	1246.94
494.485	1209.94
494.703	1203.94
494.92	1209.94
