Data from NickelSpatula_HRD10591_16-34-10-126.txt Node
Date: Mon Jul 22 16:34:10 EDT 2019
User: cochatt
Spectrometer: HR+D1059
Trigger mode: 1
Integration Time (sec): 1.000000E-1
Scans to average: 1
Electric dark correction enabled: true
Nonlinearity correction enabled: false
Boxcar width: 0
XAxis mode: Wavelengths
Number of Pixels in Spectrum: 2048
>>>>>Begin Spectral Data<<<<<
223.165	-12.62
223.4	-12.62
223.635	-12.62
223.869	-12.62
224.104	-0.62
224.338	-9.62
224.573	-14.62
224.808	-12.62
225.042	3.38
225.277	-4.62
225.511	5.38
225.746	-11.62
225.98	-0.62
226.215	7.38
226.449	14.38
226.683	15.38
226.918	12.38
227.152	21.38
227.387	27.38
227.621	45.38
227.856	36.38
228.09	52.38
228.324	55.38
228.559	69.38
228.793	60.38
229.027	61.38
229.262	83.38
229.496	81.38
229.73	81.38
229.964	96.38
230.199	91.38
230.433	87.38
230.667	92.38
230.901	97.38
231.136	95.38
231.37	93.38
231.604	90.38
231.838	92.38
232.072	108.38
232.306	91.38
232.541	97.38
232.775	104.38
233.009	104.38
233.243	104.38
233.477	119.38
233.711	111.38
233.945	113.38
234.179	108.38
234.413	121.38
234.647	123.38
234.881	151.38
235.115	130.38
235.349	123.38
235.583	120.38
235.817	111.38
236.051	113.38
236.285	131.38
236.519	127.38
236.753	128.38
236.987	114.38
237.221	123.38
237.455	118.38
237.689	116.38
237.922	129.38
238.156	116.38
238.39	140.38
238.624	149.38
238.858	159.38
239.091	136.38
239.325	138.38
239.559	137.38
239.793	140.38
240.027	162.38
240.26	149.38
240.494	149.38
240.728	152.38
240.961	168.38
241.195	160.38
241.429	157.38
241.662	157.38
241.896	140.38
242.13	123.38
242.363	134.38
242.597	145.38
242.83	159.38
243.064	144.38
243.298	169.38
243.531	159.38
243.765	141.38
243.998	172.38
244.232	160.38
244.465	176.38
244.699	145.38
244.932	157.38
245.166	173.38
245.399	170.38
245.633	160.38
245.866	154.38
246.099	167.38
246.333	171.38
246.566	183.38
246.8	183.38
247.033	209.38
247.266	180.38
247.5	180.38
247.733	193.38
247.966	145.38
248.2	176.38
248.433	159.38
248.666	193.38
248.899	196.38
249.133	193.38
249.366	228.38
249.599	233.38
249.832	221.38
250.066	187.38
250.299	205.38
250.532	205.38
250.765	175.38
250.998	189.38
251.231	166.38
251.465	176.38
251.698	187.38
251.931	184.38
252.164	195.38
252.397	214.38
252.63	237.38
252.863	250.38
253.096	276.38
253.329	250.38
253.562	254.38
253.795	269.38
254.028	304.38
254.261	298.38
254.494	281.38
254.727	253.38
254.96	244.38
255.193	260.38
255.426	254.38
255.659	210.38
255.892	193.38
256.124	219.38
256.357	244.38
256.59	277.38
256.823	257.38
257.056	222.38
257.289	223.38
257.521	214.38
257.754	251.38
257.987	307.38
258.22	266.38
258.452	233.38
258.685	227.38
258.918	289.38
259.151	294.38
259.383	284.38
259.616	339.38
259.849	371.38
260.081	338.38
260.314	387.38
260.547	310.38
260.779	321.38
261.012	362.38
261.244	349.38
261.477	357.38
261.71	325.38
261.942	296.38
262.175	285.38
262.407	284.38
262.64	276.38
262.872	311.38
263.105	337.38
263.337	351.38
263.57	320.38
263.802	239.38
264.035	217.38
264.267	225.38
264.499	218.38
264.732	175.38
264.964	172.38
265.197	182.38
265.429	189.38
265.661	225.38
265.894	211.38
266.126	210.38
266.358	225.38
266.591	290.38
266.823	330.38
267.055	327.38
267.287	274.38
267.52	305.38
267.752	306.38
267.984	330.38
268.216	317.38
268.448	280.38
268.681	247.38
268.913	279.38
269.145	293.38
269.377	300.38
269.609	291.38
269.841	287.38
270.073	304.38
270.306	321.38
270.538	336.38
270.77	328.38
271.002	333.38
271.234	345.38
271.466	325.38
271.698	299.38
271.93	305.38
272.162	316.38
272.394	297.38
272.626	304.38
272.858	312.38
273.09	321.38
273.322	277.38
273.553	283.38
273.785	299.38
274.017	343.38
274.249	457.38
274.481	467.38
274.713	514.38
274.945	581.38
275.176	608.38
275.408	567.38
275.64	500.38
275.872	529.38
276.104	451.38
276.335	407.38
276.567	391.38
276.799	387.38
277.031	447.38
277.262	336.38
277.494	261.38
277.726	267.38
277.957	288.38
278.189	307.38
278.421	320.38
278.652	303.38
278.884	296.38
279.115	259.38
279.347	279.38
279.579	282.38
279.81	277.38
280.042	296.38
280.273	292.38
280.505	266.38
280.736	229.38
280.968	228.38
281.199	253.38
281.431	282.38
281.662	269.38
281.894	274.38
282.125	279.38
282.356	308.38
282.588	306.38
282.819	285.38
283.051	305.38
283.282	351.38
283.513	399.38
283.745	446.38
283.976	423.38
284.207	393.38
284.439	461.38
284.67	421.38
284.901	369.38
285.132	402.38
285.364	416.38
285.595	389.38
285.826	415.38
286.057	421.38
286.288	419.38
286.52	427.38
286.751	440.38
286.982	457.38
287.213	399.38
287.444	369.38
287.675	415.38
287.906	403.38
288.138	354.38
288.369	307.38
288.6	287.38
288.831	303.38
289.062	361.38
289.293	379.38
289.524	361.38
289.755	346.38
289.986	348.38
290.217	334.38
290.448	261.38
290.679	248.38
290.91	211.38
291.141	203.38
291.371	242.38
291.602	216.38
291.833	231.38
292.064	244.38
292.295	273.38
292.526	317.38
292.757	334.38
292.987	335.38
293.218	351.38
293.449	369.38
293.68	390.38
293.91	381.38
294.141	375.38
294.372	346.38
294.603	311.38
294.833	349.38
295.064	412.38
295.295	386.38
295.525	304.38
295.756	253.38
295.987	235.38
296.217	235.38
296.448	231.38
296.679	218.38
296.909	247.38
297.14	273.38
297.37	308.38
297.601	290.38
297.831	270.38
298.062	270.38
298.292	296.38
298.523	310.38
298.753	367.38
298.984	351.38
299.214	281.38
299.445	236.38
299.675	218.38
299.905	236.38
300.136	222.38
300.366	237.38
300.597	246.38
300.827	213.38
301.057	207.38
301.288	218.38
301.518	233.38
301.748	267.38
301.979	293.38
302.209	290.38
302.439	282.38
302.669	252.38
302.9	293.38
303.13	267.38
303.36	262.38
303.59	244.38
303.82	224.38
304.051	261.38
304.281	292.38
304.511	299.38
304.741	255.38
304.971	259.38
305.201	256.38
305.431	264.38
305.661	247.38
305.891	235.38
306.121	237.38
306.352	216.38
306.582	192.38
306.812	192.38
307.042	192.38
307.272	189.38
307.502	194.38
307.731	201.38
307.961	205.38
308.191	221.38
308.421	201.38
308.651	179.38
308.881	177.38
309.111	192.38
309.341	203.38
309.571	199.38
309.8	213.38
310.03	196.38
310.26	225.38
310.49	212.38
310.72	201.38
310.949	185.38
311.179	213.38
311.409	205.38
311.639	211.38
311.868	288.38
312.098	369.38
312.328	403.38
312.557	375.38
312.787	391.38
313.017	352.38
313.246	366.38
313.476	407.38
313.706	342.38
313.935	279.38
314.165	248.38
314.394	223.38
314.624	215.38
314.853	228.38
315.083	235.38
315.312	224.38
315.542	228.38
315.771	207.38
316.001	191.38
316.23	197.38
316.46	184.38
316.689	199.38
316.919	197.38
317.148	187.38
317.377	199.38
317.607	201.38
317.836	210.38
318.065	230.38
318.295	265.38
318.524	265.38
318.753	230.38
318.983	198.38
319.212	201.38
319.441	197.38
319.67	240.38
319.9	266.38
320.129	235.38
320.358	209.38
320.587	196.38
320.816	204.38
321.046	251.38
321.275	269.38
321.504	260.38
321.733	262.38
321.962	244.38
322.191	230.38
322.42	231.38
322.649	224.38
322.878	241.38
323.108	258.38
323.337	244.38
323.566	240.38
323.795	229.38
324.024	227.38
324.253	204.38
324.482	210.38
324.71	208.38
324.939	247.38
325.168	228.38
325.397	195.38
325.626	200.38
325.855	196.38
326.084	199.38
326.313	194.38
326.542	192.38
326.77	193.38
326.999	204.38
327.228	214.38
327.457	208.38
327.686	205.38
327.914	194.38
328.143	183.38
328.372	197.38
328.6	185.38
328.829	183.38
329.058	205.38
329.287	195.38
329.515	192.38
329.744	183.38
329.972	195.38
330.201	169.38
330.43	168.38
330.658	209.38
330.887	232.38
331.115	224.38
331.344	215.38
331.572	215.38
331.801	201.38
332.03	185.38
332.258	181.38
332.486	220.38
332.715	217.38
332.943	204.38
333.172	206.38
333.4	227.38
333.629	235.38
333.857	235.38
334.085	250.38
334.314	242.38
334.542	229.38
334.771	233.38
334.999	229.38
335.227	215.38
335.455	215.38
335.684	224.38
335.912	239.38
336.14	280.38
336.369	257.38
336.597	268.38
336.825	293.38
337.053	318.38
337.281	261.38
337.51	217.38
337.738	208.38
337.966	216.38
338.194	247.38
338.422	245.38
338.65	212.38
338.878	200.38
339.106	194.38
339.334	223.38
339.562	229.38
339.79	192.38
340.018	186.38
340.246	205.38
340.474	255.38
340.702	271.38
340.93	273.38
341.158	282.38
341.386	249.38
341.614	227.38
341.842	220.38
342.07	219.38
342.298	251.38
342.526	298.38
342.754	242.38
342.981	205.38
343.209	222.38
343.437	240.38
343.665	245.38
343.893	258.38
344.12	293.38
344.348	326.38
344.576	287.38
344.804	255.38
345.031	211.38
345.259	204.38
345.487	215.38
345.714	214.38
345.942	221.38
346.17	243.38
346.397	242.38
346.625	212.38
346.853	215.38
347.08	205.38
347.308	218.38
347.535	240.38
347.763	260.38
347.99	218.38
348.218	199.38
348.445	227.38
348.673	211.38
348.9	207.38
349.128	225.38
349.355	212.38
349.583	223.38
349.81	211.38
350.037	210.38
350.265	182.38
350.492	192.38
350.72	172.38
350.947	188.38
351.174	186.38
351.402	202.38
351.629	205.38
351.856	201.38
352.083	176.38
352.311	212.38
352.538	205.38
352.765	225.38
352.992	214.38
353.22	221.38
353.447	229.38
353.674	210.38
353.901	208.38
354.128	200.38
354.355	205.38
354.583	228.38
354.81	220.38
355.037	240.38
355.264	221.38
355.491	217.38
355.718	245.38
355.945	214.38
356.172	224.38
356.399	212.38
356.626	255.38
356.853	317.38
357.08	317.38
357.307	323.38
357.534	268.38
357.761	276.38
357.988	327.38
358.215	362.38
358.441	349.38
358.668	314.38
358.895	303.38
359.122	256.38
359.349	228.38
359.576	265.38
359.802	233.38
360.029	203.38
360.256	227.38
360.483	254.38
360.709	288.38
360.936	317.38
361.163	282.38
361.39	218.38
361.616	206.38
361.843	234.38
362.07	255.38
362.296	255.38
362.523	200.38
362.749	180.38
362.976	193.38
363.203	228.38
363.429	267.38
363.656	210.38
363.882	216.38
364.109	196.38
364.335	223.38
364.562	217.38
364.788	217.38
365.015	236.38
365.241	239.38
365.468	198.38
365.694	183.38
365.92	184.38
366.147	173.38
366.373	170.38
366.599	168.38
366.826	181.38
367.052	183.38
367.278	177.38
367.505	172.38
367.731	182.38
367.957	220.38
368.184	210.38
368.41	203.38
368.636	202.38
368.862	221.38
369.089	208.38
369.315	195.38
369.541	196.38
369.767	188.38
369.993	177.38
370.219	178.38
370.445	183.38
370.672	195.38
370.898	225.38
371.124	229.38
371.35	201.38
371.576	186.38
371.802	201.38
372.028	215.38
372.254	255.38
372.48	214.38
372.706	215.38
372.932	215.38
373.158	212.38
373.384	242.38
373.61	309.38
373.835	331.38
374.061	256.38
374.287	223.38
374.513	253.38
374.739	293.38
374.965	311.38
375.191	299.38
375.416	234.38
375.642	183.38
375.868	221.38
376.094	244.38
376.319	230.38
376.545	232.38
376.771	247.38
376.997	222.38
377.222	168.38
377.448	167.38
377.674	160.38
377.899	157.38
378.125	161.38
378.35	163.38
378.576	175.38
378.802	175.38
379.027	188.38
379.253	188.38
379.478	197.38
379.704	217.38
379.929	222.38
380.155	220.38
380.38	197.38
380.606	210.38
380.831	236.38
381.057	213.38
381.282	203.38
381.507	228.38
381.733	269.38
381.958	285.38
382.184	300.38
382.409	314.38
382.634	313.38
382.86	317.38
383.085	269.38
383.31	244.38
383.535	251.38
383.761	242.38
383.986	245.38
384.211	283.38
384.436	268.38
384.662	215.38
384.887	200.38
385.112	222.38
385.337	213.38
385.562	213.38
385.787	231.38
386.013	263.38
386.238	246.38
386.463	220.38
386.688	210.38
386.913	210.38
387.138	184.38
387.363	195.38
387.588	234.38
387.813	201.38
388.038	214.38
388.263	220.38
388.488	210.38
388.713	224.38
388.938	241.38
389.163	211.38
389.387	189.38
389.612	188.38
389.837	208.38
390.062	198.38
390.287	220.38
390.512	221.38
390.736	182.38
390.961	182.38
391.186	185.38
391.411	199.38
391.636	199.38
391.86	212.38
392.085	231.38
392.31	220.38
392.534	204.38
392.759	203.38
392.984	226.38
393.208	213.38
393.433	203.38
393.658	185.38
393.882	190.38
394.107	160.38
394.331	175.38
394.556	170.38
394.78	179.38
395.005	193.38
395.229	182.38
395.454	203.38
395.678	196.38
395.903	204.38
396.127	186.38
396.352	194.38
396.576	208.38
396.801	222.38
397.025	241.38
397.249	232.38
397.474	187.38
397.698	191.38
397.922	224.38
398.147	201.38
398.371	198.38
398.595	218.38
398.82	215.38
399.044	202.38
399.268	231.38
399.492	248.38
399.717	225.38
399.941	253.38
400.165	239.38
400.389	225.38
400.613	214.38
400.837	217.38
401.062	192.38
401.286	190.38
401.51	210.38
401.734	213.38
401.958	199.38
402.182	211.38
402.406	199.38
402.63	204.38
402.854	219.38
403.078	242.38
403.302	286.38
403.526	311.38
403.75	294.38
403.974	263.38
404.198	259.38
404.422	289.38
404.645	294.38
404.869	301.38
405.093	251.38
405.317	220.38
405.541	229.38
405.765	208.38
405.988	240.38
406.212	248.38
406.436	255.38
406.66	283.38
406.883	234.38
407.107	247.38
407.331	279.38
407.555	273.38
407.778	232.38
408.002	243.38
408.226	231.38
408.449	249.38
408.673	225.38
408.896	212.38
409.12	218.38
409.344	217.38
409.567	197.38
409.791	218.38
410.014	206.38
410.238	193.38
410.461	221.38
410.685	208.38
410.908	200.38
411.132	205.38
411.355	188.38
411.578	218.38
411.802	212.38
412.025	199.38
412.249	217.38
412.472	208.38
412.695	224.38
412.919	226.38
413.142	204.38
413.365	228.38
413.589	232.38
413.812	186.38
414.035	190.38
414.258	191.38
414.482	211.38
414.705	230.38
414.928	188.38
415.151	190.38
415.374	215.38
415.597	209.38
415.821	214.38
416.044	193.38
416.267	189.38
416.49	202.38
416.713	205.38
416.936	196.38
417.159	185.38
417.382	187.38
417.605	206.38
417.828	195.38
418.051	193.38
418.274	204.38
418.497	218.38
418.72	203.38
418.943	227.38
419.166	227.38
419.389	245.38
419.611	207.38
419.834	225.38
420.057	224.38
420.28	227.38
420.503	236.38
420.726	203.38
420.948	197.38
421.171	191.38
421.394	207.38
421.617	193.38
421.839	177.38
422.062	197.38
422.285	198.38
422.507	212.38
422.73	216.38
422.953	210.38
423.175	211.38
423.398	209.38
423.621	229.38
423.843	231.38
424.066	232.38
424.288	210.38
424.511	190.38
424.733	226.38
424.956	196.38
425.178	243.38
425.401	255.38
425.623	305.38
425.846	240.38
426.068	223.38
426.291	255.38
426.513	224.38
426.735	201.38
426.958	202.38
427.18	239.38
427.402	303.38
427.625	313.38
427.847	247.38
428.069	192.38
428.292	204.38
428.514	203.38
428.736	210.38
428.958	221.38
429.181	259.38
429.403	243.38
429.625	215.38
429.847	191.38
430.069	210.38
430.292	215.38
430.514	202.38
430.736	209.38
430.958	237.38
431.18	218.38
431.402	175.38
431.624	170.38
431.846	163.38
432.068	178.38
432.29	181.38
432.512	198.38
432.734	213.38
432.956	230.38
433.178	188.38
433.4	196.38
433.622	194.38
433.844	195.38
434.066	238.38
434.287	232.38
434.509	198.38
434.731	226.38
434.953	191.38
435.175	212.38
435.397	231.38
435.618	228.38
435.84	195.38
436.062	198.38
436.284	183.38
436.505	172.38
436.727	179.38
436.949	181.38
437.17	188.38
437.392	194.38
437.614	198.38
437.835	180.38
438.057	198.38
438.278	202.38
438.5	259.38
438.721	255.38
438.943	194.38
439.165	173.38
439.386	182.38
439.608	173.38
439.829	167.38
440.05	173.38
440.272	194.38
440.493	210.38
440.715	233.38
440.936	219.38
441.158	191.38
441.379	183.38
441.6	231.38
441.822	217.38
442.043	191.38
442.264	185.38
442.486	195.38
442.707	204.38
442.928	194.38
443.149	194.38
443.371	206.38
443.592	191.38
443.813	201.38
444.034	202.38
444.255	203.38
444.476	207.38
444.698	215.38
444.919	226.38
445.14	333.38
445.361	273.38
445.582	223.38
445.803	224.38
446.024	227.38
446.245	223.38
446.466	213.38
446.687	206.38
446.908	187.38
447.129	195.38
447.35	171.38
447.571	184.38
447.792	187.38
448.013	175.38
448.234	191.38
448.455	167.38
448.675	159.38
448.896	181.38
449.117	195.38
449.338	166.38
449.559	185.38
449.779	197.38
450	201.38
450.221	197.38
450.442	184.38
450.662	180.38
450.883	163.38
451.104	161.38
451.324	188.38
451.545	169.38
451.766	177.38
451.986	177.38
452.207	183.38
452.428	180.38
452.648	173.38
452.869	181.38
453.089	181.38
453.31	204.38
453.53	170.38
453.751	181.38
453.971	172.38
454.192	194.38
454.412	189.38
454.633	187.38
454.853	171.38
455.073	187.38
455.294	161.38
455.514	171.38
455.734	177.38
455.955	192.38
456.175	183.38
456.395	173.38
456.616	161.38
456.836	181.38
457.056	154.38
457.276	153.38
457.497	159.38
457.717	166.38
457.937	158.38
458.157	170.38
458.377	179.38
458.598	177.38
458.818	179.38
459.038	196.38
459.258	187.38
459.478	184.38
459.698	193.38
459.918	187.38
460.138	201.38
460.358	210.38
460.578	184.38
460.798	207.38
461.018	214.38
461.238	201.38
461.458	221.38
461.678	199.38
461.898	205.38
462.118	229.38
462.338	229.38
462.558	206.38
462.777	221.38
462.997	226.38
463.217	234.38
463.437	232.38
463.657	236.38
463.876	223.38
464.096	216.38
464.316	217.38
464.536	228.38
464.755	230.38
464.975	251.38
465.195	237.38
465.414	235.38
465.634	207.38
465.854	195.38
466.073	191.38
466.293	180.38
466.512	213.38
466.732	211.38
466.951	227.38
467.171	211.38
467.391	204.38
467.61	184.38
467.829	188.38
468.049	200.38
468.268	200.38
468.488	184.38
468.707	183.38
468.927	212.38
469.146	228.38
469.365	204.38
469.585	200.38
469.804	211.38
470.023	223.38
470.243	202.38
470.462	191.38
470.681	199.38
470.901	198.38
471.12	218.38
471.339	208.38
471.558	188.38
471.777	198.38
471.997	200.38
472.216	236.38
472.435	229.38
472.654	212.38
472.873	211.38
473.092	222.38
473.311	222.38
473.53	218.38
473.749	202.38
473.968	218.38
474.187	200.38
474.406	205.38
474.625	205.38
474.844	215.38
475.063	218.38
475.282	223.38
475.501	225.38
475.72	263.38
475.939	237.38
476.158	241.38
476.377	275.38
476.596	305.38
476.814	305.38
477.033	263.38
477.252	230.38
477.471	219.38
477.69	216.38
477.908	229.38
478.127	248.38
478.346	219.38
478.564	271.38
478.783	246.38
479.002	231.38
479.22	259.38
479.439	284.38
479.658	256.38
479.876	238.38
480.095	250.38
480.313	256.38
480.532	235.38
480.751	237.38
480.969	228.38
481.188	261.38
481.406	265.38
481.624	254.38
481.843	221.38
482.061	219.38
482.28	237.38
482.498	309.38
482.717	321.38
482.935	253.38
483.153	232.38
483.372	227.38
483.59	223.38
483.808	223.38
484.027	213.38
484.245	214.38
484.463	196.38
484.681	213.38
484.9	218.38
485.118	261.38
485.336	232.38
485.554	224.38
485.772	218.38
485.99	235.38
486.209	255.38
486.427	253.38
486.645	241.38
486.863	258.38
487.081	268.38
487.299	294.38
487.517	273.38
487.735	241.38
487.953	245.38
488.171	255.38
488.389	244.38
488.607	222.38
488.825	219.38
489.043	259.38
489.261	293.38
489.479	299.38
489.696	269.38
489.914	226.38
490.132	234.38
490.35	220.38
490.568	230.38
490.786	224.38
491.003	225.38
491.221	229.38
491.439	236.38
491.657	234.38
491.874	240.38
492.092	278.38
492.31	338.38
492.527	326.38
492.745	274.38
492.963	250.38
493.18	254.38
493.398	259.38
493.615	260.38
493.833	246.38
494.05	243.38
494.268	249.38
494.485	255.38
494.703	248.38
494.92	250.38
495.138	235.38
495.355	247.38
495.573	262.38
495.79	291.38
496.008	363.38
496.225	285.38
496.442	264.38
496.66	258.38
496.877	282.38
497.094	274.38
497.312	256.38
497.529	280.38
497.746	271.38
497.963	257.38
498.181	287.38
498.398	320.38
498.615	312.38
498.832	329.38
499.049	345.38
499.267	315.38
499.484	330.38
499.701	341.38
499.918	375.38
500.135	401.38
500.352	431.38
500.569	433.38
500.786	437.38
501.003	439.38
501.22	397.38
501.437	368.38
501.654	340.38
501.871	329.38
502.088	315.38
502.305	299.38
502.522	293.38
502.739	299.38
