Data from NickelSpatula.Lamp.E5.5.P2_HRD10591_11-52-46-553.txt Node
Date: Tue Jul 23 11:52:46 EDT 2019
User: cochatt
Spectrometer: HR+D1059
Trigger mode: 1
Integration Time (sec): 1.000000E-1
Scans to average: 1
Electric dark correction enabled: true
Nonlinearity correction enabled: false
Boxcar width: 0
XAxis mode: Wavelengths
Number of Pixels in Spectrum: 2048
>>>>>Begin Spectral Data<<<<<
223.165	-4.44
223.4	-4.44
223.635	-4.44
223.869	-19.44
224.104	-8.44
224.338	-15.44
224.573	0.56
224.808	-25.44
225.042	-20.44
225.277	-4.44
225.511	-9.44
225.746	0.56
225.98	3.56
226.215	14.56
226.449	15.56
226.683	26.56
226.918	22.56
227.152	23.56
227.387	23.56
227.621	35.56
227.856	48.56
228.09	39.56
228.324	55.56
228.559	53.56
228.793	70.56
229.027	84.56
229.262	89.56
229.496	89.56
229.73	87.56
229.964	85.56
230.199	116.56
230.433	87.56
230.667	96.56
230.901	91.56
231.136	91.56
231.37	84.56
231.604	116.56
231.838	101.56
232.072	116.56
232.306	118.56
232.541	117.56
232.775	111.56
233.009	97.56
233.243	107.56
233.477	108.56
233.711	121.56
233.945	111.56
234.179	110.56
234.413	130.56
234.647	137.56
234.881	153.56
235.115	141.56
235.349	128.56
235.583	105.56
235.817	129.56
236.051	132.56
236.285	139.56
236.519	135.56
236.753	132.56
236.987	135.56
237.221	132.56
237.455	127.56
237.689	143.56
237.922	135.56
238.156	147.56
238.39	163.56
238.624	171.56
238.858	147.56
239.091	155.56
239.325	150.56
239.559	150.56
239.793	142.56
240.027	184.56
240.26	164.56
240.494	167.56
240.728	180.56
240.961	187.56
241.195	153.56
241.429	175.56
241.662	169.56
241.896	176.56
242.13	131.56
242.363	137.56
242.597	138.56
242.83	162.56
243.064	155.56
243.298	161.56
243.531	165.56
243.765	179.56
243.998	182.56
244.232	169.56
244.465	177.56
244.699	150.56
244.932	192.56
245.166	171.56
245.399	161.56
245.633	148.56
245.866	171.56
246.099	162.56
246.333	193.56
246.566	204.56
246.8	198.56
247.033	184.56
247.266	207.56
247.5	172.56
247.733	168.56
247.966	181.56
248.2	175.56
248.433	198.56
248.666	201.56
248.899	222.56
249.133	200.56
249.366	231.56
249.599	254.56
249.832	226.56
250.066	214.56
250.299	212.56
250.532	205.56
250.765	216.56
250.998	191.56
251.231	195.56
251.465	191.56
251.698	201.56
251.931	214.56
252.164	193.56
252.397	224.56
252.63	243.56
252.863	269.56
253.096	282.56
253.329	264.56
253.562	276.56
253.795	316.56
254.028	311.56
254.261	347.56
254.494	300.56
254.727	282.56
254.96	256.56
255.193	273.56
255.426	285.56
255.659	212.56
255.892	216.56
256.124	233.56
256.357	251.56
256.59	281.56
256.823	283.56
257.056	249.56
257.289	244.56
257.521	251.56
257.754	286.56
257.987	324.56
258.22	292.56
258.452	254.56
258.685	279.56
258.918	300.56
259.151	287.56
259.383	331.56
259.616	357.56
259.849	361.56
260.081	375.56
260.314	395.56
260.547	349.56
260.779	358.56
261.012	379.56
261.244	349.56
261.477	404.56
261.71	376.56
261.942	301.56
262.175	299.56
262.407	294.56
262.64	305.56
262.872	334.56
263.105	371.56
263.337	397.56
263.57	354.56
263.802	259.56
264.035	239.56
264.267	233.56
264.499	191.56
264.732	184.56
264.964	187.56
265.197	195.56
265.429	207.56
265.661	214.56
265.894	207.56
266.126	241.56
266.358	243.56
266.591	309.56
266.823	345.56
267.055	335.56
267.287	289.56
267.52	299.56
267.752	317.56
267.984	324.56
268.216	335.56
268.448	270.56
268.681	261.56
268.913	293.56
269.145	305.56
269.377	308.56
269.609	324.56
269.841	293.56
270.073	305.56
270.306	301.56
270.538	341.56
270.77	320.56
271.002	335.56
271.234	344.56
271.466	342.56
271.698	332.56
271.93	321.56
272.162	330.56
272.394	321.56
272.626	318.56
272.858	323.56
273.09	329.56
273.322	289.56
273.553	254.56
273.785	333.56
274.017	425.56
274.249	502.56
274.481	535.56
274.713	549.56
274.945	644.56
275.176	667.56
275.408	593.56
275.64	550.56
275.872	554.56
276.104	489.56
276.335	412.56
276.567	445.56
276.799	443.56
277.031	453.56
277.262	351.56
277.494	279.56
277.726	279.56
277.957	300.56
278.189	317.56
278.421	326.56
278.652	317.56
278.884	318.56
279.115	284.56
279.347	270.56
279.579	287.56
279.81	279.56
280.042	296.56
280.273	294.56
280.505	262.56
280.736	251.56
280.968	255.56
281.199	255.56
281.431	283.56
281.662	287.56
281.894	283.56
282.125	296.56
282.356	292.56
282.588	313.56
282.819	308.56
283.051	318.56
283.282	367.56
283.513	404.56
283.745	467.56
283.976	457.56
284.207	427.56
284.439	465.56
284.67	443.56
284.901	362.56
285.132	402.56
285.364	430.56
285.595	408.56
285.826	421.56
286.057	443.56
286.288	420.56
286.52	420.56
286.751	448.56
286.982	452.56
287.213	409.56
287.444	381.56
287.675	414.56
287.906	417.56
288.138	352.56
288.369	315.56
288.6	303.56
288.831	317.56
289.062	371.56
289.293	401.56
289.524	360.56
289.755	378.56
289.986	367.56
290.217	335.56
290.448	253.56
290.679	217.56
290.91	219.56
291.141	231.56
291.371	251.56
291.602	236.56
291.833	228.56
292.064	237.56
292.295	289.56
292.526	312.56
292.757	329.56
292.987	349.56
293.218	354.56
293.449	372.56
293.68	397.56
293.91	371.56
294.141	399.56
294.372	368.56
294.603	326.56
294.833	351.56
295.064	404.56
295.295	437.56
295.525	325.56
295.756	257.56
295.987	246.56
296.217	230.56
296.448	245.56
296.679	266.56
296.909	271.56
297.14	300.56
297.37	336.56
297.601	302.56
297.831	262.56
298.062	294.56
298.292	325.56
298.523	326.56
298.753	378.56
298.984	351.56
299.214	307.56
299.445	244.56
299.675	236.56
299.905	240.56
300.136	251.56
300.366	280.56
300.597	266.56
300.827	244.56
301.057	229.56
301.288	224.56
301.518	269.56
301.748	279.56
301.979	287.56
302.209	318.56
302.439	324.56
302.669	287.56
302.9	281.56
303.13	274.56
303.36	255.56
303.59	257.56
303.82	272.56
304.051	284.56
304.281	314.56
304.511	280.56
304.741	275.56
304.971	277.56
305.201	302.56
305.431	281.56
305.661	235.56
305.891	242.56
306.121	232.56
306.352	210.56
306.582	212.56
306.812	201.56
307.042	187.56
307.272	198.56
307.502	205.56
307.731	203.56
307.961	209.56
308.191	209.56
308.421	194.56
308.651	194.56
308.881	181.56
309.111	198.56
309.341	195.56
309.571	221.56
309.8	216.56
310.03	219.56
310.26	230.56
310.49	217.56
310.72	216.56
310.949	215.56
311.179	196.56
311.409	216.56
311.639	243.56
311.868	312.56
312.098	388.56
312.328	408.56
312.557	380.56
312.787	390.56
313.017	356.56
313.246	375.56
313.476	421.56
313.706	344.56
313.935	281.56
314.165	231.56
314.394	240.56
314.624	229.56
314.853	219.56
315.083	229.56
315.312	229.56
315.542	223.56
315.771	207.56
316.001	184.56
316.23	188.56
316.46	192.56
316.689	219.56
316.919	212.56
317.148	206.56
317.377	207.56
317.607	208.56
317.836	220.56
318.065	236.56
318.295	279.56
318.524	263.56
318.753	225.56
318.983	227.56
319.212	218.56
319.441	222.56
319.67	256.56
319.9	282.56
320.129	236.56
320.358	236.56
320.587	199.56
320.816	217.56
321.046	241.56
321.275	282.56
321.504	283.56
321.733	255.56
321.962	248.56
322.191	237.56
322.42	232.56
322.649	239.56
322.878	266.56
323.108	274.56
323.337	235.56
323.566	246.56
323.795	266.56
324.024	215.56
324.253	245.56
324.482	226.56
324.71	240.56
324.939	239.56
325.168	262.56
325.397	232.56
325.626	224.56
325.855	217.56
326.084	219.56
326.313	222.56
326.542	225.56
326.77	217.56
326.999	200.56
327.228	219.56
327.457	237.56
327.686	255.56
327.914	212.56
328.143	209.56
328.372	188.56
328.6	189.56
328.829	216.56
329.058	222.56
329.287	200.56
329.515	188.56
329.744	210.56
329.972	206.56
330.201	182.56
330.43	190.56
330.658	214.56
330.887	242.56
331.115	238.56
331.344	243.56
331.572	237.56
331.801	205.56
332.03	205.56
332.258	204.56
332.486	228.56
332.715	253.56
332.943	230.56
333.172	224.56
333.4	236.56
333.629	248.56
333.857	244.56
334.085	247.56
334.314	267.56
334.542	237.56
334.771	236.56
334.999	246.56
335.227	220.56
335.455	215.56
335.684	239.56
335.912	250.56
336.14	287.56
336.369	293.56
336.597	276.56
336.825	292.56
337.053	339.56
337.281	251.56
337.51	216.56
337.738	239.56
337.966	231.56
338.194	258.56
338.422	249.56
338.65	221.56
338.878	214.56
339.106	224.56
339.334	240.56
339.562	238.56
339.79	220.56
340.018	237.56
340.246	224.56
340.474	254.56
340.702	257.56
340.93	292.56
341.158	299.56
341.386	240.56
341.614	231.56
341.842	237.56
342.07	249.56
342.298	294.56
342.526	310.56
342.754	260.56
342.981	239.56
343.209	238.56
343.437	256.56
343.665	272.56
343.893	277.56
344.12	333.56
344.348	366.56
344.576	344.56
344.804	262.56
345.031	227.56
345.259	227.56
345.487	237.56
345.714	239.56
345.942	260.56
346.17	262.56
346.397	273.56
346.625	228.56
346.853	226.56
347.08	214.56
347.308	234.56
347.535	247.56
347.763	263.56
347.99	224.56
348.218	224.56
348.445	224.56
348.673	237.56
348.9	241.56
349.128	227.56
349.355	247.56
349.583	254.56
349.81	237.56
350.037	221.56
350.265	196.56
350.492	188.56
350.72	183.56
350.947	192.56
351.174	209.56
351.402	213.56
351.629	207.56
351.856	216.56
352.083	212.56
352.311	228.56
352.538	232.56
352.765	250.56
352.992	242.56
353.22	228.56
353.447	251.56
353.674	221.56
353.901	237.56
354.128	231.56
354.355	229.56
354.583	207.56
354.81	235.56
355.037	236.56
355.264	229.56
355.491	235.56
355.718	256.56
355.945	268.56
356.172	243.56
356.399	235.56
356.626	278.56
356.853	308.56
357.08	346.56
357.307	383.56
357.534	297.56
357.761	311.56
357.988	374.56
358.215	417.56
358.441	385.56
358.668	349.56
358.895	312.56
359.122	277.56
359.349	275.56
359.576	310.56
359.802	247.56
360.029	214.56
360.256	222.56
360.483	284.56
360.709	350.56
360.936	349.56
361.163	318.56
361.39	260.56
361.616	240.56
361.843	269.56
362.07	291.56
362.296	269.56
362.523	226.56
362.749	216.56
362.976	219.56
363.203	253.56
363.429	264.56
363.656	241.56
363.882	225.56
364.109	215.56
364.335	225.56
364.562	219.56
364.788	236.56
365.015	285.56
365.241	269.56
365.468	211.56
365.694	192.56
365.92	206.56
366.147	184.56
366.373	181.56
366.599	192.56
366.826	196.56
367.052	200.56
367.278	199.56
367.505	196.56
367.731	220.56
367.957	240.56
368.184	228.56
368.41	228.56
368.636	239.56
368.862	249.56
369.089	226.56
369.315	218.56
369.541	211.56
369.767	200.56
369.993	207.56
370.219	211.56
370.445	185.56
370.672	228.56
370.898	237.56
371.124	266.56
371.35	232.56
371.576	215.56
371.802	223.56
372.028	243.56
372.254	296.56
372.48	242.56
372.706	258.56
372.932	251.56
373.158	259.56
373.384	266.56
373.61	368.56
373.835	377.56
374.061	284.56
374.287	258.56
374.513	296.56
374.739	360.56
374.965	357.56
375.191	374.56
375.416	273.56
375.642	239.56
375.868	259.56
376.094	319.56
376.319	266.56
376.545	275.56
376.771	276.56
376.997	250.56
377.222	199.56
377.448	192.56
377.674	183.56
377.899	194.56
378.125	193.56
378.35	201.56
378.576	194.56
378.802	225.56
379.027	211.56
379.253	235.56
379.478	215.56
379.704	241.56
379.929	230.56
380.155	251.56
380.38	220.56
380.606	226.56
380.831	265.56
381.057	255.56
381.282	236.56
381.507	267.56
381.733	306.56
381.958	326.56
382.184	342.56
382.409	368.56
382.634	346.56
382.86	371.56
383.085	315.56
383.31	269.56
383.535	279.56
383.761	271.56
383.986	280.56
384.211	313.56
384.436	305.56
384.662	249.56
384.887	231.56
385.112	240.56
385.337	239.56
385.562	241.56
385.787	249.56
386.013	289.56
386.238	291.56
386.463	257.56
386.688	232.56
386.913	224.56
387.138	209.56
387.363	214.56
387.588	233.56
387.813	255.56
388.038	251.56
388.263	224.56
388.488	229.56
388.713	249.56
388.938	274.56
389.163	232.56
389.387	219.56
389.612	215.56
389.837	229.56
390.062	225.56
390.287	244.56
390.512	224.56
390.736	214.56
390.961	216.56
391.186	208.56
391.411	223.56
391.636	203.56
391.86	225.56
392.085	268.56
392.31	236.56
392.534	217.56
392.759	202.56
392.984	238.56
393.208	224.56
393.433	215.56
393.658	205.56
393.882	201.56
394.107	200.56
394.331	196.56
394.556	229.56
394.78	203.56
395.005	205.56
395.229	225.56
395.454	223.56
395.678	217.56
395.903	238.56
396.127	213.56
396.352	216.56
396.576	237.56
396.801	251.56
397.025	265.56
397.249	255.56
397.474	229.56
397.698	229.56
397.922	235.56
398.147	207.56
398.371	234.56
398.595	224.56
398.82	241.56
399.044	211.56
399.268	268.56
399.492	275.56
399.717	285.56
399.941	289.56
400.165	280.56
400.389	235.56
400.613	254.56
400.837	254.56
401.062	226.56
401.286	214.56
401.51	215.56
401.734	216.56
401.958	225.56
402.182	225.56
402.406	212.56
402.63	204.56
402.854	245.56
403.078	272.56
403.302	351.56
403.526	376.56
403.75	331.56
403.974	275.56
404.198	281.56
404.422	302.56
404.645	338.56
404.869	332.56
405.093	285.56
405.317	264.56
405.541	256.56
405.765	255.56
405.988	258.56
406.212	275.56
406.436	298.56
406.66	319.56
406.883	271.56
407.107	285.56
407.331	313.56
407.555	307.56
407.778	276.56
408.002	260.56
408.226	271.56
408.449	264.56
408.673	262.56
408.896	232.56
409.12	232.56
409.344	238.56
409.567	245.56
409.791	238.56
410.014	219.56
410.238	241.56
410.461	229.56
410.685	220.56
410.908	223.56
411.132	249.56
411.355	238.56
411.578	234.56
411.802	232.56
412.025	235.56
412.249	238.56
412.472	246.56
412.695	260.56
412.919	239.56
413.142	242.56
413.365	248.56
413.589	244.56
413.812	231.56
414.035	230.56
414.258	230.56
414.482	252.56
414.705	264.56
414.928	251.56
415.151	230.56
415.374	219.56
415.597	221.56
415.821	244.56
416.044	220.56
416.267	234.56
416.49	203.56
416.713	202.56
416.936	210.56
417.159	217.56
417.382	222.56
417.605	242.56
417.828	249.56
418.051	230.56
418.274	241.56
418.497	251.56
418.72	228.56
418.943	243.56
419.166	262.56
419.389	254.56
419.611	251.56
419.834	239.56
420.057	263.56
420.28	247.56
420.503	248.56
420.726	229.56
420.948	227.56
421.171	224.56
421.394	229.56
421.617	225.56
421.839	223.56
422.062	240.56
422.285	219.56
422.507	230.56
422.73	241.56
422.953	244.56
423.175	236.56
423.398	246.56
423.621	251.56
423.843	248.56
424.066	236.56
424.288	248.56
424.511	232.56
424.733	243.56
424.956	251.56
425.178	240.56
425.401	303.56
425.623	354.56
425.846	293.56
426.068	243.56
426.291	266.56
426.513	264.56
426.735	241.56
426.958	261.56
427.18	286.56
427.402	344.56
427.625	355.56
427.847	281.56
428.069	216.56
428.292	231.56
428.514	238.56
428.736	212.56
428.958	252.56
429.181	299.56
429.403	237.56
429.625	226.56
429.847	224.56
430.069	257.56
430.292	231.56
430.514	207.56
430.736	232.56
430.958	283.56
431.18	279.56
431.402	209.56
431.624	203.56
431.846	199.56
432.068	213.56
432.29	229.56
432.512	219.56
432.734	274.56
432.956	275.56
433.178	214.56
433.4	217.56
433.622	240.56
433.844	227.56
434.066	236.56
434.287	227.56
434.509	210.56
434.731	248.56
434.953	215.56
435.175	237.56
435.397	276.56
435.618	245.56
435.84	219.56
436.062	221.56
436.284	219.56
436.505	219.56
436.727	193.56
436.949	223.56
437.17	220.56
437.392	208.56
437.614	217.56
437.835	214.56
438.057	200.56
438.278	235.56
438.5	316.56
438.721	331.56
438.943	240.56
439.165	236.56
439.386	200.56
439.608	195.56
439.829	199.56
440.05	205.56
440.272	227.56
440.493	222.56
440.715	289.56
440.936	247.56
441.158	233.56
441.379	227.56
441.6	272.56
441.822	271.56
442.043	236.56
442.264	230.56
442.486	229.56
442.707	216.56
442.928	227.56
443.149	231.56
443.371	247.56
443.592	230.56
443.813	240.56
444.034	216.56
444.255	237.56
444.476	239.56
444.698	264.56
444.919	258.56
445.14	368.56
445.361	292.56
445.582	249.56
445.803	240.56
446.024	249.56
446.245	244.56
446.466	237.56
446.687	208.56
446.908	224.56
447.129	199.56
447.35	216.56
447.571	206.56
447.792	179.56
448.013	209.56
448.234	199.56
448.455	207.56
448.675	215.56
448.896	217.56
449.117	231.56
449.338	199.56
449.559	222.56
449.779	215.56
450	229.56
450.221	239.56
450.442	206.56
450.662	225.56
450.883	215.56
451.104	216.56
451.324	217.56
451.545	204.56
451.766	229.56
451.986	195.56
452.207	195.56
452.428	196.56
452.648	207.56
452.869	223.56
453.089	226.56
453.31	225.56
453.53	215.56
453.751	196.56
453.971	215.56
454.192	208.56
454.412	214.56
454.633	213.56
454.853	194.56
455.073	187.56
455.294	193.56
455.514	188.56
455.734	215.56
455.955	212.56
456.175	230.56
456.395	203.56
456.616	193.56
456.836	179.56
457.056	190.56
457.276	190.56
457.497	192.56
457.717	197.56
457.937	203.56
458.157	185.56
458.377	176.56
458.598	197.56
458.818	211.56
459.038	202.56
459.258	219.56
459.478	222.56
459.698	235.56
459.918	241.56
460.138	230.56
460.358	235.56
460.578	227.56
460.798	231.56
461.018	221.56
461.238	223.56
461.458	230.56
461.678	227.56
461.898	222.56
462.118	251.56
462.338	265.56
462.558	252.56
462.777	253.56
462.997	272.56
463.217	270.56
463.437	265.56
463.657	267.56
463.876	269.56
464.096	263.56
464.316	272.56
464.536	264.56
464.755	288.56
464.975	282.56
465.195	256.56
465.414	264.56
465.634	262.56
465.854	262.56
466.073	212.56
466.293	220.56
466.512	242.56
466.732	279.56
466.951	273.56
467.171	237.56
467.391	204.56
467.61	213.56
467.829	240.56
468.049	225.56
468.268	207.56
468.488	215.56
468.707	224.56
468.927	264.56
469.146	286.56
469.365	243.56
469.585	253.56
469.804	256.56
470.023	280.56
470.243	235.56
470.462	228.56
470.681	222.56
470.901	238.56
471.12	241.56
471.339	236.56
471.558	235.56
471.777	228.56
471.997	228.56
472.216	287.56
472.435	261.56
472.654	228.56
472.873	224.56
473.092	241.56
473.311	261.56
473.53	232.56
473.749	242.56
473.968	249.56
474.187	235.56
474.406	246.56
474.625	223.56
474.844	230.56
475.063	247.56
475.282	241.56
475.501	270.56
475.72	301.56
475.939	283.56
476.158	267.56
476.377	323.56
476.596	350.56
476.814	345.56
477.033	294.56
477.252	257.56
477.471	237.56
477.69	251.56
477.908	265.56
478.127	297.56
478.346	283.56
478.564	303.56
478.783	296.56
479.002	271.56
479.22	311.56
479.439	319.56
479.658	281.56
479.876	272.56
480.095	303.56
480.313	302.56
480.532	277.56
480.751	285.56
480.969	276.56
481.188	300.56
481.406	305.56
481.624	290.56
481.843	275.56
482.061	255.56
482.28	285.56
482.498	340.56
482.717	339.56
482.935	293.56
483.153	279.56
483.372	244.56
483.59	263.56
483.808	251.56
484.027	253.56
484.245	264.56
484.463	238.56
484.681	235.56
484.9	265.56
485.118	287.56
485.336	273.56
485.554	271.56
485.772	260.56
485.99	299.56
486.209	299.56
486.427	277.56
486.645	271.56
486.863	292.56
487.081	283.56
487.299	315.56
487.517	309.56
487.735	304.56
487.953	292.56
488.171	307.56
488.389	265.56
488.607	258.56
488.825	275.56
489.043	287.56
489.261	319.56
489.479	334.56
489.696	288.56
489.914	274.56
490.132	255.56
490.35	261.56
490.568	273.56
490.786	268.56
491.003	273.56
491.221	260.56
491.439	253.56
491.657	268.56
491.874	271.56
492.092	320.56
492.31	364.56
492.527	360.56
492.745	335.56
492.963	293.56
493.18	287.56
493.398	287.56
493.615	284.56
493.833	307.56
494.05	296.56
494.268	284.56
494.485	302.56
494.703	285.56
494.92	258.56
495.138	285.56
495.355	291.56
495.573	288.56
495.79	299.56
496.008	369.56
496.225	325.56
496.442	309.56
496.66	317.56
496.877	335.56
497.094	326.56
497.312	312.56
497.529	300.56
497.746	286.56
497.963	300.56
498.181	334.56
498.398	361.56
498.615	353.56
498.832	384.56
499.049	392.56
499.267	370.56
499.484	367.56
499.701	388.56
499.918	422.56
500.135	465.56
500.352	495.56
500.569	527.56
500.786	532.56
501.003	518.56
501.22	469.56
501.437	404.56
501.654	406.56
501.871	375.56
502.088	373.56
502.305	370.56
502.522	347.56
