Data from NickelSpatula.Lamp.E5.5.P2_HRD10591_11-51-06-562.txt Node
Date: Tue Jul 23 11:51:06 EDT 2019
User: cochatt
Spectrometer: HR+D1059
Trigger mode: 1
Integration Time (sec): 1.000000E-1
Scans to average: 1
Electric dark correction enabled: true
Nonlinearity correction enabled: false
Boxcar width: 0
XAxis mode: Wavelengths
Number of Pixels in Spectrum: 2048
>>>>>Begin Spectral Data<<<<<
223.165	-17.31
223.4	-17.31
223.635	-17.31
223.869	-20.31
224.104	-13.31
224.338	-4.31
224.573	-5.31
224.808	-3.31
225.042	-2.31
225.277	-12.31
225.511	-1.31
225.746	2.69
225.98	-9.31
226.215	4.69
226.449	20.69
226.683	11.69
226.918	21.69
227.152	27.69
227.387	37.69
227.621	52.69
227.856	41.69
228.09	53.69
228.324	50.69
228.559	62.69
228.793	74.69
229.027	75.69
229.262	82.69
229.496	94.69
229.73	89.69
229.964	86.69
230.199	91.69
230.433	96.69
230.667	106.69
230.901	92.69
231.136	92.69
231.37	100.69
231.604	99.69
231.838	98.69
232.072	119.69
232.306	106.69
232.541	100.69
232.775	105.69
233.009	103.69
233.243	107.69
233.477	115.69
233.711	124.69
233.945	112.69
234.179	120.69
234.413	124.69
234.647	117.69
234.881	122.69
235.115	129.69
235.349	112.69
235.583	114.69
235.817	119.69
236.051	131.69
236.285	127.69
236.519	119.69
236.753	127.69
236.987	133.69
237.221	116.69
237.455	120.69
237.689	132.69
237.922	118.69
238.156	122.69
238.39	141.69
238.624	152.69
238.858	130.69
239.091	129.69
239.325	135.69
239.559	130.69
239.793	136.69
240.027	146.69
240.26	133.69
240.494	144.69
240.728	133.69
240.961	151.69
241.195	158.69
241.429	157.69
241.662	144.69
241.896	125.69
242.13	148.69
242.363	123.69
242.597	146.69
242.83	150.69
243.064	142.69
243.298	148.69
243.531	160.69
243.765	156.69
243.998	154.69
244.232	133.69
244.465	153.69
244.699	158.69
244.932	164.69
245.166	141.69
245.399	151.69
245.633	134.69
245.866	136.69
246.099	148.69
246.333	152.69
246.566	164.69
246.8	160.69
247.033	166.69
247.266	148.69
247.5	160.69
247.733	143.69
247.966	149.69
248.2	150.69
248.433	165.69
248.666	167.69
248.899	167.69
249.133	184.69
249.366	177.69
249.599	182.69
249.832	193.69
250.066	179.69
250.299	170.69
250.532	167.69
250.765	184.69
250.998	180.69
251.231	164.69
251.465	173.69
251.698	173.69
251.931	162.69
252.164	180.69
252.397	181.69
252.63	206.69
252.863	224.69
253.096	217.69
253.329	188.69
253.562	198.69
253.795	235.69
254.028	237.69
254.261	266.69
254.494	230.69
254.727	208.69
254.96	208.69
255.193	231.69
255.426	212.69
255.659	160.69
255.892	183.69
256.124	164.69
256.357	215.69
256.59	230.69
256.823	220.69
257.056	196.69
257.289	198.69
257.521	194.69
257.754	214.69
257.987	243.69
258.22	227.69
258.452	193.69
258.685	201.69
258.918	234.69
259.151	235.69
259.383	264.69
259.616	263.69
259.849	275.69
260.081	291.69
260.314	310.69
260.547	271.69
260.779	278.69
261.012	299.69
261.244	296.69
261.477	292.69
261.71	262.69
261.942	238.69
262.175	237.69
262.407	240.69
262.64	240.69
262.872	277.69
263.105	276.69
263.337	297.69
263.57	264.69
263.802	229.69
264.035	187.69
264.267	190.69
264.499	170.69
264.732	166.69
264.964	181.69
265.197	164.69
265.429	197.69
265.661	192.69
265.894	196.69
266.126	186.69
266.358	196.69
266.591	234.69
266.823	262.69
267.055	276.69
267.287	266.69
267.52	245.69
267.752	262.69
267.984	259.69
268.216	265.69
268.448	230.69
268.681	212.69
268.913	231.69
269.145	234.69
269.377	246.69
269.609	247.69
269.841	248.69
270.073	259.69
270.306	263.69
270.538	265.69
270.77	274.69
271.002	279.69
271.234	288.69
271.466	266.69
271.698	261.69
271.93	248.69
272.162	256.69
272.394	262.69
272.626	254.69
272.858	242.69
273.09	266.69
273.322	233.69
273.553	232.69
273.785	264.69
274.017	297.69
274.249	358.69
274.481	392.69
274.713	390.69
274.945	426.69
275.176	450.69
275.408	413.69
275.64	416.69
275.872	408.69
276.104	357.69
276.335	324.69
276.567	330.69
276.799	317.69
277.031	343.69
277.262	280.69
277.494	244.69
277.726	237.69
277.957	253.69
278.189	270.69
278.421	265.69
278.652	263.69
278.884	241.69
279.115	246.69
279.347	229.69
279.579	229.69
279.81	256.69
280.042	260.69
280.273	252.69
280.505	244.69
280.736	220.69
280.968	206.69
281.199	215.69
281.431	258.69
281.662	220.69
281.894	248.69
282.125	241.69
282.356	266.69
282.588	256.69
282.819	245.69
283.051	245.69
283.282	294.69
283.513	341.69
283.745	353.69
283.976	352.69
284.207	345.69
284.439	342.69
284.67	338.69
284.901	307.69
285.132	329.69
285.364	345.69
285.595	322.69
285.826	340.69
286.057	329.69
286.288	346.69
286.52	354.69
286.751	360.69
286.982	344.69
287.213	309.69
287.444	320.69
287.675	323.69
287.906	312.69
288.138	281.69
288.369	263.69
288.6	260.69
288.831	260.69
289.062	285.69
289.293	324.69
289.524	306.69
289.755	305.69
289.986	282.69
290.217	274.69
290.448	225.69
290.679	224.69
290.91	206.69
291.141	198.69
291.371	211.69
291.602	201.69
291.833	214.69
292.064	214.69
292.295	249.69
292.526	280.69
292.757	285.69
292.987	296.69
293.218	284.69
293.449	308.69
293.68	310.69
293.91	301.69
294.141	312.69
294.372	297.69
294.603	282.69
294.833	294.69
295.064	350.69
295.295	341.69
295.525	265.69
295.756	244.69
295.987	224.69
296.217	227.69
296.448	225.69
296.679	242.69
296.909	235.69
297.14	245.69
297.37	282.69
297.601	265.69
297.831	235.69
298.062	256.69
298.292	262.69
298.523	288.69
298.753	316.69
298.984	304.69
299.214	250.69
299.445	240.69
299.675	218.69
299.905	224.69
300.136	217.69
300.366	235.69
300.597	238.69
300.827	230.69
301.057	197.69
301.288	229.69
301.518	244.69
301.748	222.69
301.979	275.69
302.209	274.69
302.439	296.69
302.669	260.69
302.9	237.69
303.13	245.69
303.36	246.69
303.59	218.69
303.82	234.69
304.051	251.69
304.281	260.69
304.511	272.69
304.741	238.69
304.971	251.69
305.201	256.69
305.431	253.69
305.661	226.69
305.891	214.69
306.121	216.69
306.352	218.69
306.582	198.69
306.812	178.69
307.042	203.69
307.272	196.69
307.502	192.69
307.731	195.69
307.961	217.69
308.191	199.69
308.421	182.69
308.651	181.69
308.881	185.69
309.111	187.69
309.341	189.69
309.571	212.69
309.8	198.69
310.03	206.69
310.26	228.69
310.49	223.69
310.72	196.69
310.949	202.69
311.179	192.69
311.409	212.69
311.639	228.69
311.868	262.69
312.098	324.69
312.328	322.69
312.557	322.69
312.787	331.69
313.017	304.69
313.246	328.69
313.476	322.69
313.706	290.69
313.935	258.69
314.165	218.69
314.394	205.69
314.624	213.69
314.853	204.69
315.083	219.69
315.312	230.69
315.542	211.69
315.771	192.69
316.001	186.69
316.23	196.69
316.46	190.69
316.689	188.69
316.919	198.69
317.148	189.69
317.377	203.69
317.607	192.69
317.836	192.69
318.065	211.69
318.295	240.69
318.524	231.69
318.753	221.69
318.983	193.69
319.212	188.69
319.441	199.69
319.67	225.69
319.9	233.69
320.129	212.69
320.358	222.69
320.587	188.69
320.816	210.69
321.046	226.69
321.275	252.69
321.504	237.69
321.733	221.69
321.962	239.69
322.191	227.69
322.42	221.69
322.649	226.69
322.878	242.69
323.108	234.69
323.337	216.69
323.566	230.69
323.795	220.69
324.024	222.69
324.253	220.69
324.482	214.69
324.71	210.69
324.939	235.69
325.168	231.69
325.397	201.69
325.626	218.69
325.855	208.69
326.084	215.69
326.313	202.69
326.542	204.69
326.77	209.69
326.999	217.69
327.228	214.69
327.457	211.69
327.686	231.69
327.914	210.69
328.143	180.69
328.372	213.69
328.6	195.69
328.829	187.69
329.058	202.69
329.287	193.69
329.515	213.69
329.744	201.69
329.972	188.69
330.201	190.69
330.43	195.69
330.658	213.69
330.887	222.69
331.115	234.69
331.344	221.69
331.572	206.69
331.801	197.69
332.03	201.69
332.258	217.69
332.486	230.69
332.715	214.69
332.943	218.69
333.172	213.69
333.4	219.69
333.629	221.69
333.857	245.69
334.085	248.69
334.314	249.69
334.542	221.69
334.771	213.69
334.999	225.69
335.227	222.69
335.455	212.69
335.684	235.69
335.912	246.69
336.14	269.69
336.369	269.69
336.597	244.69
336.825	262.69
337.053	296.69
337.281	254.69
337.51	219.69
337.738	227.69
337.966	218.69
338.194	241.69
338.422	248.69
338.65	221.69
338.878	217.69
339.106	208.69
339.334	224.69
339.562	222.69
339.79	192.69
340.018	216.69
340.246	210.69
340.474	258.69
340.702	235.69
340.93	260.69
341.158	245.69
341.386	221.69
341.614	224.69
341.842	230.69
342.07	236.69
342.298	259.69
342.526	270.69
342.754	222.69
342.981	219.69
343.209	235.69
343.437	255.69
343.665	244.69
343.893	254.69
344.12	293.69
344.348	333.69
344.576	280.69
344.804	256.69
345.031	220.69
345.259	226.69
345.487	204.69
345.714	216.69
345.942	226.69
346.17	244.69
346.397	228.69
346.625	221.69
346.853	222.69
347.08	201.69
347.308	236.69
347.535	232.69
347.763	244.69
347.99	220.69
348.218	213.69
348.445	216.69
348.673	218.69
348.9	207.69
349.128	246.69
349.355	229.69
349.583	219.69
349.81	208.69
350.037	213.69
350.265	204.69
350.492	196.69
350.72	194.69
350.947	180.69
351.174	207.69
351.402	212.69
351.629	221.69
351.856	203.69
352.083	198.69
352.311	215.69
352.538	233.69
352.765	228.69
352.992	227.69
353.22	231.69
353.447	226.69
353.674	201.69
353.901	216.69
354.128	206.69
354.355	225.69
354.583	210.69
354.81	205.69
355.037	220.69
355.264	225.69
355.491	220.69
355.718	233.69
355.945	230.69
356.172	229.69
356.399	226.69
356.626	262.69
356.853	298.69
357.08	311.69
357.307	310.69
357.534	265.69
357.761	267.69
357.988	341.69
358.215	372.69
358.441	312.69
358.668	290.69
358.895	280.69
359.122	245.69
359.349	256.69
359.576	281.69
359.802	248.69
360.029	214.69
360.256	245.69
360.483	256.69
360.709	317.69
360.936	309.69
361.163	277.69
361.39	258.69
361.616	215.69
361.843	235.69
362.07	290.69
362.296	266.69
362.523	227.69
362.749	212.69
362.976	201.69
363.203	246.69
363.429	268.69
363.656	224.69
363.882	198.69
364.109	225.69
364.335	214.69
364.562	222.69
364.788	231.69
365.015	265.69
365.241	219.69
365.468	216.69
365.694	198.69
365.92	185.69
366.147	184.69
366.373	193.69
366.599	192.69
366.826	180.69
367.052	197.69
367.278	196.69
367.505	190.69
367.731	224.69
367.957	223.69
368.184	218.69
368.41	197.69
368.636	206.69
368.862	232.69
369.089	219.69
369.315	201.69
369.541	197.69
369.767	200.69
369.993	186.69
370.219	205.69
370.445	222.69
370.672	237.69
370.898	232.69
371.124	249.69
371.35	222.69
371.576	196.69
371.802	216.69
372.028	256.69
372.254	281.69
372.48	241.69
372.706	230.69
372.932	228.69
373.158	232.69
373.384	274.69
373.61	330.69
373.835	322.69
374.061	274.69
374.287	239.69
374.513	278.69
374.739	322.69
374.965	308.69
375.191	306.69
375.416	249.69
375.642	238.69
375.868	239.69
376.094	254.69
376.319	251.69
376.545	254.69
376.771	260.69
376.997	237.69
377.222	207.69
377.448	205.69
377.674	165.69
377.899	176.69
378.125	192.69
378.35	189.69
378.576	193.69
378.802	196.69
379.027	209.69
379.253	205.69
379.478	205.69
379.704	219.69
379.929	236.69
380.155	227.69
380.38	216.69
380.606	229.69
380.831	230.69
381.057	238.69
381.282	214.69
381.507	228.69
381.733	282.69
381.958	308.69
382.184	300.69
382.409	318.69
382.634	331.69
382.86	327.69
383.085	277.69
383.31	259.69
383.535	275.69
383.761	282.69
383.986	258.69
384.211	299.69
384.436	261.69
384.662	245.69
384.887	225.69
385.112	233.69
385.337	254.69
385.562	240.69
385.787	235.69
386.013	277.69
386.238	274.69
386.463	236.69
386.688	236.69
386.913	238.69
387.138	217.69
387.363	231.69
387.588	224.69
387.813	237.69
388.038	244.69
388.263	243.69
388.488	245.69
388.713	256.69
388.938	241.69
389.163	229.69
389.387	208.69
389.612	201.69
389.837	225.69
390.062	209.69
390.287	223.69
390.512	238.69
390.736	231.69
390.961	205.69
391.186	197.69
391.411	213.69
391.636	217.69
391.86	217.69
392.085	257.69
392.31	241.69
392.534	228.69
392.759	236.69
392.984	237.69
393.208	221.69
393.433	231.69
393.658	215.69
393.882	203.69
394.107	191.69
394.331	211.69
394.556	209.69
394.78	210.69
395.005	201.69
395.229	206.69
395.454	205.69
395.678	203.69
395.903	200.69
396.127	215.69
396.352	213.69
396.576	228.69
396.801	241.69
397.025	240.69
397.249	264.69
397.474	231.69
397.698	234.69
397.922	229.69
398.147	215.69
398.371	222.69
398.595	231.69
398.82	228.69
399.044	246.69
399.268	275.69
399.492	274.69
399.717	295.69
399.941	271.69
400.165	246.69
400.389	260.69
400.613	240.69
400.837	258.69
401.062	212.69
401.286	224.69
401.51	227.69
401.734	232.69
401.958	236.69
402.182	231.69
402.406	221.69
402.63	236.69
402.854	257.69
403.078	290.69
403.302	356.69
403.526	355.69
403.75	336.69
403.974	272.69
404.198	264.69
404.422	312.69
404.645	322.69
404.869	336.69
405.093	284.69
405.317	258.69
405.541	258.69
405.765	244.69
405.988	237.69
406.212	249.69
406.436	276.69
406.66	305.69
406.883	257.69
407.107	275.69
407.331	310.69
407.555	291.69
407.778	270.69
408.002	263.69
408.226	268.69
408.449	278.69
408.673	260.69
408.896	236.69
409.12	234.69
409.344	249.69
409.567	266.69
409.791	252.69
410.014	241.69
410.238	241.69
410.461	223.69
410.685	236.69
410.908	218.69
411.132	234.69
411.355	233.69
411.578	236.69
411.802	240.69
412.025	238.69
412.249	252.69
412.472	233.69
412.695	228.69
412.919	226.69
413.142	231.69
413.365	258.69
413.589	258.69
413.812	237.69
414.035	233.69
414.258	221.69
414.482	248.69
414.705	248.69
414.928	234.69
415.151	229.69
415.374	220.69
415.597	227.69
415.821	236.69
416.044	230.69
416.267	221.69
416.49	225.69
416.713	227.69
416.936	210.69
417.159	215.69
417.382	200.69
417.605	216.69
417.828	245.69
418.051	236.69
418.274	234.69
418.497	235.69
418.72	234.69
418.943	249.69
419.166	236.69
419.389	268.69
419.611	234.69
419.834	249.69
420.057	262.69
420.28	254.69
420.503	248.69
420.726	229.69
420.948	232.69
421.171	230.69
421.394	222.69
421.617	212.69
421.839	218.69
422.062	233.69
422.285	215.69
422.507	240.69
422.73	235.69
422.953	229.69
423.175	248.69
423.398	241.69
423.621	240.69
423.843	267.69
424.066	237.69
424.288	235.69
424.511	247.69
424.733	225.69
424.956	237.69
425.178	260.69
425.401	297.69
425.623	329.69
425.846	280.69
426.068	244.69
426.291	228.69
426.513	238.69
426.735	222.69
426.958	238.69
427.18	249.69
427.402	316.69
427.625	334.69
427.847	295.69
428.069	232.69
428.292	228.69
428.514	222.69
428.736	231.69
428.958	246.69
429.181	278.69
429.403	244.69
429.625	213.69
429.847	229.69
430.069	227.69
430.292	242.69
430.514	213.69
430.736	230.69
430.958	262.69
431.18	259.69
431.402	224.69
431.624	225.69
431.846	234.69
432.068	205.69
432.29	208.69
432.512	214.69
432.734	277.69
432.956	260.69
433.178	216.69
433.4	216.69
433.622	215.69
433.844	237.69
434.066	245.69
434.287	256.69
434.509	241.69
434.731	221.69
434.953	229.69
435.175	249.69
435.397	282.69
435.618	225.69
435.84	214.69
436.062	201.69
436.284	215.69
436.505	204.69
436.727	203.69
436.949	224.69
437.17	215.69
437.392	220.69
437.614	210.69
437.835	216.69
438.057	207.69
438.278	237.69
438.5	314.69
438.721	302.69
438.943	240.69
439.165	223.69
439.386	207.69
439.608	210.69
439.829	197.69
440.05	226.69
440.272	211.69
440.493	246.69
440.715	279.69
440.936	252.69
441.158	207.69
441.379	237.69
441.6	268.69
441.822	262.69
442.043	216.69
442.264	212.69
442.486	213.69
442.707	228.69
442.928	224.69
443.149	242.69
443.371	224.69
443.592	235.69
443.813	236.69
444.034	237.69
444.255	223.69
444.476	242.69
444.698	242.69
444.919	256.69
445.14	383.69
445.361	315.69
445.582	247.69
445.803	254.69
446.024	258.69
446.245	241.69
446.466	244.69
446.687	242.69
446.908	200.69
447.129	216.69
447.35	227.69
447.571	205.69
447.792	205.69
448.013	211.69
448.234	214.69
448.455	214.69
448.675	202.69
448.896	215.69
449.117	208.69
449.338	220.69
449.559	231.69
449.779	215.69
450	223.69
450.221	215.69
450.442	226.69
450.662	221.69
450.883	216.69
451.104	217.69
451.324	214.69
451.545	220.69
451.766	202.69
451.986	193.69
452.207	213.69
452.428	202.69
452.648	215.69
452.869	216.69
453.089	213.69
453.31	209.69
453.53	203.69
453.751	194.69
453.971	207.69
454.192	204.69
454.412	204.69
454.633	205.69
454.853	216.69
455.073	182.69
455.294	196.69
455.514	198.69
455.734	198.69
455.955	206.69
456.175	200.69
456.395	196.69
456.616	190.69
456.836	198.69
457.056	186.69
457.276	195.69
457.497	186.69
457.717	195.69
457.937	198.69
458.157	213.69
458.377	211.69
458.598	187.69
458.818	204.69
459.038	213.69
459.258	212.69
459.478	226.69
459.698	228.69
459.918	212.69
460.138	240.69
460.358	233.69
460.578	236.69
460.798	228.69
461.018	269.69
461.238	228.69
461.458	233.69
461.678	235.69
461.898	260.69
462.118	237.69
462.338	244.69
462.558	256.69
462.777	256.69
462.997	259.69
463.217	271.69
463.437	264.69
463.657	280.69
463.876	273.69
464.096	261.69
464.316	275.69
464.536	269.69
464.755	262.69
464.975	291.69
465.195	257.69
465.414	256.69
465.634	214.69
465.854	229.69
466.073	207.69
466.293	219.69
466.512	222.69
466.732	225.69
466.951	232.69
467.171	236.69
467.391	213.69
467.61	214.69
467.829	227.69
468.049	215.69
468.268	211.69
468.488	218.69
468.707	222.69
468.927	241.69
469.146	270.69
469.365	247.69
469.585	232.69
469.804	233.69
470.023	231.69
470.243	241.69
470.462	241.69
470.681	228.69
470.901	229.69
471.12	241.69
471.339	217.69
471.558	220.69
471.777	221.69
471.997	226.69
472.216	236.69
472.435	228.69
472.654	230.69
472.873	242.69
473.092	227.69
473.311	220.69
473.53	214.69
473.749	219.69
473.968	237.69
474.187	235.69
474.406	231.69
474.625	219.69
474.844	222.69
475.063	237.69
475.282	218.69
475.501	245.69
475.72	257.69
475.939	257.69
476.158	243.69
476.377	277.69
476.596	289.69
476.814	304.69
477.033	274.69
477.252	249.69
477.471	242.69
477.69	245.69
477.908	244.69
478.127	259.69
478.346	259.69
478.564	281.69
478.783	278.69
479.002	240.69
479.22	277.69
479.439	293.69
479.658	286.69
479.876	255.69
480.095	268.69
480.313	281.69
480.532	268.69
480.751	263.69
480.969	269.69
481.188	282.69
481.406	279.69
481.624	286.69
481.843	257.69
482.061	249.69
482.28	266.69
482.498	293.69
482.717	305.69
482.935	267.69
483.153	260.69
483.372	225.69
483.59	269.69
483.808	247.69
484.027	230.69
484.245	235.69
484.463	243.69
484.681	268.69
484.9	264.69
485.118	271.69
485.336	246.69
485.554	261.69
485.772	259.69
485.99	269.69
486.209	289.69
486.427	284.69
486.645	280.69
486.863	252.69
487.081	256.69
487.299	287.69
487.517	264.69
487.735	255.69
487.953	278.69
488.171	292.69
488.389	251.69
488.607	244.69
488.825	244.69
489.043	278.69
489.261	282.69
489.479	288.69
489.696	271.69
489.914	245.69
490.132	254.69
490.35	252.69
490.568	255.69
490.786	256.69
491.003	248.69
491.221	254.69
491.439	245.69
491.657	256.69
491.874	262.69
492.092	298.69
492.31	330.69
492.527	333.69
492.745	313.69
492.963	295.69
493.18	283.69
493.398	274.69
493.615	275.69
493.833	281.69
494.05	269.69
494.268	288.69
494.485	268.69
494.703	265.69
494.92	249.69
495.138	254.69
495.355	273.69
495.573	254.69
495.79	286.69
496.008	346.69
496.225	313.69
496.442	284.69
496.66	286.69
496.877	289.69
497.094	291.69
497.312	281.69
497.529	273.69
497.746	283.69
497.963	284.69
498.181	313.69
498.398	344.69
498.615	334.69
498.832	354.69
499.049	358.69
499.267	342.69
499.484	359.69
499.701	402.69
499.918	453.69
500.135	481.69
500.352	538.69
500.569	544.69
500.786	538.69
501.003	510.69
501.22	463.69
501.437	421.69
501.654	408.69
501.871	384.69
502.088	356.69
502.305	345.69
502.522	329.69
