Data from NickelSpatula.Lamp.E5.5.P2_HRD10591_11-50-55-563.txt Node
Date: Tue Jul 23 11:50:55 EDT 2019
User: cochatt
Spectrometer: HR+D1059
Trigger mode: 1
Integration Time (sec): 1.000000E-1
Scans to average: 1
Electric dark correction enabled: true
Nonlinearity correction enabled: false
Boxcar width: 0
XAxis mode: Wavelengths
Number of Pixels in Spectrum: 2048
>>>>>Begin Spectral Data<<<<<
223.165	-3.88
223.4	-3.88
223.635	-3.88
223.869	-6.88
224.104	-13.88
224.338	-3.88
224.573	-5.88
224.808	-0.88
225.042	-21.88
225.277	-13.88
225.511	-9.88
225.746	6.12
225.98	-4.88
226.215	15.12
226.449	11.12
226.683	13.12
226.918	18.12
227.152	22.12
227.387	36.12
227.621	42.12
227.856	56.12
228.09	52.12
228.324	64.12
228.559	57.12
228.793	52.12
229.027	80.12
229.262	94.12
229.496	70.12
229.73	91.12
229.964	103.12
230.199	92.12
230.433	90.12
230.667	101.12
230.901	99.12
231.136	106.12
231.37	92.12
231.604	100.12
231.838	100.12
232.072	124.12
232.306	108.12
232.541	99.12
232.775	98.12
233.009	115.12
233.243	114.12
233.477	121.12
233.711	108.12
233.945	108.12
234.179	115.12
234.413	121.12
234.647	123.12
234.881	122.12
235.115	136.12
235.349	131.12
235.583	119.12
235.817	128.12
236.051	121.12
236.285	131.12
236.519	131.12
236.753	126.12
236.987	125.12
237.221	130.12
237.455	127.12
237.689	134.12
237.922	119.12
238.156	126.12
238.39	144.12
238.624	146.12
238.858	145.12
239.091	139.12
239.325	138.12
239.559	134.12
239.793	143.12
240.027	144.12
240.26	145.12
240.494	137.12
240.728	158.12
240.961	153.12
241.195	123.12
241.429	141.12
241.662	137.12
241.896	132.12
242.13	122.12
242.363	134.12
242.597	121.12
242.83	133.12
243.064	142.12
243.298	135.12
243.531	134.12
243.765	139.12
243.998	163.12
244.232	149.12
244.465	148.12
244.699	148.12
244.932	164.12
245.166	140.12
245.399	136.12
245.633	146.12
245.866	138.12
246.099	139.12
246.333	160.12
246.566	158.12
246.8	167.12
247.033	155.12
247.266	161.12
247.5	155.12
247.733	140.12
247.966	164.12
248.2	153.12
248.433	176.12
248.666	176.12
248.899	173.12
249.133	171.12
249.366	171.12
249.599	200.12
249.832	178.12
250.066	178.12
250.299	191.12
250.532	179.12
250.765	159.12
250.998	179.12
251.231	169.12
251.465	172.12
251.698	164.12
251.931	183.12
252.164	184.12
252.397	189.12
252.63	207.12
252.863	207.12
253.096	221.12
253.329	207.12
253.562	202.12
253.795	215.12
254.028	234.12
254.261	239.12
254.494	218.12
254.727	223.12
254.96	208.12
255.193	226.12
255.426	218.12
255.659	187.12
255.892	175.12
256.124	190.12
256.357	202.12
256.59	227.12
256.823	232.12
257.056	187.12
257.289	186.12
257.521	191.12
257.754	215.12
257.987	243.12
258.22	220.12
258.452	204.12
258.685	224.12
258.918	222.12
259.151	220.12
259.383	219.12
259.616	286.12
259.849	264.12
260.081	267.12
260.314	310.12
260.547	262.12
260.779	268.12
261.012	298.12
261.244	290.12
261.477	278.12
261.71	269.12
261.942	234.12
262.175	253.12
262.407	246.12
262.64	258.12
262.872	263.12
263.105	276.12
263.337	282.12
263.57	265.12
263.802	229.12
264.035	198.12
264.267	203.12
264.499	184.12
264.732	174.12
264.964	165.12
265.197	193.12
265.429	165.12
265.661	191.12
265.894	186.12
266.126	202.12
266.358	204.12
266.591	242.12
266.823	270.12
267.055	255.12
267.287	246.12
267.52	249.12
267.752	247.12
267.984	278.12
268.216	250.12
268.448	240.12
268.681	228.12
268.913	237.12
269.145	237.12
269.377	230.12
269.609	247.12
269.841	245.12
270.073	260.12
270.306	265.12
270.538	275.12
270.77	278.12
271.002	275.12
271.234	270.12
271.466	272.12
271.698	262.12
271.93	235.12
272.162	273.12
272.394	255.12
272.626	245.12
272.858	279.12
273.09	273.12
273.322	233.12
273.553	243.12
273.785	238.12
274.017	292.12
274.249	354.12
274.481	357.12
274.713	392.12
274.945	445.12
275.176	453.12
275.408	423.12
275.64	387.12
275.872	411.12
276.104	351.12
276.335	328.12
276.567	312.12
276.799	328.12
277.031	354.12
277.262	278.12
277.494	241.12
277.726	217.12
277.957	244.12
278.189	258.12
278.421	259.12
278.652	266.12
278.884	266.12
279.115	252.12
279.347	267.12
279.579	226.12
279.81	231.12
280.042	234.12
280.273	252.12
280.505	228.12
280.736	208.12
280.968	233.12
281.199	244.12
281.431	244.12
281.662	234.12
281.894	240.12
282.125	244.12
282.356	270.12
282.588	252.12
282.819	247.12
283.051	266.12
283.282	322.12
283.513	319.12
283.745	355.12
283.976	364.12
284.207	330.12
284.439	344.12
284.67	342.12
284.901	315.12
285.132	328.12
285.364	335.12
285.595	320.12
285.826	330.12
286.057	359.12
286.288	325.12
286.52	337.12
286.751	357.12
286.982	366.12
287.213	317.12
287.444	296.12
287.675	312.12
287.906	330.12
288.138	285.12
288.369	277.12
288.6	262.12
288.831	267.12
289.062	288.12
289.293	314.12
289.524	297.12
289.755	284.12
289.986	301.12
290.217	277.12
290.448	238.12
290.679	196.12
290.91	210.12
291.141	208.12
291.371	217.12
291.602	220.12
291.833	203.12
292.064	232.12
292.295	235.12
292.526	279.12
292.757	278.12
292.987	319.12
293.218	293.12
293.449	326.12
293.68	331.12
293.91	304.12
294.141	313.12
294.372	307.12
294.603	269.12
294.833	284.12
295.064	324.12
295.295	332.12
295.525	264.12
295.756	249.12
295.987	234.12
296.217	203.12
296.448	219.12
296.679	235.12
296.909	254.12
297.14	270.12
297.37	267.12
297.601	272.12
297.831	239.12
298.062	268.12
298.292	268.12
298.523	278.12
298.753	301.12
298.984	287.12
299.214	258.12
299.445	226.12
299.675	214.12
299.905	222.12
300.136	223.12
300.366	240.12
300.597	248.12
300.827	222.12
301.057	222.12
301.288	229.12
301.518	227.12
301.748	250.12
301.979	268.12
302.209	277.12
302.439	278.12
302.669	259.12
302.9	248.12
303.13	254.12
303.36	236.12
303.59	227.12
303.82	227.12
304.051	240.12
304.281	266.12
304.511	260.12
304.741	222.12
304.971	240.12
305.201	274.12
305.431	251.12
305.661	227.12
305.891	221.12
306.121	225.12
306.352	201.12
306.582	190.12
306.812	206.12
307.042	201.12
307.272	202.12
307.502	191.12
307.731	210.12
307.961	191.12
308.191	203.12
308.421	181.12
308.651	187.12
308.881	186.12
309.111	189.12
309.341	189.12
309.571	198.12
309.8	205.12
310.03	218.12
310.26	214.12
310.49	203.12
310.72	183.12
310.949	180.12
311.179	205.12
311.409	194.12
311.639	232.12
311.868	263.12
312.098	327.12
312.328	334.12
312.557	334.12
312.787	336.12
313.017	302.12
313.246	302.12
313.476	332.12
313.706	294.12
313.935	244.12
314.165	224.12
314.394	220.12
314.624	199.12
314.853	221.12
315.083	227.12
315.312	216.12
315.542	203.12
315.771	206.12
316.001	198.12
316.23	187.12
316.46	208.12
316.689	201.12
316.919	206.12
317.148	192.12
317.377	192.12
317.607	195.12
317.836	220.12
318.065	222.12
318.295	236.12
318.524	253.12
318.753	219.12
318.983	233.12
319.212	187.12
319.441	203.12
319.67	216.12
319.9	251.12
320.129	212.12
320.358	220.12
320.587	185.12
320.816	217.12
321.046	231.12
321.275	242.12
321.504	249.12
321.733	247.12
321.962	233.12
322.191	232.12
322.42	229.12
322.649	237.12
322.878	240.12
323.108	245.12
323.337	232.12
323.566	246.12
323.795	235.12
324.024	217.12
324.253	215.12
324.482	202.12
324.71	250.12
324.939	247.12
325.168	238.12
325.397	210.12
325.626	221.12
325.855	206.12
326.084	202.12
326.313	209.12
326.542	194.12
326.77	219.12
326.999	215.12
327.228	219.12
327.457	224.12
327.686	214.12
327.914	199.12
328.143	202.12
328.372	198.12
328.6	198.12
328.829	195.12
329.058	201.12
329.287	208.12
329.515	217.12
329.744	211.12
329.972	206.12
330.201	186.12
330.43	195.12
330.658	208.12
330.887	231.12
331.115	222.12
331.344	235.12
331.572	219.12
331.801	218.12
332.03	204.12
332.258	212.12
332.486	219.12
332.715	237.12
332.943	194.12
333.172	205.12
333.4	229.12
333.629	231.12
333.857	248.12
334.085	236.12
334.314	242.12
334.542	231.12
334.771	218.12
334.999	211.12
335.227	216.12
335.455	218.12
335.684	218.12
335.912	256.12
336.14	266.12
336.369	260.12
336.597	244.12
336.825	263.12
337.053	284.12
337.281	233.12
337.51	223.12
337.738	233.12
337.966	246.12
338.194	235.12
338.422	248.12
338.65	218.12
338.878	200.12
339.106	198.12
339.334	229.12
339.562	245.12
339.79	210.12
340.018	208.12
340.246	213.12
340.474	240.12
340.702	251.12
340.93	262.12
341.158	265.12
341.386	237.12
341.614	220.12
341.842	214.12
342.07	241.12
342.298	255.12
342.526	262.12
342.754	228.12
342.981	211.12
343.209	231.12
343.437	239.12
343.665	237.12
343.893	250.12
344.12	298.12
344.348	291.12
344.576	297.12
344.804	261.12
345.031	238.12
345.259	207.12
345.487	221.12
345.714	229.12
345.942	238.12
346.17	241.12
346.397	247.12
346.625	228.12
346.853	208.12
347.08	205.12
347.308	227.12
347.535	223.12
347.763	248.12
347.99	243.12
348.218	216.12
348.445	222.12
348.673	215.12
348.9	220.12
349.128	224.12
349.355	209.12
349.583	224.12
349.81	216.12
350.037	206.12
350.265	201.12
350.492	185.12
350.72	208.12
350.947	195.12
351.174	206.12
351.402	203.12
351.629	218.12
351.856	211.12
352.083	223.12
352.311	225.12
352.538	237.12
352.765	237.12
352.992	212.12
353.22	203.12
353.447	219.12
353.674	205.12
353.901	206.12
354.128	224.12
354.355	207.12
354.583	204.12
354.81	237.12
355.037	231.12
355.264	218.12
355.491	227.12
355.718	227.12
355.945	225.12
356.172	246.12
356.399	224.12
356.626	273.12
356.853	297.12
357.08	330.12
357.307	324.12
357.534	279.12
357.761	307.12
357.988	334.12
358.215	370.12
358.441	329.12
358.668	298.12
358.895	282.12
359.122	267.12
359.349	268.12
359.576	288.12
359.802	255.12
360.029	224.12
360.256	245.12
360.483	262.12
360.709	326.12
360.936	302.12
361.163	281.12
361.39	242.12
361.616	211.12
361.843	230.12
362.07	260.12
362.296	263.12
362.523	226.12
362.749	210.12
362.976	234.12
363.203	240.12
363.429	269.12
363.656	221.12
363.882	214.12
364.109	214.12
364.335	226.12
364.562	204.12
364.788	222.12
365.015	266.12
365.241	223.12
365.468	221.12
365.694	224.12
365.92	182.12
366.147	193.12
366.373	202.12
366.599	199.12
366.826	191.12
367.052	180.12
367.278	197.12
367.505	187.12
367.731	211.12
367.957	235.12
368.184	220.12
368.41	230.12
368.636	219.12
368.862	228.12
369.089	223.12
369.315	206.12
369.541	199.12
369.767	215.12
369.993	214.12
370.219	207.12
370.445	211.12
370.672	218.12
370.898	227.12
371.124	230.12
371.35	212.12
371.576	206.12
371.802	218.12
372.028	242.12
372.254	286.12
372.48	251.12
372.706	229.12
372.932	254.12
373.158	236.12
373.384	272.12
373.61	342.12
373.835	333.12
374.061	280.12
374.287	263.12
374.513	310.12
374.739	327.12
374.965	342.12
375.191	333.12
375.416	248.12
375.642	215.12
375.868	262.12
376.094	266.12
376.319	252.12
376.545	265.12
376.771	288.12
376.997	250.12
377.222	189.12
377.448	188.12
377.674	195.12
377.899	194.12
378.125	188.12
378.35	165.12
378.576	185.12
378.802	201.12
379.027	206.12
379.253	217.12
379.478	211.12
379.704	233.12
379.929	243.12
380.155	262.12
380.38	219.12
380.606	214.12
380.831	268.12
381.057	250.12
381.282	228.12
381.507	238.12
381.733	262.12
381.958	287.12
382.184	316.12
382.409	335.12
382.634	304.12
382.86	340.12
383.085	291.12
383.31	249.12
383.535	269.12
383.761	254.12
383.986	239.12
384.211	294.12
384.436	289.12
384.662	244.12
384.887	235.12
385.112	246.12
385.337	246.12
385.562	225.12
385.787	246.12
386.013	288.12
386.238	282.12
386.463	244.12
386.688	227.12
386.913	223.12
387.138	220.12
387.363	225.12
387.588	230.12
387.813	233.12
388.038	257.12
388.263	244.12
388.488	217.12
388.713	246.12
388.938	274.12
389.163	239.12
389.387	210.12
389.612	212.12
389.837	234.12
390.062	219.12
390.287	238.12
390.512	241.12
390.736	218.12
390.961	209.12
391.186	216.12
391.411	229.12
391.636	213.12
391.86	232.12
392.085	246.12
392.31	259.12
392.534	230.12
392.759	246.12
392.984	245.12
393.208	236.12
393.433	227.12
393.658	199.12
393.882	201.12
394.107	199.12
394.331	201.12
394.556	189.12
394.78	214.12
395.005	208.12
395.229	204.12
395.454	218.12
395.678	223.12
395.903	221.12
396.127	202.12
396.352	231.12
396.576	217.12
396.801	222.12
397.025	247.12
397.249	242.12
397.474	223.12
397.698	222.12
397.922	237.12
398.147	216.12
398.371	233.12
398.595	237.12
398.82	239.12
399.044	258.12
399.268	270.12
399.492	278.12
399.717	291.12
399.941	293.12
400.165	270.12
400.389	263.12
400.613	250.12
400.837	239.12
401.062	221.12
401.286	234.12
401.51	215.12
401.734	228.12
401.958	247.12
402.182	227.12
402.406	229.12
402.63	248.12
402.854	249.12
403.078	294.12
403.302	348.12
403.526	370.12
403.75	332.12
403.974	288.12
404.198	282.12
404.422	310.12
404.645	321.12
404.869	328.12
405.093	280.12
405.317	278.12
405.541	261.12
405.765	276.12
405.988	266.12
406.212	275.12
406.436	278.12
406.66	308.12
406.883	263.12
407.107	294.12
407.331	310.12
407.555	304.12
407.778	282.12
408.002	260.12
408.226	277.12
408.449	266.12
408.673	261.12
408.896	235.12
409.12	231.12
409.344	238.12
409.567	254.12
409.791	236.12
410.014	236.12
410.238	250.12
410.461	240.12
410.685	230.12
410.908	233.12
411.132	238.12
411.355	248.12
411.578	235.12
411.802	261.12
412.025	232.12
412.249	266.12
412.472	240.12
412.695	248.12
412.919	234.12
413.142	242.12
413.365	264.12
413.589	260.12
413.812	224.12
414.035	236.12
414.258	223.12
414.482	264.12
414.705	269.12
414.928	231.12
415.151	235.12
415.374	232.12
415.597	227.12
415.821	242.12
416.044	231.12
416.267	238.12
416.49	220.12
416.713	219.12
416.936	242.12
417.159	223.12
417.382	231.12
417.605	231.12
417.828	242.12
418.051	237.12
418.274	245.12
418.497	236.12
418.72	245.12
418.943	246.12
419.166	259.12
419.389	262.12
419.611	246.12
419.834	249.12
420.057	256.12
420.28	245.12
420.503	242.12
420.726	232.12
420.948	233.12
421.171	214.12
421.394	219.12
421.617	238.12
421.839	245.12
422.062	237.12
422.285	233.12
422.507	235.12
422.73	255.12
422.953	236.12
423.175	237.12
423.398	234.12
423.621	267.12
423.843	268.12
424.066	264.12
424.288	250.12
424.511	242.12
424.733	260.12
424.956	261.12
425.178	261.12
425.401	304.12
425.623	334.12
425.846	295.12
426.068	234.12
426.291	268.12
426.513	249.12
426.735	215.12
426.958	260.12
427.18	256.12
427.402	319.12
427.625	331.12
427.847	294.12
428.069	251.12
428.292	249.12
428.514	237.12
428.736	214.12
428.958	248.12
429.181	294.12
429.403	262.12
429.625	230.12
429.847	211.12
430.069	230.12
430.292	243.12
430.514	210.12
430.736	250.12
430.958	278.12
431.18	261.12
431.402	216.12
431.624	233.12
431.846	217.12
432.068	230.12
432.29	228.12
432.512	224.12
432.734	293.12
432.956	266.12
433.178	227.12
433.4	213.12
433.622	225.12
433.844	249.12
434.066	242.12
434.287	247.12
434.509	237.12
434.731	234.12
434.953	240.12
435.175	239.12
435.397	264.12
435.618	237.12
435.84	220.12
436.062	227.12
436.284	226.12
436.505	201.12
436.727	204.12
436.949	228.12
437.17	214.12
437.392	228.12
437.614	220.12
437.835	217.12
438.057	219.12
438.278	227.12
438.5	306.12
438.721	278.12
438.943	230.12
439.165	228.12
439.386	219.12
439.608	223.12
439.829	229.12
440.05	206.12
440.272	234.12
440.493	229.12
440.715	263.12
440.936	247.12
441.158	222.12
441.379	222.12
441.6	227.12
441.822	245.12
442.043	227.12
442.264	248.12
442.486	227.12
442.707	228.12
442.928	235.12
443.149	235.12
443.371	230.12
443.592	245.12
443.813	254.12
444.034	227.12
444.255	236.12
444.476	233.12
444.698	246.12
444.919	243.12
445.14	374.12
445.361	312.12
445.582	244.12
445.803	252.12
446.024	237.12
446.245	244.12
446.466	247.12
446.687	234.12
446.908	236.12
447.129	203.12
447.35	200.12
447.571	206.12
447.792	209.12
448.013	211.12
448.234	220.12
448.455	187.12
448.675	208.12
448.896	207.12
449.117	205.12
449.338	198.12
449.559	217.12
449.779	221.12
450	235.12
450.221	222.12
450.442	206.12
450.662	206.12
450.883	216.12
451.104	214.12
451.324	204.12
451.545	200.12
451.766	204.12
451.986	221.12
452.207	226.12
452.428	208.12
452.648	214.12
452.869	216.12
453.089	220.12
453.31	218.12
453.53	206.12
453.751	197.12
453.971	196.12
454.192	211.12
454.412	210.12
454.633	206.12
454.853	204.12
455.073	204.12
455.294	210.12
455.514	208.12
455.734	208.12
455.955	206.12
456.175	211.12
456.395	200.12
456.616	190.12
456.836	191.12
457.056	194.12
457.276	204.12
457.497	191.12
457.717	195.12
457.937	194.12
458.157	219.12
458.377	205.12
458.598	212.12
458.818	195.12
459.038	205.12
459.258	200.12
459.478	220.12
459.698	240.12
459.918	245.12
460.138	231.12
460.358	242.12
460.578	243.12
460.798	231.12
461.018	242.12
461.238	237.12
461.458	231.12
461.678	239.12
461.898	245.12
462.118	232.12
462.338	278.12
462.558	276.12
462.777	244.12
462.997	275.12
463.217	300.12
463.437	286.12
463.657	286.12
463.876	270.12
464.096	268.12
464.316	259.12
464.536	267.12
464.755	288.12
464.975	289.12
465.195	254.12
465.414	255.12
465.634	239.12
465.854	224.12
466.073	218.12
466.293	223.12
466.512	233.12
466.732	245.12
466.951	247.12
467.171	222.12
467.391	208.12
467.61	212.12
467.829	207.12
468.049	234.12
468.268	221.12
468.488	214.12
468.707	208.12
468.927	245.12
469.146	254.12
469.365	238.12
469.585	228.12
469.804	221.12
470.023	235.12
470.243	250.12
470.462	240.12
470.681	227.12
470.901	211.12
471.12	225.12
471.339	239.12
471.558	225.12
471.777	216.12
471.997	239.12
472.216	247.12
472.435	238.12
472.654	240.12
472.873	234.12
473.092	226.12
473.311	247.12
473.53	234.12
473.749	212.12
473.968	229.12
474.187	224.12
474.406	231.12
474.625	226.12
474.844	216.12
475.063	227.12
475.282	224.12
475.501	256.12
475.72	271.12
475.939	256.12
476.158	255.12
476.377	280.12
476.596	289.12
476.814	319.12
477.033	265.12
477.252	259.12
477.471	249.12
477.69	250.12
477.908	257.12
478.127	272.12
478.346	242.12
478.564	295.12
478.783	270.12
479.002	259.12
479.22	272.12
479.439	291.12
479.658	280.12
479.876	232.12
480.095	294.12
480.313	283.12
480.532	279.12
480.751	274.12
480.969	268.12
481.188	306.12
481.406	284.12
481.624	271.12
481.843	227.12
482.061	248.12
482.28	276.12
482.498	316.12
482.717	318.12
482.935	272.12
483.153	249.12
483.372	237.12
483.59	235.12
483.808	250.12
484.027	237.12
484.245	235.12
484.463	236.12
484.681	254.12
484.9	253.12
485.118	271.12
485.336	267.12
485.554	252.12
485.772	271.12
485.99	255.12
486.209	286.12
486.427	288.12
486.645	273.12
486.863	284.12
487.081	271.12
487.299	292.12
487.517	302.12
487.735	259.12
487.953	278.12
488.171	263.12
488.389	264.12
488.607	281.12
488.825	259.12
489.043	290.12
489.261	311.12
489.479	306.12
489.696	280.12
489.914	270.12
490.132	251.12
490.35	266.12
490.568	280.12
490.786	265.12
491.003	256.12
491.221	267.12
491.439	267.12
491.657	256.12
491.874	277.12
492.092	302.12
492.31	340.12
492.527	315.12
492.745	321.12
492.963	286.12
493.18	268.12
493.398	277.12
493.615	265.12
493.833	257.12
494.05	283.12
494.268	287.12
494.485	284.12
494.703	266.12
494.92	284.12
495.138	247.12
495.355	258.12
495.573	267.12
495.79	300.12
496.008	356.12
496.225	299.12
496.442	268.12
496.66	278.12
496.877	289.12
497.094	282.12
497.312	292.12
497.529	297.12
497.746	286.12
497.963	277.12
498.181	308.12
498.398	320.12
498.615	350.12
498.832	357.12
499.049	365.12
499.267	356.12
499.484	383.12
499.701	406.12
499.918	442.12
500.135	491.12
500.352	519.12
500.569	551.12
500.786	552.12
501.003	522.12
501.22	478.12
501.437	423.12
501.654	388.12
501.871	384.12
502.088	345.12
502.305	336.12
502.522	340.12
