Data from NickelSpatula.Lamp.E10.P2_HRD10591_11-59-21-525.txt Node
Date: Tue Jul 23 11:59:21 EDT 2019
User: cochatt
Spectrometer: HR+D1059
Trigger mode: 1
Integration Time (sec): 1.000000E-1
Scans to average: 1
Electric dark correction enabled: true
Nonlinearity correction enabled: false
Boxcar width: 0
XAxis mode: Wavelengths
Number of Pixels in Spectrum: 2048
>>>>>Begin Spectral Data<<<<<
223.165	-14.12
223.4	-14.12
223.635	-14.12
223.869	-18.12
224.104	-19.12
224.338	-20.12
224.573	-11.12
224.808	-19.12
225.042	-18.12
225.277	8.88
225.511	-10.12
225.746	-5.12
225.98	12.88
226.215	24.88
226.449	9.88
226.683	8.88
226.918	30.88
227.152	38.88
227.387	36.88
227.621	36.88
227.856	51.88
228.09	37.88
228.324	50.88
228.559	66.88
228.793	79.88
229.027	149.88
229.262	176.88
229.496	155.88
229.73	174.88
229.964	200.88
230.199	240.88
230.433	239.88
230.667	203.88
230.901	189.88
231.136	203.88
231.37	211.88
231.604	228.88
231.838	254.88
232.072	248.88
232.306	267.88
232.541	268.88
232.775	235.88
233.009	265.88
233.243	301.88
233.477	315.88
233.711	379.88
233.945	360.88
234.179	348.88
234.413	381.88
234.647	384.88
234.881	467.88
235.115	437.88
235.349	425.88
235.583	363.88
235.817	356.88
236.051	388.88
236.285	427.88
236.519	477.88
236.753	458.88
236.987	466.88
237.221	443.88
237.455	416.88
237.689	430.88
237.922	478.88
238.156	490.88
238.39	557.88
238.624	690.88
238.858	599.88
239.091	502.88
239.325	523.88
239.559	498.88
239.793	538.88
240.027	702.88
240.26	628.88
240.494	603.88
240.728	632.88
240.961	714.88
241.195	654.88
241.429	658.88
241.662	626.88
241.896	556.88
242.13	484.88
242.363	478.88
242.597	500.88
242.83	566.88
243.064	555.88
243.298	596.88
243.531	655.88
243.765	646.88
243.998	646.88
244.232	625.88
244.465	610.88
244.699	610.88
244.932	685.88
245.166	650.88
245.399	585.88
245.633	553.88
245.866	576.88
246.099	602.88
246.333	731.88
246.566	830.88
246.8	794.88
247.033	786.88
247.266	732.88
247.5	736.88
247.733	688.88
247.966	679.88
248.2	708.88
248.433	814.88
248.666	892.88
248.899	882.88
249.133	888.88
249.366	1025.88
249.599	1120.88
249.832	984.88
250.066	839.88
250.299	878.88
250.532	850.88
250.765	838.88
250.998	772.88
251.231	722.88
251.465	818.88
251.698	859.88
251.931	824.88
252.164	873.88
252.397	978.88
252.63	1122.88
252.863	1251.88
253.096	1270.88
253.329	1179.88
253.562	1136.88
253.795	1280.88
254.028	1429.88
254.261	1462.88
254.494	1293.88
254.727	1190.88
254.96	1168.88
255.193	1219.88
255.426	1168.88
255.659	878.88
255.892	837.88
256.124	900.88
256.357	1040.88
256.59	1231.88
256.823	1180.88
257.056	1009.88
257.289	949.88
257.521	1003.88
257.754	1160.88
257.987	1352.88
258.22	1150.88
258.452	1054.88
258.685	1181.88
258.918	1345.88
259.151	1296.88
259.383	1363.88
259.616	1562.88
259.849	1607.88
260.081	1792.88
260.314	1970.88
260.547	1556.88
260.779	1538.88
261.012	1756.88
261.244	1660.88
261.477	1700.88
261.71	1580.88
261.942	1367.88
262.175	1332.88
262.407	1267.88
262.64	1348.88
262.872	1569.88
263.105	1714.88
263.337	1780.88
263.57	1594.88
263.802	1078.88
264.035	946.88
264.267	906.88
264.499	795.88
264.732	732.88
264.964	718.88
265.197	737.88
265.429	788.88
265.661	836.88
265.894	878.88
266.126	934.88
266.358	1058.88
266.591	1300.88
266.823	1537.88
267.055	1460.88
267.287	1268.88
267.52	1271.88
267.752	1338.88
267.984	1494.88
268.216	1409.88
268.448	1146.88
268.681	1136.88
268.913	1217.88
269.145	1325.88
269.377	1333.88
269.609	1307.88
269.841	1235.88
270.073	1360.88
270.306	1409.88
270.538	1426.88
270.77	1453.88
271.002	1442.88
271.234	1489.88
271.466	1534.88
271.698	1507.88
271.93	1478.88
272.162	1530.88
272.394	1453.88
272.626	1428.88
272.858	1520.88
273.09	1550.88
273.322	1354.88
273.553	1314.88
273.785	1542.88
274.017	2110.88
274.249	2575.88
274.481	2634.88
274.713	2890.88
274.945	3324.88
275.176	3415.88
275.408	2964.88
275.64	2724.88
275.872	2742.88
276.104	2297.88
276.335	1953.88
276.567	1998.88
276.799	2052.88
277.031	2189.88
277.262	1687.88
277.494	1288.88
277.726	1255.88
277.957	1384.88
278.189	1556.88
278.421	1517.88
278.652	1505.88
278.884	1429.88
279.115	1311.88
279.347	1238.88
279.579	1205.88
279.81	1257.88
280.042	1257.88
280.273	1252.88
280.505	1212.88
280.736	1063.88
280.968	1064.88
281.199	1151.88
281.431	1282.88
281.662	1260.88
281.894	1200.88
282.125	1296.88
282.356	1403.88
282.588	1425.88
282.819	1268.88
283.051	1408.88
283.282	1791.88
283.513	2004.88
283.745	2214.88
283.976	2194.88
284.207	2030.88
284.439	2160.88
284.67	2093.88
284.901	1859.88
285.132	1991.88
285.364	2084.88
285.595	1926.88
285.826	2030.88
286.057	2098.88
286.288	2055.88
286.52	2093.88
286.751	2177.88
286.982	2131.88
287.213	1866.88
287.444	1821.88
287.675	1953.88
287.906	1866.88
288.138	1601.88
288.369	1419.88
288.6	1330.88
288.831	1385.88
289.062	1598.88
289.293	1744.88
289.524	1672.88
289.755	1634.88
289.986	1645.88
290.217	1492.88
290.448	1126.88
290.679	1008.88
290.91	920.88
291.141	950.88
291.371	1024.88
291.602	1014.88
291.833	979.88
292.064	1089.88
292.295	1262.88
292.526	1439.88
292.757	1496.88
292.987	1612.88
293.218	1626.88
293.449	1648.88
293.68	1732.88
293.91	1618.88
294.141	1689.88
294.372	1582.88
294.603	1456.88
294.833	1598.88
295.064	1912.88
295.295	1729.88
295.525	1336.88
295.756	1230.88
295.987	1070.88
296.217	1054.88
296.448	1086.88
296.679	1107.88
296.909	1278.88
297.14	1354.88
297.37	1498.88
297.601	1406.88
297.831	1216.88
298.062	1291.88
298.292	1463.88
298.523	1618.88
298.753	1869.88
298.984	1650.88
299.214	1280.88
299.445	1114.88
299.675	1085.88
299.905	1067.88
300.136	1126.88
300.366	1235.88
300.597	1187.88
300.827	1058.88
301.057	1030.88
301.288	1056.88
301.518	1109.88
301.748	1304.88
301.979	1370.88
302.209	1512.88
302.439	1528.88
302.669	1286.88
302.9	1289.88
303.13	1175.88
303.36	1120.88
303.59	1090.88
303.82	1147.88
304.051	1264.88
304.281	1382.88
304.511	1333.88
304.741	1204.88
304.971	1251.88
305.201	1330.88
305.431	1240.88
305.661	1093.88
305.891	1098.88
306.121	1102.88
306.352	1010.88
306.582	902.88
306.812	852.88
307.042	875.88
307.272	832.88
307.502	822.88
307.731	904.88
307.961	937.88
308.191	889.88
308.421	845.88
308.651	853.88
308.881	797.88
309.111	788.88
309.341	827.88
309.571	916.88
309.8	948.88
310.03	970.88
310.26	1054.88
310.49	999.88
310.72	886.88
310.949	908.88
311.179	892.88
311.409	947.88
311.639	1147.88
311.868	1435.88
312.098	1840.88
312.328	1957.88
312.557	1890.88
312.787	1942.88
313.017	1739.88
313.246	1887.88
313.476	2057.88
313.706	1668.88
313.935	1332.88
314.165	1080.88
314.394	979.88
314.624	998.88
314.853	1021.88
315.083	1087.88
315.312	1060.88
315.542	1026.88
315.771	981.88
316.001	858.88
316.23	871.88
316.46	857.88
316.689	874.88
316.919	880.88
317.148	950.88
317.377	904.88
317.607	926.88
317.836	970.88
318.065	1192.88
318.295	1271.88
318.524	1206.88
318.753	1002.88
318.983	960.88
319.212	969.88
319.441	1056.88
319.67	1170.88
319.9	1237.88
320.129	1145.88
320.358	1006.88
320.587	992.88
320.816	1052.88
321.046	1232.88
321.275	1376.88
321.504	1370.88
321.733	1337.88
321.962	1261.88
322.191	1231.88
322.42	1161.88
322.649	1189.88
322.878	1283.88
323.108	1240.88
323.337	1156.88
323.566	1129.88
323.795	1108.88
324.024	1042.88
324.253	985.88
324.482	982.88
324.71	1105.88
324.939	1258.88
325.168	1170.88
325.397	968.88
325.626	934.88
325.855	941.88
326.084	955.88
326.313	904.88
326.542	854.88
326.77	914.88
326.999	942.88
327.228	1008.88
327.457	1048.88
327.686	998.88
327.914	891.88
328.143	859.88
328.372	873.88
328.6	852.88
328.829	916.88
329.058	896.88
329.287	931.88
329.515	922.88
329.744	890.88
329.972	844.88
330.201	840.88
330.43	862.88
330.658	957.88
330.887	1115.88
331.115	1059.88
331.344	1034.88
331.572	995.88
331.801	922.88
332.03	859.88
332.258	896.88
332.486	998.88
332.715	1026.88
332.943	910.88
333.172	938.88
333.4	962.88
333.629	1089.88
333.857	1130.88
334.085	1125.88
334.314	1130.88
334.542	1086.88
334.771	1015.88
334.999	975.88
335.227	937.88
335.455	957.88
335.684	1039.88
335.912	1220.88
336.14	1350.88
336.369	1294.88
336.597	1270.88
336.825	1431.88
337.053	1570.88
337.281	1248.88
337.51	1046.88
337.738	998.88
337.966	1077.88
338.194	1240.88
338.422	1152.88
338.65	989.88
338.878	923.88
339.106	927.88
339.334	1022.88
339.562	1106.88
339.79	1035.88
340.018	1006.88
340.246	1092.88
340.474	1225.88
340.702	1344.88
340.93	1382.88
341.158	1369.88
341.386	1154.88
341.614	1134.88
341.842	1146.88
342.07	1202.88
342.298	1370.88
342.526	1457.88
342.754	1244.88
342.981	1151.88
343.209	1079.88
343.437	1151.88
343.665	1206.88
343.893	1232.88
344.12	1436.88
344.348	1685.88
344.576	1501.88
344.804	1226.88
345.031	1052.88
345.259	991.88
345.487	1028.88
345.714	1069.88
345.942	1121.88
346.17	1229.88
346.397	1141.88
346.625	1038.88
346.853	1003.88
347.08	964.88
347.308	1049.88
347.535	1166.88
347.763	1172.88
347.99	1038.88
348.218	967.88
348.445	998.88
348.673	1011.88
348.9	1005.88
349.128	1098.88
349.355	1158.88
349.583	1100.88
349.81	1012.88
350.037	958.88
350.265	860.88
350.492	823.88
350.72	839.88
350.947	841.88
351.174	914.88
351.402	971.88
351.629	1017.88
351.856	951.88
352.083	939.88
352.311	1006.88
352.538	1125.88
352.765	1194.88
352.992	1062.88
353.22	1012.88
353.447	1043.88
353.674	1018.88
353.901	1000.88
354.128	989.88
354.355	1053.88
354.583	1039.88
354.81	1001.88
355.037	1059.88
355.264	1027.88
355.491	1129.88
355.718	1240.88
355.945	1179.88
356.172	1163.88
356.399	1111.88
356.626	1370.88
356.853	1725.88
357.08	1812.88
357.307	1843.88
357.534	1422.88
357.761	1488.88
357.988	1828.88
358.215	2136.88
358.441	2057.88
358.668	1746.88
358.895	1566.88
359.122	1268.88
359.349	1269.88
359.576	1354.88
359.802	1125.88
360.029	960.88
360.256	1094.88
360.483	1324.88
360.709	1709.88
360.936	1747.88
361.163	1538.88
361.39	1165.88
361.616	1084.88
361.843	1237.88
362.07	1612.88
362.296	1408.88
362.523	1100.88
362.749	992.88
362.976	1056.88
363.203	1272.88
363.429	1404.88
363.656	1105.88
363.882	1032.88
364.109	1069.88
364.335	1066.88
364.562	1009.88
364.788	1157.88
365.015	1374.88
365.241	1204.88
365.468	981.88
365.694	866.88
365.92	846.88
366.147	812.88
366.373	806.88
366.599	818.88
366.826	839.88
367.052	852.88
367.278	860.88
367.505	868.88
367.731	908.88
367.957	1074.88
368.184	1076.88
368.41	1030.88
368.636	1059.88
368.862	1067.88
369.089	1046.88
369.315	966.88
369.541	914.88
369.767	936.88
369.993	865.88
370.219	878.88
370.445	930.88
370.672	1052.88
370.898	1126.88
371.124	1154.88
371.35	970.88
371.576	948.88
371.802	1034.88
372.028	1211.88
372.254	1396.88
372.48	1184.88
372.706	1087.88
372.932	1133.88
373.158	1174.88
373.384	1443.88
373.61	1920.88
373.835	1932.88
374.061	1421.88
374.287	1203.88
374.513	1451.88
374.739	1727.88
374.965	1771.88
375.191	1736.88
375.416	1203.88
375.642	1069.88
375.868	1242.88
376.094	1393.88
376.319	1216.88
376.545	1364.88
376.771	1411.88
376.997	1226.88
377.222	887.88
377.448	797.88
377.674	796.88
377.899	774.88
378.125	763.88
378.35	781.88
378.576	803.88
378.802	894.88
379.027	971.88
379.253	916.88
379.478	942.88
379.704	1080.88
379.929	1152.88
380.155	1137.88
380.38	981.88
380.606	1023.88
380.831	1136.88
381.057	1065.88
381.282	980.88
381.507	1206.88
381.733	1501.88
381.958	1632.88
382.184	1717.88
382.409	1788.88
382.634	1793.88
382.86	1893.88
383.085	1484.88
383.31	1186.88
383.535	1249.88
383.761	1273.88
383.986	1206.88
384.211	1472.88
384.436	1414.88
384.662	1084.88
384.887	1033.88
385.112	1073.88
385.337	1059.88
385.562	1030.88
385.787	1130.88
386.013	1298.88
386.238	1300.88
386.463	1051.88
386.688	1014.88
386.913	984.88
387.138	936.88
387.363	982.88
387.588	1024.88
387.813	1040.88
388.038	1181.88
388.263	1025.88
388.488	985.88
388.713	1151.88
388.938	1272.88
389.163	1067.88
389.387	952.88
389.612	927.88
389.837	954.88
390.062	998.88
390.287	1029.88
390.512	1049.88
390.736	972.88
390.961	912.88
391.186	909.88
391.411	880.88
391.636	880.88
391.86	981.88
392.085	1049.88
392.31	1028.88
392.534	957.88
392.759	948.88
392.984	1002.88
393.208	1009.88
393.433	870.88
393.658	819.88
393.882	820.88
394.107	816.88
394.331	819.88
394.556	817.88
394.78	805.88
395.005	869.88
395.229	861.88
395.454	901.88
395.678	880.88
395.903	938.88
396.127	895.88
396.352	920.88
396.576	1034.88
396.801	1054.88
397.025	1137.88
397.249	1145.88
397.474	963.88
397.698	971.88
397.922	990.88
398.147	918.88
398.371	970.88
398.595	976.88
398.82	963.88
399.044	978.88
399.268	1059.88
399.492	1054.88
399.717	1095.88
399.941	1127.88
400.165	1070.88
400.389	1057.88
400.613	1077.88
400.837	1066.88
401.062	974.88
401.286	918.88
401.51	933.88
401.734	905.88
401.958	954.88
402.182	919.88
402.406	932.88
402.63	933.88
402.854	958.88
403.078	1094.88
403.302	1332.88
403.526	1405.88
403.75	1223.88
403.974	1092.88
404.198	1107.88
404.422	1261.88
404.645	1500.88
404.869	1641.88
405.093	1223.88
405.317	1013.88
405.541	1010.88
405.765	1039.88
405.988	1050.88
406.212	1118.88
406.436	1313.88
406.66	1452.88
406.883	1156.88
407.107	1227.88
407.331	1408.88
407.555	1355.88
407.778	1154.88
408.002	1101.88
408.226	1067.88
408.449	1083.88
408.673	1046.88
408.896	974.88
409.12	933.88
409.344	939.88
409.567	917.88
409.791	913.88
410.014	919.88
410.238	894.88
410.461	932.88
410.685	933.88
410.908	948.88
411.132	932.88
411.355	940.88
411.578	959.88
411.802	960.88
412.025	1020.88
412.249	1017.88
412.472	971.88
412.695	971.88
412.919	969.88
413.142	1025.88
413.365	1081.88
413.589	1091.88
413.812	966.88
414.035	934.88
414.258	965.88
414.482	1060.88
414.705	1100.88
414.928	950.88
415.151	878.88
415.374	900.88
415.597	920.88
415.821	928.88
416.044	906.88
416.267	891.88
416.49	880.88
416.713	894.88
416.936	872.88
417.159	880.88
417.382	916.88
417.605	915.88
417.828	942.88
418.051	928.88
418.274	966.88
418.497	956.88
418.72	955.88
418.943	989.88
419.166	1018.88
419.389	1060.88
419.611	1032.88
419.834	1065.88
420.057	1198.88
420.28	1170.88
420.503	1060.88
420.726	952.88
420.948	905.88
421.171	936.88
421.394	913.88
421.617	904.88
421.839	906.88
422.062	950.88
422.285	977.88
422.507	978.88
422.73	1008.88
422.953	1019.88
423.175	962.88
423.398	968.88
423.621	1032.88
423.843	1088.88
424.066	986.88
424.288	971.88
424.511	954.88
424.733	918.88
424.956	983.88
425.178	1127.88
425.401	1301.88
425.623	1440.88
425.846	1226.88
426.068	1074.88
426.291	1162.88
426.513	1080.88
426.735	994.88
426.958	1011.88
427.18	1208.88
427.402	1596.88
427.625	1507.88
427.847	1214.88
428.069	914.88
428.292	930.88
428.514	931.88
428.736	901.88
428.958	991.88
429.181	1147.88
429.403	1000.88
429.625	942.88
429.847	899.88
430.069	918.88
430.292	925.88
430.514	891.88
430.736	1018.88
430.958	1210.88
431.18	1137.88
431.402	887.88
431.624	829.88
431.846	806.88
432.068	776.88
432.29	838.88
432.512	965.88
432.734	1273.88
432.956	1166.88
433.178	911.88
433.4	864.88
433.622	886.88
433.844	913.88
434.066	972.88
434.287	967.88
434.509	910.88
434.731	919.88
434.953	870.88
435.175	924.88
435.397	1077.88
435.618	910.88
435.84	851.88
436.062	845.88
436.284	833.88
436.505	847.88
436.727	827.88
436.949	827.88
437.17	886.88
437.392	896.88
437.614	867.88
437.835	836.88
438.057	870.88
438.278	1027.88
438.5	1456.88
438.721	1422.88
438.943	965.88
439.165	845.88
439.386	808.88
439.608	800.88
439.829	818.88
440.05	811.88
440.272	861.88
440.493	1031.88
440.715	1295.88
440.936	1009.88
441.158	878.88
441.379	879.88
441.6	1008.88
441.822	1073.88
442.043	940.88
442.264	877.88
442.486	903.88
442.707	894.88
442.928	894.88
443.149	908.88
443.371	911.88
443.592	964.88
443.813	940.88
444.034	896.88
444.255	937.88
444.476	965.88
444.698	973.88
444.919	980.88
445.14	1097.88
445.361	1046.88
445.582	966.88
445.803	966.88
446.024	968.88
446.245	986.88
446.466	947.88
446.687	906.88
446.908	911.88
447.129	859.88
447.35	840.88
447.571	810.88
447.792	849.88
448.013	817.88
448.234	790.88
448.455	795.88
448.675	806.88
448.896	843.88
449.117	842.88
449.338	836.88
449.559	864.88
449.779	900.88
450	894.88
450.221	866.88
450.442	830.88
450.662	786.88
450.883	843.88
451.104	827.88
451.324	813.88
451.545	857.88
451.766	832.88
451.986	828.88
452.207	796.88
452.428	796.88
452.648	789.88
452.869	824.88
453.089	902.88
453.31	884.88
453.53	798.88
453.751	790.88
453.971	770.88
454.192	788.88
454.412	820.88
454.633	795.88
454.853	765.88
455.073	752.88
455.294	743.88
455.514	754.88
455.734	784.88
455.955	823.88
456.175	849.88
456.395	763.88
456.616	738.88
456.836	733.88
457.056	716.88
457.276	720.88
457.497	753.88
457.717	725.88
457.937	726.88
458.157	749.88
458.377	742.88
458.598	778.88
458.818	787.88
459.038	845.88
459.258	859.88
459.478	895.88
459.698	953.88
459.918	925.88
460.138	886.88
460.358	924.88
460.578	883.88
460.798	898.88
461.018	918.88
461.238	874.88
461.458	867.88
461.678	914.88
461.898	933.88
462.118	946.88
462.338	968.88
462.558	950.88
462.777	1028.88
462.997	1045.88
463.217	992.88
463.437	1065.88
463.657	1028.88
463.876	986.88
464.096	992.88
464.316	989.88
464.536	991.88
464.755	1048.88
464.975	1030.88
465.195	987.88
465.414	1021.88
465.634	976.88
465.854	946.88
466.073	890.88
466.293	892.88
466.512	956.88
466.732	1050.88
466.951	1074.88
467.171	969.88
467.391	877.88
467.61	893.88
467.829	974.88
468.049	936.88
468.268	901.88
468.488	905.88
468.707	930.88
468.927	1083.88
469.146	1208.88
469.365	1076.88
469.585	964.88
469.804	1054.88
470.023	1131.88
470.243	995.88
470.462	956.88
470.681	956.88
470.901	951.88
471.12	1024.88
471.339	1000.88
471.558	948.88
471.777	966.88
471.997	1039.88
472.216	1161.88
472.435	1115.88
472.654	988.88
472.873	978.88
473.092	1067.88
473.311	1065.88
473.53	978.88
473.749	932.88
473.968	1033.88
474.187	987.88
474.406	951.88
474.625	936.88
474.844	988.88
475.063	1068.88
475.282	1062.88
475.501	1111.88
475.72	1149.88
475.939	1133.88
476.158	1127.88
476.377	1279.88
476.596	1512.88
476.814	1580.88
477.033	1288.88
477.252	1091.88
477.471	1012.88
477.69	1044.88
477.908	1126.88
478.127	1160.88
478.346	1092.88
478.564	1176.88
478.783	1124.88
479.002	1160.88
479.22	1332.88
479.439	1481.88
479.658	1247.88
479.876	1139.88
480.095	1242.88
480.313	1258.88
480.532	1158.88
480.751	1128.88
480.969	1140.88
481.188	1292.88
481.406	1331.88
481.624	1248.88
481.843	1141.88
482.061	1085.88
482.28	1245.88
482.498	1494.88
482.717	1444.88
482.935	1275.88
483.153	1160.88
483.372	1122.88
483.59	1104.88
483.808	1080.88
484.027	1076.88
484.245	1011.88
484.463	1014.88
484.681	1047.88
484.9	1155.88
485.118	1242.88
485.336	1112.88
485.554	1049.88
485.772	1122.88
485.99	1209.88
486.209	1248.88
486.427	1286.88
486.645	1211.88
486.863	1287.88
487.081	1286.88
487.299	1438.88
487.517	1381.88
487.735	1232.88
487.953	1272.88
488.171	1296.88
488.389	1205.88
488.607	1156.88
488.825	1221.88
489.043	1313.88
489.261	1509.88
489.479	1612.88
489.696	1347.88
489.914	1212.88
490.132	1120.88
490.35	1144.88
490.568	1178.88
490.786	1121.88
491.003	1185.88
491.221	1217.88
491.439	1152.88
491.657	1178.88
491.874	1266.88
492.092	1551.88
492.31	1876.88
492.527	1828.88
492.745	1599.88
492.963	1385.88
493.18	1331.88
493.398	1324.88
