Data from NickelSpatula_HRD10591_16-35-13-126.txt Node
Date: Mon Jul 22 16:35:13 EDT 2019
User: cochatt
Spectrometer: HR+D1059
Trigger mode: 1
Integration Time (sec): 1.000000E-1
Scans to average: 1
Electric dark correction enabled: true
Nonlinearity correction enabled: false
Boxcar width: 0
XAxis mode: Wavelengths
Number of Pixels in Spectrum: 2048
>>>>>Begin Spectral Data<<<<<
223.165	-24.56
223.4	-24.56
223.635	-24.56
223.869	-28.56
224.104	-22.56
224.338	-12.56
224.573	-0.56
224.808	-24.56
225.042	-10.56
225.277	8.44
225.511	3.44
225.746	-8.56
225.98	5.44
226.215	25.44
226.449	14.44
226.683	22.44
226.918	24.44
227.152	28.44
227.387	45.44
227.621	39.44
227.856	36.44
228.09	40.44
228.324	49.44
228.559	53.44
228.793	64.44
229.027	57.44
229.262	79.44
229.496	79.44
229.73	78.44
229.964	90.44
230.199	106.44
230.433	95.44
230.667	98.44
230.901	87.44
231.136	89.44
231.37	101.44
231.604	100.44
231.838	111.44
232.072	100.44
232.306	119.44
232.541	108.44
232.775	88.44
233.009	109.44
233.243	134.44
233.477	122.44
233.711	141.44
233.945	126.44
234.179	121.44
234.413	111.44
234.647	121.44
234.881	142.44
235.115	133.44
235.349	126.44
235.583	133.44
235.817	131.44
236.051	126.44
236.285	121.44
236.519	139.44
236.753	131.44
236.987	136.44
237.221	130.44
237.455	122.44
237.689	129.44
237.922	137.44
238.156	133.44
238.39	152.44
238.624	150.44
238.858	159.44
239.091	141.44
239.325	150.44
239.559	142.44
239.793	141.44
240.027	177.44
240.26	159.44
240.494	156.44
240.728	165.44
240.961	172.44
241.195	185.44
241.429	177.44
241.662	165.44
241.896	154.44
242.13	133.44
242.363	131.44
242.597	155.44
242.83	149.44
243.064	166.44
243.298	156.44
243.531	185.44
243.765	172.44
243.998	157.44
244.232	165.44
244.465	164.44
244.699	147.44
244.932	178.44
245.166	167.44
245.399	155.44
245.633	134.44
245.866	149.44
246.099	175.44
246.333	188.44
246.566	195.44
246.8	197.44
247.033	203.44
247.266	174.44
247.5	194.44
247.733	171.44
247.966	161.44
248.2	159.44
248.433	177.44
248.666	199.44
248.899	181.44
249.133	191.44
249.366	232.44
249.599	245.44
249.832	231.44
250.066	207.44
250.299	211.44
250.532	201.44
250.765	182.44
250.998	194.44
251.231	177.44
251.465	183.44
251.698	202.44
251.931	199.44
252.164	208.44
252.397	214.44
252.63	242.44
252.863	261.44
253.096	264.44
253.329	262.44
253.562	257.44
253.795	264.44
254.028	314.44
254.261	318.44
254.494	276.44
254.727	281.44
254.96	266.44
255.193	279.44
255.426	278.44
255.659	229.44
255.892	183.44
256.124	207.44
256.357	235.44
256.59	277.44
256.823	253.44
257.056	237.44
257.289	214.44
257.521	226.44
257.754	252.44
257.987	291.44
258.22	268.44
258.452	224.44
258.685	263.44
258.918	287.44
259.151	267.44
259.383	291.44
259.616	319.44
259.849	325.44
260.081	353.44
260.314	366.44
260.547	319.44
260.779	313.44
261.012	357.44
261.244	343.44
261.477	335.44
261.71	322.44
261.942	273.44
262.175	284.44
262.407	280.44
262.64	277.44
262.872	323.44
263.105	344.44
263.337	353.44
263.57	329.44
263.802	229.44
264.035	215.44
264.267	211.44
264.499	197.44
264.732	168.44
264.964	183.44
265.197	172.44
265.429	174.44
265.661	172.44
265.894	195.44
266.126	218.44
266.358	228.44
266.591	277.44
266.823	327.44
267.055	315.44
267.287	261.44
267.52	263.44
267.752	292.44
267.984	321.44
268.216	296.44
268.448	256.44
268.681	277.44
268.913	267.44
269.145	281.44
269.377	302.44
269.609	284.44
269.841	277.44
270.073	277.44
270.306	309.44
270.538	292.44
270.77	308.44
271.002	309.44
271.234	321.44
271.466	316.44
271.698	311.44
271.93	312.44
272.162	303.44
272.394	300.44
272.626	290.44
272.858	306.44
273.09	317.44
273.322	286.44
273.553	263.44
273.785	290.44
274.017	377.44
274.249	465.44
274.481	460.44
274.713	502.44
274.945	587.44
275.176	601.44
275.408	541.44
275.64	511.44
275.872	489.44
276.104	449.44
276.335	391.44
276.567	389.44
276.799	397.44
277.031	433.44
277.262	357.44
277.494	265.44
277.726	260.44
277.957	286.44
278.189	318.44
278.421	322.44
278.652	295.44
278.884	298.44
279.115	263.44
279.347	259.44
279.579	242.44
279.81	236.44
280.042	265.44
280.273	285.44
280.505	263.44
280.736	215.44
280.968	217.44
281.199	236.44
281.431	247.44
281.662	261.44
281.894	253.44
282.125	271.44
282.356	284.44
282.588	284.44
282.819	273.44
283.051	289.44
283.282	351.44
283.513	365.44
283.745	406.44
283.976	413.44
284.207	383.44
284.439	420.44
284.67	395.44
284.901	347.44
285.132	378.44
285.364	396.44
285.595	366.44
285.826	394.44
286.057	410.44
286.288	389.44
286.52	396.44
286.751	416.44
286.982	421.44
287.213	383.44
287.444	353.44
287.675	373.44
287.906	366.44
288.138	337.44
288.369	299.44
288.6	275.44
288.831	293.44
289.062	325.44
289.293	366.44
289.524	337.44
289.755	349.44
289.986	333.44
290.217	318.44
290.448	255.44
290.679	225.44
290.91	204.44
291.141	217.44
291.371	241.44
291.602	227.44
291.833	230.44
292.064	239.44
292.295	245.44
292.526	297.44
292.757	305.44
292.987	331.44
293.218	334.44
293.449	339.44
293.68	358.44
293.91	316.44
294.141	327.44
294.372	315.44
294.603	275.44
294.833	328.44
295.064	374.44
295.295	357.44
295.525	262.44
295.756	239.44
295.987	245.44
296.217	228.44
296.448	230.44
296.679	220.44
296.909	253.44
297.14	268.44
297.37	298.44
297.601	271.44
297.831	264.44
298.062	263.44
298.292	286.44
298.523	321.44
298.753	345.44
298.984	315.44
299.214	272.44
299.445	238.44
299.675	229.44
299.905	234.44
300.136	201.44
300.366	255.44
300.597	253.44
300.827	214.44
301.057	227.44
301.288	227.44
301.518	219.44
301.748	253.44
301.979	274.44
302.209	281.44
302.439	269.44
302.669	267.44
302.9	250.44
303.13	249.44
303.36	262.44
303.59	233.44
303.82	235.44
304.051	249.44
304.281	285.44
304.511	294.44
304.741	245.44
304.971	248.44
305.201	293.44
305.431	275.44
305.661	227.44
305.891	224.44
306.121	224.44
306.352	179.44
306.582	174.44
306.812	197.44
307.042	195.44
307.272	175.44
307.502	208.44
307.731	196.44
307.961	199.44
308.191	198.44
308.421	181.44
308.651	187.44
308.881	181.44
309.111	175.44
309.341	173.44
309.571	218.44
309.8	205.44
310.03	214.44
310.26	218.44
310.49	192.44
310.72	195.44
310.949	198.44
311.179	198.44
311.409	209.44
311.639	218.44
311.868	295.44
312.098	351.44
312.328	385.44
312.557	359.44
312.787	354.44
313.017	327.44
313.246	356.44
313.476	389.44
313.706	348.44
313.935	259.44
314.165	213.44
314.394	213.44
314.624	195.44
314.853	221.44
315.083	221.44
315.312	224.44
315.542	208.44
315.771	221.44
316.001	184.44
316.23	191.44
316.46	182.44
316.689	185.44
316.919	199.44
317.148	197.44
317.377	198.44
317.607	191.44
317.836	215.44
318.065	213.44
318.295	247.44
318.524	235.44
318.753	200.44
318.983	197.44
319.212	207.44
319.441	214.44
319.67	239.44
319.9	235.44
320.129	228.44
320.358	186.44
320.587	196.44
320.816	217.44
321.046	234.44
321.275	264.44
321.504	264.44
321.733	247.44
321.962	218.44
322.191	225.44
322.42	232.44
322.649	237.44
322.878	251.44
323.108	227.44
323.337	220.44
323.566	233.44
323.795	221.44
324.024	225.44
324.253	206.44
324.482	193.44
324.71	231.44
324.939	246.44
325.168	235.44
325.397	199.44
325.626	200.44
325.855	197.44
326.084	203.44
326.313	197.44
326.542	211.44
326.77	216.44
326.999	190.44
327.228	207.44
327.457	197.44
327.686	218.44
327.914	182.44
328.143	181.44
328.372	190.44
328.6	182.44
328.829	188.44
329.058	191.44
329.287	170.44
329.515	181.44
329.744	182.44
329.972	170.44
330.201	183.44
330.43	187.44
330.658	198.44
330.887	207.44
331.115	209.44
331.344	206.44
331.572	212.44
331.801	198.44
332.03	181.44
332.258	201.44
332.486	201.44
332.715	214.44
332.943	195.44
333.172	202.44
333.4	192.44
333.629	210.44
333.857	236.44
334.085	228.44
334.314	230.44
334.542	212.44
334.771	201.44
334.999	196.44
335.227	199.44
335.455	201.44
335.684	215.44
335.912	243.44
336.14	250.44
336.369	257.44
336.597	231.44
336.825	263.44
337.053	295.44
337.281	244.44
337.51	217.44
337.738	213.44
337.966	214.44
338.194	229.44
338.422	234.44
338.65	197.44
338.878	191.44
339.106	197.44
339.334	211.44
339.562	219.44
339.79	217.44
340.018	202.44
340.246	209.44
340.474	235.44
340.702	261.44
340.93	249.44
341.158	273.44
341.386	241.44
341.614	207.44
341.842	213.44
342.07	224.44
342.298	262.44
342.526	276.44
342.754	233.44
342.981	219.44
343.209	207.44
343.437	252.44
343.665	231.44
343.893	231.44
344.12	249.44
344.348	324.44
344.576	303.44
344.804	230.44
345.031	213.44
345.259	210.44
345.487	205.44
345.714	218.44
345.942	209.44
346.17	225.44
346.397	225.44
346.625	202.44
346.853	209.44
347.08	186.44
347.308	209.44
347.535	233.44
347.763	218.44
347.99	208.44
348.218	186.44
348.445	206.44
348.673	199.44
348.9	190.44
349.128	196.44
349.355	213.44
349.583	195.44
349.81	199.44
350.037	211.44
350.265	183.44
350.492	155.44
350.72	181.44
350.947	188.44
351.174	191.44
351.402	202.44
351.629	190.44
351.856	204.44
352.083	172.44
352.311	187.44
352.538	219.44
352.765	241.44
352.992	220.44
353.22	211.44
353.447	206.44
353.674	190.44
353.901	205.44
354.128	206.44
354.355	217.44
354.583	201.44
354.81	203.44
355.037	227.44
355.264	206.44
355.491	213.44
355.718	230.44
355.945	241.44
356.172	222.44
356.399	217.44
356.626	262.44
356.853	317.44
357.08	316.44
357.307	333.44
357.534	282.44
357.761	292.44
357.988	334.44
358.215	347.44
358.441	339.44
358.668	301.44
358.895	287.44
359.122	239.44
359.349	232.44
359.576	266.44
359.802	222.44
360.029	189.44
360.256	191.44
360.483	246.44
360.709	311.44
360.936	307.44
361.163	292.44
361.39	226.44
361.616	208.44
361.843	227.44
362.07	283.44
362.296	255.44
362.523	213.44
362.749	183.44
362.976	191.44
363.203	228.44
363.429	255.44
363.656	221.44
363.882	214.44
364.109	203.44
364.335	218.44
364.562	196.44
364.788	218.44
365.015	237.44
365.241	221.44
365.468	195.44
365.694	167.44
365.92	156.44
366.147	173.44
366.373	151.44
366.599	174.44
366.826	157.44
367.052	187.44
367.278	166.44
367.505	176.44
367.731	194.44
367.957	213.44
368.184	209.44
368.41	216.44
368.636	211.44
368.862	218.44
369.089	204.44
369.315	179.44
369.541	177.44
369.767	192.44
369.993	174.44
370.219	174.44
370.445	173.44
370.672	191.44
370.898	202.44
371.124	204.44
371.35	208.44
371.576	189.44
371.802	206.44
372.028	228.44
372.254	237.44
372.48	222.44
372.706	216.44
372.932	204.44
373.158	227.44
373.384	255.44
373.61	307.44
373.835	324.44
374.061	238.44
374.287	227.44
374.513	241.44
374.739	289.44
374.965	297.44
375.191	303.44
375.416	236.44
375.642	209.44
375.868	229.44
376.094	252.44
376.319	211.44
376.545	234.44
376.771	253.44
376.997	234.44
377.222	166.44
377.448	156.44
377.674	174.44
377.899	165.44
378.125	148.44
378.35	170.44
378.576	179.44
378.802	172.44
379.027	199.44
379.253	197.44
379.478	187.44
379.704	204.44
379.929	219.44
380.155	220.44
380.38	206.44
380.606	207.44
380.831	231.44
381.057	235.44
381.282	194.44
381.507	224.44
381.733	260.44
381.958	263.44
382.184	285.44
382.409	293.44
382.634	297.44
382.86	306.44
383.085	275.44
383.31	237.44
383.535	235.44
383.761	249.44
383.986	235.44
384.211	276.44
384.436	285.44
384.662	225.44
384.887	195.44
385.112	212.44
385.337	216.44
385.562	207.44
385.787	205.44
386.013	225.44
386.238	258.44
386.463	200.44
386.688	211.44
386.913	198.44
387.138	214.44
387.363	214.44
387.588	216.44
387.813	206.44
388.038	219.44
388.263	199.44
388.488	202.44
388.713	219.44
388.938	232.44
389.163	212.44
389.387	198.44
389.612	201.44
389.837	184.44
390.062	198.44
390.287	224.44
390.512	219.44
390.736	204.44
390.961	206.44
391.186	186.44
391.411	171.44
391.636	191.44
391.86	206.44
392.085	213.44
392.31	220.44
392.534	194.44
392.759	181.44
392.984	205.44
393.208	218.44
393.433	172.44
393.658	186.44
393.882	157.44
394.107	166.44
394.331	174.44
394.556	173.44
394.78	177.44
395.005	178.44
395.229	184.44
395.454	198.44
395.678	182.44
395.903	190.44
396.127	190.44
396.352	173.44
396.576	213.44
396.801	193.44
397.025	225.44
397.249	214.44
397.474	202.44
397.698	193.44
397.922	214.44
398.147	202.44
398.371	187.44
398.595	225.44
398.82	205.44
399.044	187.44
399.268	217.44
399.492	217.44
399.717	229.44
399.941	231.44
400.165	216.44
400.389	220.44
400.613	210.44
400.837	204.44
401.062	198.44
401.286	201.44
401.51	191.44
401.734	179.44
401.958	202.44
402.182	186.44
402.406	197.44
402.63	193.44
402.854	198.44
403.078	239.44
403.302	276.44
403.526	281.44
403.75	257.44
403.974	235.44
404.198	234.44
404.422	258.44
404.645	256.44
404.869	298.44
405.093	239.44
405.317	206.44
405.541	214.44
405.765	222.44
405.988	214.44
406.212	238.44
406.436	259.44
406.66	260.44
406.883	233.44
407.107	235.44
407.331	258.44
407.555	265.44
407.778	219.44
408.002	212.44
408.226	213.44
408.449	240.44
408.673	218.44
408.896	199.44
409.12	206.44
409.344	203.44
409.567	191.44
409.791	188.44
410.014	197.44
410.238	196.44
410.461	193.44
410.685	190.44
410.908	215.44
411.132	201.44
411.355	202.44
411.578	190.44
411.802	205.44
412.025	191.44
412.249	215.44
412.472	209.44
412.695	198.44
412.919	206.44
413.142	204.44
413.365	213.44
413.589	220.44
413.812	199.44
414.035	201.44
414.258	208.44
414.482	205.44
414.705	202.44
414.928	198.44
415.151	179.44
415.374	185.44
415.597	197.44
415.821	205.44
416.044	203.44
416.267	196.44
416.49	189.44
416.713	198.44
416.936	191.44
417.159	181.44
417.382	198.44
417.605	196.44
417.828	188.44
418.051	193.44
418.274	194.44
418.497	186.44
418.72	205.44
418.943	221.44
419.166	227.44
419.389	222.44
419.611	221.44
419.834	215.44
420.057	255.44
420.28	238.44
420.503	207.44
420.726	176.44
420.948	181.44
421.171	190.44
421.394	201.44
421.617	197.44
421.839	188.44
422.062	198.44
422.285	203.44
422.507	202.44
422.73	194.44
422.953	210.44
423.175	187.44
423.398	193.44
423.621	198.44
423.843	221.44
424.066	209.44
424.288	204.44
424.511	203.44
424.733	188.44
424.956	192.44
425.178	208.44
425.401	253.44
425.623	269.44
425.846	236.44
426.068	222.44
426.291	241.44
426.513	224.44
426.735	199.44
426.958	202.44
427.18	217.44
427.402	278.44
427.625	277.44
427.847	235.44
428.069	211.44
428.292	202.44
428.514	173.44
428.736	191.44
428.958	203.44
429.181	251.44
429.403	213.44
429.625	207.44
429.847	197.44
430.069	211.44
430.292	190.44
430.514	193.44
430.736	181.44
430.958	219.44
431.18	237.44
431.402	198.44
431.624	186.44
431.846	181.44
432.068	183.44
432.29	176.44
432.512	191.44
432.734	208.44
432.956	229.44
433.178	188.44
433.4	161.44
433.622	183.44
433.844	211.44
434.066	214.44
434.287	212.44
434.509	197.44
434.731	197.44
434.953	197.44
435.175	178.44
435.397	230.44
435.618	193.44
435.84	181.44
436.062	179.44
436.284	186.44
436.505	167.44
436.727	161.44
436.949	173.44
437.17	183.44
437.392	164.44
437.614	183.44
437.835	181.44
438.057	183.44
438.278	212.44
438.5	238.44
438.721	258.44
438.943	207.44
439.165	180.44
439.386	186.44
439.608	181.44
439.829	163.44
440.05	165.44
440.272	185.44
440.493	204.44
440.715	266.44
440.936	205.44
441.158	174.44
441.379	189.44
441.6	207.44
441.822	232.44
442.043	191.44
442.264	185.44
442.486	189.44
442.707	182.44
442.928	187.44
443.149	196.44
443.371	202.44
443.592	202.44
443.813	209.44
444.034	201.44
444.255	195.44
444.476	205.44
444.698	203.44
444.919	210.44
445.14	328.44
445.361	255.44
445.582	213.44
445.803	205.44
446.024	217.44
446.245	215.44
446.466	201.44
446.687	186.44
446.908	196.44
447.129	179.44
447.35	181.44
447.571	189.44
447.792	182.44
448.013	169.44
448.234	166.44
448.455	156.44
448.675	167.44
448.896	166.44
449.117	200.44
449.338	183.44
449.559	170.44
449.779	185.44
450	203.44
450.221	170.44
450.442	164.44
450.662	172.44
450.883	182.44
451.104	193.44
451.324	175.44
451.545	185.44
451.766	179.44
451.986	172.44
452.207	179.44
452.428	181.44
452.648	187.44
452.869	188.44
453.089	186.44
453.31	202.44
453.53	177.44
453.751	170.44
453.971	177.44
454.192	176.44
454.412	182.44
454.633	180.44
454.853	170.44
455.073	165.44
455.294	166.44
455.514	181.44
455.734	188.44
455.955	181.44
456.175	178.44
456.395	166.44
456.616	173.44
456.836	168.44
457.056	143.44
457.276	157.44
457.497	164.44
457.717	165.44
457.937	166.44
458.157	165.44
458.377	178.44
458.598	169.44
458.818	173.44
459.038	182.44
459.258	185.44
459.478	192.44
459.698	189.44
459.918	196.44
460.138	206.44
460.358	206.44
460.578	187.44
460.798	186.44
461.018	194.44
461.238	201.44
461.458	173.44
461.678	203.44
461.898	213.44
462.118	196.44
462.338	200.44
462.558	207.44
462.777	232.44
462.997	207.44
463.217	205.44
463.437	230.44
463.657	215.44
463.876	222.44
464.096	215.44
464.316	215.44
464.536	200.44
464.755	222.44
464.975	245.44
465.195	216.44
465.414	220.44
465.634	211.44
465.854	206.44
466.073	193.44
466.293	186.44
466.512	211.44
466.732	205.44
466.951	207.44
467.171	214.44
467.391	181.44
467.61	185.44
467.829	204.44
468.049	200.44
468.268	178.44
468.488	187.44
468.707	185.44
468.927	225.44
469.146	245.44
469.365	221.44
469.585	199.44
469.804	211.44
470.023	215.44
470.243	206.44
470.462	187.44
470.681	191.44
470.901	195.44
471.12	215.44
471.339	214.44
471.558	187.44
471.777	215.44
471.997	210.44
472.216	238.44
472.435	228.44
472.654	220.44
472.873	183.44
473.092	231.44
473.311	206.44
473.53	204.44
473.749	215.44
473.968	216.44
474.187	207.44
474.406	206.44
474.625	190.44
474.844	203.44
475.063	226.44
475.282	195.44
475.501	217.44
475.72	239.44
475.939	223.44
476.158	222.44
476.377	257.44
476.596	293.44
476.814	327.44
477.033	267.44
477.252	234.44
477.471	198.44
477.69	213.44
477.908	220.44
478.127	246.44
478.346	212.44
478.564	246.44
478.783	243.44
479.002	230.44
479.22	263.44
479.439	294.44
479.658	249.44
479.876	224.44
480.095	245.44
480.313	245.44
480.532	244.44
480.751	234.44
480.969	242.44
481.188	264.44
481.406	270.44
481.624	258.44
481.843	227.44
482.061	219.44
482.28	242.44
482.498	309.44
482.717	304.44
482.935	246.44
483.153	242.44
483.372	223.44
483.59	209.44
483.808	201.44
484.027	207.44
484.245	192.44
484.463	207.44
484.681	200.44
484.9	210.44
485.118	231.44
485.336	211.44
485.554	215.44
485.772	230.44
485.99	219.44
486.209	243.44
486.427	261.44
486.645	251.44
486.863	257.44
487.081	241.44
487.299	274.44
487.517	259.44
487.735	229.44
487.953	244.44
488.171	236.44
488.389	232.44
488.607	205.44
488.825	240.44
489.043	246.44
489.261	275.44
489.479	309.44
489.696	217.44
489.914	222.44
490.132	196.44
490.35	210.44
490.568	239.44
490.786	245.44
491.003	225.44
491.221	235.44
491.439	229.44
491.657	237.44
491.874	241.44
492.092	291.44
492.31	354.44
492.527	317.44
492.745	284.44
492.963	258.44
493.18	249.44
493.398	243.44
493.615	237.44
493.833	245.44
494.05	241.44
494.268	233.44
494.485	238.44
494.703	259.44
494.92	238.44
495.138	209.44
495.355	239.44
495.573	233.44
495.79	273.44
496.008	356.44
496.225	297.44
496.442	261.44
496.66	243.44
496.877	282.44
497.094	259.44
497.312	261.44
497.529	248.44
497.746	244.44
497.963	247.44
498.181	281.44
498.398	298.44
498.615	318.44
498.832	321.44
499.049	321.44
499.267	293.44
499.484	302.44
499.701	331.44
499.918	336.44
500.135	384.44
500.352	407.44
500.569	391.44
500.786	421.44
501.003	396.44
501.22	372.44
501.437	340.44
501.654	342.44
501.871	325.44
502.088	310.44
502.305	290.44
502.522	306.44
