Data from NickelSpatula.Lamp.E10.P2_HRD10591_11-56-54-534.txt Node
Date: Tue Jul 23 11:56:54 EDT 2019
User: cochatt
Spectrometer: HR+D1059
Trigger mode: 1
Integration Time (sec): 1.000000E-1
Scans to average: 1
Electric dark correction enabled: true
Nonlinearity correction enabled: false
Boxcar width: 0
XAxis mode: Wavelengths
Number of Pixels in Spectrum: 2048
>>>>>Begin Spectral Data<<<<<
223.165	-4.94
223.4	-4.94
223.635	-4.94
223.869	-24.94
224.104	-30.94
224.338	-15.94
224.573	-9.94
224.808	-6.94
225.042	-20.94
225.277	-5.94
225.511	2.06
225.746	8.06
225.98	19.06
226.215	19.06
226.449	12.06
226.683	18.06
226.918	23.06
227.152	19.06
227.387	36.06
227.621	34.06
227.856	50.06
228.09	34.06
228.324	51.06
228.559	40.06
228.793	87.06
229.027	142.06
229.262	144.06
229.496	156.06
229.73	177.06
229.964	182.06
230.199	213.06
230.433	188.06
230.667	181.06
230.901	177.06
231.136	199.06
231.37	201.06
231.604	208.06
231.838	214.06
232.072	223.06
232.306	223.06
232.541	226.06
232.775	210.06
233.009	257.06
233.243	269.06
233.477	277.06
233.711	307.06
233.945	316.06
234.179	283.06
234.413	309.06
234.647	340.06
234.881	416.06
235.115	373.06
235.349	364.06
235.583	328.06
235.817	316.06
236.051	331.06
236.285	368.06
236.519	439.06
236.753	382.06
236.987	371.06
237.221	384.06
237.455	386.06
237.689	398.06
237.922	414.06
238.156	427.06
238.39	485.06
238.624	584.06
238.858	518.06
239.091	455.06
239.325	469.06
239.559	455.06
239.793	509.06
240.027	592.06
240.26	559.06
240.494	527.06
240.728	533.06
240.961	599.06
241.195	573.06
241.429	571.06
241.662	564.06
241.896	459.06
242.13	421.06
242.363	430.06
242.597	413.06
242.83	493.06
243.064	493.06
243.298	557.06
243.531	585.06
243.765	573.06
243.998	562.06
244.232	546.06
244.465	545.06
244.699	569.06
244.932	607.06
245.166	596.06
245.399	493.06
245.633	488.06
245.866	508.06
246.099	561.06
246.333	636.06
246.566	692.06
246.8	686.06
247.033	667.06
247.266	597.06
247.5	639.06
247.733	605.06
247.966	585.06
248.2	598.06
248.433	675.06
248.666	720.06
248.899	717.06
249.133	754.06
249.366	849.06
249.599	927.06
249.832	847.06
250.066	736.06
250.299	739.06
250.532	727.06
250.765	747.06
250.998	670.06
251.231	657.06
251.465	692.06
251.698	730.06
251.931	723.06
252.164	768.06
252.397	845.06
252.63	912.06
252.863	1056.06
253.096	1054.06
253.329	996.06
253.562	954.06
253.795	1119.06
254.028	1184.06
254.261	1240.06
254.494	1094.06
254.727	993.06
254.96	984.06
255.193	1054.06
255.426	1028.06
255.659	789.06
255.892	711.06
256.124	797.06
256.357	947.06
256.59	1078.06
256.823	1033.06
257.056	899.06
257.289	843.06
257.521	897.06
257.754	1042.06
257.987	1189.06
258.22	990.06
258.452	934.06
258.685	1039.06
258.918	1159.06
259.151	1157.06
259.383	1209.06
259.616	1344.06
259.849	1473.06
260.081	1533.06
260.314	1677.06
260.547	1360.06
260.779	1382.06
261.012	1606.06
261.244	1488.06
261.477	1451.06
261.71	1382.06
261.942	1128.06
262.175	1184.06
262.407	1096.06
262.64	1141.06
262.872	1357.06
263.105	1462.06
263.337	1532.06
263.57	1375.06
263.802	964.06
264.035	868.06
264.267	822.06
264.499	719.06
264.732	663.06
264.964	627.06
265.197	663.06
265.429	708.06
265.661	776.06
265.894	793.06
266.126	852.06
266.358	945.06
266.591	1096.06
266.823	1354.06
267.055	1252.06
267.287	1133.06
267.52	1150.06
267.752	1222.06
267.984	1356.06
268.216	1255.06
268.448	1049.06
268.681	1014.06
268.913	1120.06
269.145	1198.06
269.377	1187.06
269.609	1200.06
269.841	1147.06
270.073	1187.06
270.306	1275.06
270.538	1290.06
270.77	1301.06
271.002	1318.06
271.234	1353.06
271.466	1345.06
271.698	1312.06
271.93	1259.06
272.162	1254.06
272.394	1229.06
272.626	1241.06
272.858	1287.06
273.09	1296.06
273.322	1155.06
273.553	1068.06
273.785	1307.06
274.017	1685.06
274.249	2081.06
274.481	2163.06
274.713	2385.06
274.945	2722.06
275.176	2855.06
275.408	2507.06
275.64	2300.06
275.872	2288.06
276.104	2002.06
276.335	1746.06
276.567	1703.06
276.799	1776.06
277.031	1827.06
277.262	1435.06
277.494	1141.06
277.726	1104.06
277.957	1208.06
278.189	1343.06
278.421	1332.06
278.652	1284.06
278.884	1239.06
279.115	1127.06
279.347	1077.06
279.579	1081.06
279.81	1103.06
280.042	1095.06
280.273	1094.06
280.505	1047.06
280.736	941.06
280.968	935.06
281.199	1003.06
281.431	1133.06
281.662	1145.06
281.894	1076.06
282.125	1165.06
282.356	1254.06
282.588	1275.06
282.819	1148.06
283.051	1259.06
283.282	1564.06
283.513	1741.06
283.745	1958.06
283.976	1956.06
284.207	1828.06
284.439	1906.06
284.67	1802.06
284.901	1610.06
285.132	1729.06
285.364	1813.06
285.595	1659.06
285.826	1759.06
286.057	1836.06
286.288	1717.06
286.52	1768.06
286.751	1880.06
286.982	1880.06
287.213	1651.06
287.444	1608.06
287.675	1646.06
287.906	1617.06
288.138	1392.06
288.369	1230.06
288.6	1207.06
288.831	1239.06
289.062	1487.06
289.293	1581.06
289.524	1525.06
289.755	1486.06
289.986	1496.06
290.217	1334.06
290.448	1038.06
290.679	905.06
290.91	843.06
291.141	838.06
291.371	868.06
291.602	894.06
291.833	921.06
292.064	973.06
292.295	1145.06
292.526	1251.06
292.757	1307.06
292.987	1409.06
293.218	1411.06
293.449	1509.06
293.68	1595.06
293.91	1496.06
294.141	1517.06
294.372	1415.06
294.603	1306.06
294.833	1444.06
295.064	1666.06
295.295	1565.06
295.525	1214.06
295.756	1032.06
295.987	908.06
296.217	911.06
296.448	926.06
296.679	919.06
296.909	1047.06
297.14	1109.06
297.37	1239.06
297.601	1200.06
297.831	1040.06
298.062	1140.06
298.292	1254.06
298.523	1361.06
298.753	1471.06
298.984	1352.06
299.214	1098.06
299.445	911.06
299.675	905.06
299.905	898.06
300.136	879.06
300.366	959.06
300.597	947.06
300.827	862.06
301.057	825.06
301.288	868.06
301.518	933.06
301.748	1021.06
301.979	1073.06
302.209	1144.06
302.439	1155.06
302.669	1064.06
302.9	1065.06
303.13	1018.06
303.36	963.06
303.59	939.06
303.82	988.06
304.051	1067.06
304.281	1176.06
304.511	1149.06
304.741	1036.06
304.971	1080.06
305.201	1176.06
305.431	1042.06
305.661	914.06
305.891	927.06
306.121	932.06
306.352	837.06
306.582	783.06
306.812	750.06
307.042	782.06
307.272	713.06
307.502	730.06
307.731	757.06
307.961	806.06
308.191	781.06
308.421	717.06
308.651	724.06
308.881	693.06
309.111	725.06
309.341	734.06
309.571	815.06
309.8	813.06
310.03	819.06
310.26	862.06
310.49	822.06
310.72	804.06
310.949	778.06
311.179	815.06
311.409	853.06
311.639	963.06
311.868	1237.06
312.098	1574.06
312.328	1728.06
312.557	1633.06
312.787	1661.06
313.017	1473.06
313.246	1599.06
313.476	1737.06
313.706	1423.06
313.935	1159.06
314.165	945.06
314.394	902.06
314.624	843.06
314.853	921.06
315.083	925.06
315.312	916.06
315.542	910.06
315.771	847.06
316.001	779.06
316.23	735.06
316.46	763.06
316.689	752.06
316.919	792.06
317.148	802.06
317.377	790.06
317.607	806.06
317.836	870.06
318.065	989.06
318.295	1067.06
318.524	1006.06
318.753	849.06
318.983	856.06
319.212	821.06
319.441	873.06
319.67	992.06
319.9	1048.06
320.129	985.06
320.358	842.06
320.587	819.06
320.816	880.06
321.046	993.06
321.275	1090.06
321.504	1057.06
321.733	1051.06
321.962	1003.06
322.191	960.06
322.42	900.06
322.649	904.06
322.878	978.06
323.108	966.06
323.337	950.06
323.566	966.06
323.795	925.06
324.024	885.06
324.253	841.06
324.482	840.06
324.71	889.06
324.939	994.06
325.168	957.06
325.397	813.06
325.626	833.06
325.855	798.06
326.084	835.06
326.313	784.06
326.542	755.06
326.77	790.06
326.999	785.06
327.228	824.06
327.457	876.06
327.686	857.06
327.914	781.06
328.143	735.06
328.372	775.06
328.6	738.06
328.829	763.06
329.058	786.06
329.287	778.06
329.515	819.06
329.744	792.06
329.972	775.06
330.201	718.06
330.43	798.06
330.658	824.06
330.887	917.06
331.115	917.06
331.344	893.06
331.572	869.06
331.801	813.06
332.03	782.06
332.258	817.06
332.486	903.06
332.715	884.06
332.943	850.06
333.172	803.06
333.4	875.06
333.629	933.06
333.857	1015.06
334.085	998.06
334.314	1030.06
334.542	945.06
334.771	863.06
334.999	848.06
335.227	847.06
335.455	872.06
335.684	958.06
335.912	1055.06
336.14	1208.06
336.369	1110.06
336.597	1110.06
336.825	1215.06
337.053	1313.06
337.281	1101.06
337.51	895.06
337.738	878.06
337.966	933.06
338.194	1028.06
338.422	978.06
338.65	853.06
338.878	781.06
339.106	841.06
339.334	890.06
339.562	951.06
339.79	885.06
340.018	878.06
340.246	929.06
340.474	1059.06
340.702	1069.06
340.93	1096.06
341.158	1109.06
341.386	934.06
341.614	946.06
341.842	895.06
342.07	977.06
342.298	1118.06
342.526	1197.06
342.754	991.06
342.981	936.06
343.209	950.06
343.437	934.06
343.665	1015.06
343.893	1002.06
344.12	1183.06
344.348	1332.06
344.576	1226.06
344.804	1030.06
345.031	881.06
345.259	863.06
345.487	859.06
345.714	905.06
345.942	966.06
346.17	1026.06
346.397	1008.06
346.625	850.06
346.853	870.06
347.08	839.06
347.308	876.06
347.535	943.06
347.763	981.06
347.99	881.06
348.218	809.06
348.445	856.06
348.673	873.06
348.9	870.06
349.128	901.06
349.355	919.06
349.583	912.06
349.81	888.06
350.037	858.06
350.265	763.06
350.492	725.06
350.72	713.06
350.947	730.06
351.174	797.06
351.402	821.06
351.629	826.06
351.856	777.06
352.083	771.06
352.311	818.06
352.538	851.06
352.765	943.06
352.992	855.06
353.22	841.06
353.447	845.06
353.674	819.06
353.901	801.06
354.128	781.06
354.355	846.06
354.583	831.06
354.81	816.06
355.037	844.06
355.264	849.06
355.491	867.06
355.718	921.06
355.945	907.06
356.172	894.06
356.399	886.06
356.626	1039.06
356.853	1222.06
357.08	1279.06
357.307	1296.06
357.534	1057.06
357.761	1065.06
357.988	1295.06
358.215	1539.06
358.441	1444.06
358.668	1217.06
358.895	1138.06
359.122	975.06
359.349	979.06
359.576	1063.06
359.802	874.06
360.029	799.06
360.256	843.06
360.483	997.06
360.709	1212.06
360.936	1251.06
361.163	1117.06
361.39	929.06
361.616	888.06
361.843	976.06
362.07	1139.06
362.296	1062.06
362.523	871.06
362.749	757.06
362.976	837.06
363.203	979.06
363.429	1039.06
363.656	891.06
363.882	812.06
364.109	838.06
364.335	824.06
364.562	835.06
364.788	899.06
365.015	1014.06
365.241	949.06
365.468	797.06
365.694	751.06
365.92	706.06
366.147	721.06
366.373	703.06
366.599	709.06
366.826	718.06
367.052	703.06
367.278	718.06
367.505	721.06
367.731	792.06
367.957	836.06
368.184	880.06
368.41	827.06
368.636	823.06
368.862	887.06
369.089	850.06
369.315	775.06
369.541	755.06
369.767	783.06
369.993	735.06
370.219	744.06
370.445	773.06
370.672	847.06
370.898	877.06
371.124	858.06
371.35	823.06
371.576	764.06
371.802	841.06
372.028	918.06
372.254	1005.06
372.48	917.06
372.706	851.06
372.932	887.06
373.158	895.06
373.384	1058.06
373.61	1307.06
373.835	1363.06
374.061	1056.06
374.287	936.06
374.513	1059.06
374.739	1222.06
374.965	1274.06
375.191	1231.06
375.416	965.06
375.642	851.06
375.868	941.06
376.094	1041.06
376.319	956.06
376.545	1027.06
376.771	1064.06
376.997	955.06
377.222	742.06
377.448	660.06
377.674	678.06
377.899	700.06
378.125	668.06
378.35	708.06
378.576	687.06
378.802	730.06
379.027	790.06
379.253	767.06
379.478	781.06
379.704	820.06
379.929	853.06
380.155	873.06
380.38	804.06
380.606	823.06
380.831	911.06
381.057	851.06
381.282	839.06
381.507	963.06
381.733	1113.06
381.958	1140.06
382.184	1241.06
382.409	1252.06
382.634	1289.06
382.86	1299.06
383.085	1131.06
383.31	912.06
383.535	974.06
383.761	987.06
383.986	943.06
384.211	1101.06
384.436	1064.06
384.662	875.06
384.887	862.06
385.112	870.06
385.337	862.06
385.562	864.06
385.787	908.06
386.013	1022.06
386.238	993.06
386.463	852.06
386.688	860.06
386.913	817.06
387.138	783.06
387.363	821.06
387.588	827.06
387.813	855.06
388.038	885.06
388.263	857.06
388.488	842.06
388.713	919.06
388.938	949.06
389.163	852.06
389.387	780.06
389.612	812.06
389.837	858.06
390.062	818.06
390.287	870.06
390.512	887.06
390.736	806.06
390.961	778.06
391.186	771.06
391.411	765.06
391.636	790.06
391.86	851.06
392.085	898.06
392.31	895.06
392.534	854.06
392.759	821.06
392.984	863.06
393.208	845.06
393.433	783.06
393.658	747.06
393.882	749.06
394.107	739.06
394.331	742.06
394.556	752.06
394.78	741.06
395.005	761.06
395.229	759.06
395.454	794.06
395.678	807.06
395.903	813.06
396.127	798.06
396.352	798.06
396.576	878.06
396.801	888.06
397.025	934.06
397.249	950.06
397.474	871.06
397.698	830.06
397.922	914.06
398.147	833.06
398.371	831.06
398.595	879.06
398.82	877.06
399.044	894.06
399.268	924.06
399.492	967.06
399.717	1005.06
399.941	1011.06
400.165	1028.06
400.389	973.06
400.613	952.06
400.837	936.06
401.062	879.06
401.286	859.06
401.51	840.06
401.734	827.06
401.958	858.06
402.182	852.06
402.406	855.06
402.63	860.06
402.854	897.06
403.078	975.06
403.302	1156.06
403.526	1158.06
403.75	1054.06
403.974	969.06
404.198	990.06
404.422	1117.06
404.645	1190.06
404.869	1263.06
405.093	1037.06
405.317	928.06
405.541	918.06
405.765	940.06
405.988	971.06
406.212	993.06
406.436	1104.06
406.66	1169.06
406.883	1009.06
407.107	1011.06
407.331	1142.06
407.555	1113.06
407.778	1011.06
408.002	977.06
408.226	970.06
408.449	970.06
408.673	964.06
408.896	897.06
409.12	855.06
409.344	880.06
409.567	846.06
409.791	885.06
410.014	863.06
410.238	854.06
410.461	879.06
410.685	845.06
410.908	896.06
411.132	867.06
411.355	879.06
411.578	905.06
411.802	895.06
412.025	885.06
412.249	913.06
412.472	882.06
412.695	898.06
412.919	887.06
413.142	898.06
413.365	931.06
413.589	961.06
413.812	912.06
414.035	864.06
414.258	880.06
414.482	923.06
414.705	919.06
414.928	865.06
415.151	811.06
415.374	854.06
415.597	838.06
415.821	832.06
416.044	835.06
416.267	847.06
416.49	824.06
416.713	823.06
416.936	808.06
417.159	797.06
417.382	824.06
417.605	837.06
417.828	825.06
418.051	853.06
418.274	868.06
418.497	832.06
418.72	869.06
418.943	837.06
419.166	899.06
419.389	938.06
419.611	901.06
419.834	932.06
420.057	967.06
420.28	978.06
420.503	907.06
420.726	851.06
420.948	830.06
421.171	827.06
421.394	839.06
421.617	808.06
421.839	857.06
422.062	871.06
422.285	841.06
422.507	841.06
422.73	872.06
422.953	880.06
423.175	843.06
423.398	887.06
423.621	921.06
423.843	918.06
424.066	895.06
424.288	865.06
424.511	851.06
424.733	836.06
424.956	885.06
425.178	922.06
425.401	1055.06
425.623	1191.06
425.846	992.06
426.068	901.06
426.291	943.06
426.513	903.06
426.735	873.06
426.958	914.06
427.18	981.06
427.402	1197.06
427.625	1209.06
427.847	1028.06
428.069	835.06
428.292	849.06
428.514	827.06
428.736	793.06
428.958	873.06
429.181	983.06
429.403	879.06
429.625	828.06
429.847	828.06
430.069	816.06
430.292	839.06
430.514	799.06
430.736	828.06
430.958	1019.06
431.18	919.06
431.402	792.06
431.624	739.06
431.846	768.06
432.068	773.06
432.29	781.06
432.512	829.06
432.734	1019.06
432.956	988.06
433.178	828.06
433.4	812.06
433.622	792.06
433.844	829.06
434.066	859.06
434.287	839.06
434.509	833.06
434.731	868.06
434.953	827.06
435.175	877.06
435.397	934.06
435.618	851.06
435.84	771.06
436.062	799.06
436.284	761.06
436.505	782.06
436.727	729.06
436.949	771.06
437.17	792.06
437.392	787.06
437.614	783.06
437.835	762.06
438.057	753.06
438.278	867.06
438.5	1135.06
438.721	1117.06
438.943	865.06
439.165	789.06
439.386	759.06
439.608	733.06
439.829	743.06
440.05	761.06
440.272	799.06
440.493	880.06
440.715	1016.06
440.936	876.06
441.158	800.06
441.379	831.06
441.6	891.06
441.822	925.06
442.043	839.06
442.264	825.06
442.486	809.06
442.707	781.06
442.928	836.06
443.149	817.06
443.371	825.06
443.592	884.06
443.813	868.06
444.034	887.06
444.255	887.06
444.476	858.06
444.698	861.06
444.919	903.06
445.14	996.06
445.361	957.06
445.582	924.06
445.803	888.06
446.024	864.06
446.245	891.06
446.466	843.06
446.687	831.06
446.908	835.06
447.129	802.06
447.35	781.06
447.571	771.06
447.792	752.06
448.013	755.06
448.234	717.06
448.455	760.06
448.675	756.06
448.896	766.06
449.117	771.06
449.338	777.06
449.559	787.06
449.779	786.06
450	816.06
450.221	781.06
450.442	787.06
450.662	765.06
450.883	789.06
451.104	791.06
451.324	792.06
451.545	793.06
451.766	767.06
451.986	754.06
452.207	724.06
452.428	723.06
452.648	717.06
452.869	730.06
453.089	785.06
453.31	750.06
453.53	729.06
453.751	697.06
453.971	688.06
454.192	720.06
454.412	742.06
454.633	703.06
454.853	708.06
455.073	722.06
455.294	716.06
455.514	707.06
455.734	746.06
455.955	761.06
456.175	783.06
456.395	714.06
456.616	683.06
456.836	685.06
457.056	683.06
457.276	670.06
457.497	680.06
457.717	692.06
457.937	679.06
458.157	704.06
458.377	678.06
458.598	691.06
458.818	703.06
459.038	756.06
459.258	794.06
459.478	818.06
459.698	845.06
459.918	857.06
460.138	814.06
460.358	832.06
460.578	809.06
460.798	840.06
461.018	849.06
461.238	833.06
461.458	819.06
461.678	870.06
461.898	881.06
462.118	845.06
462.338	869.06
462.558	902.06
462.777	922.06
462.997	957.06
463.217	978.06
463.437	993.06
463.657	959.06
463.876	913.06
464.096	927.06
464.316	929.06
464.536	912.06
464.755	920.06
464.975	937.06
465.195	925.06
465.414	928.06
465.634	888.06
465.854	886.06
466.073	825.06
466.293	802.06
466.512	860.06
466.732	973.06
466.951	968.06
467.171	897.06
467.391	833.06
467.61	823.06
467.829	863.06
468.049	861.06
468.268	826.06
468.488	844.06
468.707	847.06
468.927	995.06
469.146	1056.06
469.365	949.06
469.585	873.06
469.804	946.06
470.023	998.06
470.243	906.06
470.462	875.06
470.681	860.06
470.901	866.06
471.12	911.06
471.339	916.06
471.558	858.06
471.777	872.06
471.997	923.06
472.216	1018.06
472.435	1003.06
472.654	920.06
472.873	891.06
473.092	933.06
473.311	969.06
473.53	899.06
473.749	861.06
473.968	887.06
474.187	902.06
474.406	886.06
474.625	871.06
474.844	892.06
475.063	961.06
475.282	963.06
475.501	1018.06
475.72	1016.06
475.939	994.06
476.158	1015.06
476.377	1132.06
476.596	1312.06
476.814	1391.06
477.033	1143.06
477.252	998.06
477.471	943.06
477.69	961.06
477.908	1004.06
478.127	1050.06
478.346	1011.06
478.564	1078.06
478.783	1024.06
479.002	1006.06
479.22	1189.06
479.439	1302.06
479.658	1151.06
479.876	1054.06
480.095	1106.06
480.313	1127.06
480.532	1037.06
480.751	1053.06
480.969	1067.06
481.188	1190.06
481.406	1219.06
481.624	1144.06
481.843	1060.06
482.061	999.06
482.28	1145.06
482.498	1370.06
482.717	1239.06
482.935	1088.06
483.153	1039.06
483.372	1011.06
483.59	1025.06
483.808	1006.06
484.027	979.06
484.245	927.06
484.463	939.06
484.681	972.06
484.9	1029.06
485.118	1079.06
485.336	1052.06
485.554	996.06
485.772	1010.06
485.99	1076.06
486.209	1129.06
486.427	1113.06
486.645	1091.06
486.863	1141.06
487.081	1122.06
487.299	1237.06
487.517	1176.06
487.735	1144.06
487.953	1126.06
488.171	1129.06
488.389	1100.06
488.607	1039.06
488.825	1070.06
489.043	1135.06
489.261	1259.06
489.479	1301.06
489.696	1155.06
489.914	1079.06
490.132	1051.06
490.35	1073.06
490.568	1013.06
490.786	1043.06
491.003	1058.06
491.221	1092.06
491.439	1062.06
491.657	1077.06
491.874	1134.06
492.092	1305.06
492.31	1472.06
492.527	1478.06
492.745	1340.06
492.963	1211.06
493.18	1183.06
493.398	1231.06
493.615	1189.06
493.833	1166.06
494.05	1168.06
494.268	1160.06
494.485	1160.06
494.703	1138.06
494.92	1146.06
495.138	1137.06
495.355	1149.06
495.573	1134.06
495.79	1224.06
496.008	1427.06
496.225	1321.06
496.442	1245.06
496.66	1236.06
496.877	1310.06
497.094	1282.06
