Data from NickelSpatula.Lamp.E5.5.P2_HRD10591_11-52-43-552.txt Node
Date: Tue Jul 23 11:52:43 EDT 2019
User: cochatt
Spectrometer: HR+D1059
Trigger mode: 1
Integration Time (sec): 1.000000E-1
Scans to average: 1
Electric dark correction enabled: true
Nonlinearity correction enabled: false
Boxcar width: 0
XAxis mode: Wavelengths
Number of Pixels in Spectrum: 2048
>>>>>Begin Spectral Data<<<<<
223.165	-14.94
223.4	-14.94
223.635	-14.94
223.869	-12.94
224.104	-23.94
224.338	-10.94
224.573	-6.94
224.808	-18.94
225.042	-18.94
225.277	-15.94
225.511	8.06
225.746	5.06
225.98	4.06
226.215	10.06
226.449	26.06
226.683	32.06
226.918	21.06
227.152	17.06
227.387	35.06
227.621	32.06
227.856	40.06
228.09	31.06
228.324	56.06
228.559	58.06
228.793	38.06
229.027	76.06
229.262	67.06
229.496	78.06
229.73	89.06
229.964	89.06
230.199	88.06
230.433	93.06
230.667	102.06
230.901	96.06
231.136	104.06
231.37	93.06
231.604	109.06
231.838	99.06
232.072	115.06
232.306	101.06
232.541	109.06
232.775	102.06
233.009	99.06
233.243	118.06
233.477	106.06
233.711	125.06
233.945	131.06
234.179	127.06
234.413	118.06
234.647	127.06
234.881	145.06
235.115	129.06
235.349	131.06
235.583	105.06
235.817	116.06
236.051	125.06
236.285	122.06
236.519	119.06
236.753	141.06
236.987	142.06
237.221	119.06
237.455	127.06
237.689	131.06
237.922	139.06
238.156	144.06
238.39	138.06
238.624	158.06
238.858	169.06
239.091	149.06
239.325	138.06
239.559	131.06
239.793	135.06
240.027	176.06
240.26	175.06
240.494	164.06
240.728	175.06
240.961	177.06
241.195	168.06
241.429	161.06
241.662	151.06
241.896	145.06
242.13	129.06
242.363	147.06
242.597	122.06
242.83	146.06
243.064	150.06
243.298	157.06
243.531	143.06
243.765	177.06
243.998	170.06
244.232	174.06
244.465	165.06
244.699	167.06
244.932	183.06
245.166	167.06
245.399	147.06
245.633	149.06
245.866	170.06
246.099	175.06
246.333	181.06
246.566	197.06
246.8	189.06
247.033	190.06
247.266	182.06
247.5	174.06
247.733	162.06
247.966	169.06
248.2	160.06
248.433	177.06
248.666	181.06
248.899	190.06
249.133	197.06
249.366	226.06
249.599	235.06
249.832	212.06
250.066	201.06
250.299	196.06
250.532	195.06
250.765	195.06
250.998	169.06
251.231	191.06
251.465	197.06
251.698	200.06
251.931	203.06
252.164	193.06
252.397	218.06
252.63	231.06
252.863	258.06
253.096	257.06
253.329	247.06
253.562	230.06
253.795	257.06
254.028	271.06
254.261	297.06
254.494	285.06
254.727	253.06
254.96	257.06
255.193	271.06
255.426	246.06
255.659	179.06
255.892	190.06
256.124	195.06
256.357	242.06
256.59	261.06
256.823	278.06
257.056	234.06
257.289	211.06
257.521	222.06
257.754	272.06
257.987	288.06
258.22	266.06
258.452	232.06
258.685	263.06
258.918	255.06
259.151	294.06
259.383	303.06
259.616	328.06
259.849	340.06
260.081	369.06
260.314	362.06
260.547	327.06
260.779	327.06
261.012	367.06
261.244	341.06
261.477	347.06
261.71	337.06
261.942	286.06
262.175	278.06
262.407	270.06
262.64	264.06
262.872	318.06
263.105	327.06
263.337	361.06
263.57	326.06
263.802	249.06
264.035	210.06
264.267	214.06
264.499	195.06
264.732	185.06
264.964	179.06
265.197	188.06
265.429	202.06
265.661	179.06
265.894	209.06
266.126	220.06
266.358	239.06
266.591	275.06
266.823	335.06
267.055	306.06
267.287	282.06
267.52	269.06
267.752	296.06
267.984	320.06
268.216	298.06
268.448	254.06
268.681	243.06
268.913	262.06
269.145	293.06
269.377	285.06
269.609	294.06
269.841	290.06
270.073	282.06
270.306	296.06
270.538	303.06
270.77	328.06
271.002	321.06
271.234	333.06
271.466	312.06
271.698	317.06
271.93	302.06
272.162	275.06
272.394	300.06
272.626	290.06
272.858	304.06
273.09	306.06
273.322	290.06
273.553	256.06
273.785	299.06
274.017	373.06
274.249	454.06
274.481	462.06
274.713	511.06
274.945	574.06
275.176	622.06
275.408	529.06
275.64	485.06
275.872	511.06
276.104	417.06
276.335	375.06
276.567	378.06
276.799	378.06
277.031	438.06
277.262	330.06
277.494	261.06
277.726	254.06
277.957	248.06
278.189	303.06
278.421	305.06
278.652	290.06
278.884	288.06
279.115	262.06
279.347	271.06
279.579	276.06
279.81	273.06
280.042	266.06
280.273	274.06
280.505	278.06
280.736	210.06
280.968	215.06
281.199	259.06
281.431	278.06
281.662	285.06
281.894	250.06
282.125	274.06
282.356	286.06
282.588	291.06
282.819	276.06
283.051	286.06
283.282	336.06
283.513	389.06
283.745	426.06
283.976	428.06
284.207	397.06
284.439	402.06
284.67	416.06
284.901	346.06
285.132	385.06
285.364	409.06
285.595	383.06
285.826	399.06
286.057	394.06
286.288	387.06
286.52	390.06
286.751	430.06
286.982	440.06
287.213	373.06
287.444	359.06
287.675	372.06
287.906	379.06
288.138	331.06
288.369	295.06
288.6	263.06
288.831	293.06
289.062	338.06
289.293	390.06
289.524	320.06
289.755	327.06
289.986	329.06
290.217	341.06
290.448	258.06
290.679	222.06
290.91	231.06
291.141	197.06
291.371	217.06
291.602	238.06
291.833	231.06
292.064	234.06
292.295	279.06
292.526	295.06
292.757	307.06
292.987	315.06
293.218	346.06
293.449	340.06
293.68	356.06
293.91	352.06
294.141	366.06
294.372	329.06
294.603	297.06
294.833	343.06
295.064	382.06
295.295	385.06
295.525	315.06
295.756	248.06
295.987	233.06
296.217	237.06
296.448	226.06
296.679	245.06
296.909	254.06
297.14	264.06
297.37	311.06
297.601	297.06
297.831	255.06
298.062	243.06
298.292	310.06
298.523	326.06
298.753	346.06
298.984	324.06
299.214	273.06
299.445	237.06
299.675	239.06
299.905	244.06
300.136	233.06
300.366	253.06
300.597	250.06
300.827	242.06
301.057	208.06
301.288	221.06
301.518	261.06
301.748	268.06
301.979	290.06
302.209	323.06
302.439	309.06
302.669	279.06
302.9	266.06
303.13	255.06
303.36	257.06
303.59	239.06
303.82	249.06
304.051	269.06
304.281	297.06
304.511	283.06
304.741	266.06
304.971	247.06
305.201	278.06
305.431	264.06
305.661	241.06
305.891	239.06
306.121	249.06
306.352	213.06
306.582	213.06
306.812	188.06
307.042	219.06
307.272	174.06
307.502	181.06
307.731	194.06
307.961	202.06
308.191	204.06
308.421	195.06
308.651	199.06
308.881	189.06
309.111	179.06
309.341	201.06
309.571	204.06
309.8	226.06
310.03	211.06
310.26	218.06
310.49	222.06
310.72	212.06
310.949	197.06
311.179	211.06
311.409	219.06
311.639	230.06
311.868	306.06
312.098	362.06
312.328	382.06
312.557	385.06
312.787	372.06
313.017	341.06
313.246	377.06
313.476	410.06
313.706	336.06
313.935	273.06
314.165	234.06
314.394	221.06
314.624	225.06
314.853	210.06
315.083	222.06
315.312	212.06
315.542	222.06
315.771	206.06
316.001	209.06
316.23	198.06
316.46	205.06
316.689	199.06
316.919	206.06
317.148	216.06
317.377	199.06
317.607	201.06
317.836	202.06
318.065	226.06
318.295	269.06
318.524	259.06
318.753	219.06
318.983	202.06
319.212	204.06
319.441	201.06
319.67	233.06
319.9	259.06
320.129	253.06
320.358	204.06
320.587	214.06
320.816	234.06
321.046	237.06
321.275	273.06
321.504	270.06
321.733	265.06
321.962	233.06
322.191	241.06
322.42	235.06
322.649	211.06
322.878	258.06
323.108	229.06
323.337	253.06
323.566	228.06
323.795	234.06
324.024	222.06
324.253	203.06
324.482	221.06
324.71	222.06
324.939	245.06
325.168	241.06
325.397	204.06
325.626	229.06
325.855	198.06
326.084	221.06
326.313	218.06
326.542	199.06
326.77	213.06
326.999	214.06
327.228	219.06
327.457	206.06
327.686	222.06
327.914	206.06
328.143	198.06
328.372	205.06
328.6	182.06
328.829	205.06
329.058	200.06
329.287	199.06
329.515	199.06
329.744	204.06
329.972	196.06
330.201	198.06
330.43	216.06
330.658	208.06
330.887	232.06
331.115	224.06
331.344	216.06
331.572	223.06
331.801	216.06
332.03	186.06
332.258	228.06
332.486	235.06
332.715	224.06
332.943	223.06
333.172	231.06
333.4	219.06
333.629	267.06
333.857	256.06
334.085	255.06
334.314	253.06
334.542	261.06
334.771	226.06
334.999	216.06
335.227	212.06
335.455	218.06
335.684	217.06
335.912	263.06
336.14	285.06
336.369	270.06
336.597	262.06
336.825	293.06
337.053	309.06
337.281	263.06
337.51	222.06
337.738	217.06
337.966	240.06
338.194	249.06
338.422	239.06
338.65	237.06
338.878	209.06
339.106	225.06
339.334	243.06
339.562	238.06
339.79	226.06
340.018	222.06
340.246	226.06
340.474	261.06
340.702	249.06
340.93	271.06
341.158	277.06
341.386	241.06
341.614	245.06
341.842	246.06
342.07	248.06
342.298	283.06
342.526	280.06
342.754	222.06
342.981	246.06
343.209	248.06
343.437	249.06
343.665	271.06
343.893	256.06
344.12	321.06
344.348	345.06
344.576	336.06
344.804	264.06
345.031	237.06
345.259	215.06
345.487	219.06
345.714	223.06
345.942	221.06
346.17	260.06
346.397	243.06
346.625	226.06
346.853	217.06
347.08	215.06
347.308	231.06
347.535	263.06
347.763	269.06
347.99	228.06
348.218	227.06
348.445	223.06
348.673	223.06
348.9	226.06
349.128	236.06
349.355	223.06
349.583	213.06
349.81	234.06
350.037	223.06
350.265	197.06
350.492	203.06
350.72	206.06
350.947	196.06
351.174	201.06
351.402	202.06
351.629	215.06
351.856	213.06
352.083	216.06
352.311	234.06
352.538	243.06
352.765	253.06
352.992	230.06
353.22	220.06
353.447	215.06
353.674	219.06
353.901	225.06
354.128	214.06
354.355	229.06
354.583	222.06
354.81	224.06
355.037	243.06
355.264	231.06
355.491	221.06
355.718	259.06
355.945	243.06
356.172	242.06
356.399	240.06
356.626	272.06
356.853	328.06
357.08	354.06
357.307	340.06
357.534	307.06
357.761	283.06
357.988	374.06
358.215	419.06
358.441	361.06
358.668	337.06
358.895	305.06
359.122	279.06
359.349	290.06
359.576	297.06
359.802	258.06
360.029	237.06
360.256	242.06
360.483	272.06
360.709	325.06
360.936	344.06
361.163	298.06
361.39	244.06
361.616	205.06
361.843	232.06
362.07	306.06
362.296	277.06
362.523	222.06
362.749	208.06
362.976	211.06
363.203	239.06
363.429	278.06
363.656	233.06
363.882	232.06
364.109	222.06
364.335	228.06
364.562	203.06
364.788	226.06
365.015	266.06
365.241	246.06
365.468	222.06
365.694	215.06
365.92	194.06
366.147	199.06
366.373	194.06
366.599	185.06
366.826	193.06
367.052	191.06
367.278	198.06
367.505	196.06
367.731	216.06
367.957	222.06
368.184	239.06
368.41	232.06
368.636	241.06
368.862	242.06
369.089	247.06
369.315	215.06
369.541	197.06
369.767	201.06
369.993	198.06
370.219	213.06
370.445	200.06
370.672	228.06
370.898	248.06
371.124	232.06
371.35	226.06
371.576	207.06
371.802	227.06
372.028	235.06
372.254	296.06
372.48	264.06
372.706	234.06
372.932	226.06
373.158	266.06
373.384	272.06
373.61	348.06
373.835	371.06
374.061	281.06
374.287	282.06
374.513	297.06
374.739	339.06
374.965	351.06
375.191	330.06
375.416	270.06
375.642	243.06
375.868	259.06
376.094	278.06
376.319	248.06
376.545	276.06
376.771	291.06
376.997	267.06
377.222	222.06
377.448	200.06
377.674	196.06
377.899	177.06
378.125	176.06
378.35	190.06
378.576	201.06
378.802	203.06
379.027	208.06
379.253	222.06
379.478	209.06
379.704	227.06
379.929	252.06
380.155	239.06
380.38	221.06
380.606	220.06
380.831	269.06
381.057	233.06
381.282	223.06
381.507	258.06
381.733	301.06
381.958	310.06
382.184	328.06
382.409	345.06
382.634	332.06
382.86	350.06
383.085	301.06
383.31	264.06
383.535	279.06
383.761	264.06
383.986	261.06
384.211	303.06
384.436	304.06
384.662	237.06
384.887	232.06
385.112	236.06
385.337	250.06
385.562	230.06
385.787	263.06
386.013	291.06
386.238	293.06
386.463	244.06
386.688	243.06
386.913	217.06
387.138	213.06
387.363	225.06
387.588	250.06
387.813	237.06
388.038	269.06
388.263	241.06
388.488	246.06
388.713	255.06
388.938	288.06
389.163	227.06
389.387	203.06
389.612	229.06
389.837	232.06
390.062	240.06
390.287	248.06
390.512	228.06
390.736	238.06
390.961	209.06
391.186	198.06
391.411	207.06
391.636	217.06
391.86	221.06
392.085	250.06
392.31	259.06
392.534	245.06
392.759	230.06
392.984	258.06
393.208	238.06
393.433	223.06
393.658	201.06
393.882	193.06
394.107	205.06
394.331	199.06
394.556	192.06
394.78	202.06
395.005	214.06
395.229	229.06
395.454	181.06
395.678	216.06
395.903	219.06
396.127	213.06
396.352	199.06
396.576	208.06
396.801	217.06
397.025	239.06
397.249	238.06
397.474	216.06
397.698	230.06
397.922	218.06
398.147	227.06
398.371	216.06
398.595	222.06
398.82	240.06
399.044	234.06
399.268	264.06
399.492	276.06
399.717	269.06
399.941	281.06
400.165	271.06
400.389	261.06
400.613	254.06
400.837	246.06
401.062	224.06
401.286	208.06
401.51	247.06
401.734	213.06
401.958	229.06
402.182	228.06
402.406	229.06
402.63	234.06
402.854	251.06
403.078	274.06
403.302	368.06
403.526	358.06
403.75	330.06
403.974	264.06
404.198	283.06
404.422	305.06
404.645	317.06
404.869	346.06
405.093	297.06
405.317	244.06
405.541	252.06
405.765	266.06
405.988	267.06
406.212	263.06
406.436	294.06
406.66	315.06
406.883	262.06
407.107	281.06
407.331	318.06
407.555	316.06
407.778	273.06
408.002	271.06
408.226	275.06
408.449	262.06
408.673	256.06
408.896	259.06
409.12	244.06
409.344	233.06
409.567	230.06
409.791	243.06
410.014	244.06
410.238	245.06
410.461	244.06
410.685	230.06
410.908	214.06
411.132	224.06
411.355	249.06
411.578	237.06
411.802	244.06
412.025	240.06
412.249	237.06
412.472	245.06
412.695	246.06
412.919	240.06
413.142	244.06
413.365	254.06
413.589	246.06
413.812	226.06
414.035	224.06
414.258	233.06
414.482	244.06
414.705	243.06
414.928	226.06
415.151	234.06
415.374	227.06
415.597	225.06
415.821	232.06
416.044	234.06
416.267	210.06
416.49	228.06
416.713	220.06
416.936	217.06
417.159	229.06
417.382	215.06
417.605	222.06
417.828	236.06
418.051	229.06
418.274	223.06
418.497	243.06
418.72	223.06
418.943	232.06
419.166	223.06
419.389	254.06
419.611	245.06
419.834	235.06
420.057	252.06
420.28	281.06
420.503	249.06
420.726	239.06
420.948	219.06
421.171	238.06
421.394	229.06
421.617	214.06
421.839	237.06
422.062	239.06
422.285	235.06
422.507	222.06
422.73	223.06
422.953	241.06
423.175	233.06
423.398	224.06
423.621	260.06
423.843	262.06
424.066	246.06
424.288	254.06
424.511	215.06
424.733	237.06
424.956	246.06
425.178	274.06
425.401	292.06
425.623	368.06
425.846	283.06
426.068	255.06
426.291	254.06
426.513	245.06
426.735	212.06
426.958	254.06
427.18	269.06
427.402	334.06
427.625	358.06
427.847	306.06
428.069	243.06
428.292	206.06
428.514	237.06
428.736	238.06
428.958	263.06
429.181	314.06
429.403	253.06
429.625	228.06
429.847	214.06
430.069	209.06
430.292	237.06
430.514	244.06
430.736	238.06
430.958	271.06
431.18	243.06
431.402	210.06
431.624	218.06
431.846	209.06
432.068	193.06
432.29	227.06
432.512	209.06
432.734	274.06
432.956	261.06
433.178	213.06
433.4	229.06
433.622	210.06
433.844	228.06
434.066	247.06
434.287	257.06
434.509	253.06
434.731	250.06
434.953	251.06
435.175	238.06
435.397	249.06
435.618	242.06
435.84	223.06
436.062	216.06
436.284	215.06
436.505	207.06
436.727	202.06
436.949	206.06
437.17	207.06
437.392	211.06
437.614	222.06
437.835	227.06
438.057	230.06
438.278	243.06
438.5	297.06
438.721	324.06
438.943	242.06
439.165	209.06
439.386	206.06
439.608	206.06
439.829	199.06
440.05	228.06
440.272	215.06
440.493	235.06
440.715	277.06
440.936	234.06
441.158	228.06
441.379	224.06
441.6	251.06
441.822	255.06
442.043	224.06
442.264	230.06
442.486	230.06
442.707	227.06
442.928	222.06
443.149	212.06
443.371	227.06
443.592	221.06
443.813	238.06
444.034	235.06
444.255	240.06
444.476	237.06
444.698	241.06
444.919	253.06
445.14	378.06
445.361	304.06
445.582	256.06
445.803	250.06
446.024	226.06
446.245	234.06
446.466	246.06
446.687	240.06
446.908	228.06
447.129	210.06
447.35	197.06
447.571	212.06
447.792	220.06
448.013	207.06
448.234	197.06
448.455	197.06
448.675	220.06
448.896	209.06
449.117	205.06
449.338	206.06
449.559	225.06
449.779	220.06
450	226.06
450.221	226.06
450.442	209.06
450.662	199.06
450.883	197.06
451.104	204.06
451.324	214.06
451.545	213.06
451.766	232.06
451.986	194.06
452.207	205.06
452.428	193.06
452.648	191.06
452.869	209.06
453.089	208.06
453.31	227.06
453.53	202.06
453.751	193.06
453.971	193.06
454.192	212.06
454.412	183.06
454.633	191.06
454.853	199.06
455.073	199.06
455.294	197.06
455.514	198.06
455.734	225.06
455.955	211.06
456.175	221.06
456.395	203.06
456.616	185.06
456.836	177.06
457.056	183.06
457.276	188.06
457.497	200.06
457.717	192.06
457.937	211.06
458.157	194.06
458.377	191.06
458.598	183.06
458.818	188.06
459.038	221.06
459.258	209.06
459.478	225.06
459.698	218.06
459.918	226.06
460.138	236.06
460.358	255.06
460.578	231.06
460.798	239.06
461.018	230.06
461.238	229.06
461.458	248.06
461.678	237.06
461.898	242.06
462.118	217.06
462.338	240.06
462.558	242.06
462.777	276.06
462.997	269.06
463.217	275.06
463.437	277.06
463.657	272.06
463.876	262.06
464.096	264.06
464.316	259.06
464.536	262.06
464.755	278.06
464.975	271.06
465.195	248.06
465.414	262.06
465.634	253.06
465.854	233.06
466.073	218.06
466.293	213.06
466.512	218.06
466.732	246.06
466.951	254.06
467.171	210.06
467.391	227.06
467.61	224.06
467.829	234.06
468.049	223.06
468.268	203.06
468.488	207.06
468.707	227.06
468.927	256.06
469.146	252.06
469.365	241.06
469.585	231.06
469.804	230.06
470.023	254.06
470.243	249.06
470.462	223.06
470.681	224.06
470.901	241.06
471.12	235.06
471.339	251.06
471.558	230.06
471.777	230.06
471.997	251.06
472.216	267.06
472.435	257.06
472.654	223.06
472.873	243.06
473.092	254.06
473.311	249.06
473.53	228.06
473.749	231.06
473.968	241.06
474.187	232.06
474.406	227.06
474.625	233.06
474.844	227.06
475.063	232.06
475.282	255.06
475.501	261.06
475.72	285.06
475.939	266.06
476.158	266.06
476.377	266.06
476.596	321.06
476.814	347.06
477.033	295.06
477.252	264.06
477.471	231.06
477.69	232.06
477.908	269.06
478.127	272.06
478.346	256.06
478.564	295.06
478.783	271.06
479.002	264.06
479.22	291.06
479.439	312.06
479.658	286.06
479.876	271.06
480.095	284.06
480.313	295.06
480.532	289.06
480.751	256.06
480.969	293.06
481.188	284.06
481.406	293.06
481.624	267.06
481.843	261.06
482.061	245.06
482.28	286.06
482.498	331.06
482.717	332.06
482.935	282.06
483.153	239.06
483.372	253.06
483.59	242.06
483.808	272.06
484.027	252.06
484.245	249.06
484.463	265.06
484.681	266.06
484.9	281.06
485.118	267.06
485.336	279.06
485.554	250.06
485.772	274.06
485.99	298.06
486.209	279.06
486.427	291.06
486.645	303.06
486.863	294.06
487.081	289.06
487.299	307.06
487.517	294.06
487.735	265.06
487.953	294.06
488.171	282.06
488.389	290.06
488.607	281.06
488.825	275.06
489.043	287.06
489.261	341.06
489.479	328.06
489.696	295.06
489.914	256.06
490.132	250.06
490.35	266.06
490.568	276.06
490.786	262.06
491.003	269.06
491.221	263.06
491.439	261.06
491.657	257.06
491.874	273.06
492.092	323.06
492.31	361.06
492.527	357.06
492.745	314.06
492.963	311.06
493.18	280.06
493.398	287.06
493.615	289.06
493.833	281.06
494.05	277.06
494.268	276.06
494.485	287.06
494.703	271.06
494.92	265.06
495.138	266.06
495.355	256.06
495.573	303.06
495.79	292.06
496.008	368.06
496.225	321.06
496.442	303.06
496.66	295.06
496.877	317.06
497.094	305.06
497.312	260.06
497.529	303.06
497.746	303.06
497.963	286.06
498.181	333.06
498.398	358.06
498.615	348.06
498.832	391.06
499.049	395.06
499.267	379.06
499.484	398.06
499.701	403.06
499.918	435.06
500.135	482.06
500.352	525.06
500.569	545.06
500.786	547.06
501.003	538.06
501.22	462.06
501.437	418.06
501.654	398.06
501.871	374.06
502.088	363.06
502.305	329.06
502.522	338.06
