Data from NickelSpatula.Lamp.E5.5.P2_HRD10591_11-51-36-559.txt Node
Date: Tue Jul 23 11:51:36 EDT 2019
User: cochatt
Spectrometer: HR+D1059
Trigger mode: 1
Integration Time (sec): 1.000000E-1
Scans to average: 1
Electric dark correction enabled: true
Nonlinearity correction enabled: false
Boxcar width: 0
XAxis mode: Wavelengths
Number of Pixels in Spectrum: 2048
>>>>>Begin Spectral Data<<<<<
223.165	-27.75
223.4	-27.75
223.635	-27.75
223.869	-17.75
224.104	-20.75
224.338	-20.75
224.573	-26.75
224.808	-17.75
225.042	13.25
225.277	-3.75
225.511	-13.75
225.746	5.25
225.98	5.25
226.215	25.25
226.449	5.25
226.683	16.25
226.918	34.25
227.152	44.25
227.387	35.25
227.621	43.25
227.856	32.25
228.09	37.25
228.324	53.25
228.559	62.25
228.793	68.25
229.027	58.25
229.262	72.25
229.496	85.25
229.73	84.25
229.964	87.25
230.199	90.25
230.433	97.25
230.667	95.25
230.901	93.25
231.136	99.25
231.37	97.25
231.604	97.25
231.838	108.25
232.072	112.25
232.306	87.25
232.541	101.25
232.775	111.25
233.009	120.25
233.243	109.25
233.477	117.25
233.711	122.25
233.945	110.25
234.179	120.25
234.413	120.25
234.647	136.25
234.881	154.25
235.115	150.25
235.349	129.25
235.583	124.25
235.817	120.25
236.051	128.25
236.285	130.25
236.519	134.25
236.753	139.25
236.987	133.25
237.221	120.25
237.455	131.25
237.689	138.25
237.922	144.25
238.156	142.25
238.39	158.25
238.624	155.25
238.858	153.25
239.091	154.25
239.325	145.25
239.559	144.25
239.793	150.25
240.027	170.25
240.26	157.25
240.494	162.25
240.728	162.25
240.961	168.25
241.195	184.25
241.429	167.25
241.662	164.25
241.896	176.25
242.13	145.25
242.363	132.25
242.597	134.25
242.83	160.25
243.064	166.25
243.298	159.25
243.531	177.25
243.765	174.25
243.998	182.25
244.232	162.25
244.465	163.25
244.699	152.25
244.932	185.25
245.166	168.25
245.399	172.25
245.633	162.25
245.866	144.25
246.099	164.25
246.333	193.25
246.566	182.25
246.8	199.25
247.033	178.25
247.266	161.25
247.5	177.25
247.733	180.25
247.966	186.25
248.2	190.25
248.433	194.25
248.666	200.25
248.899	181.25
249.133	204.25
249.366	222.25
249.599	248.25
249.832	229.25
250.066	192.25
250.299	200.25
250.532	191.25
250.765	197.25
250.998	166.25
251.231	189.25
251.465	196.25
251.698	190.25
251.931	197.25
252.164	193.25
252.397	217.25
252.63	217.25
252.863	244.25
253.096	252.25
253.329	263.25
253.562	243.25
253.795	266.25
254.028	293.25
254.261	279.25
254.494	273.25
254.727	254.25
254.96	246.25
255.193	262.25
255.426	264.25
255.659	213.25
255.892	214.25
256.124	206.25
256.357	229.25
256.59	275.25
256.823	255.25
257.056	226.25
257.289	226.25
257.521	222.25
257.754	262.25
257.987	302.25
258.22	271.25
258.452	228.25
258.685	266.25
258.918	289.25
259.151	274.25
259.383	284.25
259.616	341.25
259.849	333.25
260.081	358.25
260.314	392.25
260.547	300.25
260.779	328.25
261.012	361.25
261.244	328.25
261.477	360.25
261.71	341.25
261.942	292.25
262.175	307.25
262.407	269.25
262.64	289.25
262.872	316.25
263.105	339.25
263.337	350.25
263.57	331.25
263.802	246.25
264.035	223.25
264.267	215.25
264.499	213.25
264.732	200.25
264.964	173.25
265.197	190.25
265.429	203.25
265.661	208.25
265.894	218.25
266.126	224.25
266.358	253.25
266.591	276.25
266.823	337.25
267.055	298.25
267.287	266.25
267.52	282.25
267.752	302.25
267.984	310.25
268.216	302.25
268.448	254.25
268.681	254.25
268.913	277.25
269.145	291.25
269.377	306.25
269.609	284.25
269.841	270.25
270.073	288.25
270.306	311.25
270.538	304.25
270.77	318.25
271.002	308.25
271.234	329.25
271.466	306.25
271.698	317.25
271.93	284.25
272.162	300.25
272.394	314.25
272.626	306.25
272.858	304.25
273.09	331.25
273.322	280.25
273.553	264.25
273.785	297.25
274.017	391.25
274.249	460.25
274.481	470.25
274.713	510.25
274.945	606.25
275.176	623.25
275.408	526.25
275.64	507.25
275.872	504.25
276.104	463.25
276.335	388.25
276.567	391.25
276.799	401.25
277.031	432.25
277.262	347.25
277.494	274.25
277.726	263.25
277.957	264.25
278.189	312.25
278.421	308.25
278.652	304.25
278.884	299.25
279.115	276.25
279.347	281.25
279.579	250.25
279.81	275.25
280.042	257.25
280.273	292.25
280.505	273.25
280.736	221.25
280.968	254.25
281.199	250.25
281.431	265.25
281.662	286.25
281.894	264.25
282.125	274.25
282.356	293.25
282.588	312.25
282.819	288.25
283.051	288.25
283.282	342.25
283.513	385.25
283.745	447.25
283.976	443.25
284.207	409.25
284.439	430.25
284.67	426.25
284.901	373.25
285.132	378.25
285.364	421.25
285.595	383.25
285.826	409.25
286.057	420.25
286.288	422.25
286.52	407.25
286.751	428.25
286.982	428.25
287.213	376.25
287.444	362.25
287.675	384.25
287.906	402.25
288.138	356.25
288.369	297.25
288.6	291.25
288.831	308.25
289.062	354.25
289.293	368.25
289.524	349.25
289.755	343.25
289.986	368.25
290.217	316.25
290.448	261.25
290.679	262.25
290.91	211.25
291.141	217.25
291.371	235.25
291.602	251.25
291.833	220.25
292.064	233.25
292.295	267.25
292.526	318.25
292.757	336.25
292.987	322.25
293.218	336.25
293.449	348.25
293.68	386.25
293.91	375.25
294.141	352.25
294.372	338.25
294.603	304.25
294.833	340.25
295.064	410.25
295.295	388.25
295.525	293.25
295.756	270.25
295.987	233.25
296.217	241.25
296.448	266.25
296.679	276.25
296.909	263.25
297.14	304.25
297.37	319.25
297.601	297.25
297.831	256.25
298.062	275.25
298.292	311.25
298.523	329.25
298.753	369.25
298.984	341.25
299.214	289.25
299.445	252.25
299.675	236.25
299.905	250.25
300.136	239.25
300.366	268.25
300.597	252.25
300.827	242.25
301.057	255.25
301.288	247.25
301.518	245.25
301.748	273.25
301.979	304.25
302.209	312.25
302.439	322.25
302.669	284.25
302.9	294.25
303.13	254.25
303.36	244.25
303.59	243.25
303.82	274.25
304.051	284.25
304.281	306.25
304.511	306.25
304.741	271.25
304.971	284.25
305.201	294.25
305.431	272.25
305.661	261.25
305.891	248.25
306.121	238.25
306.352	214.25
306.582	212.25
306.812	222.25
307.042	221.25
307.272	196.25
307.502	199.25
307.731	207.25
307.961	210.25
308.191	199.25
308.421	206.25
308.651	202.25
308.881	178.25
309.111	203.25
309.341	229.25
309.571	220.25
309.8	218.25
310.03	229.25
310.26	230.25
310.49	229.25
310.72	218.25
310.949	218.25
311.179	213.25
311.409	225.25
311.639	247.25
311.868	304.25
312.098	372.25
312.328	395.25
312.557	379.25
312.787	396.25
313.017	336.25
313.246	381.25
313.476	415.25
313.706	355.25
313.935	279.25
314.165	250.25
314.394	237.25
314.624	218.25
314.853	242.25
315.083	245.25
315.312	238.25
315.542	231.25
315.771	209.25
316.001	193.25
316.23	212.25
316.46	194.25
316.689	213.25
316.919	214.25
317.148	217.25
317.377	201.25
317.607	216.25
317.836	216.25
318.065	254.25
318.295	258.25
318.524	260.25
318.753	230.25
318.983	219.25
319.212	210.25
319.441	241.25
319.67	248.25
319.9	257.25
320.129	227.25
320.358	219.25
320.587	215.25
320.816	223.25
321.046	238.25
321.275	272.25
321.504	260.25
321.733	261.25
321.962	272.25
322.191	250.25
322.42	233.25
322.649	249.25
322.878	266.25
323.108	254.25
323.337	239.25
323.566	241.25
323.795	251.25
324.024	237.25
324.253	216.25
324.482	220.25
324.71	247.25
324.939	265.25
325.168	261.25
325.397	231.25
325.626	208.25
325.855	203.25
326.084	217.25
326.313	216.25
326.542	229.25
326.77	228.25
326.999	207.25
327.228	231.25
327.457	241.25
327.686	231.25
327.914	204.25
328.143	204.25
328.372	215.25
328.6	210.25
328.829	198.25
329.058	216.25
329.287	201.25
329.515	226.25
329.744	221.25
329.972	213.25
330.201	201.25
330.43	181.25
330.658	224.25
330.887	256.25
331.115	253.25
331.344	240.25
331.572	250.25
331.801	215.25
332.03	200.25
332.258	206.25
332.486	228.25
332.715	232.25
332.943	199.25
333.172	227.25
333.4	221.25
333.629	250.25
333.857	256.25
334.085	260.25
334.314	265.25
334.542	257.25
334.771	230.25
334.999	233.25
335.227	219.25
335.455	212.25
335.684	249.25
335.912	271.25
336.14	304.25
336.369	275.25
336.597	252.25
336.825	316.25
337.053	318.25
337.281	282.25
337.51	248.25
337.738	234.25
337.966	242.25
338.194	252.25
338.422	263.25
338.65	223.25
338.878	219.25
339.106	217.25
339.334	249.25
339.562	261.25
339.79	246.25
340.018	214.25
340.246	232.25
340.474	258.25
340.702	274.25
340.93	277.25
341.158	283.25
341.386	256.25
341.614	238.25
341.842	246.25
342.07	261.25
342.298	282.25
342.526	306.25
342.754	257.25
342.981	259.25
343.209	258.25
343.437	255.25
343.665	260.25
343.893	285.25
344.12	316.25
344.348	345.25
344.576	331.25
344.804	285.25
345.031	243.25
345.259	228.25
345.487	234.25
345.714	238.25
345.942	266.25
346.17	258.25
346.397	255.25
346.625	227.25
346.853	239.25
347.08	243.25
347.308	247.25
347.535	275.25
347.763	277.25
347.99	239.25
348.218	226.25
348.445	242.25
348.673	231.25
348.9	226.25
349.128	255.25
349.355	270.25
349.583	238.25
349.81	252.25
350.037	206.25
350.265	207.25
350.492	199.25
350.72	209.25
350.947	210.25
351.174	218.25
351.402	221.25
351.629	227.25
351.856	220.25
352.083	206.25
352.311	223.25
352.538	242.25
352.765	265.25
352.992	216.25
353.22	241.25
353.447	233.25
353.674	231.25
353.901	227.25
354.128	228.25
354.355	214.25
354.583	227.25
354.81	222.25
355.037	265.25
355.264	240.25
355.491	245.25
355.718	276.25
355.945	251.25
356.172	264.25
356.399	240.25
356.626	271.25
356.853	337.25
357.08	373.25
357.307	385.25
357.534	297.25
357.761	319.25
357.988	384.25
358.215	417.25
358.441	400.25
358.668	353.25
358.895	324.25
359.122	277.25
359.349	283.25
359.576	320.25
359.802	262.25
360.029	225.25
360.256	262.25
360.483	283.25
360.709	344.25
360.936	357.25
361.163	302.25
361.39	260.25
361.616	245.25
361.843	266.25
362.07	331.25
362.296	300.25
362.523	229.25
362.749	221.25
362.976	236.25
363.203	280.25
363.429	288.25
363.656	232.25
363.882	241.25
364.109	232.25
364.335	239.25
364.562	228.25
364.788	237.25
365.015	274.25
365.241	270.25
365.468	233.25
365.694	208.25
365.92	200.25
366.147	210.25
366.373	201.25
366.599	205.25
366.826	202.25
367.052	200.25
367.278	198.25
367.505	189.25
367.731	221.25
367.957	256.25
368.184	240.25
368.41	225.25
368.636	229.25
368.862	236.25
369.089	235.25
369.315	201.25
369.541	227.25
369.767	201.25
369.993	182.25
370.219	203.25
370.445	227.25
370.672	248.25
370.898	227.25
371.124	252.25
371.35	234.25
371.576	212.25
371.802	223.25
372.028	263.25
372.254	300.25
372.48	278.25
372.706	253.25
372.932	257.25
373.158	254.25
373.384	314.25
373.61	374.25
373.835	397.25
374.061	320.25
374.287	270.25
374.513	297.25
374.739	370.25
374.965	374.25
375.191	372.25
375.416	281.25
375.642	241.25
375.868	288.25
376.094	306.25
376.319	272.25
376.545	288.25
376.771	300.25
376.997	263.25
377.222	227.25
377.448	194.25
377.674	208.25
377.899	198.25
378.125	210.25
378.35	197.25
378.576	204.25
378.802	190.25
379.027	215.25
379.253	234.25
379.478	224.25
379.704	244.25
379.929	248.25
380.155	263.25
380.38	222.25
380.606	236.25
380.831	275.25
381.057	252.25
381.282	231.25
381.507	261.25
381.733	314.25
381.958	340.25
382.184	357.25
382.409	373.25
382.634	358.25
382.86	364.25
383.085	320.25
383.31	262.25
383.535	274.25
383.761	301.25
383.986	275.25
384.211	330.25
384.436	318.25
384.662	233.25
384.887	230.25
385.112	238.25
385.337	247.25
385.562	256.25
385.787	276.25
386.013	293.25
386.238	298.25
386.463	238.25
386.688	232.25
386.913	236.25
387.138	223.25
387.363	222.25
387.588	249.25
387.813	256.25
388.038	258.25
388.263	248.25
388.488	241.25
388.713	259.25
388.938	281.25
389.163	238.25
389.387	205.25
389.612	236.25
389.837	243.25
390.062	235.25
390.287	249.25
390.512	241.25
390.736	220.25
390.961	221.25
391.186	220.25
391.411	225.25
391.636	220.25
391.86	248.25
392.085	257.25
392.31	250.25
392.534	247.25
392.759	255.25
392.984	243.25
393.208	267.25
393.433	208.25
393.658	213.25
393.882	206.25
394.107	192.25
394.331	207.25
394.556	208.25
394.78	218.25
395.005	218.25
395.229	216.25
395.454	211.25
395.678	248.25
395.903	240.25
396.127	223.25
396.352	217.25
396.576	263.25
396.801	245.25
397.025	277.25
397.249	270.25
397.474	240.25
397.698	223.25
397.922	234.25
398.147	224.25
398.371	226.25
398.595	260.25
398.82	233.25
399.044	250.25
399.268	268.25
399.492	276.25
399.717	284.25
399.941	289.25
400.165	274.25
400.389	251.25
400.613	264.25
400.837	246.25
401.062	245.25
401.286	222.25
401.51	207.25
401.734	223.25
401.958	246.25
402.182	246.25
402.406	232.25
402.63	227.25
402.854	233.25
403.078	308.25
403.302	360.25
403.526	372.25
403.75	349.25
403.974	292.25
404.198	292.25
404.422	320.25
404.645	332.25
404.869	372.25
405.093	300.25
405.317	268.25
405.541	263.25
405.765	280.25
405.988	272.25
406.212	266.25
406.436	312.25
406.66	335.25
406.883	291.25
407.107	284.25
407.331	318.25
407.555	318.25
407.778	274.25
408.002	276.25
408.226	280.25
408.449	270.25
408.673	270.25
408.896	247.25
409.12	245.25
409.344	261.25
409.567	237.25
409.791	242.25
410.014	252.25
410.238	245.25
410.461	241.25
410.685	224.25
410.908	247.25
411.132	250.25
411.355	251.25
411.578	240.25
411.802	241.25
412.025	240.25
412.249	253.25
412.472	250.25
412.695	244.25
412.919	252.25
413.142	243.25
413.365	272.25
413.589	252.25
413.812	237.25
414.035	236.25
414.258	224.25
414.482	266.25
414.705	281.25
414.928	244.25
415.151	244.25
415.374	246.25
415.597	252.25
415.821	235.25
416.044	222.25
416.267	222.25
416.49	210.25
416.713	230.25
416.936	222.25
417.159	235.25
417.382	234.25
417.605	252.25
417.828	246.25
418.051	260.25
418.274	237.25
418.497	231.25
418.72	240.25
418.943	270.25
419.166	262.25
419.389	266.25
419.611	254.25
419.834	255.25
420.057	277.25
420.28	258.25
420.503	256.25
420.726	237.25
420.948	233.25
421.171	231.25
421.394	236.25
421.617	244.25
421.839	245.25
422.062	253.25
422.285	244.25
422.507	238.25
422.73	252.25
422.953	239.25
423.175	244.25
423.398	241.25
423.621	270.25
423.843	269.25
424.066	259.25
424.288	229.25
424.511	250.25
424.733	243.25
424.956	245.25
425.178	256.25
425.401	313.25
425.623	367.25
425.846	316.25
426.068	262.25
426.291	280.25
426.513	244.25
426.735	235.25
426.958	264.25
427.18	295.25
427.402	351.25
427.625	382.25
427.847	309.25
428.069	248.25
428.292	246.25
428.514	222.25
428.736	237.25
428.958	249.25
429.181	313.25
429.403	262.25
429.625	233.25
429.847	228.25
430.069	216.25
430.292	229.25
430.514	208.25
430.736	239.25
430.958	278.25
431.18	258.25
431.402	224.25
431.624	238.25
431.846	218.25
432.068	232.25
432.29	222.25
432.512	226.25
432.734	271.25
432.956	278.25
433.178	221.25
433.4	218.25
433.622	217.25
433.844	244.25
434.066	243.25
434.287	247.25
434.509	247.25
434.731	243.25
434.953	247.25
435.175	263.25
435.397	282.25
435.618	242.25
435.84	236.25
436.062	225.25
436.284	220.25
436.505	222.25
436.727	214.25
436.949	218.25
437.17	234.25
437.392	230.25
437.614	222.25
437.835	216.25
438.057	239.25
438.278	260.25
438.5	307.25
438.721	313.25
438.943	234.25
439.165	215.25
439.386	209.25
439.608	219.25
439.829	193.25
440.05	215.25
440.272	229.25
440.493	257.25
440.715	292.25
440.936	249.25
441.158	216.25
441.379	227.25
441.6	262.25
441.822	260.25
442.043	243.25
442.264	258.25
442.486	226.25
442.707	249.25
442.928	244.25
443.149	239.25
443.371	256.25
443.592	248.25
443.813	231.25
444.034	234.25
444.255	249.25
444.476	233.25
444.698	246.25
444.919	284.25
445.14	354.25
445.361	313.25
445.582	269.25
445.803	246.25
446.024	264.25
446.245	262.25
446.466	252.25
446.687	232.25
446.908	250.25
447.129	222.25
447.35	230.25
447.571	219.25
447.792	215.25
448.013	203.25
448.234	203.25
448.455	212.25
448.675	207.25
448.896	208.25
449.117	226.25
449.338	220.25
449.559	216.25
449.779	237.25
450	222.25
450.221	216.25
450.442	218.25
450.662	217.25
450.883	233.25
451.104	234.25
451.324	225.25
451.545	233.25
451.766	226.25
451.986	208.25
452.207	211.25
452.428	217.25
452.648	210.25
452.869	227.25
453.089	226.25
453.31	215.25
453.53	228.25
453.751	212.25
453.971	195.25
454.192	222.25
454.412	227.25
454.633	220.25
454.853	224.25
455.073	215.25
455.294	199.25
455.514	195.25
455.734	204.25
455.955	216.25
456.175	221.25
456.395	216.25
456.616	198.25
456.836	213.25
457.056	218.25
457.276	207.25
457.497	198.25
457.717	210.25
457.937	207.25
458.157	201.25
458.377	196.25
458.598	196.25
458.818	201.25
459.038	213.25
459.258	216.25
459.478	215.25
459.698	234.25
459.918	225.25
460.138	227.25
460.358	264.25
460.578	250.25
460.798	252.25
461.018	256.25
461.238	221.25
461.458	229.25
461.678	224.25
461.898	244.25
462.118	251.25
462.338	256.25
462.558	278.25
462.777	248.25
462.997	291.25
463.217	286.25
463.437	305.25
463.657	295.25
463.876	278.25
464.096	277.25
464.316	272.25
464.536	286.25
464.755	285.25
464.975	292.25
465.195	267.25
465.414	267.25
465.634	256.25
465.854	224.25
466.073	230.25
466.293	219.25
466.512	242.25
466.732	262.25
466.951	262.25
467.171	245.25
467.391	221.25
467.61	218.25
467.829	243.25
468.049	232.25
468.268	225.25
468.488	245.25
468.707	221.25
468.927	265.25
469.146	282.25
469.365	255.25
469.585	240.25
469.804	246.25
470.023	273.25
470.243	261.25
470.462	262.25
470.681	226.25
470.901	230.25
471.12	252.25
471.339	259.25
471.558	223.25
471.777	217.25
471.997	265.25
472.216	259.25
472.435	257.25
472.654	232.25
472.873	255.25
473.092	251.25
473.311	245.25
473.53	241.25
473.749	246.25
473.968	244.25
474.187	245.25
474.406	240.25
474.625	217.25
474.844	236.25
475.063	252.25
475.282	257.25
475.501	291.25
475.72	285.25
475.939	271.25
476.158	266.25
476.377	310.25
476.596	351.25
476.814	357.25
477.033	301.25
477.252	241.25
477.471	234.25
477.69	248.25
477.908	274.25
478.127	279.25
478.346	265.25
478.564	277.25
478.783	285.25
479.002	269.25
479.22	296.25
479.439	335.25
479.658	285.25
479.876	250.25
480.095	295.25
480.313	294.25
480.532	289.25
480.751	280.25
480.969	285.25
481.188	300.25
481.406	276.25
481.624	290.25
481.843	288.25
482.061	255.25
482.28	269.25
482.498	346.25
482.717	343.25
482.935	272.25
483.153	261.25
483.372	260.25
483.59	264.25
483.808	241.25
484.027	259.25
484.245	262.25
484.463	244.25
484.681	261.25
484.9	263.25
485.118	271.25
485.336	276.25
485.554	272.25
485.772	266.25
485.99	297.25
486.209	308.25
486.427	285.25
486.645	271.25
486.863	302.25
487.081	300.25
487.299	311.25
487.517	308.25
487.735	281.25
487.953	281.25
488.171	292.25
488.389	295.25
488.607	274.25
488.825	294.25
489.043	303.25
489.261	310.25
489.479	348.25
489.696	288.25
489.914	296.25
490.132	277.25
490.35	255.25
490.568	264.25
490.786	280.25
491.003	257.25
491.221	263.25
491.439	281.25
491.657	275.25
491.874	293.25
492.092	327.25
492.31	383.25
492.527	370.25
492.745	313.25
492.963	300.25
493.18	286.25
493.398	301.25
493.615	308.25
493.833	296.25
494.05	287.25
494.268	282.25
494.485	288.25
494.703	286.25
494.92	293.25
495.138	277.25
495.355	299.25
495.573	296.25
495.79	292.25
496.008	362.25
496.225	339.25
496.442	292.25
496.66	314.25
496.877	316.25
497.094	300.25
497.312	312.25
497.529	324.25
497.746	316.25
497.963	330.25
498.181	331.25
498.398	336.25
498.615	357.25
498.832	353.25
499.049	381.25
499.267	364.25
499.484	392.25
499.701	416.25
499.918	450.25
500.135	480.25
500.352	528.25
500.569	573.25
500.786	548.25
501.003	516.25
501.22	471.25
501.437	456.25
501.654	398.25
501.871	407.25
502.088	362.25
502.305	366.25
502.522	376.25
