Data from NickelSpatula_HRD10591_16-35-31-126.txt Node
Date: Mon Jul 22 16:35:31 EDT 2019
User: cochatt
Spectrometer: HR+D1059
Trigger mode: 1
Integration Time (sec): 1.000000E-1
Scans to average: 1
Electric dark correction enabled: true
Nonlinearity correction enabled: false
Boxcar width: 0
XAxis mode: Wavelengths
Number of Pixels in Spectrum: 2048
>>>>>Begin Spectral Data<<<<<
223.165	-25.44
223.4	-25.44
223.635	-25.44
223.869	-13.44
224.104	-9.44
224.338	-14.44
224.573	1.56
224.808	-3.44
225.042	-5.44
225.277	-16.44
225.511	-10.44
225.746	-7.44
225.98	-1.44
226.215	0.56
226.449	19.56
226.683	26.56
226.918	36.56
227.152	22.56
227.387	33.56
227.621	35.56
227.856	40.56
228.09	45.56
228.324	49.56
228.559	50.56
228.793	56.56
229.027	52.56
229.262	71.56
229.496	80.56
229.73	72.56
229.964	68.56
230.199	93.56
230.433	79.56
230.667	85.56
230.901	92.56
231.136	79.56
231.37	87.56
231.604	93.56
231.838	92.56
232.072	83.56
232.306	91.56
232.541	102.56
232.775	90.56
233.009	92.56
233.243	97.56
233.477	110.56
233.711	109.56
233.945	108.56
234.179	108.56
234.413	108.56
234.647	116.56
234.881	116.56
235.115	129.56
235.349	113.56
235.583	107.56
235.817	115.56
236.051	100.56
236.285	133.56
236.519	121.56
236.753	121.56
236.987	135.56
237.221	114.56
237.455	110.56
237.689	118.56
237.922	123.56
238.156	129.56
238.39	127.56
238.624	168.56
238.858	138.56
239.091	127.56
239.325	121.56
239.559	125.56
239.793	117.56
240.027	140.56
240.26	138.56
240.494	147.56
240.728	135.56
240.961	145.56
241.195	141.56
241.429	144.56
241.662	142.56
241.896	123.56
242.13	138.56
242.363	127.56
242.597	127.56
242.83	135.56
243.064	128.56
243.298	157.56
243.531	146.56
243.765	152.56
243.998	136.56
244.232	138.56
244.465	139.56
244.699	142.56
244.932	162.56
245.166	156.56
245.399	132.56
245.633	131.56
245.866	140.56
246.099	143.56
246.333	152.56
246.566	176.56
246.8	176.56
247.033	175.56
247.266	145.56
247.5	140.56
247.733	150.56
247.966	162.56
248.2	167.56
248.433	158.56
248.666	163.56
248.899	173.56
249.133	177.56
249.366	198.56
249.599	197.56
249.832	199.56
250.066	175.56
250.299	179.56
250.532	178.56
250.765	179.56
250.998	159.56
251.231	158.56
251.465	168.56
251.698	168.56
251.931	177.56
252.164	179.56
252.397	188.56
252.63	215.56
252.863	218.56
253.096	231.56
253.329	220.56
253.562	226.56
253.795	243.56
254.028	258.56
254.261	264.56
254.494	239.56
254.727	225.56
254.96	208.56
255.193	230.56
255.426	218.56
255.659	181.56
255.892	168.56
256.124	186.56
256.357	195.56
256.59	222.56
256.823	222.56
257.056	207.56
257.289	188.56
257.521	202.56
257.754	211.56
257.987	261.56
258.22	236.56
258.452	221.56
258.685	247.56
258.918	242.56
259.151	236.56
259.383	264.56
259.616	288.56
259.849	300.56
260.081	279.56
260.314	323.56
260.547	287.56
260.779	276.56
261.012	315.56
261.244	275.56
261.477	300.56
261.71	267.56
261.942	240.56
262.175	243.56
262.407	221.56
262.64	253.56
262.872	278.56
263.105	295.56
263.337	291.56
263.57	283.56
263.802	215.56
264.035	206.56
264.267	210.56
264.499	168.56
264.732	156.56
264.964	155.56
265.197	160.56
265.429	163.56
265.661	193.56
265.894	168.56
266.126	206.56
266.358	213.56
266.591	231.56
266.823	263.56
267.055	266.56
267.287	260.56
267.52	259.56
267.752	259.56
267.984	272.56
268.216	280.56
268.448	237.56
268.681	230.56
268.913	239.56
269.145	275.56
269.377	269.56
269.609	259.56
269.841	245.56
270.073	245.56
270.306	259.56
270.538	288.56
270.77	299.56
271.002	288.56
271.234	303.56
271.466	290.56
271.698	269.56
271.93	266.56
272.162	271.56
272.394	283.56
272.626	274.56
272.858	265.56
273.09	278.56
273.322	238.56
273.553	208.56
273.785	242.56
274.017	326.56
274.249	371.56
274.481	381.56
274.713	429.56
274.945	478.56
275.176	494.56
275.408	436.56
275.64	412.56
275.872	427.56
276.104	371.56
276.335	351.56
276.567	347.56
276.799	361.56
277.031	366.56
277.262	299.56
277.494	239.56
277.726	231.56
277.957	233.56
278.189	279.56
278.421	272.56
278.652	264.56
278.884	248.56
279.115	255.56
279.347	237.56
279.579	262.56
279.81	240.56
280.042	264.56
280.273	239.56
280.505	223.56
280.736	211.56
280.968	205.56
281.199	208.56
281.431	252.56
281.662	251.56
281.894	230.56
282.125	246.56
282.356	251.56
282.588	260.56
282.819	237.56
283.051	260.56
283.282	302.56
283.513	341.56
283.745	370.56
283.976	349.56
284.207	366.56
284.439	361.56
284.67	359.56
284.901	318.56
285.132	344.56
285.364	357.56
285.595	345.56
285.826	335.56
286.057	359.56
286.288	363.56
286.52	351.56
286.751	379.56
286.982	373.56
287.213	339.56
287.444	322.56
287.675	324.56
287.906	337.56
288.138	301.56
288.369	263.56
288.6	249.56
288.831	251.56
289.062	307.56
289.293	322.56
289.524	318.56
289.755	310.56
289.986	318.56
290.217	275.56
290.448	236.56
290.679	196.56
290.91	194.56
291.141	188.56
291.371	163.56
291.602	211.56
291.833	185.56
292.064	201.56
292.295	243.56
292.526	268.56
292.757	289.56
292.987	311.56
293.218	293.56
293.449	306.56
293.68	333.56
293.91	326.56
294.141	309.56
294.372	299.56
294.603	259.56
294.833	294.56
295.064	334.56
295.295	306.56
295.525	266.56
295.756	216.56
295.987	196.56
296.217	190.56
296.448	200.56
296.679	211.56
296.909	222.56
297.14	227.56
297.37	249.56
297.601	242.56
297.831	225.56
298.062	247.56
298.292	254.56
298.523	272.56
298.753	293.56
298.984	279.56
299.214	238.56
299.445	208.56
299.675	206.56
299.905	190.56
300.136	201.56
300.366	211.56
300.597	197.56
300.827	195.56
301.057	194.56
301.288	205.56
301.518	207.56
301.748	235.56
301.979	234.56
302.209	250.56
302.439	249.56
302.669	235.56
302.9	244.56
303.13	226.56
303.36	229.56
303.59	217.56
303.82	227.56
304.051	233.56
304.281	264.56
304.511	263.56
304.741	232.56
304.971	231.56
305.201	248.56
305.431	245.56
305.661	188.56
305.891	194.56
306.121	205.56
306.352	185.56
306.582	179.56
306.812	173.56
307.042	184.56
307.272	173.56
307.502	168.56
307.731	184.56
307.961	177.56
308.191	161.56
308.421	149.56
308.651	162.56
308.881	165.56
309.111	161.56
309.341	177.56
309.571	178.56
309.8	173.56
310.03	178.56
310.26	179.56
310.49	175.56
310.72	156.56
310.949	171.56
311.179	184.56
311.409	186.56
311.639	213.56
311.868	239.56
312.098	324.56
312.328	344.56
312.557	321.56
312.787	343.56
313.017	303.56
313.246	320.56
313.476	353.56
313.706	301.56
313.935	236.56
314.165	201.56
314.394	172.56
314.624	191.56
314.853	204.56
315.083	199.56
315.312	186.56
315.542	187.56
315.771	182.56
316.001	173.56
316.23	155.56
316.46	169.56
316.689	153.56
316.919	158.56
317.148	176.56
317.377	166.56
317.607	166.56
317.836	178.56
318.065	194.56
318.295	233.56
318.524	201.56
318.753	185.56
318.983	192.56
319.212	173.56
319.441	189.56
319.67	209.56
319.9	219.56
320.129	208.56
320.358	198.56
320.587	182.56
320.816	184.56
321.046	200.56
321.275	239.56
321.504	219.56
321.733	213.56
321.962	207.56
322.191	204.56
322.42	196.56
322.649	200.56
322.878	232.56
323.108	221.56
323.337	188.56
323.566	194.56
323.795	211.56
324.024	199.56
324.253	198.56
324.482	192.56
324.71	196.56
324.939	226.56
325.168	182.56
325.397	174.56
325.626	171.56
325.855	161.56
326.084	171.56
326.313	166.56
326.542	166.56
326.77	172.56
326.999	166.56
327.228	181.56
327.457	193.56
327.686	172.56
327.914	149.56
328.143	163.56
328.372	172.56
328.6	168.56
328.829	175.56
329.058	171.56
329.287	176.56
329.515	173.56
329.744	167.56
329.972	177.56
330.201	157.56
330.43	171.56
330.658	185.56
330.887	204.56
331.115	191.56
331.344	171.56
331.572	165.56
331.801	165.56
332.03	170.56
332.258	161.56
332.486	186.56
332.715	185.56
332.943	176.56
333.172	181.56
333.4	173.56
333.629	200.56
333.857	213.56
334.085	216.56
334.314	213.56
334.542	185.56
334.771	193.56
334.999	176.56
335.227	175.56
335.455	179.56
335.684	196.56
335.912	209.56
336.14	223.56
336.369	222.56
336.597	227.56
336.825	235.56
337.053	277.56
337.281	216.56
337.51	199.56
337.738	192.56
337.966	207.56
338.194	211.56
338.422	189.56
338.65	187.56
338.878	175.56
339.106	173.56
339.334	182.56
339.562	207.56
339.79	203.56
340.018	174.56
340.246	179.56
340.474	194.56
340.702	223.56
340.93	237.56
341.158	234.56
341.386	202.56
341.614	181.56
341.842	196.56
342.07	188.56
342.298	228.56
342.526	236.56
342.754	208.56
342.981	201.56
343.209	189.56
343.437	211.56
343.665	214.56
343.893	210.56
344.12	244.56
344.348	281.56
344.576	251.56
344.804	200.56
345.031	195.56
345.259	198.56
345.487	183.56
345.714	175.56
345.942	197.56
346.17	220.56
346.397	215.56
346.625	197.56
346.853	178.56
347.08	167.56
347.308	178.56
347.535	201.56
347.763	200.56
347.99	167.56
348.218	174.56
348.445	190.56
348.673	173.56
348.9	187.56
349.128	190.56
349.355	185.56
349.583	195.56
349.81	176.56
350.037	190.56
350.265	151.56
350.492	144.56
350.72	145.56
350.947	163.56
351.174	167.56
351.402	161.56
351.629	175.56
351.856	165.56
352.083	155.56
352.311	173.56
352.538	177.56
352.765	211.56
352.992	168.56
353.22	191.56
353.447	198.56
353.674	192.56
353.901	197.56
354.128	169.56
354.355	193.56
354.583	173.56
354.81	188.56
355.037	213.56
355.264	192.56
355.491	211.56
355.718	213.56
355.945	197.56
356.172	187.56
356.399	181.56
356.626	224.56
356.853	261.56
357.08	277.56
357.307	279.56
357.534	227.56
357.761	224.56
357.988	285.56
358.215	305.56
358.441	276.56
358.668	259.56
358.895	243.56
359.122	204.56
359.349	212.56
359.576	229.56
359.802	193.56
360.029	182.56
360.256	178.56
360.483	228.56
360.709	275.56
360.936	251.56
361.163	259.56
361.39	188.56
361.616	176.56
361.843	191.56
362.07	232.56
362.296	213.56
362.523	180.56
362.749	173.56
362.976	180.56
363.203	203.56
363.429	211.56
363.656	198.56
363.882	179.56
364.109	181.56
364.335	196.56
364.562	163.56
364.788	188.56
365.015	211.56
365.241	196.56
365.468	177.56
365.694	163.56
365.92	159.56
366.147	139.56
366.373	144.56
366.599	156.56
366.826	160.56
367.052	148.56
367.278	150.56
367.505	155.56
367.731	157.56
367.957	169.56
368.184	177.56
368.41	182.56
368.636	183.56
368.862	196.56
369.089	189.56
369.315	176.56
369.541	165.56
369.767	169.56
369.993	172.56
370.219	161.56
370.445	166.56
370.672	172.56
370.898	194.56
371.124	195.56
371.35	176.56
371.576	163.56
371.802	173.56
372.028	178.56
372.254	201.56
372.48	196.56
372.706	179.56
372.932	183.56
373.158	189.56
373.384	195.56
373.61	256.56
373.835	266.56
374.061	219.56
374.287	194.56
374.513	217.56
374.739	256.56
374.965	266.56
375.191	237.56
375.416	196.56
375.642	177.56
375.868	193.56
376.094	223.56
376.319	197.56
376.545	208.56
376.771	223.56
376.997	188.56
377.222	157.56
377.448	147.56
377.674	157.56
377.899	155.56
378.125	162.56
378.35	144.56
378.576	148.56
378.802	167.56
379.027	174.56
379.253	167.56
379.478	166.56
379.704	195.56
379.929	181.56
380.155	191.56
380.38	181.56
380.606	189.56
380.831	185.56
381.057	192.56
381.282	157.56
381.507	182.56
381.733	228.56
381.958	230.56
382.184	241.56
382.409	259.56
382.634	252.56
382.86	267.56
383.085	235.56
383.31	211.56
383.535	202.56
383.761	206.56
383.986	204.56
384.211	242.56
384.436	230.56
384.662	181.56
384.887	192.56
385.112	178.56
385.337	207.56
385.562	166.56
385.787	207.56
386.013	212.56
386.238	196.56
386.463	179.56
386.688	174.56
386.913	159.56
387.138	175.56
387.363	198.56
387.588	179.56
387.813	198.56
388.038	183.56
388.263	156.56
388.488	168.56
388.713	189.56
388.938	208.56
389.163	174.56
389.387	156.56
389.612	185.56
389.837	187.56
390.062	184.56
390.287	172.56
390.512	206.56
390.736	182.56
390.961	161.56
391.186	163.56
391.411	166.56
391.636	196.56
391.86	200.56
392.085	174.56
392.31	177.56
392.534	178.56
392.759	167.56
392.984	189.56
393.208	187.56
393.433	165.56
393.658	160.56
393.882	160.56
394.107	154.56
394.331	154.56
394.556	167.56
394.78	152.56
395.005	168.56
395.229	165.56
395.454	166.56
395.678	161.56
395.903	167.56
396.127	158.56
396.352	153.56
396.576	206.56
396.801	191.56
397.025	197.56
397.249	220.56
397.474	192.56
397.698	192.56
397.922	197.56
398.147	180.56
398.371	171.56
398.595	184.56
398.82	180.56
399.044	182.56
399.268	190.56
399.492	195.56
399.717	200.56
399.941	183.56
400.165	204.56
400.389	191.56
400.613	200.56
400.837	175.56
401.062	179.56
401.286	191.56
401.51	191.56
401.734	187.56
401.958	188.56
402.182	177.56
402.406	179.56
402.63	175.56
402.854	190.56
403.078	212.56
403.302	235.56
403.526	278.56
403.75	243.56
403.974	209.56
404.198	223.56
404.422	222.56
404.645	241.56
404.869	253.56
405.093	240.56
405.317	186.56
405.541	198.56
405.765	188.56
405.988	181.56
406.212	208.56
406.436	241.56
406.66	231.56
406.883	200.56
407.107	196.56
407.331	241.56
407.555	226.56
407.778	195.56
408.002	191.56
408.226	213.56
408.449	205.56
408.673	200.56
408.896	200.56
409.12	180.56
409.344	194.56
409.567	177.56
409.791	174.56
410.014	168.56
410.238	162.56
410.461	186.56
410.685	182.56
410.908	168.56
411.132	190.56
411.355	191.56
411.578	191.56
411.802	188.56
412.025	191.56
412.249	181.56
412.472	192.56
412.695	191.56
412.919	163.56
413.142	178.56
413.365	200.56
413.589	190.56
413.812	156.56
414.035	186.56
414.258	183.56
414.482	180.56
414.705	178.56
414.928	185.56
415.151	171.56
415.374	172.56
415.597	173.56
415.821	173.56
416.044	172.56
416.267	174.56
416.49	176.56
416.713	181.56
416.936	165.56
417.159	171.56
417.382	174.56
417.605	177.56
417.828	182.56
418.051	178.56
418.274	188.56
418.497	167.56
418.72	175.56
418.943	198.56
419.166	200.56
419.389	198.56
419.611	207.56
419.834	187.56
420.057	191.56
420.28	221.56
420.503	189.56
420.726	189.56
420.948	175.56
421.171	176.56
421.394	181.56
421.617	188.56
421.839	174.56
422.062	174.56
422.285	185.56
422.507	183.56
422.73	188.56
422.953	196.56
423.175	187.56
423.398	175.56
423.621	192.56
423.843	193.56
424.066	176.56
424.288	177.56
424.511	187.56
424.733	187.56
424.956	200.56
425.178	193.56
425.401	240.56
425.623	275.56
425.846	242.56
426.068	175.56
426.291	202.56
426.513	184.56
426.735	166.56
426.958	201.56
427.18	209.56
427.402	244.56
427.625	281.56
427.847	237.56
428.069	172.56
428.292	171.56
428.514	190.56
428.736	168.56
428.958	173.56
429.181	220.56
429.403	209.56
429.625	167.56
429.847	171.56
430.069	178.56
430.292	168.56
430.514	184.56
430.736	174.56
430.958	215.56
431.18	191.56
431.402	165.56
431.624	160.56
431.846	177.56
432.068	165.56
432.29	153.56
432.512	197.56
432.734	208.56
432.956	194.56
433.178	191.56
433.4	177.56
433.622	175.56
433.844	174.56
434.066	195.56
434.287	201.56
434.509	182.56
434.731	188.56
434.953	185.56
435.175	189.56
435.397	201.56
435.618	173.56
435.84	172.56
436.062	163.56
436.284	165.56
436.505	157.56
436.727	175.56
436.949	167.56
437.17	163.56
437.392	174.56
437.614	167.56
437.835	152.56
438.057	165.56
438.278	187.56
438.5	237.56
438.721	246.56
438.943	187.56
439.165	173.56
439.386	149.56
439.608	159.56
439.829	160.56
440.05	163.56
440.272	159.56
440.493	191.56
440.715	212.56
440.936	166.56
441.158	166.56
441.379	179.56
441.6	198.56
441.822	192.56
442.043	153.56
442.264	192.56
442.486	174.56
442.707	181.56
442.928	164.56
443.149	184.56
443.371	190.56
443.592	190.56
443.813	168.56
444.034	185.56
444.255	188.56
444.476	189.56
444.698	174.56
444.919	173.56
445.14	302.56
445.361	248.56
445.582	203.56
445.803	194.56
446.024	182.56
446.245	212.56
446.466	187.56
446.687	191.56
446.908	179.56
447.129	178.56
447.35	164.56
447.571	185.56
447.792	167.56
448.013	146.56
448.234	172.56
448.455	168.56
448.675	161.56
448.896	167.56
449.117	175.56
449.338	167.56
449.559	167.56
449.779	174.56
450	183.56
450.221	177.56
450.442	163.56
450.662	162.56
450.883	157.56
451.104	168.56
451.324	153.56
451.545	147.56
451.766	143.56
451.986	155.56
452.207	166.56
452.428	165.56
452.648	152.56
452.869	164.56
453.089	171.56
453.31	187.56
453.53	155.56
453.751	155.56
453.971	158.56
454.192	162.56
454.412	161.56
454.633	159.56
454.853	171.56
455.073	159.56
455.294	142.56
455.514	155.56
455.734	163.56
455.955	169.56
456.175	157.56
456.395	143.56
456.616	143.56
456.836	155.56
457.056	147.56
457.276	147.56
457.497	165.56
457.717	161.56
457.937	143.56
458.157	149.56
458.377	152.56
458.598	157.56
458.818	159.56
459.038	152.56
459.258	188.56
459.478	170.56
459.698	177.56
459.918	175.56
460.138	176.56
460.358	174.56
460.578	177.56
460.798	175.56
461.018	175.56
461.238	168.56
461.458	173.56
461.678	185.56
461.898	183.56
462.118	190.56
462.338	185.56
462.558	179.56
462.777	191.56
462.997	202.56
463.217	196.56
463.437	189.56
463.657	197.56
463.876	190.56
464.096	177.56
464.316	207.56
464.536	185.56
464.755	212.56
464.975	210.56
465.195	185.56
465.414	204.56
465.634	184.56
465.854	185.56
466.073	172.56
466.293	169.56
466.512	177.56
466.732	198.56
466.951	196.56
467.171	173.56
467.391	177.56
467.61	180.56
467.829	167.56
468.049	183.56
468.268	177.56
468.488	172.56
468.707	180.56
468.927	186.56
469.146	208.56
469.365	201.56
469.585	174.56
469.804	202.56
470.023	200.56
470.243	181.56
470.462	197.56
470.681	177.56
470.901	175.56
471.12	185.56
471.339	185.56
471.558	188.56
471.777	184.56
471.997	200.56
472.216	215.56
472.435	191.56
472.654	195.56
472.873	170.56
473.092	185.56
473.311	186.56
473.53	194.56
473.749	182.56
473.968	191.56
474.187	188.56
474.406	177.56
474.625	176.56
474.844	187.56
475.063	201.56
475.282	203.56
475.501	224.56
475.72	247.56
475.939	217.56
476.158	206.56
476.377	229.56
476.596	271.56
476.814	284.56
477.033	237.56
477.252	204.56
477.471	187.56
477.69	199.56
477.908	221.56
478.127	203.56
478.346	191.56
478.564	238.56
478.783	223.56
479.002	189.56
479.22	228.56
479.439	236.56
479.658	228.56
479.876	217.56
480.095	217.56
480.313	219.56
480.532	218.56
480.751	191.56
480.969	207.56
481.188	230.56
481.406	215.56
481.624	217.56
481.843	220.56
482.061	208.56
482.28	216.56
482.498	281.56
482.717	303.56
482.935	237.56
483.153	217.56
483.372	184.56
483.59	211.56
483.808	194.56
484.027	191.56
484.245	187.56
484.463	175.56
484.681	181.56
484.9	196.56
485.118	206.56
485.336	206.56
485.554	191.56
485.772	209.56
485.99	209.56
486.209	213.56
486.427	216.56
486.645	207.56
486.863	221.56
487.081	198.56
487.299	230.56
487.517	229.56
487.735	205.56
487.953	227.56
488.171	218.56
488.389	207.56
488.607	212.56
488.825	213.56
489.043	234.56
489.261	253.56
489.479	263.56
489.696	227.56
489.914	199.56
490.132	209.56
490.35	191.56
490.568	208.56
490.786	203.56
491.003	191.56
491.221	193.56
491.439	178.56
491.657	189.56
491.874	208.56
492.092	248.56
492.31	315.56
492.527	303.56
492.745	253.56
492.963	220.56
493.18	223.56
493.398	234.56
493.615	230.56
493.833	216.56
494.05	219.56
494.268	223.56
494.485	212.56
494.703	221.56
494.92	211.56
495.138	211.56
495.355	216.56
495.573	228.56
495.79	243.56
496.008	290.56
496.225	247.56
496.442	237.56
496.66	219.56
496.877	236.56
497.094	233.56
497.312	231.56
497.529	239.56
497.746	236.56
497.963	240.56
498.181	232.56
498.398	262.56
498.615	271.56
498.832	293.56
499.049	292.56
499.267	276.56
499.484	281.56
499.701	296.56
499.918	321.56
500.135	339.56
500.352	367.56
500.569	369.56
500.786	367.56
501.003	344.56
501.22	315.56
501.437	311.56
501.654	299.56
501.871	286.56
502.088	272.56
502.305	252.56
502.522	246.56
502.739	269.56
