Data from NickelSpatula_HRD10591_16-33-50-126.txt Node
Date: Mon Jul 22 16:33:50 EDT 2019
User: cochatt
Spectrometer: HR+D1059
Trigger mode: 1
Integration Time (sec): 1.000000E-1
Scans to average: 1
Electric dark correction enabled: true
Nonlinearity correction enabled: false
Boxcar width: 0
XAxis mode: Wavelengths
Number of Pixels in Spectrum: 2048
>>>>>Begin Spectral Data<<<<<
223.165	-23.62
223.4	-23.62
223.635	-23.62
223.869	-11.62
224.104	-5.62
224.338	-8.62
224.573	-22.62
224.808	-17.62
225.042	-9.62
225.277	-10.62
225.511	-8.62
225.746	-3.62
225.98	7.38
226.215	20.38
226.449	24.38
226.683	18.38
226.918	28.38
227.152	23.38
227.387	16.38
227.621	41.38
227.856	43.38
228.09	51.38
228.324	48.38
228.559	44.38
228.793	56.38
229.027	48.38
229.262	83.38
229.496	76.38
229.73	84.38
229.964	92.38
230.199	96.38
230.433	91.38
230.667	95.38
230.901	94.38
231.136	96.38
231.37	95.38
231.604	102.38
231.838	83.38
232.072	94.38
232.306	110.38
232.541	104.38
232.775	102.38
233.009	101.38
233.243	108.38
233.477	107.38
233.711	119.38
233.945	104.38
234.179	113.38
234.413	114.38
234.647	120.38
234.881	116.38
235.115	138.38
235.349	130.38
235.583	108.38
235.817	118.38
236.051	129.38
236.285	120.38
236.519	133.38
236.753	130.38
236.987	136.38
237.221	123.38
237.455	132.38
237.689	119.38
237.922	126.38
238.156	134.38
238.39	153.38
238.624	151.38
238.858	170.38
239.091	141.38
239.325	148.38
239.559	140.38
239.793	148.38
240.027	172.38
240.26	148.38
240.494	152.38
240.728	154.38
240.961	169.38
241.195	154.38
241.429	160.38
241.662	177.38
241.896	135.38
242.13	135.38
242.363	129.38
242.597	125.38
242.83	151.38
243.064	151.38
243.298	156.38
243.531	177.38
243.765	160.38
243.998	167.38
244.232	163.38
244.465	152.38
244.699	152.38
244.932	176.38
245.166	163.38
245.399	146.38
245.633	147.38
245.866	146.38
246.099	164.38
246.333	185.38
246.566	193.38
246.8	174.38
247.033	175.38
247.266	184.38
247.5	173.38
247.733	163.38
247.966	180.38
248.2	158.38
248.433	175.38
248.666	198.38
248.899	187.38
249.133	201.38
249.366	218.38
249.599	224.38
249.832	224.38
250.066	202.38
250.299	212.38
250.532	182.38
250.765	180.38
250.998	182.38
251.231	171.38
251.465	187.38
251.698	201.38
251.931	179.38
252.164	203.38
252.397	229.38
252.63	233.38
252.863	243.38
253.096	268.38
253.329	251.38
253.562	240.38
253.795	273.38
254.028	292.38
254.261	306.38
254.494	279.38
254.727	245.38
254.96	267.38
255.193	263.38
255.426	258.38
255.659	192.38
255.892	192.38
256.124	201.38
256.357	231.38
256.59	277.38
256.823	273.38
257.056	232.38
257.289	199.38
257.521	231.38
257.754	261.38
257.987	284.38
258.22	266.38
258.452	221.38
258.685	248.38
258.918	274.38
259.151	300.38
259.383	294.38
259.616	342.38
259.849	338.38
260.081	335.38
260.314	370.38
260.547	289.38
260.779	316.38
261.012	359.38
261.244	333.38
261.477	345.38
261.71	308.38
261.942	286.38
262.175	281.38
262.407	282.38
262.64	272.38
262.872	311.38
263.105	336.38
263.337	360.38
263.57	333.38
263.802	226.38
264.035	219.38
264.267	198.38
264.499	182.38
264.732	185.38
264.964	182.38
265.197	190.38
265.429	185.38
265.661	207.38
265.894	204.38
266.126	207.38
266.358	242.38
266.591	288.38
266.823	317.38
267.055	315.38
267.287	273.38
267.52	278.38
267.752	317.38
267.984	313.38
268.216	293.38
268.448	236.38
268.681	264.38
268.913	267.38
269.145	296.38
269.377	292.38
269.609	287.38
269.841	272.38
270.073	288.38
270.306	325.38
270.538	306.38
270.77	315.38
271.002	318.38
271.234	338.38
271.466	332.38
271.698	320.38
271.93	289.38
272.162	319.38
272.394	310.38
272.626	294.38
272.858	317.38
273.09	294.38
273.322	283.38
273.553	243.38
273.785	289.38
274.017	357.38
274.249	451.38
274.481	479.38
274.713	515.38
274.945	558.38
275.176	600.38
275.408	543.38
275.64	488.38
275.872	498.38
276.104	438.38
276.335	385.38
276.567	370.38
276.799	400.38
277.031	430.38
277.262	352.38
277.494	258.38
277.726	255.38
277.957	273.38
278.189	309.38
278.421	304.38
278.652	300.38
278.884	288.38
279.115	266.38
279.347	276.38
279.579	276.38
279.81	264.38
280.042	254.38
280.273	280.38
280.505	258.38
280.736	224.38
280.968	210.38
281.199	268.38
281.431	272.38
281.662	270.38
281.894	264.38
282.125	281.38
282.356	288.38
282.588	279.38
282.819	274.38
283.051	283.38
283.282	336.38
283.513	384.38
283.745	428.38
283.976	444.38
284.207	412.38
284.439	407.38
284.67	404.38
284.901	364.38
285.132	375.38
285.364	387.38
285.595	381.38
285.826	396.38
286.057	401.38
286.288	383.38
286.52	408.38
286.751	435.38
286.982	414.38
287.213	358.38
287.444	359.38
287.675	381.38
287.906	376.38
288.138	345.38
288.369	289.38
288.6	268.38
288.831	274.38
289.062	334.38
289.293	372.38
289.524	334.38
289.755	331.38
289.986	331.38
290.217	330.38
290.448	256.38
290.679	217.38
290.91	218.38
291.141	219.38
291.371	227.38
291.602	227.38
291.833	216.38
292.064	201.38
292.295	261.38
292.526	306.38
292.757	320.38
292.987	334.38
293.218	335.38
293.449	356.38
293.68	372.38
293.91	342.38
294.141	343.38
294.372	328.38
294.603	300.38
294.833	341.38
295.064	373.38
295.295	360.38
295.525	284.38
295.756	257.38
295.987	216.38
296.217	210.38
296.448	228.38
296.679	220.38
296.909	244.38
297.14	256.38
297.37	291.38
297.601	288.38
297.831	226.38
298.062	267.38
298.292	294.38
298.523	310.38
298.753	340.38
298.984	329.38
299.214	266.38
299.445	238.38
299.675	235.38
299.905	218.38
300.136	220.38
300.366	246.38
300.597	247.38
300.827	225.38
301.057	195.38
301.288	205.38
301.518	228.38
301.748	249.38
301.979	261.38
302.209	274.38
302.439	289.38
302.669	276.38
302.9	256.38
303.13	242.38
303.36	254.38
303.59	241.38
303.82	223.38
304.051	256.38
304.281	278.38
304.511	292.38
304.741	258.38
304.971	241.38
305.201	278.38
305.431	248.38
305.661	222.38
305.891	227.38
306.121	223.38
306.352	214.38
306.582	200.38
306.812	203.38
307.042	196.38
307.272	178.38
307.502	167.38
307.731	188.38
307.961	201.38
308.191	192.38
308.421	180.38
308.651	175.38
308.881	171.38
309.111	159.38
309.341	184.38
309.571	199.38
309.8	220.38
310.03	200.38
310.26	225.38
310.49	222.38
310.72	193.38
310.949	195.38
311.179	185.38
311.409	187.38
311.639	224.38
311.868	275.38
312.098	345.38
312.328	375.38
312.557	364.38
312.787	378.38
313.017	338.38
313.246	320.38
313.476	394.38
313.706	318.38
313.935	282.38
314.165	238.38
314.394	216.38
314.624	202.38
314.853	219.38
315.083	212.38
315.312	208.38
315.542	240.38
315.771	198.38
316.001	189.38
316.23	192.38
316.46	191.38
316.689	181.38
316.919	201.38
317.148	179.38
317.377	181.38
317.607	175.38
317.836	181.38
318.065	227.38
318.295	251.38
318.524	214.38
318.753	211.38
318.983	207.38
319.212	199.38
319.441	198.38
319.67	237.38
319.9	258.38
320.129	223.38
320.358	202.38
320.587	200.38
320.816	209.38
321.046	243.38
321.275	280.38
321.504	266.38
321.733	256.38
321.962	251.38
322.191	235.38
322.42	233.38
322.649	236.38
322.878	243.38
323.108	246.38
323.337	238.38
323.566	222.38
323.795	220.38
324.024	208.38
324.253	223.38
324.482	215.38
324.71	216.38
324.939	244.38
325.168	233.38
325.397	208.38
325.626	196.38
325.855	197.38
326.084	192.38
326.313	207.38
326.542	186.38
326.77	201.38
326.999	194.38
327.228	209.38
327.457	213.38
327.686	202.38
327.914	191.38
328.143	186.38
328.372	172.38
328.6	180.38
328.829	196.38
329.058	190.38
329.287	168.38
329.515	176.38
329.744	168.38
329.972	187.38
330.201	156.38
330.43	192.38
330.658	202.38
330.887	227.38
331.115	213.38
331.344	215.38
331.572	211.38
331.801	197.38
332.03	194.38
332.258	196.38
332.486	225.38
332.715	208.38
332.943	187.38
333.172	203.38
333.4	201.38
333.629	226.38
333.857	231.38
334.085	231.38
334.314	255.38
334.542	212.38
334.771	216.38
334.999	210.38
335.227	190.38
335.455	191.38
335.684	196.38
335.912	239.38
336.14	266.38
336.369	260.38
336.597	259.38
336.825	274.38
337.053	308.38
337.281	262.38
337.51	204.38
337.738	211.38
337.966	213.38
338.194	248.38
338.422	222.38
338.65	215.38
338.878	206.38
339.106	174.38
339.334	207.38
339.562	229.38
339.79	204.38
340.018	190.38
340.246	215.38
340.474	232.38
340.702	272.38
340.93	272.38
341.158	251.38
341.386	224.38
341.614	227.38
341.842	220.38
342.07	221.38
342.298	270.38
342.526	292.38
342.754	235.38
342.981	226.38
343.209	208.38
343.437	213.38
343.665	238.38
343.893	238.38
344.12	265.38
344.348	326.38
344.576	306.38
344.804	252.38
345.031	191.38
345.259	208.38
345.487	219.38
345.714	205.38
345.942	214.38
346.17	243.38
346.397	238.38
346.625	210.38
346.853	199.38
347.08	194.38
347.308	215.38
347.535	218.38
347.763	240.38
347.99	197.38
348.218	200.38
348.445	195.38
348.673	208.38
348.9	202.38
349.128	216.38
349.355	211.38
349.583	225.38
349.81	203.38
350.037	207.38
350.265	182.38
350.492	155.38
350.72	190.38
350.947	179.38
351.174	195.38
351.402	194.38
351.629	204.38
351.856	187.38
352.083	180.38
352.311	185.38
352.538	210.38
352.765	227.38
352.992	207.38
353.22	195.38
353.447	224.38
353.674	188.38
353.901	196.38
354.128	220.38
354.355	202.38
354.583	210.38
354.81	231.38
355.037	227.38
355.264	220.38
355.491	220.38
355.718	247.38
355.945	211.38
356.172	206.38
356.399	212.38
356.626	253.38
356.853	292.38
357.08	325.38
357.307	352.38
357.534	272.38
357.761	259.38
357.988	314.38
358.215	356.38
358.441	345.38
358.668	322.38
358.895	294.38
359.122	235.38
359.349	238.38
359.576	258.38
359.802	229.38
360.029	184.38
360.256	202.38
360.483	235.38
360.709	313.38
360.936	342.38
361.163	277.38
361.39	208.38
361.616	221.38
361.843	222.38
362.07	272.38
362.296	282.38
362.523	224.38
362.749	190.38
362.976	198.38
363.203	242.38
363.429	246.38
363.656	202.38
363.882	193.38
364.109	199.38
364.335	203.38
364.562	190.38
364.788	201.38
365.015	263.38
365.241	235.38
365.468	194.38
365.694	168.38
365.92	171.38
366.147	155.38
366.373	162.38
366.599	184.38
366.826	157.38
367.052	169.38
367.278	181.38
367.505	183.38
367.731	187.38
367.957	190.38
368.184	204.38
368.41	215.38
368.636	212.38
368.862	211.38
369.089	201.38
369.315	179.38
369.541	184.38
369.767	181.38
369.993	177.38
370.219	194.38
370.445	166.38
370.672	193.38
370.898	203.38
371.124	217.38
371.35	190.38
371.576	198.38
371.802	198.38
372.028	209.38
372.254	224.38
372.48	226.38
372.706	203.38
372.932	208.38
373.158	227.38
373.384	247.38
373.61	314.38
373.835	320.38
374.061	264.38
374.287	219.38
374.513	250.38
374.739	298.38
374.965	319.38
375.191	312.38
375.416	230.38
375.642	198.38
375.868	219.38
376.094	281.38
376.319	201.38
376.545	234.38
376.771	243.38
376.997	221.38
377.222	168.38
377.448	181.38
377.674	178.38
377.899	162.38
378.125	156.38
378.35	166.38
378.576	167.38
378.802	187.38
379.027	198.38
379.253	190.38
379.478	192.38
379.704	191.38
379.929	205.38
380.155	226.38
380.38	195.38
380.606	194.38
380.831	234.38
381.057	218.38
381.282	198.38
381.507	221.38
381.733	262.38
381.958	268.38
382.184	277.38
382.409	286.38
382.634	310.38
382.86	323.38
383.085	274.38
383.31	250.38
383.535	244.38
383.761	233.38
383.986	219.38
384.211	268.38
384.436	265.38
384.662	225.38
384.887	198.38
385.112	206.38
385.337	209.38
385.562	188.38
385.787	226.38
386.013	229.38
386.238	244.38
386.463	209.38
386.688	195.38
386.913	206.38
387.138	180.38
387.363	186.38
387.588	208.38
387.813	196.38
388.038	203.38
388.263	192.38
388.488	211.38
388.713	221.38
388.938	254.38
389.163	196.38
389.387	190.38
389.612	184.38
389.837	188.38
390.062	186.38
390.287	188.38
390.512	196.38
390.736	186.38
390.961	183.38
391.186	182.38
391.411	162.38
391.636	189.38
391.86	202.38
392.085	200.38
392.31	233.38
392.534	201.38
392.759	182.38
392.984	204.38
393.208	218.38
393.433	193.38
393.658	171.38
393.882	162.38
394.107	159.38
394.331	158.38
394.556	177.38
394.78	170.38
395.005	169.38
395.229	177.38
395.454	172.38
395.678	176.38
395.903	191.38
396.127	177.38
396.352	191.38
396.576	211.38
396.801	207.38
397.025	233.38
397.249	231.38
397.474	189.38
397.698	182.38
397.922	206.38
398.147	178.38
398.371	186.38
398.595	186.38
398.82	213.38
399.044	184.38
399.268	215.38
399.492	217.38
399.717	209.38
399.941	240.38
400.165	198.38
400.389	193.38
400.613	205.38
400.837	209.38
401.062	188.38
401.286	186.38
401.51	189.38
401.734	188.38
401.958	190.38
402.182	182.38
402.406	177.38
402.63	195.38
402.854	195.38
403.078	215.38
403.302	282.38
403.526	288.38
403.75	274.38
403.974	213.38
404.198	228.38
404.422	262.38
404.645	262.38
404.869	287.38
405.093	246.38
405.317	207.38
405.541	203.38
405.765	202.38
405.988	230.38
406.212	227.38
406.436	247.38
406.66	260.38
406.883	217.38
407.107	219.38
407.331	276.38
407.555	270.38
407.778	213.38
408.002	215.38
408.226	214.38
408.449	231.38
408.673	222.38
408.896	209.38
409.12	180.38
409.344	199.38
409.567	198.38
409.791	191.38
410.014	186.38
410.238	184.38
410.461	194.38
410.685	187.38
410.908	199.38
411.132	192.38
411.355	211.38
411.578	185.38
411.802	210.38
412.025	204.38
412.249	176.38
412.472	185.38
412.695	194.38
412.919	209.38
413.142	194.38
413.365	218.38
413.589	222.38
413.812	203.38
414.035	192.38
414.258	195.38
414.482	218.38
414.705	232.38
414.928	194.38
415.151	181.38
415.374	177.38
415.597	190.38
415.821	194.38
416.044	195.38
416.267	194.38
416.49	179.38
416.713	190.38
416.936	195.38
417.159	177.38
417.382	196.38
417.605	194.38
417.828	204.38
418.051	206.38
418.274	204.38
418.497	203.38
418.72	208.38
418.943	201.38
419.166	218.38
419.389	201.38
419.611	214.38
419.834	193.38
420.057	234.38
420.28	225.38
420.503	211.38
420.726	202.38
420.948	184.38
421.171	182.38
421.394	191.38
421.617	189.38
421.839	180.38
422.062	208.38
422.285	199.38
422.507	192.38
422.73	191.38
422.953	204.38
423.175	204.38
423.398	196.38
423.621	228.38
423.843	245.38
424.066	218.38
424.288	200.38
424.511	204.38
424.733	196.38
424.956	198.38
425.178	214.38
425.401	238.38
425.623	294.38
425.846	237.38
426.068	194.38
426.291	225.38
426.513	212.38
426.735	194.38
426.958	215.38
427.18	234.38
427.402	297.38
427.625	280.38
427.847	249.38
428.069	204.38
428.292	191.38
428.514	180.38
428.736	179.38
428.958	191.38
429.181	239.38
429.403	220.38
429.625	193.38
429.847	176.38
430.069	185.38
430.292	195.38
430.514	174.38
430.736	176.38
430.958	223.38
431.18	217.38
431.402	181.38
431.624	186.38
431.846	171.38
432.068	168.38
432.29	182.38
432.512	188.38
432.734	229.38
432.956	231.38
433.178	178.38
433.4	173.38
433.622	194.38
433.844	188.38
434.066	206.38
434.287	204.38
434.509	191.38
434.731	197.38
434.953	188.38
435.175	199.38
435.397	219.38
435.618	188.38
435.84	178.38
436.062	188.38
436.284	178.38
436.505	175.38
436.727	169.38
436.949	186.38
437.17	160.38
437.392	180.38
437.614	170.38
437.835	176.38
438.057	167.38
438.278	181.38
438.5	240.38
438.721	286.38
438.943	175.38
439.165	176.38
439.386	176.38
439.608	183.38
439.829	183.38
440.05	176.38
440.272	178.38
440.493	198.38
440.715	264.38
440.936	201.38
441.158	189.38
441.379	181.38
441.6	207.38
441.822	209.38
442.043	184.38
442.264	192.38
442.486	187.38
442.707	186.38
442.928	180.38
443.149	185.38
443.371	184.38
443.592	209.38
443.813	203.38
444.034	195.38
444.255	193.38
444.476	187.38
444.698	201.38
444.919	198.38
445.14	324.38
445.361	262.38
445.582	198.38
445.803	198.38
446.024	209.38
446.245	207.38
446.466	202.38
446.687	174.38
446.908	194.38
447.129	183.38
447.35	161.38
447.571	160.38
447.792	186.38
448.013	167.38
448.234	181.38
448.455	175.38
448.675	160.38
448.896	167.38
449.117	178.38
449.338	159.38
449.559	182.38
449.779	194.38
450	182.38
450.221	188.38
450.442	181.38
450.662	179.38
450.883	169.38
451.104	174.38
451.324	156.38
451.545	170.38
451.766	189.38
451.986	167.38
452.207	160.38
452.428	179.38
452.648	175.38
452.869	178.38
453.089	178.38
453.31	184.38
453.53	168.38
453.751	158.38
453.971	165.38
454.192	161.38
454.412	174.38
454.633	171.38
454.853	158.38
455.073	160.38
455.294	162.38
455.514	167.38
455.734	167.38
455.955	169.38
456.175	190.38
456.395	157.38
456.616	150.38
456.836	148.38
457.056	154.38
457.276	155.38
457.497	151.38
457.717	150.38
457.937	161.38
458.157	170.38
458.377	165.38
458.598	168.38
458.818	150.38
459.038	162.38
459.258	172.38
459.478	179.38
459.698	167.38
459.918	186.38
460.138	176.38
460.358	188.38
460.578	183.38
460.798	208.38
461.018	205.38
461.238	194.38
461.458	184.38
461.678	191.38
461.898	208.38
462.118	206.38
462.338	207.38
462.558	200.38
462.777	210.38
462.997	224.38
463.217	202.38
463.437	221.38
463.657	217.38
463.876	203.38
464.096	188.38
464.316	215.38
464.536	198.38
464.755	219.38
464.975	224.38
465.195	228.38
465.414	209.38
465.634	198.38
465.854	187.38
466.073	176.38
466.293	174.38
466.512	199.38
466.732	225.38
466.951	242.38
467.171	206.38
467.391	190.38
467.61	193.38
467.829	178.38
468.049	200.38
468.268	178.38
468.488	167.38
468.707	190.38
468.927	201.38
469.146	227.38
469.365	199.38
469.585	187.38
469.804	212.38
470.023	222.38
470.243	209.38
470.462	194.38
470.681	164.38
470.901	187.38
471.12	181.38
471.339	195.38
471.558	176.38
471.777	185.38
471.997	213.38
472.216	237.38
472.435	210.38
472.654	193.38
472.873	191.38
473.092	228.38
473.311	224.38
473.53	209.38
473.749	191.38
473.968	211.38
474.187	192.38
474.406	193.38
474.625	188.38
474.844	199.38
475.063	200.38
475.282	198.38
475.501	216.38
475.72	244.38
475.939	236.38
476.158	219.38
476.377	255.38
476.596	290.38
476.814	282.38
477.033	266.38
477.252	209.38
477.471	212.38
477.69	206.38
477.908	210.38
478.127	223.38
478.346	224.38
478.564	248.38
478.783	227.38
479.002	203.38
479.22	244.38
479.439	278.38
479.658	218.38
479.876	217.38
480.095	222.38
480.313	226.38
480.532	218.38
480.751	225.38
480.969	212.38
481.188	248.38
481.406	240.38
481.624	238.38
481.843	218.38
482.061	209.38
482.28	245.38
482.498	281.38
482.717	271.38
482.935	242.38
483.153	218.38
483.372	223.38
483.59	215.38
483.808	218.38
484.027	212.38
484.245	186.38
484.463	193.38
484.681	182.38
484.9	209.38
485.118	215.38
485.336	222.38
485.554	223.38
485.772	234.38
485.99	230.38
486.209	239.38
486.427	242.38
486.645	219.38
486.863	232.38
487.081	239.38
487.299	272.38
487.517	264.38
487.735	222.38
487.953	219.38
488.171	244.38
488.389	209.38
488.607	199.38
488.825	227.38
489.043	251.38
489.261	274.38
489.479	322.38
489.696	231.38
489.914	230.38
490.132	217.38
490.35	221.38
490.568	224.38
490.786	203.38
491.003	220.38
491.221	216.38
491.439	209.38
491.657	204.38
491.874	220.38
492.092	281.38
492.31	344.38
492.527	335.38
492.745	289.38
492.963	264.38
493.18	252.38
493.398	246.38
493.615	250.38
493.833	225.38
494.05	227.38
494.268	243.38
494.485	237.38
494.703	222.38
494.92	238.38
495.138	232.38
495.355	247.38
495.573	235.38
495.79	256.38
496.008	353.38
496.225	294.38
496.442	240.38
496.66	239.38
496.877	250.38
497.094	242.38
497.312	234.38
497.529	241.38
497.746	266.38
497.963	257.38
498.181	255.38
498.398	277.38
498.615	310.38
498.832	338.38
499.049	319.38
499.267	312.38
499.484	299.38
499.701	297.38
499.918	342.38
500.135	377.38
500.352	374.38
500.569	395.38
500.786	380.38
501.003	385.38
501.22	363.38
501.437	351.38
501.654	326.38
501.871	311.38
502.088	312.38
502.305	279.38
502.522	272.38
502.739	277.38
