Data from NickelSpatula.Lamp.E5.5.P2_HRD10591_11-53-35-548.txt Node
Date: Tue Jul 23 11:53:35 EDT 2019
User: cochatt
Spectrometer: HR+D1059
Trigger mode: 1
Integration Time (sec): 1.000000E-1
Scans to average: 1
Electric dark correction enabled: true
Nonlinearity correction enabled: false
Boxcar width: 0
XAxis mode: Wavelengths
Number of Pixels in Spectrum: 2048
>>>>>Begin Spectral Data<<<<<
223.165	-2.44
223.4	-2.44
223.635	-2.44
223.869	-11.44
224.104	-25.44
224.338	-12.44
224.573	-18.44
224.808	-23.44
225.042	-27.44
225.277	-12.44
225.511	1.56
225.746	-2.44
225.98	12.56
226.215	14.56
226.449	28.56
226.683	28.56
226.918	22.56
227.152	27.56
227.387	48.56
227.621	30.56
227.856	45.56
228.09	54.56
228.324	51.56
228.559	47.56
228.793	58.56
229.027	77.56
229.262	65.56
229.496	89.56
229.73	83.56
229.964	95.56
230.199	101.56
230.433	101.56
230.667	102.56
230.901	92.56
231.136	90.56
231.37	98.56
231.604	96.56
231.838	97.56
232.072	126.56
232.306	101.56
232.541	96.56
232.775	95.56
233.009	103.56
233.243	135.56
233.477	112.56
233.711	118.56
233.945	115.56
234.179	113.56
234.413	103.56
234.647	120.56
234.881	148.56
235.115	138.56
235.349	131.56
235.583	114.56
235.817	118.56
236.051	139.56
236.285	138.56
236.519	142.56
236.753	136.56
236.987	126.56
237.221	118.56
237.455	132.56
237.689	136.56
237.922	150.56
238.156	141.56
238.39	141.56
238.624	162.56
238.858	156.56
239.091	153.56
239.325	135.56
239.559	130.56
239.793	156.56
240.027	172.56
240.26	158.56
240.494	156.56
240.728	154.56
240.961	182.56
241.195	186.56
241.429	175.56
241.662	159.56
241.896	140.56
242.13	146.56
242.363	131.56
242.597	120.56
242.83	151.56
243.064	153.56
243.298	165.56
243.531	174.56
243.765	162.56
243.998	153.56
244.232	159.56
244.465	187.56
244.699	156.56
244.932	175.56
245.166	166.56
245.399	149.56
245.633	142.56
245.866	145.56
246.099	155.56
246.333	177.56
246.566	180.56
246.8	197.56
247.033	189.56
247.266	194.56
247.5	189.56
247.733	175.56
247.966	150.56
248.2	174.56
248.433	188.56
248.666	203.56
248.899	193.56
249.133	194.56
249.366	226.56
249.599	244.56
249.832	210.56
250.066	200.56
250.299	202.56
250.532	185.56
250.765	205.56
250.998	197.56
251.231	190.56
251.465	202.56
251.698	204.56
251.931	189.56
252.164	215.56
252.397	219.56
252.63	239.56
252.863	267.56
253.096	261.56
253.329	261.56
253.562	248.56
253.795	253.56
254.028	299.56
254.261	290.56
254.494	273.56
254.727	269.56
254.96	254.56
255.193	280.56
255.426	279.56
255.659	196.56
255.892	218.56
256.124	187.56
256.357	233.56
256.59	275.56
256.823	259.56
257.056	236.56
257.289	209.56
257.521	221.56
257.754	266.56
257.987	307.56
258.22	261.56
258.452	243.56
258.685	265.56
258.918	288.56
259.151	283.56
259.383	289.56
259.616	329.56
259.849	333.56
260.081	360.56
260.314	377.56
260.547	324.56
260.779	342.56
261.012	370.56
261.244	361.56
261.477	351.56
261.71	316.56
261.942	271.56
262.175	290.56
262.407	271.56
262.64	292.56
262.872	328.56
263.105	344.56
263.337	350.56
263.57	318.56
263.802	230.56
264.035	205.56
264.267	203.56
264.499	179.56
264.732	186.56
264.964	178.56
265.197	181.56
265.429	200.56
265.661	201.56
265.894	196.56
266.126	206.56
266.358	235.56
266.591	276.56
266.823	316.56
267.055	312.56
267.287	284.56
267.52	266.56
267.752	286.56
267.984	312.56
268.216	317.56
268.448	244.56
268.681	247.56
268.913	261.56
269.145	300.56
269.377	297.56
269.609	293.56
269.841	263.56
270.073	294.56
270.306	288.56
270.538	301.56
270.77	315.56
271.002	310.56
271.234	334.56
271.466	317.56
271.698	331.56
271.93	310.56
272.162	302.56
272.394	323.56
272.626	295.56
272.858	318.56
273.09	312.56
273.322	287.56
273.553	253.56
273.785	302.56
274.017	374.56
274.249	472.56
274.481	501.56
274.713	519.56
274.945	608.56
275.176	621.56
275.408	537.56
275.64	494.56
275.872	525.56
276.104	452.56
276.335	406.56
276.567	391.56
276.799	408.56
277.031	411.56
277.262	342.56
277.494	272.56
277.726	279.56
277.957	281.56
278.189	305.56
278.421	323.56
278.652	291.56
278.884	291.56
279.115	281.56
279.347	265.56
279.579	273.56
279.81	285.56
280.042	298.56
280.273	272.56
280.505	255.56
280.736	231.56
280.968	226.56
281.199	252.56
281.431	275.56
281.662	266.56
281.894	257.56
282.125	265.56
282.356	302.56
282.588	302.56
282.819	248.56
283.051	284.56
283.282	353.56
283.513	414.56
283.745	435.56
283.976	440.56
284.207	408.56
284.439	434.56
284.67	409.56
284.901	356.56
285.132	399.56
285.364	427.56
285.595	380.56
285.826	415.56
286.057	428.56
286.288	406.56
286.52	394.56
286.751	416.56
286.982	398.56
287.213	373.56
287.444	366.56
287.675	378.56
287.906	386.56
288.138	337.56
288.369	297.56
288.6	304.56
288.831	303.56
289.062	353.56
289.293	377.56
289.524	355.56
289.755	348.56
289.986	368.56
290.217	325.56
290.448	253.56
290.679	229.56
290.91	198.56
291.141	210.56
291.371	225.56
291.602	223.56
291.833	239.56
292.064	231.56
292.295	269.56
292.526	285.56
292.757	295.56
292.987	313.56
293.218	338.56
293.449	355.56
293.68	376.56
293.91	343.56
294.141	367.56
294.372	355.56
294.603	320.56
294.833	320.56
295.064	412.56
295.295	391.56
295.525	287.56
295.756	277.56
295.987	224.56
296.217	221.56
296.448	239.56
296.679	262.56
296.909	263.56
297.14	283.56
297.37	299.56
297.601	302.56
297.831	278.56
298.062	274.56
298.292	300.56
298.523	319.56
298.753	365.56
298.984	320.56
299.214	277.56
299.445	246.56
299.675	246.56
299.905	237.56
300.136	239.56
300.366	255.56
300.597	253.56
300.827	225.56
301.057	230.56
301.288	248.56
301.518	239.56
301.748	279.56
301.979	286.56
302.209	307.56
302.439	301.56
302.669	287.56
302.9	272.56
303.13	252.56
303.36	251.56
303.59	247.56
303.82	252.56
304.051	286.56
304.281	275.56
304.511	283.56
304.741	255.56
304.971	268.56
305.201	296.56
305.431	273.56
305.661	242.56
305.891	237.56
306.121	229.56
306.352	226.56
306.582	202.56
306.812	206.56
307.042	197.56
307.272	198.56
307.502	201.56
307.731	213.56
307.961	232.56
308.191	193.56
308.421	193.56
308.651	199.56
308.881	191.56
309.111	190.56
309.341	197.56
309.571	201.56
309.8	204.56
310.03	207.56
310.26	237.56
310.49	214.56
310.72	200.56
310.949	207.56
311.179	212.56
311.409	218.56
311.639	238.56
311.868	310.56
312.098	343.56
312.328	396.56
312.557	387.56
312.787	383.56
313.017	345.56
313.246	377.56
313.476	392.56
313.706	344.56
313.935	274.56
314.165	245.56
314.394	208.56
314.624	221.56
314.853	222.56
315.083	243.56
315.312	219.56
315.542	224.56
315.771	213.56
316.001	188.56
316.23	204.56
316.46	197.56
316.689	215.56
316.919	195.56
317.148	199.56
317.377	211.56
317.607	189.56
317.836	217.56
318.065	252.56
318.295	266.56
318.524	253.56
318.753	222.56
318.983	217.56
319.212	205.56
319.441	215.56
319.67	236.56
319.9	253.56
320.129	244.56
320.358	209.56
320.587	206.56
320.816	218.56
321.046	259.56
321.275	254.56
321.504	259.56
321.733	265.56
321.962	254.56
322.191	239.56
322.42	227.56
322.649	230.56
322.878	262.56
323.108	243.56
323.337	236.56
323.566	235.56
323.795	237.56
324.024	229.56
324.253	217.56
324.482	248.56
324.71	251.56
324.939	244.56
325.168	256.56
325.397	224.56
325.626	204.56
325.855	232.56
326.084	213.56
326.313	218.56
326.542	213.56
326.77	204.56
326.999	215.56
327.228	225.56
327.457	224.56
327.686	211.56
327.914	206.56
328.143	205.56
328.372	204.56
328.6	199.56
328.829	189.56
329.058	198.56
329.287	192.56
329.515	189.56
329.744	215.56
329.972	205.56
330.201	184.56
330.43	196.56
330.658	209.56
330.887	236.56
331.115	239.56
331.344	229.56
331.572	216.56
331.801	208.56
332.03	211.56
332.258	222.56
332.486	228.56
332.715	228.56
332.943	199.56
333.172	221.56
333.4	216.56
333.629	229.56
333.857	270.56
334.085	243.56
334.314	253.56
334.542	247.56
334.771	215.56
334.999	218.56
335.227	231.56
335.455	221.56
335.684	257.56
335.912	268.56
336.14	292.56
336.369	278.56
336.597	276.56
336.825	310.56
337.053	320.56
337.281	280.56
337.51	221.56
337.738	251.56
337.966	255.56
338.194	268.56
338.422	245.56
338.65	220.56
338.878	220.56
339.106	194.56
339.334	240.56
339.562	249.56
339.79	216.56
340.018	211.56
340.246	237.56
340.474	254.56
340.702	278.56
340.93	280.56
341.158	277.56
341.386	238.56
341.614	236.56
341.842	243.56
342.07	248.56
342.298	270.56
342.526	282.56
342.754	267.56
342.981	236.56
343.209	237.56
343.437	241.56
343.665	262.56
343.893	260.56
344.12	293.56
344.348	334.56
344.576	322.56
344.804	275.56
345.031	224.56
345.259	233.56
345.487	233.56
345.714	230.56
345.942	239.56
346.17	257.56
346.397	252.56
346.625	236.56
346.853	221.56
347.08	212.56
347.308	228.56
347.535	263.56
347.763	267.56
347.99	230.56
348.218	212.56
348.445	231.56
348.673	223.56
348.9	238.56
349.128	253.56
349.355	239.56
349.583	237.56
349.81	239.56
350.037	215.56
350.265	214.56
350.492	194.56
350.72	196.56
350.947	201.56
351.174	207.56
351.402	217.56
351.629	224.56
351.856	205.56
352.083	219.56
352.311	228.56
352.538	230.56
352.765	233.56
352.992	236.56
353.22	241.56
353.447	212.56
353.674	221.56
353.901	226.56
354.128	227.56
354.355	219.56
354.583	216.56
354.81	227.56
355.037	242.56
355.264	224.56
355.491	214.56
355.718	226.56
355.945	257.56
356.172	233.56
356.399	245.56
356.626	276.56
356.853	325.56
357.08	346.56
357.307	360.56
357.534	294.56
357.761	291.56
357.988	358.56
358.215	405.56
358.441	365.56
358.668	325.56
358.895	307.56
359.122	287.56
359.349	277.56
359.576	319.56
359.802	267.56
360.029	212.56
360.256	242.56
360.483	287.56
360.709	341.56
360.936	343.56
361.163	309.56
361.39	251.56
361.616	227.56
361.843	257.56
362.07	282.56
362.296	280.56
362.523	249.56
362.749	212.56
362.976	219.56
363.203	249.56
363.429	293.56
363.656	226.56
363.882	224.56
364.109	227.56
364.335	228.56
364.562	219.56
364.788	245.56
365.015	256.56
365.241	282.56
365.468	208.56
365.694	214.56
365.92	201.56
366.147	189.56
366.373	189.56
366.599	204.56
366.826	202.56
367.052	216.56
367.278	192.56
367.505	205.56
367.731	192.56
367.957	237.56
368.184	215.56
368.41	227.56
368.636	246.56
368.862	243.56
369.089	229.56
369.315	204.56
369.541	200.56
369.767	221.56
369.993	212.56
370.219	204.56
370.445	212.56
370.672	247.56
370.898	238.56
371.124	246.56
371.35	213.56
371.576	218.56
371.802	223.56
372.028	248.56
372.254	275.56
372.48	253.56
372.706	243.56
372.932	251.56
373.158	260.56
373.384	276.56
373.61	365.56
373.835	358.56
374.061	278.56
374.287	259.56
374.513	299.56
374.739	333.56
374.965	350.56
375.191	348.56
375.416	268.56
375.642	255.56
375.868	266.56
376.094	284.56
376.319	241.56
376.545	295.56
376.771	305.56
376.997	239.56
377.222	193.56
377.448	194.56
377.674	185.56
377.899	184.56
378.125	190.56
378.35	205.56
378.576	205.56
378.802	192.56
379.027	219.56
379.253	243.56
379.478	213.56
379.704	232.56
379.929	243.56
380.155	256.56
380.38	224.56
380.606	219.56
380.831	257.56
381.057	255.56
381.282	224.56
381.507	259.56
381.733	295.56
381.958	301.56
382.184	325.56
382.409	339.56
382.634	377.56
382.86	338.56
383.085	312.56
383.31	247.56
383.535	280.56
383.761	271.56
383.986	272.56
384.211	306.56
384.436	287.56
384.662	251.56
384.887	243.56
385.112	238.56
385.337	260.56
385.562	229.56
385.787	253.56
386.013	283.56
386.238	270.56
386.463	248.56
386.688	238.56
386.913	220.56
387.138	205.56
387.363	232.56
387.588	239.56
387.813	225.56
388.038	251.56
388.263	232.56
388.488	220.56
388.713	249.56
388.938	268.56
389.163	237.56
389.387	218.56
389.612	211.56
389.837	201.56
390.062	223.56
390.287	239.56
390.512	239.56
390.736	232.56
390.961	216.56
391.186	221.56
391.411	213.56
391.636	221.56
391.86	215.56
392.085	252.56
392.31	261.56
392.534	220.56
392.759	217.56
392.984	246.56
393.208	232.56
393.433	211.56
393.658	221.56
393.882	194.56
394.107	208.56
394.331	206.56
394.556	194.56
394.78	208.56
395.005	205.56
395.229	230.56
395.454	243.56
395.678	227.56
395.903	234.56
396.127	210.56
396.352	204.56
396.576	218.56
396.801	229.56
397.025	245.56
397.249	271.56
397.474	220.56
397.698	220.56
397.922	217.56
398.147	230.56
398.371	198.56
398.595	223.56
398.82	251.56
399.044	259.56
399.268	257.56
399.492	278.56
399.717	288.56
399.941	290.56
400.165	275.56
400.389	239.56
400.613	259.56
400.837	249.56
401.062	220.56
401.286	217.56
401.51	223.56
401.734	233.56
401.958	219.56
402.182	228.56
402.406	214.56
402.63	243.56
402.854	253.56
403.078	278.56
403.302	358.56
403.526	348.56
403.75	341.56
403.974	269.56
404.198	288.56
404.422	292.56
404.645	308.56
404.869	341.56
405.093	295.56
405.317	254.56
405.541	263.56
405.765	263.56
405.988	238.56
406.212	256.56
406.436	277.56
406.66	320.56
406.883	256.56
407.107	271.56
407.331	322.56
407.555	296.56
407.778	280.56
408.002	275.56
408.226	252.56
408.449	258.56
408.673	261.56
408.896	241.56
409.12	241.56
409.344	227.56
409.567	223.56
409.791	238.56
410.014	235.56
410.238	242.56
410.461	223.56
410.685	244.56
410.908	227.56
411.132	237.56
411.355	253.56
411.578	242.56
411.802	247.56
412.025	239.56
412.249	232.56
412.472	240.56
412.695	247.56
412.919	213.56
413.142	230.56
413.365	245.56
413.589	248.56
413.812	242.56
414.035	228.56
414.258	224.56
414.482	266.56
414.705	259.56
414.928	230.56
415.151	218.56
415.374	227.56
415.597	223.56
415.821	225.56
416.044	230.56
416.267	232.56
416.49	219.56
416.713	228.56
416.936	232.56
417.159	208.56
417.382	210.56
417.605	230.56
417.828	222.56
418.051	227.56
418.274	247.56
418.497	235.56
418.72	242.56
418.943	256.56
419.166	242.56
419.389	266.56
419.611	231.56
419.834	258.56
420.057	257.56
420.28	265.56
420.503	255.56
420.726	223.56
420.948	223.56
421.171	232.56
421.394	211.56
421.617	227.56
421.839	220.56
422.062	229.56
422.285	228.56
422.507	219.56
422.73	232.56
422.953	237.56
423.175	216.56
423.398	232.56
423.621	241.56
423.843	266.56
424.066	245.56
424.288	255.56
424.511	231.56
424.733	230.56
424.956	238.56
425.178	247.56
425.401	284.56
425.623	325.56
425.846	294.56
426.068	235.56
426.291	249.56
426.513	261.56
426.735	224.56
426.958	239.56
427.18	263.56
427.402	348.56
427.625	360.56
427.847	287.56
428.069	238.56
428.292	228.56
428.514	238.56
428.736	239.56
428.958	246.56
429.181	290.56
429.403	252.56
429.625	207.56
429.847	219.56
430.069	230.56
430.292	215.56
430.514	239.56
430.736	242.56
430.958	249.56
431.18	257.56
431.402	225.56
431.624	206.56
431.846	211.56
432.068	211.56
432.29	228.56
432.512	240.56
432.734	288.56
432.956	276.56
433.178	221.56
433.4	228.56
433.622	207.56
433.844	215.56
434.066	240.56
434.287	219.56
434.509	219.56
434.731	256.56
434.953	234.56
435.175	249.56
435.397	289.56
435.618	222.56
435.84	199.56
436.062	211.56
436.284	208.56
436.505	217.56
436.727	207.56
436.949	216.56
437.17	211.56
437.392	219.56
437.614	214.56
437.835	209.56
438.057	212.56
438.278	241.56
438.5	311.56
438.721	320.56
438.943	238.56
439.165	197.56
439.386	201.56
439.608	183.56
439.829	207.56
440.05	200.56
440.272	221.56
440.493	235.56
440.715	283.56
440.936	244.56
441.158	208.56
441.379	220.56
441.6	247.56
441.822	261.56
442.043	227.56
442.264	232.56
442.486	235.56
442.707	232.56
442.928	215.56
443.149	224.56
443.371	221.56
443.592	248.56
443.813	243.56
444.034	247.56
444.255	236.56
444.476	252.56
444.698	248.56
444.919	270.56
445.14	343.56
445.361	303.56
445.582	257.56
445.803	244.56
446.024	244.56
446.245	242.56
446.466	222.56
446.687	237.56
446.908	230.56
447.129	197.56
447.35	212.56
447.571	197.56
447.792	210.56
448.013	220.56
448.234	210.56
448.455	189.56
448.675	204.56
448.896	209.56
449.117	221.56
449.338	206.56
449.559	212.56
449.779	208.56
450	225.56
450.221	209.56
450.442	217.56
450.662	222.56
450.883	214.56
451.104	205.56
451.324	227.56
451.545	201.56
451.766	235.56
451.986	212.56
452.207	213.56
452.428	212.56
452.648	214.56
452.869	212.56
453.089	219.56
453.31	211.56
453.53	209.56
453.751	191.56
453.971	209.56
454.192	203.56
454.412	212.56
454.633	209.56
454.853	207.56
455.073	203.56
455.294	199.56
455.514	193.56
455.734	205.56
455.955	213.56
456.175	202.56
456.395	194.56
456.616	196.56
456.836	185.56
457.056	182.56
457.276	184.56
457.497	190.56
457.717	203.56
457.937	190.56
458.157	196.56
458.377	195.56
458.598	198.56
458.818	199.56
459.038	190.56
459.258	219.56
459.478	226.56
459.698	238.56
459.918	225.56
460.138	243.56
460.358	235.56
460.578	223.56
460.798	249.56
461.018	239.56
461.238	231.56
461.458	236.56
461.678	232.56
461.898	243.56
462.118	241.56
462.338	236.56
462.558	252.56
462.777	259.56
462.997	259.56
463.217	296.56
463.437	302.56
463.657	265.56
463.876	259.56
464.096	263.56
464.316	251.56
464.536	268.56
464.755	277.56
464.975	259.56
465.195	260.56
465.414	269.56
465.634	240.56
465.854	235.56
466.073	215.56
466.293	209.56
466.512	232.56
466.732	231.56
466.951	256.56
467.171	233.56
467.391	219.56
467.61	202.56
467.829	215.56
468.049	222.56
468.268	218.56
468.488	201.56
468.707	221.56
468.927	239.56
469.146	253.56
469.365	254.56
469.585	236.56
469.804	238.56
470.023	264.56
470.243	234.56
470.462	236.56
470.681	227.56
470.901	240.56
471.12	225.56
471.339	227.56
471.558	209.56
471.777	220.56
471.997	239.56
472.216	262.56
472.435	255.56
472.654	243.56
472.873	231.56
473.092	251.56
473.311	248.56
473.53	239.56
473.749	219.56
473.968	233.56
474.187	242.56
474.406	220.56
474.625	240.56
474.844	226.56
475.063	244.56
475.282	236.56
475.501	253.56
475.72	279.56
475.939	263.56
476.158	261.56
476.377	277.56
476.596	322.56
476.814	341.56
477.033	311.56
477.252	253.56
477.471	218.56
477.69	235.56
477.908	275.56
478.127	272.56
478.346	252.56
478.564	282.56
478.783	268.56
479.002	270.56
479.22	283.56
479.439	318.56
479.658	300.56
479.876	281.56
480.095	292.56
480.313	294.56
480.532	271.56
480.751	265.56
480.969	267.56
481.188	292.56
481.406	291.56
481.624	278.56
481.843	271.56
482.061	269.56
482.28	283.56
482.498	335.56
482.717	333.56
482.935	278.56
483.153	264.56
483.372	245.56
483.59	223.56
483.808	257.56
484.027	259.56
484.245	219.56
484.463	250.56
484.681	245.56
484.9	260.56
485.118	307.56
485.336	278.56
485.554	253.56
485.772	289.56
485.99	275.56
486.209	290.56
486.427	285.56
486.645	296.56
486.863	291.56
487.081	296.56
487.299	305.56
487.517	293.56
487.735	278.56
487.953	279.56
488.171	289.56
488.389	265.56
488.607	256.56
488.825	272.56
489.043	291.56
489.261	310.56
489.479	305.56
489.696	284.56
489.914	283.56
490.132	255.56
490.35	260.56
490.568	268.56
490.786	259.56
491.003	271.56
491.221	263.56
491.439	263.56
491.657	244.56
491.874	270.56
492.092	303.56
492.31	366.56
492.527	347.56
492.745	315.56
492.963	294.56
493.18	305.56
493.398	293.56
493.615	308.56
493.833	311.56
494.05	279.56
494.268	286.56
494.485	280.56
494.703	256.56
494.92	269.56
495.138	276.56
495.355	290.56
495.573	285.56
495.79	287.56
496.008	348.56
496.225	304.56
496.442	279.56
496.66	307.56
496.877	305.56
497.094	332.56
497.312	300.56
497.529	274.56
497.746	295.56
497.963	296.56
498.181	332.56
498.398	355.56
498.615	345.56
498.832	337.56
499.049	390.56
499.267	365.56
499.484	387.56
499.701	399.56
499.918	435.56
500.135	481.56
500.352	499.56
500.569	535.56
500.786	548.56
501.003	500.56
501.22	449.56
501.437	405.56
501.654	411.56
501.871	376.56
502.088	367.56
502.305	358.56
502.522	330.56
