Data from NickelSpatula_HRD10591_16-35-35-126.txt Node
Date: Mon Jul 22 16:35:35 EDT 2019
User: cochatt
Spectrometer: HR+D1059
Trigger mode: 1
Integration Time (sec): 1.000000E-1
Scans to average: 1
Electric dark correction enabled: true
Nonlinearity correction enabled: false
Boxcar width: 0
XAxis mode: Wavelengths
Number of Pixels in Spectrum: 2048
>>>>>Begin Spectral Data<<<<<
223.165	-17
223.4	-17
223.635	-17
223.869	-14
224.104	-17
224.338	-12
224.573	-6
224.808	-12
225.042	-13
225.277	-1
225.511	2
225.746	8
225.98	1
226.215	6
226.449	10
226.683	21
226.918	20
227.152	24
227.387	37
227.621	36
227.856	49
228.09	62
228.324	50
228.559	39
228.793	65
229.027	62
229.262	87
229.496	78
229.73	86
229.964	85
230.199	92
230.433	98
230.667	94
230.901	93
231.136	94
231.37	92
231.604	96
231.838	97
232.072	107
232.306	103
232.541	96
232.775	119
233.009	96
233.243	105
233.477	110
233.711	96
233.945	108
234.179	107
234.413	90
234.647	119
234.881	130
235.115	121
235.349	122
235.583	118
235.817	112
236.051	116
236.285	113
236.519	117
236.753	137
236.987	120
237.221	130
237.455	126
237.689	109
237.922	115
238.156	121
238.39	133
238.624	165
238.858	136
239.091	134
239.325	125
239.559	127
239.793	138
240.027	155
240.26	152
240.494	136
240.728	144
240.961	150
241.195	147
241.429	158
241.662	151
241.896	125
242.13	118
242.363	118
242.597	133
242.83	158
243.064	138
243.298	158
243.531	144
243.765	168
243.998	160
244.232	155
244.465	154
244.699	167
244.932	145
245.166	144
245.399	133
245.633	142
245.866	128
246.099	162
246.333	162
246.566	175
246.8	169
247.033	155
247.266	167
247.5	167
247.733	156
247.966	151
248.2	182
248.433	172
248.666	176
248.899	171
249.133	172
249.366	193
249.599	223
249.832	192
250.066	184
250.299	186
250.532	175
250.765	184
250.998	178
251.231	167
251.465	169
251.698	179
251.931	187
252.164	157
252.397	189
252.63	211
252.863	214
253.096	227
253.329	218
253.562	204
253.795	241
254.028	259
254.261	271
254.494	231
254.727	243
254.96	239
255.193	263
255.426	228
255.659	184
255.892	198
256.124	187
256.357	198
256.59	231
256.823	218
257.056	186
257.289	187
257.521	215
257.754	229
257.987	259
258.22	229
258.452	220
258.685	236
258.918	237
259.151	259
259.383	260
259.616	302
259.849	297
260.081	305
260.314	324
260.547	288
260.779	287
261.012	312
261.244	312
261.477	323
261.71	282
261.942	247
262.175	243
262.407	246
262.64	247
262.872	278
263.105	300
263.337	300
263.57	279
263.802	227
264.035	194
264.267	223
264.499	169
264.732	151
264.964	163
265.197	169
265.429	178
265.661	187
265.894	197
266.126	194
266.358	222
266.591	250
266.823	291
267.055	288
267.287	268
267.52	252
267.752	258
267.984	264
268.216	263
268.448	248
268.681	253
268.913	231
269.145	261
269.377	275
269.609	249
269.841	244
270.073	255
270.306	291
270.538	275
270.77	283
271.002	306
271.234	288
271.466	293
271.698	273
271.93	264
272.162	262
272.394	279
272.626	287
272.858	284
273.09	279
273.322	239
273.553	229
273.785	281
274.017	349
274.249	391
274.481	398
274.713	448
274.945	503
275.176	504
275.408	467
275.64	448
275.872	449
276.104	382
276.335	338
276.567	360
276.799	366
277.031	369
277.262	307
277.494	246
277.726	246
277.957	259
278.189	276
278.421	266
278.652	254
278.884	264
279.115	244
279.347	237
279.579	248
279.81	229
280.042	239
280.273	243
280.505	235
280.736	201
280.968	202
281.199	222
281.431	248
281.662	258
281.894	229
282.125	257
282.356	267
282.588	259
282.819	240
283.051	266
283.282	303
283.513	354
283.745	368
283.976	374
284.207	328
284.439	376
284.67	359
284.901	315
285.132	337
285.364	370
285.595	327
285.826	346
286.057	374
286.288	347
286.52	366
286.751	352
286.982	356
287.213	338
287.444	310
287.675	331
287.906	334
288.138	300
288.369	268
288.6	262
288.831	255
289.062	305
289.293	318
289.524	314
289.755	290
289.986	305
290.217	272
290.448	216
290.679	194
290.91	178
291.141	185
291.371	193
291.602	195
291.833	190
292.064	207
292.295	229
292.526	260
292.757	276
292.987	263
293.218	290
293.449	290
293.68	329
293.91	304
294.141	307
294.372	293
294.603	258
294.833	303
295.064	325
295.295	324
295.525	258
295.756	210
295.987	205
296.217	193
296.448	182
296.679	203
296.909	212
297.14	227
297.37	264
297.601	243
297.831	223
298.062	226
298.292	237
298.523	275
298.753	299
298.984	295
299.214	235
299.445	204
299.675	193
299.905	182
300.136	189
300.366	218
300.597	203
300.827	193
301.057	188
301.288	180
301.518	204
301.748	228
301.979	215
302.209	252
302.439	229
302.669	232
302.9	228
303.13	240
303.36	219
303.59	217
303.82	220
304.051	217
304.281	259
304.511	248
304.741	214
304.971	226
305.201	222
305.431	215
305.661	182
305.891	188
306.121	190
306.352	172
306.582	154
306.812	155
307.042	170
307.272	155
307.502	162
307.731	167
307.961	175
308.191	175
308.421	165
308.651	171
308.881	167
309.111	156
309.341	157
309.571	187
309.8	171
310.03	177
310.26	188
310.49	179
310.72	158
310.949	183
311.179	174
311.409	182
311.639	201
311.868	236
312.098	308
312.328	336
312.557	313
312.787	319
313.017	299
313.246	307
313.476	319
313.706	295
313.935	234
314.165	193
314.394	179
314.624	182
314.853	185
315.083	196
315.312	196
315.542	181
315.771	195
316.001	171
316.23	148
316.46	159
316.689	158
316.919	174
317.148	179
317.377	171
317.607	168
317.836	179
318.065	197
318.295	217
318.524	212
318.753	175
318.983	167
319.212	171
319.441	188
319.67	197
319.9	216
320.129	229
320.358	172
320.587	164
320.816	182
321.046	187
321.275	229
321.504	222
321.733	217
321.962	216
322.191	199
322.42	180
322.649	184
322.878	202
323.108	212
323.337	204
323.566	209
323.795	199
324.024	212
324.253	198
324.482	188
324.71	208
324.939	189
325.168	197
325.397	183
325.626	162
325.855	184
326.084	178
326.313	187
326.542	146
326.77	174
326.999	159
327.228	185
327.457	176
327.686	186
327.914	171
328.143	146
328.372	146
328.6	162
328.829	175
329.058	165
329.287	162
329.515	165
329.744	165
329.972	170
330.201	175
330.43	174
330.658	181
330.887	169
331.115	190
331.344	188
331.572	183
331.801	177
332.03	175
332.258	180
332.486	171
332.715	192
332.943	150
333.172	174
333.4	176
333.629	188
333.857	198
334.085	201
334.314	209
334.542	196
334.771	176
334.999	184
335.227	181
335.455	154
335.684	189
335.912	218
336.14	215
336.369	224
336.597	230
336.825	239
337.053	259
337.281	223
337.51	174
337.738	192
337.966	189
338.194	196
338.422	191
338.65	190
338.878	168
339.106	166
339.334	170
339.562	208
339.79	176
340.018	184
340.246	193
340.474	205
340.702	217
340.93	203
341.158	225
341.386	193
341.614	178
341.842	180
342.07	183
342.298	258
342.526	231
342.754	204
342.981	178
343.209	180
343.437	193
343.665	200
343.893	199
344.12	226
344.348	274
344.576	267
344.804	214
345.031	186
345.259	163
345.487	172
345.714	187
345.942	189
346.17	216
346.397	208
346.625	180
346.853	203
347.08	182
347.308	183
347.535	190
347.763	216
347.99	198
348.218	188
348.445	186
348.673	186
348.9	179
349.128	195
349.355	174
349.583	192
349.81	178
350.037	170
350.265	154
350.492	148
350.72	143
350.947	144
351.174	176
351.402	171
351.629	172
351.856	177
352.083	175
352.311	170
352.538	175
352.765	194
352.992	189
353.22	188
353.447	174
353.674	181
353.901	179
354.128	180
354.355	186
354.583	177
354.81	197
355.037	190
355.264	171
355.491	180
355.718	205
355.945	196
356.172	171
356.399	179
356.626	216
356.853	260
357.08	271
357.307	277
357.534	224
357.761	234
357.988	259
358.215	304
358.441	278
358.668	255
358.895	235
359.122	218
359.349	201
359.576	229
359.802	191
360.029	175
360.256	177
360.483	190
360.709	260
360.936	272
361.163	223
361.39	187
361.616	164
361.843	206
362.07	236
362.296	223
362.523	171
362.749	165
362.976	190
363.203	190
363.429	196
363.656	187
363.882	180
364.109	185
364.335	190
364.562	187
364.788	197
365.015	208
365.241	199
365.468	178
365.694	174
365.92	148
366.147	150
366.373	147
366.599	148
366.826	141
367.052	155
367.278	157
367.505	140
367.731	151
367.957	186
368.184	187
368.41	160
368.636	174
368.862	186
369.089	167
369.315	164
369.541	164
369.767	166
369.993	156
370.219	160
370.445	174
370.672	180
370.898	204
371.124	185
371.35	183
371.576	172
371.802	174
372.028	182
372.254	212
372.48	192
372.706	179
372.932	190
373.158	179
373.384	206
373.61	256
373.835	269
374.061	202
374.287	193
374.513	224
374.739	257
374.965	252
375.191	257
375.416	181
375.642	163
375.868	196
376.094	214
376.319	176
376.545	200
376.771	208
376.997	184
377.222	150
377.448	145
377.674	159
377.899	156
378.125	146
378.35	153
378.576	153
378.802	159
379.027	162
379.253	177
379.478	167
379.704	190
379.929	194
380.155	180
380.38	187
380.606	167
380.831	199
381.057	183
381.282	186
381.507	193
381.733	223
381.958	223
382.184	243
382.409	273
382.634	263
382.86	262
383.085	230
383.31	190
383.535	212
383.761	200
383.986	191
384.211	231
384.436	236
384.662	196
384.887	188
385.112	182
385.337	197
385.562	176
385.787	175
386.013	210
386.238	192
386.463	182
386.688	185
386.913	175
387.138	160
387.363	165
387.588	181
387.813	186
388.038	193
388.263	170
388.488	183
388.713	185
388.938	201
389.163	172
389.387	170
389.612	197
389.837	167
390.062	163
390.287	192
390.512	183
390.736	176
390.961	177
391.186	153
391.411	153
391.636	188
391.86	180
392.085	178
392.31	186
392.534	183
392.759	175
392.984	179
393.208	190
393.433	171
393.658	140
393.882	151
394.107	159
394.331	159
394.556	145
394.78	161
395.005	160
395.229	163
395.454	155
395.678	166
395.903	175
396.127	152
396.352	192
396.576	184
396.801	194
397.025	195
397.249	215
397.474	178
397.698	169
397.922	177
398.147	162
398.371	171
398.595	191
398.82	182
399.044	185
399.268	178
399.492	196
399.717	204
399.941	197
400.165	189
400.389	179
400.613	184
400.837	178
401.062	165
401.286	160
401.51	179
401.734	165
401.958	197
402.182	176
402.406	166
402.63	166
402.854	185
403.078	204
403.302	244
403.526	243
403.75	238
403.974	212
404.198	208
404.422	225
404.645	243
404.869	239
405.093	220
405.317	174
405.541	192
405.765	212
405.988	194
406.212	201
406.436	220
406.66	219
406.883	186
407.107	175
407.331	231
407.555	219
407.778	195
408.002	197
408.226	217
408.449	192
408.673	216
408.896	171
409.12	179
409.344	181
409.567	176
409.791	172
410.014	165
410.238	160
410.461	174
410.685	163
410.908	184
411.132	182
411.355	185
411.578	182
411.802	165
412.025	186
412.249	180
412.472	183
412.695	190
412.919	179
413.142	184
413.365	189
413.589	197
413.812	178
414.035	167
414.258	171
414.482	194
414.705	196
414.928	168
415.151	158
415.374	162
415.597	168
415.821	189
416.044	177
416.267	157
416.49	159
416.713	165
416.936	164
417.159	162
417.382	153
417.605	170
417.828	187
418.051	182
418.274	179
418.497	168
418.72	176
418.943	168
419.166	176
419.389	182
419.611	176
419.834	180
420.057	195
420.28	193
420.503	195
420.726	177
420.948	155
421.171	179
421.394	159
421.617	175
421.839	178
422.062	178
422.285	176
422.507	200
422.73	170
422.953	188
423.175	171
423.398	182
423.621	186
423.843	209
424.066	174
424.288	198
424.511	170
424.733	176
424.956	184
425.178	186
425.401	228
425.623	272
425.846	212
426.068	186
426.291	213
426.513	187
426.735	165
426.958	188
427.18	208
427.402	264
427.625	268
427.847	227
428.069	170
428.292	169
428.514	165
428.736	168
428.958	166
429.181	214
429.403	205
429.625	192
429.847	176
430.069	187
430.292	176
430.514	172
430.736	194
430.958	213
431.18	196
431.402	167
431.624	150
431.846	167
432.068	160
432.29	161
432.512	186
432.734	217
432.956	208
433.178	166
433.4	165
433.622	158
433.844	175
434.066	186
434.287	184
434.509	171
434.731	189
434.953	167
435.175	184
435.397	209
435.618	175
435.84	175
436.062	168
436.284	176
436.505	151
436.727	158
436.949	154
437.17	176
437.392	170
437.614	164
437.835	170
438.057	174
438.278	174
438.5	231
438.721	227
438.943	178
439.165	163
439.386	163
439.608	164
439.829	163
440.05	155
440.272	167
440.493	183
440.715	199
440.936	195
441.158	163
441.379	164
441.6	188
441.822	204
442.043	194
442.264	168
442.486	170
442.707	185
442.928	160
443.149	174
443.371	174
443.592	170
443.813	184
444.034	169
444.255	190
444.476	187
444.698	174
444.919	181
445.14	302
445.361	237
445.582	203
445.803	196
446.024	189
446.245	183
446.466	176
446.687	175
446.908	176
447.129	154
447.35	174
447.571	167
447.792	153
448.013	152
448.234	143
448.455	147
448.675	177
448.896	168
449.117	156
449.338	159
449.559	164
449.779	167
450	186
450.221	180
450.442	182
450.662	154
450.883	159
451.104	174
451.324	144
451.545	166
451.766	166
451.986	174
452.207	181
452.428	161
452.648	164
452.869	174
453.089	178
453.31	162
453.53	172
453.751	166
453.971	154
454.192	175
454.412	182
454.633	163
454.853	158
455.073	151
455.294	157
455.514	170
455.734	163
455.955	172
456.175	179
456.395	156
456.616	146
456.836	144
457.056	161
457.276	136
457.497	145
457.717	148
457.937	168
458.157	154
458.377	143
458.598	165
458.818	156
459.038	167
459.258	160
459.478	174
459.698	199
459.918	187
460.138	170
460.358	170
460.578	178
460.798	174
461.018	191
461.238	165
461.458	185
461.678	172
461.898	183
462.118	169
462.338	178
462.558	174
462.777	186
462.997	193
463.217	197
463.437	215
463.657	188
463.876	191
464.096	190
464.316	189
464.536	182
464.755	193
464.975	216
465.195	184
465.414	211
465.634	193
465.854	194
466.073	163
466.293	172
466.512	186
466.732	194
466.951	211
467.171	175
467.391	187
467.61	175
467.829	176
468.049	171
468.268	147
468.488	186
468.707	178
468.927	192
469.146	199
469.365	196
469.585	180
469.804	185
470.023	189
470.243	175
470.462	193
470.681	161
470.901	178
471.12	193
471.339	204
471.558	172
471.777	166
471.997	183
472.216	198
472.435	220
472.654	198
472.873	185
473.092	185
473.311	192
473.53	184
473.749	178
473.968	192
474.187	190
474.406	172
474.625	168
474.844	188
475.063	204
475.282	206
475.501	222
475.72	213
475.939	227
476.158	190
476.377	234
476.596	268
476.814	276
477.033	244
477.252	195
477.471	188
477.69	200
477.908	208
478.127	209
478.346	195
478.564	246
478.783	208
479.002	192
479.22	232
479.439	230
479.658	218
479.876	203
480.095	200
480.313	224
480.532	209
480.751	196
480.969	204
481.188	233
481.406	224
481.624	216
481.843	222
482.061	204
482.28	205
482.498	291
482.717	288
482.935	212
483.153	202
483.372	206
483.59	195
483.808	192
484.027	198
484.245	183
484.463	174
484.681	203
484.9	190
485.118	219
485.336	200
485.554	185
485.772	213
485.99	223
486.209	229
486.427	236
486.645	198
486.863	219
487.081	204
487.299	257
487.517	236
487.735	206
487.953	211
488.171	225
488.389	200
488.607	197
488.825	223
489.043	234
489.261	260
489.479	268
489.696	222
489.914	202
490.132	201
490.35	203
490.568	200
490.786	199
491.003	211
491.221	218
491.439	212
491.657	208
491.874	201
492.092	255
492.31	308
492.527	311
492.745	254
492.963	214
493.18	222
493.398	225
493.615	239
493.833	238
494.05	220
494.268	219
494.485	228
494.703	213
494.92	226
495.138	226
495.355	206
495.573	213
495.79	242
496.008	315
496.225	260
496.442	224
496.66	244
496.877	226
497.094	247
497.312	214
497.529	214
497.746	238
497.963	234
498.181	246
498.398	262
498.615	268
498.832	287
499.049	282
499.267	275
499.484	259
499.701	275
499.918	300
500.135	324
500.352	326
500.569	346
500.786	361
501.003	347
501.22	306
501.437	295
501.654	278
501.871	296
502.088	262
502.305	271
502.522	252
502.739	246
502.956	247
503.172	252
503.389	233
503.606	217
503.823	235
504.04	240
504.256	235
504.473	238
504.69	233
504.907	238
505.123	236
505.34	254
505.557	245
505.773	230
505.99	213
506.207	243
506.423	216
506.64	222
506.856	234
507.073	247
507.289	231
507.506	235
507.722	266
507.939	250
508.155	255
508.372	230
508.588	232
508.805	216
509.021	229
509.238	229
509.454	201
509.67	200
509.887	211
510.103	234
510.319	212
510.536	207
510.752	195
510.968	206
511.184	199
511.401	184
511.617	192
511.833	199
512.049	200
512.265	199
512.481	207
512.698	229
512.914	239
513.13	216
513.346	204
513.562	217
513.778	216
513.994	219
514.21	241
514.426	236
514.642	204
514.858	193
515.074	222
515.29	255
515.506	257
515.721	244
515.937	226
516.153	207
516.369	211
516.585	217
516.801	245
517.016	292
517.232	265
517.448	263
517.664	264
517.879	233
518.095	251
518.311	234
518.527	239
518.742	240
518.958	256
519.173	264
519.389	263
519.605	261
519.82	274
520.036	276
520.251	282
520.467	310
520.682	453
520.898	530
521.113	507
521.329	302
521.544	262
521.76	263
521.975	239
522.19	234
522.406	252
522.621	276
522.836	269
523.052	281
523.267	214
523.482	214
523.698	265
523.913	267
524.128	240
524.343	223
524.559	210
524.774	216
524.989	228
525.204	217
525.419	208
525.634	211
525.849	243
526.064	225
526.28	235
526.495	264
526.71	272
526.925	264
527.14	257
527.355	258
527.57	233
527.785	234
527.999	216
528.214	205
528.429	197
528.644	200
528.859	203
529.074	204
529.289	184
529.503	196
529.718	198
529.933	263
530.148	252
530.363	222
530.577	200
530.792	200
531.007	196
531.221	193
531.436	200
531.651	198
531.865	201
532.08	207
532.295	187
532.509	182
532.724	230
532.938	253
533.153	308
533.367	238
533.582	229
533.796	190
534.011	208
534.225	206
534.44	217
534.654	214
534.868	274
535.083	234
535.297	218
535.511	202
535.726	220
535.94	201
536.154	183
536.369	208
536.583	194
536.797	186
537.011	198
537.225	210
537.44	221
537.654	178
537.868	197
538.082	202
538.296	200
538.51	203
538.724	210
538.938	190
539.153	172
539.367	180
539.581	193
539.795	206
540.009	230
540.222	206
540.436	203
540.65	218
540.864	232
541.078	233
541.292	261
541.506	208
541.72	206
541.934	194
542.147	200
542.361	196
542.575	215
542.789	194
543.002	181
543.216	226
543.43	180
543.644	199
543.857	188
544.071	185
544.285	187
544.498	186
544.712	183
544.925	213
545.139	204
545.352	190
545.566	172
545.779	201
545.993	194
546.206	195
546.42	186
546.633	174
546.847	190
547.06	179
547.274	174
547.487	184
547.7	182
547.914	193
548.127	198
548.34	202
548.554	175
548.767	167
548.98	197
549.193	176
549.407	198
549.62	232
549.833	220
550.046	218
550.259	199
550.473	210
550.686	181
550.899	215
551.112	192
551.325	208
551.538	195
551.751	181
551.964	191
552.177	182
552.39	180
552.603	185
552.816	186
553.029	177
553.242	189
553.455	184
553.667	201
553.88	190
554.093	186
554.306	176
554.519	159
554.732	168
554.944	151
555.157	154
555.37	172
555.583	158
555.795	165
556.008	164
556.221	196
556.433	168
556.646	160
556.859	176
557.071	166
557.284	167
557.496	197
557.709	175
557.921	168
558.134	169
558.346	159
558.559	157
558.771	167
558.984	164
559.196	172
559.409	153
559.621	166
559.833	161
560.046	157
560.258	160
560.47	170
560.683	146
560.895	162
561.107	141
561.32	162
561.532	164
561.744	175
561.956	166
562.168	152
562.381	154
562.593	152
562.805	178
563.017	155
563.229	169
563.441	147
563.653	159
563.865	164
564.077	147
564.289	158
564.501	167
