Data from NickelSpatula_HRD10591_16-35-01-126.txt Node
Date: Mon Jul 22 16:35:01 EDT 2019
User: cochatt
Spectrometer: HR+D1059
Trigger mode: 1
Integration Time (sec): 1.000000E-1
Scans to average: 1
Electric dark correction enabled: true
Nonlinearity correction enabled: false
Boxcar width: 0
XAxis mode: Wavelengths
Number of Pixels in Spectrum: 2048
>>>>>Begin Spectral Data<<<<<
223.165	-16.69
223.4	-16.69
223.635	-16.69
223.869	-8.69
224.104	-28.69
224.338	-8.69
224.573	-23.69
224.808	-8.69
225.042	-12.69
225.277	17.31
225.511	7.31
225.746	-4.69
225.98	-2.69
226.215	8.31
226.449	11.31
226.683	18.31
226.918	11.31
227.152	41.31
227.387	35.31
227.621	38.31
227.856	42.31
228.09	48.31
228.324	49.31
228.559	54.31
228.793	58.31
229.027	70.31
229.262	82.31
229.496	62.31
229.73	82.31
229.964	73.31
230.199	96.31
230.433	93.31
230.667	106.31
230.901	101.31
231.136	99.31
231.37	93.31
231.604	83.31
231.838	101.31
232.072	98.31
232.306	120.31
232.541	105.31
232.775	101.31
233.009	104.31
233.243	110.31
233.477	128.31
233.711	127.31
233.945	119.31
234.179	115.31
234.413	122.31
234.647	115.31
234.881	127.31
235.115	137.31
235.349	135.31
235.583	128.31
235.817	117.31
236.051	127.31
236.285	143.31
236.519	142.31
236.753	131.31
236.987	135.31
237.221	136.31
237.455	119.31
237.689	125.31
237.922	151.31
238.156	127.31
238.39	148.31
238.624	161.31
238.858	155.31
239.091	152.31
239.325	139.31
239.559	145.31
239.793	159.31
240.027	171.31
240.26	156.31
240.494	151.31
240.728	147.31
240.961	179.31
241.195	157.31
241.429	160.31
241.662	166.31
241.896	139.31
242.13	145.31
242.363	133.31
242.597	135.31
242.83	155.31
243.064	161.31
243.298	172.31
243.531	179.31
243.765	161.31
243.998	173.31
244.232	154.31
244.465	162.31
244.699	154.31
244.932	175.31
245.166	157.31
245.399	156.31
245.633	158.31
245.866	149.31
246.099	166.31
246.333	189.31
246.566	192.31
246.8	191.31
247.033	194.31
247.266	181.31
247.5	177.31
247.733	187.31
247.966	179.31
248.2	179.31
248.433	189.31
248.666	178.31
248.899	196.31
249.133	198.31
249.366	232.31
249.599	226.31
249.832	215.31
250.066	210.31
250.299	213.31
250.532	209.31
250.765	204.31
250.998	179.31
251.231	187.31
251.465	205.31
251.698	199.31
251.931	196.31
252.164	205.31
252.397	226.31
252.63	231.31
252.863	268.31
253.096	257.31
253.329	262.31
253.562	268.31
253.795	267.31
254.028	300.31
254.261	307.31
254.494	283.31
254.727	266.31
254.96	262.31
255.193	264.31
255.426	260.31
255.659	198.31
255.892	196.31
256.124	203.31
256.357	229.31
256.59	260.31
256.823	265.31
257.056	227.31
257.289	200.31
257.521	232.31
257.754	259.31
257.987	283.31
258.22	247.31
258.452	223.31
258.685	259.31
258.918	270.31
259.151	274.31
259.383	293.31
259.616	309.31
259.849	318.31
260.081	331.31
260.314	351.31
260.547	309.31
260.779	320.31
261.012	335.31
261.244	340.31
261.477	370.31
261.71	337.31
261.942	295.31
262.175	293.31
262.407	272.31
262.64	281.31
262.872	313.31
263.105	336.31
263.337	373.31
263.57	319.31
263.802	236.31
264.035	215.31
264.267	207.31
264.499	194.31
264.732	170.31
264.964	187.31
265.197	187.31
265.429	202.31
265.661	200.31
265.894	203.31
266.126	204.31
266.358	220.31
266.591	270.31
266.823	314.31
267.055	301.31
267.287	278.31
267.52	281.31
267.752	293.31
267.984	317.31
268.216	332.31
268.448	259.31
268.681	247.31
268.913	270.31
269.145	285.31
269.377	294.31
269.609	307.31
269.841	278.31
270.073	296.31
270.306	301.31
270.538	299.31
270.77	322.31
271.002	300.31
271.234	308.31
271.466	329.31
271.698	305.31
271.93	322.31
272.162	298.31
272.394	273.31
272.626	292.31
272.858	312.31
273.09	299.31
273.322	273.31
273.553	267.31
273.785	316.31
274.017	373.31
274.249	459.31
274.481	472.31
274.713	476.31
274.945	572.31
275.176	571.31
275.408	529.31
275.64	491.31
275.872	487.31
276.104	455.31
276.335	386.31
276.567	395.31
276.799	402.31
277.031	390.31
277.262	350.31
277.494	250.31
277.726	259.31
277.957	275.31
278.189	308.31
278.421	326.31
278.652	309.31
278.884	267.31
279.115	252.31
279.347	275.31
279.579	245.31
279.81	255.31
280.042	267.31
280.273	274.31
280.505	250.31
280.736	236.31
280.968	219.31
281.199	232.31
281.431	271.31
281.662	249.31
281.894	236.31
282.125	273.31
282.356	273.31
282.588	293.31
282.819	258.31
283.051	275.31
283.282	321.31
283.513	373.31
283.745	406.31
283.976	433.31
284.207	394.31
284.439	391.31
284.67	396.31
284.901	354.31
285.132	378.31
285.364	417.31
285.595	373.31
285.826	404.31
286.057	403.31
286.288	384.31
286.52	377.31
286.751	405.31
286.982	403.31
287.213	360.31
287.444	353.31
287.675	370.31
287.906	362.31
288.138	329.31
288.369	294.31
288.6	269.31
288.831	285.31
289.062	318.31
289.293	355.31
289.524	332.31
289.755	321.31
289.986	358.31
290.217	310.31
290.448	243.31
290.679	219.31
290.91	213.31
291.141	206.31
291.371	200.31
291.602	210.31
291.833	225.31
292.064	233.31
292.295	267.31
292.526	294.31
292.757	274.31
292.987	293.31
293.218	304.31
293.449	319.31
293.68	342.31
293.91	319.31
294.141	317.31
294.372	321.31
294.603	295.31
294.833	320.31
295.064	356.31
295.295	370.31
295.525	273.31
295.756	247.31
295.987	212.31
296.217	218.31
296.448	230.31
296.679	237.31
296.909	241.31
297.14	281.31
297.37	287.31
297.601	265.31
297.831	232.31
298.062	251.31
298.292	279.31
298.523	316.31
298.753	345.31
298.984	328.31
299.214	258.31
299.445	229.31
299.675	213.31
299.905	226.31
300.136	226.31
300.366	229.31
300.597	217.31
300.827	205.31
301.057	205.31
301.288	213.31
301.518	218.31
301.748	255.31
301.979	248.31
302.209	282.31
302.439	267.31
302.669	254.31
302.9	246.31
303.13	234.31
303.36	221.31
303.59	219.31
303.82	218.31
304.051	248.31
304.281	275.31
304.511	262.31
304.741	228.31
304.971	241.31
305.201	243.31
305.431	233.31
305.661	239.31
305.891	214.31
306.121	199.31
306.352	213.31
306.582	198.31
306.812	200.31
307.042	185.31
307.272	181.31
307.502	169.31
307.731	196.31
307.961	207.31
308.191	192.31
308.421	177.31
308.651	171.31
308.881	172.31
309.111	180.31
309.341	176.31
309.571	170.31
309.8	172.31
310.03	197.31
310.26	198.31
310.49	216.31
310.72	190.31
310.949	199.31
311.179	187.31
311.409	198.31
311.639	209.31
311.868	278.31
312.098	339.31
312.328	394.31
312.557	343.31
312.787	364.31
313.017	315.31
313.246	351.31
313.476	375.31
313.706	303.31
313.935	261.31
314.165	211.31
314.394	205.31
314.624	190.31
314.853	218.31
315.083	222.31
315.312	223.31
315.542	228.31
315.771	191.31
316.001	175.31
316.23	164.31
316.46	179.31
316.689	172.31
316.919	186.31
317.148	180.31
317.377	177.31
317.607	183.31
317.836	186.31
318.065	222.31
318.295	226.31
318.524	235.31
318.753	180.31
318.983	204.31
319.212	180.31
319.441	201.31
319.67	213.31
319.9	239.31
320.129	235.31
320.358	187.31
320.587	215.31
320.816	196.31
321.046	219.31
321.275	251.31
321.504	240.31
321.733	235.31
321.962	224.31
322.191	217.31
322.42	201.31
322.649	220.31
322.878	228.31
323.108	261.31
323.337	222.31
323.566	216.31
323.795	214.31
324.024	212.31
324.253	215.31
324.482	187.31
324.71	212.31
324.939	220.31
325.168	221.31
325.397	199.31
325.626	163.31
325.855	184.31
326.084	187.31
326.313	180.31
326.542	182.31
326.77	191.31
326.999	195.31
327.228	201.31
327.457	203.31
327.686	194.31
327.914	174.31
328.143	177.31
328.372	173.31
328.6	177.31
328.829	177.31
329.058	169.31
329.287	185.31
329.515	175.31
329.744	182.31
329.972	165.31
330.201	169.31
330.43	183.31
330.658	192.31
330.887	209.31
331.115	193.31
331.344	212.31
331.572	200.31
331.801	185.31
332.03	163.31
332.258	188.31
332.486	199.31
332.715	187.31
332.943	186.31
333.172	199.31
333.4	192.31
333.629	204.31
333.857	221.31
334.085	213.31
334.314	246.31
334.542	227.31
334.771	195.31
334.999	209.31
335.227	203.31
335.455	193.31
335.684	195.31
335.912	224.31
336.14	242.31
336.369	242.31
336.597	213.31
336.825	256.31
337.053	283.31
337.281	253.31
337.51	195.31
337.738	196.31
337.966	193.31
338.194	227.31
338.422	213.31
338.65	185.31
338.878	176.31
339.106	169.31
339.334	199.31
339.562	217.31
339.79	188.31
340.018	194.31
340.246	221.31
340.474	233.31
340.702	233.31
340.93	244.31
341.158	249.31
341.386	218.31
341.614	215.31
341.842	237.31
342.07	218.31
342.298	254.31
342.526	247.31
342.754	233.31
342.981	223.31
343.209	208.31
343.437	222.31
343.665	220.31
343.893	218.31
344.12	252.31
344.348	316.31
344.576	286.31
344.804	218.31
345.031	201.31
345.259	189.31
345.487	200.31
345.714	201.31
345.942	206.31
346.17	224.31
346.397	213.31
346.625	170.31
346.853	188.31
347.08	167.31
347.308	201.31
347.535	216.31
347.763	245.31
347.99	203.31
348.218	191.31
348.445	211.31
348.673	201.31
348.9	188.31
349.128	201.31
349.355	201.31
349.583	200.31
349.81	186.31
350.037	199.31
350.265	184.31
350.492	183.31
350.72	176.31
350.947	193.31
351.174	181.31
351.402	191.31
351.629	184.31
351.856	168.31
352.083	171.31
352.311	184.31
352.538	188.31
352.765	218.31
352.992	211.31
353.22	194.31
353.447	206.31
353.674	202.31
353.901	192.31
354.128	196.31
354.355	197.31
354.583	202.31
354.81	201.31
355.037	217.31
355.264	216.31
355.491	213.31
355.718	219.31
355.945	219.31
356.172	218.31
356.399	199.31
356.626	234.31
356.853	289.31
357.08	293.31
357.307	289.31
357.534	267.31
357.761	251.31
357.988	309.31
358.215	340.31
358.441	307.31
358.668	287.31
358.895	277.31
359.122	234.31
359.349	218.31
359.576	260.31
359.802	222.31
360.029	189.31
360.256	191.31
360.483	226.31
360.709	296.31
360.936	287.31
361.163	279.31
361.39	199.31
361.616	193.31
361.843	217.31
362.07	262.31
362.296	257.31
362.523	211.31
362.749	172.31
362.976	187.31
363.203	221.31
363.429	250.31
363.656	204.31
363.882	204.31
364.109	173.31
364.335	194.31
364.562	192.31
364.788	199.31
365.015	235.31
365.241	200.31
365.468	189.31
365.694	152.31
365.92	175.31
366.147	160.31
366.373	161.31
366.599	159.31
366.826	165.31
367.052	178.31
367.278	162.31
367.505	152.31
367.731	188.31
367.957	202.31
368.184	189.31
368.41	185.31
368.636	190.31
368.862	204.31
369.089	199.31
369.315	185.31
369.541	178.31
369.767	188.31
369.993	166.31
370.219	163.31
370.445	186.31
370.672	191.31
370.898	211.31
371.124	225.31
371.35	188.31
371.576	171.31
371.802	166.31
372.028	217.31
372.254	223.31
372.48	202.31
372.706	190.31
372.932	207.31
373.158	190.31
373.384	244.31
373.61	300.31
373.835	299.31
374.061	236.31
374.287	191.31
374.513	236.31
374.739	274.31
374.965	279.31
375.191	279.31
375.416	217.31
375.642	191.31
375.868	199.31
376.094	241.31
376.319	209.31
376.545	228.31
376.771	235.31
376.997	217.31
377.222	156.31
377.448	156.31
377.674	151.31
377.899	170.31
378.125	156.31
378.35	154.31
378.576	176.31
378.802	172.31
379.027	192.31
379.253	181.31
379.478	178.31
379.704	191.31
379.929	220.31
380.155	205.31
380.38	178.31
380.606	200.31
380.831	219.31
381.057	205.31
381.282	189.31
381.507	225.31
381.733	250.31
381.958	246.31
382.184	269.31
382.409	287.31
382.634	284.31
382.86	304.31
383.085	257.31
383.31	208.31
383.535	217.31
383.761	231.31
383.986	212.31
384.211	259.31
384.436	257.31
384.662	188.31
384.887	191.31
385.112	191.31
385.337	196.31
385.562	185.31
385.787	197.31
386.013	230.31
386.238	227.31
386.463	209.31
386.688	197.31
386.913	194.31
387.138	185.31
387.363	183.31
387.588	183.31
387.813	193.31
388.038	213.31
388.263	200.31
388.488	188.31
388.713	195.31
388.938	243.31
389.163	202.31
389.387	171.31
389.612	186.31
389.837	180.31
390.062	195.31
390.287	202.31
390.512	187.31
390.736	174.31
390.961	181.31
391.186	183.31
391.411	170.31
391.636	178.31
391.86	191.31
392.085	199.31
392.31	200.31
392.534	189.31
392.759	185.31
392.984	198.31
393.208	204.31
393.433	176.31
393.658	160.31
393.882	180.31
394.107	167.31
394.331	167.31
394.556	168.31
394.78	160.31
395.005	180.31
395.229	181.31
395.454	187.31
395.678	175.31
395.903	168.31
396.127	161.31
396.352	186.31
396.576	189.31
396.801	200.31
397.025	224.31
397.249	220.31
397.474	199.31
397.698	181.31
397.922	207.31
398.147	170.31
398.371	176.31
398.595	193.31
398.82	204.31
399.044	207.31
399.268	190.31
399.492	198.31
399.717	201.31
399.941	209.31
400.165	199.31
400.389	195.31
400.613	209.31
400.837	214.31
401.062	183.31
401.286	193.31
401.51	194.31
401.734	171.31
401.958	168.31
402.182	172.31
402.406	192.31
402.63	177.31
402.854	210.31
403.078	223.31
403.302	276.31
403.526	253.31
403.75	248.31
403.974	212.31
404.198	210.31
404.422	240.31
404.645	275.31
404.869	274.31
405.093	223.31
405.317	198.31
405.541	184.31
405.765	207.31
405.988	196.31
406.212	205.31
406.436	237.31
406.66	264.31
406.883	216.31
407.107	208.31
407.331	236.31
407.555	247.31
407.778	210.31
408.002	205.31
408.226	207.31
408.449	202.31
408.673	216.31
408.896	171.31
409.12	189.31
409.344	173.31
409.567	188.31
409.791	192.31
410.014	186.31
410.238	180.31
410.461	176.31
410.685	187.31
410.908	179.31
411.132	197.31
411.355	169.31
411.578	195.31
411.802	195.31
412.025	203.31
412.249	189.31
412.472	199.31
412.695	183.31
412.919	191.31
413.142	191.31
413.365	197.31
413.589	212.31
413.812	199.31
414.035	189.31
414.258	195.31
414.482	212.31
414.705	208.31
414.928	207.31
415.151	188.31
415.374	179.31
415.597	205.31
415.821	187.31
416.044	176.31
416.267	183.31
416.49	188.31
416.713	170.31
416.936	187.31
417.159	171.31
417.382	162.31
417.605	197.31
417.828	182.31
418.051	179.31
418.274	210.31
418.497	181.31
418.72	184.31
418.943	201.31
419.166	203.31
419.389	199.31
419.611	207.31
419.834	187.31
420.057	216.31
420.28	216.31
420.503	208.31
420.726	186.31
420.948	180.31
421.171	182.31
421.394	174.31
421.617	174.31
421.839	192.31
422.062	193.31
422.285	180.31
422.507	176.31
422.73	192.31
422.953	203.31
423.175	192.31
423.398	219.31
423.621	216.31
423.843	200.31
424.066	205.31
424.288	200.31
424.511	181.31
424.733	185.31
424.956	207.31
425.178	200.31
425.401	247.31
425.623	273.31
425.846	237.31
426.068	198.31
426.291	220.31
426.513	196.31
426.735	177.31
426.958	204.31
427.18	227.31
427.402	276.31
427.625	274.31
427.847	212.31
428.069	193.31
428.292	182.31
428.514	183.31
428.736	189.31
428.958	185.31
429.181	223.31
429.403	199.31
429.625	194.31
429.847	186.31
430.069	177.31
430.292	192.31
430.514	175.31
430.736	199.31
430.958	226.31
431.18	217.31
431.402	179.31
431.624	164.31
431.846	156.31
432.068	160.31
432.29	175.31
432.512	197.31
432.734	250.31
432.956	217.31
433.178	185.31
433.4	177.31
433.622	176.31
433.844	180.31
434.066	217.31
434.287	199.31
434.509	183.31
434.731	201.31
434.953	195.31
435.175	190.31
435.397	210.31
435.618	194.31
435.84	180.31
436.062	180.31
436.284	187.31
436.505	155.31
436.727	159.31
436.949	160.31
437.17	168.31
437.392	185.31
437.614	161.31
437.835	178.31
438.057	161.31
438.278	191.31
438.5	269.31
438.721	267.31
438.943	189.31
439.165	165.31
439.386	168.31
439.608	177.31
439.829	175.31
440.05	180.31
440.272	190.31
440.493	196.31
440.715	245.31
440.936	206.31
441.158	171.31
441.379	165.31
441.6	186.31
441.822	204.31
442.043	188.31
442.264	187.31
442.486	179.31
442.707	183.31
442.928	201.31
443.149	198.31
443.371	196.31
443.592	183.31
443.813	191.31
444.034	181.31
444.255	171.31
444.476	199.31
444.698	197.31
444.919	201.31
445.14	311.31
445.361	242.31
445.582	211.31
445.803	204.31
446.024	188.31
446.245	221.31
446.466	178.31
446.687	193.31
446.908	182.31
447.129	176.31
447.35	161.31
447.571	162.31
447.792	163.31
448.013	161.31
448.234	171.31
448.455	168.31
448.675	159.31
448.896	161.31
449.117	158.31
449.338	196.31
449.559	188.31
449.779	179.31
450	195.31
450.221	182.31
450.442	169.31
450.662	170.31
450.883	171.31
451.104	161.31
451.324	171.31
451.545	188.31
451.766	166.31
451.986	171.31
452.207	171.31
452.428	157.31
452.648	163.31
452.869	171.31
453.089	181.31
453.31	171.31
453.53	172.31
453.751	157.31
453.971	181.31
454.192	171.31
454.412	166.31
454.633	164.31
454.853	168.31
455.073	157.31
455.294	147.31
455.514	158.31
455.734	164.31
455.955	170.31
456.175	168.31
456.395	169.31
456.616	150.31
456.836	161.31
457.056	137.31
457.276	141.31
457.497	144.31
457.717	135.31
457.937	155.31
458.157	163.31
458.377	160.31
458.598	154.31
458.818	150.31
459.038	164.31
459.258	175.31
459.478	170.31
459.698	185.31
459.918	192.31
460.138	185.31
460.358	199.31
460.578	179.31
460.798	187.31
461.018	189.31
461.238	159.31
461.458	182.31
461.678	191.31
461.898	195.31
462.118	189.31
462.338	194.31
462.558	206.31
462.777	209.31
462.997	213.31
463.217	205.31
463.437	196.31
463.657	216.31
463.876	189.31
464.096	197.31
464.316	209.31
464.536	213.31
464.755	208.31
464.975	217.31
465.195	193.31
465.414	213.31
465.634	211.31
465.854	211.31
466.073	188.31
466.293	177.31
466.512	184.31
466.732	204.31
466.951	211.31
467.171	203.31
467.391	196.31
467.61	188.31
467.829	187.31
468.049	204.31
468.268	184.31
468.488	186.31
468.707	189.31
468.927	201.31
469.146	215.31
469.365	213.31
469.585	186.31
469.804	203.31
470.023	224.31
470.243	222.31
470.462	194.31
470.681	188.31
470.901	186.31
471.12	198.31
471.339	195.31
471.558	181.31
471.777	176.31
471.997	205.31
472.216	234.31
472.435	230.31
472.654	225.31
472.873	211.31
473.092	206.31
473.311	204.31
473.53	206.31
473.749	207.31
473.968	194.31
474.187	198.31
474.406	192.31
474.625	195.31
474.844	197.31
475.063	199.31
475.282	194.31
475.501	224.31
475.72	274.31
475.939	224.31
476.158	225.31
476.377	257.31
476.596	277.31
476.814	309.31
477.033	261.31
477.252	218.31
477.471	187.31
477.69	207.31
477.908	220.31
478.127	223.31
478.346	216.31
478.564	244.31
478.783	226.31
479.002	220.31
479.22	240.31
479.439	272.31
479.658	224.31
479.876	203.31
480.095	220.31
480.313	242.31
480.532	227.31
480.751	223.31
480.969	221.31
481.188	251.31
481.406	242.31
481.624	248.31
481.843	219.31
482.061	209.31
482.28	235.31
482.498	292.31
482.717	275.31
482.935	233.31
483.153	223.31
483.372	187.31
483.59	214.31
483.808	197.31
484.027	207.31
484.245	192.31
484.463	196.31
484.681	198.31
484.9	201.31
485.118	235.31
485.336	212.31
485.554	201.31
485.772	196.31
485.99	230.31
486.209	256.31
486.427	240.31
486.645	233.31
486.863	233.31
487.081	224.31
487.299	263.31
487.517	267.31
487.735	232.31
487.953	244.31
488.171	233.31
488.389	217.31
488.607	209.31
488.825	221.31
489.043	235.31
489.261	292.31
489.479	291.31
489.696	239.31
489.914	230.31
490.132	196.31
490.35	203.31
490.568	233.31
490.786	217.31
491.003	202.31
491.221	219.31
491.439	215.31
491.657	209.31
491.874	227.31
492.092	278.31
492.31	336.31
492.527	313.31
492.745	264.31
492.963	241.31
493.18	228.31
493.398	249.31
493.615	245.31
493.833	227.31
494.05	242.31
494.268	249.31
494.485	248.31
494.703	210.31
494.92	228.31
495.138	212.31
495.355	248.31
495.573	232.31
495.79	255.31
496.008	355.31
496.225	285.31
496.442	248.31
496.66	258.31
496.877	266.31
497.094	259.31
497.312	234.31
497.529	251.31
497.746	248.31
497.963	246.31
498.181	273.31
498.398	275.31
498.615	301.31
498.832	321.31
499.049	323.31
499.267	290.31
499.484	270.31
499.701	289.31
499.918	313.31
500.135	349.31
500.352	361.31
500.569	380.31
500.786	386.31
501.003	365.31
501.22	324.31
501.437	310.31
501.654	312.31
501.871	291.31
502.088	295.31
502.305	262.31
502.522	275.31
502.739	263.31
