Data from NickelSpatula.Lamp.E5.5.P2_HRD10591_11-52-49-552.txt Node
Date: Tue Jul 23 11:52:49 EDT 2019
User: cochatt
Spectrometer: HR+D1059
Trigger mode: 1
Integration Time (sec): 1.000000E-1
Scans to average: 1
Electric dark correction enabled: true
Nonlinearity correction enabled: false
Boxcar width: 0
XAxis mode: Wavelengths
Number of Pixels in Spectrum: 2048
>>>>>Begin Spectral Data<<<<<
223.165	5.81
223.4	5.81
223.635	5.81
223.869	-9.19
224.104	-20.19
224.338	-15.19
224.573	-16.19
224.808	-16.19
225.042	-17.19
225.277	-0.19
225.511	-19.19
225.746	-7.19
225.98	6.81
226.215	13.81
226.449	10.81
226.683	25.81
226.918	21.81
227.152	35.81
227.387	33.81
227.621	38.81
227.856	49.81
228.09	55.81
228.324	44.81
228.559	48.81
228.793	41.81
229.027	60.81
229.262	67.81
229.496	64.81
229.73	86.81
229.964	87.81
230.199	93.81
230.433	102.81
230.667	86.81
230.901	107.81
231.136	75.81
231.37	85.81
231.604	103.81
231.838	103.81
232.072	98.81
232.306	110.81
232.541	100.81
232.775	93.81
233.009	100.81
233.243	101.81
233.477	117.81
233.711	111.81
233.945	122.81
234.179	115.81
234.413	111.81
234.647	151.81
234.881	149.81
235.115	128.81
235.349	122.81
235.583	125.81
235.817	117.81
236.051	127.81
236.285	124.81
236.519	132.81
236.753	115.81
236.987	125.81
237.221	115.81
237.455	141.81
237.689	131.81
237.922	118.81
238.156	139.81
238.39	141.81
238.624	170.81
238.858	159.81
239.091	148.81
239.325	127.81
239.559	126.81
239.793	153.81
240.027	176.81
240.26	143.81
240.494	161.81
240.728	147.81
240.961	171.81
241.195	155.81
241.429	165.81
241.662	159.81
241.896	138.81
242.13	122.81
242.363	128.81
242.597	134.81
242.83	134.81
243.064	139.81
243.298	149.81
243.531	159.81
243.765	170.81
243.998	159.81
244.232	163.81
244.465	133.81
244.699	143.81
244.932	168.81
245.166	166.81
245.399	155.81
245.633	149.81
245.866	150.81
246.099	155.81
246.333	179.81
246.566	175.81
246.8	181.81
247.033	205.81
247.266	179.81
247.5	166.81
247.733	159.81
247.966	153.81
248.2	159.81
248.433	171.81
248.666	180.81
248.899	189.81
249.133	164.81
249.366	218.81
249.599	223.81
249.832	221.81
250.066	183.81
250.299	183.81
250.532	191.81
250.765	198.81
250.998	180.81
251.231	179.81
251.465	188.81
251.698	205.81
251.931	173.81
252.164	199.81
252.397	203.81
252.63	238.81
252.863	241.81
253.096	268.81
253.329	252.81
253.562	246.81
253.795	266.81
254.028	297.81
254.261	306.81
254.494	259.81
254.727	235.81
254.96	226.81
255.193	242.81
255.426	239.81
255.659	193.81
255.892	191.81
256.124	198.81
256.357	212.81
256.59	273.81
256.823	251.81
257.056	223.81
257.289	213.81
257.521	230.81
257.754	251.81
257.987	273.81
258.22	241.81
258.452	213.81
258.685	243.81
258.918	265.81
259.151	261.81
259.383	266.81
259.616	323.81
259.849	326.81
260.081	342.81
260.314	377.81
260.547	313.81
260.779	317.81
261.012	354.81
261.244	332.81
261.477	348.81
261.71	289.81
261.942	260.81
262.175	273.81
262.407	260.81
262.64	263.81
262.872	304.81
263.105	343.81
263.337	332.81
263.57	326.81
263.802	239.81
264.035	229.81
264.267	206.81
264.499	159.81
264.732	175.81
264.964	193.81
265.197	165.81
265.429	182.81
265.661	183.81
265.894	204.81
266.126	199.81
266.358	226.81
266.591	249.81
266.823	308.81
267.055	291.81
267.287	279.81
267.52	259.81
267.752	287.81
267.984	299.81
268.216	292.81
268.448	223.81
268.681	253.81
268.913	276.81
269.145	276.81
269.377	277.81
269.609	276.81
269.841	269.81
270.073	270.81
270.306	291.81
270.538	302.81
270.77	299.81
271.002	305.81
271.234	310.81
271.466	305.81
271.698	295.81
271.93	287.81
272.162	284.81
272.394	299.81
272.626	282.81
272.858	293.81
273.09	291.81
273.322	268.81
273.553	251.81
273.785	288.81
274.017	359.81
274.249	435.81
274.481	442.81
274.713	525.81
274.945	567.81
275.176	610.81
275.408	530.81
275.64	489.81
275.872	486.81
276.104	410.81
276.335	367.81
276.567	364.81
276.799	370.81
277.031	417.81
277.262	322.81
277.494	261.81
277.726	247.81
277.957	260.81
278.189	287.81
278.421	274.81
278.652	294.81
278.884	276.81
279.115	251.81
279.347	233.81
279.579	283.81
279.81	255.81
280.042	250.81
280.273	274.81
280.505	245.81
280.736	205.81
280.968	221.81
281.199	233.81
281.431	266.81
281.662	257.81
281.894	249.81
282.125	247.81
282.356	281.81
282.588	282.81
282.819	248.81
283.051	264.81
283.282	339.81
283.513	380.81
283.745	407.81
283.976	424.81
284.207	371.81
284.439	397.81
284.67	391.81
284.901	342.81
285.132	379.81
285.364	399.81
285.595	357.81
285.826	367.81
286.057	389.81
286.288	373.81
286.52	378.81
286.751	382.81
286.982	397.81
287.213	357.81
287.444	325.81
287.675	346.81
287.906	365.81
288.138	313.81
288.369	289.81
288.6	276.81
288.831	282.81
289.062	310.81
289.293	356.81
289.524	306.81
289.755	330.81
289.986	344.81
290.217	309.81
290.448	225.81
290.679	209.81
290.91	209.81
291.141	205.81
291.371	223.81
291.602	199.81
291.833	198.81
292.064	208.81
292.295	235.81
292.526	270.81
292.757	289.81
292.987	311.81
293.218	313.81
293.449	333.81
293.68	375.81
293.91	315.81
294.141	323.81
294.372	315.81
294.603	293.81
294.833	331.81
295.064	385.81
295.295	350.81
295.525	277.81
295.756	243.81
295.987	217.81
296.217	225.81
296.448	225.81
296.679	220.81
296.909	248.81
297.14	249.81
297.37	281.81
297.601	285.81
297.831	219.81
298.062	245.81
298.292	271.81
298.523	296.81
298.753	326.81
298.984	305.81
299.214	259.81
299.445	234.81
299.675	230.81
299.905	220.81
300.136	219.81
300.366	242.81
300.597	242.81
300.827	223.81
301.057	201.81
301.288	212.81
301.518	211.81
301.748	234.81
301.979	289.81
302.209	294.81
302.439	282.81
302.669	258.81
302.9	261.81
303.13	259.81
303.36	238.81
303.59	228.81
303.82	235.81
304.051	281.81
304.281	284.81
304.511	278.81
304.741	238.81
304.971	249.81
305.201	247.81
305.431	260.81
305.661	221.81
305.891	230.81
306.121	221.81
306.352	231.81
306.582	199.81
306.812	192.81
307.042	189.81
307.272	176.81
307.502	187.81
307.731	199.81
307.961	205.81
308.191	193.81
308.421	192.81
308.651	193.81
308.881	177.81
309.111	197.81
309.341	193.81
309.571	200.81
309.8	200.81
310.03	213.81
310.26	206.81
310.49	206.81
310.72	185.81
310.949	206.81
311.179	190.81
311.409	204.81
311.639	226.81
311.868	278.81
312.098	343.81
312.328	369.81
312.557	340.81
312.787	346.81
313.017	319.81
313.246	358.81
313.476	390.81
313.706	305.81
313.935	251.81
314.165	211.81
314.394	197.81
314.624	213.81
314.853	207.81
315.083	221.81
315.312	225.81
315.542	219.81
315.771	189.81
316.001	197.81
316.23	192.81
316.46	206.81
316.689	191.81
316.919	190.81
317.148	193.81
317.377	192.81
317.607	193.81
317.836	214.81
318.065	230.81
318.295	235.81
318.524	242.81
318.753	210.81
318.983	182.81
319.212	189.81
319.441	210.81
319.67	221.81
319.9	228.81
320.129	229.81
320.358	190.81
320.587	198.81
320.816	197.81
321.046	233.81
321.275	243.81
321.504	253.81
321.733	226.81
321.962	236.81
322.191	243.81
322.42	225.81
322.649	232.81
322.878	245.81
323.108	245.81
323.337	228.81
323.566	220.81
323.795	214.81
324.024	228.81
324.253	207.81
324.482	197.81
324.71	222.81
324.939	250.81
325.168	235.81
325.397	197.81
325.626	195.81
325.855	202.81
326.084	211.81
326.313	202.81
326.542	197.81
326.77	203.81
326.999	189.81
327.228	224.81
327.457	217.81
327.686	210.81
327.914	214.81
328.143	191.81
328.372	198.81
328.6	188.81
328.829	196.81
329.058	199.81
329.287	186.81
329.515	198.81
329.744	206.81
329.972	170.81
330.201	186.81
330.43	195.81
330.658	192.81
330.887	222.81
331.115	235.81
331.344	223.81
331.572	203.81
331.801	186.81
332.03	198.81
332.258	206.81
332.486	221.81
332.715	212.81
332.943	205.81
333.172	220.81
333.4	229.81
333.629	241.81
333.857	247.81
334.085	237.81
334.314	243.81
334.542	221.81
334.771	215.81
334.999	209.81
335.227	209.81
335.455	214.81
335.684	218.81
335.912	267.81
336.14	254.81
336.369	263.81
336.597	251.81
336.825	266.81
337.053	291.81
337.281	246.81
337.51	207.81
337.738	217.81
337.966	216.81
338.194	237.81
338.422	222.81
338.65	208.81
338.878	210.81
339.106	197.81
339.334	209.81
339.562	214.81
339.79	206.81
340.018	206.81
340.246	200.81
340.474	226.81
340.702	265.81
340.93	260.81
341.158	263.81
341.386	205.81
341.614	239.81
341.842	217.81
342.07	228.81
342.298	258.81
342.526	270.81
342.754	229.81
342.981	215.81
343.209	221.81
343.437	248.81
343.665	245.81
343.893	249.81
344.12	289.81
344.348	325.81
344.576	297.81
344.804	242.81
345.031	218.81
345.259	211.81
345.487	218.81
345.714	221.81
345.942	221.81
346.17	237.81
346.397	234.81
346.625	205.81
346.853	214.81
347.08	207.81
347.308	200.81
347.535	244.81
347.763	226.81
347.99	234.81
348.218	215.81
348.445	215.81
348.673	218.81
348.9	208.81
349.128	227.81
349.355	216.81
349.583	217.81
349.81	210.81
350.037	194.81
350.265	193.81
350.492	182.81
350.72	191.81
350.947	194.81
351.174	193.81
351.402	197.81
351.629	190.81
351.856	197.81
352.083	209.81
352.311	194.81
352.538	219.81
352.765	230.81
352.992	208.81
353.22	203.81
353.447	220.81
353.674	206.81
353.901	210.81
354.128	210.81
354.355	209.81
354.583	198.81
354.81	214.81
355.037	213.81
355.264	220.81
355.491	220.81
355.718	226.81
355.945	228.81
356.172	221.81
356.399	211.81
356.626	271.81
356.853	317.81
357.08	339.81
357.307	321.81
357.534	265.81
357.761	281.81
357.988	334.81
358.215	382.81
358.441	357.81
358.668	313.81
358.895	294.81
359.122	242.81
359.349	257.81
359.576	286.81
359.802	233.81
360.029	214.81
360.256	227.81
360.483	253.81
360.709	303.81
360.936	334.81
361.163	284.81
361.39	226.81
361.616	218.81
361.843	229.81
362.07	284.81
362.296	275.81
362.523	219.81
362.749	205.81
362.976	231.81
363.203	247.81
363.429	251.81
363.656	222.81
363.882	213.81
364.109	211.81
364.335	212.81
364.562	198.81
364.788	226.81
365.015	254.81
365.241	233.81
365.468	198.81
365.694	182.81
365.92	191.81
366.147	185.81
366.373	193.81
366.599	190.81
366.826	187.81
367.052	189.81
367.278	185.81
367.505	189.81
367.731	199.81
367.957	212.81
368.184	213.81
368.41	206.81
368.636	204.81
368.862	214.81
369.089	214.81
369.315	188.81
369.541	188.81
369.767	196.81
369.993	202.81
370.219	179.81
370.445	211.81
370.672	201.81
370.898	214.81
371.124	227.81
371.35	210.81
371.576	197.81
371.802	223.81
372.028	245.81
372.254	267.81
372.48	240.81
372.706	221.81
372.932	230.81
373.158	244.81
373.384	274.81
373.61	344.81
373.835	339.81
374.061	275.81
374.287	266.81
374.513	294.81
374.739	306.81
374.965	336.81
375.191	326.81
375.416	237.81
375.642	234.81
375.868	259.81
376.094	254.81
376.319	234.81
376.545	250.81
376.771	282.81
376.997	247.81
377.222	199.81
377.448	188.81
377.674	182.81
377.899	171.81
378.125	185.81
378.35	173.81
378.576	188.81
378.802	194.81
379.027	211.81
379.253	223.81
379.478	208.81
379.704	219.81
379.929	232.81
380.155	215.81
380.38	205.81
380.606	213.81
380.831	222.81
381.057	235.81
381.282	213.81
381.507	259.81
381.733	283.81
381.958	293.81
382.184	339.81
382.409	325.81
382.634	336.81
382.86	341.81
383.085	280.81
383.31	239.81
383.535	249.81
383.761	260.81
383.986	238.81
384.211	283.81
384.436	273.81
384.662	241.81
384.887	208.81
385.112	229.81
385.337	250.81
385.562	221.81
385.787	252.81
386.013	287.81
386.238	277.81
386.463	234.81
386.688	226.81
386.913	219.81
387.138	218.81
387.363	217.81
387.588	201.81
387.813	209.81
388.038	229.81
388.263	222.81
388.488	226.81
388.713	246.81
388.938	260.81
389.163	220.81
389.387	201.81
389.612	217.81
389.837	210.81
390.062	206.81
390.287	212.81
390.512	218.81
390.736	220.81
390.961	207.81
391.186	209.81
391.411	193.81
391.636	197.81
391.86	212.81
392.085	241.81
392.31	243.81
392.534	215.81
392.759	221.81
392.984	224.81
393.208	228.81
393.433	218.81
393.658	208.81
393.882	198.81
394.107	191.81
394.331	192.81
394.556	191.81
394.78	193.81
395.005	184.81
395.229	195.81
395.454	210.81
395.678	212.81
395.903	226.81
396.127	202.81
396.352	199.81
396.576	220.81
396.801	210.81
397.025	245.81
397.249	237.81
397.474	239.81
397.698	234.81
397.922	213.81
398.147	203.81
398.371	209.81
398.595	225.81
398.82	234.81
399.044	215.81
399.268	227.81
399.492	257.81
399.717	276.81
399.941	289.81
400.165	259.81
400.389	256.81
400.613	256.81
400.837	242.81
401.062	191.81
401.286	215.81
401.51	196.81
401.734	204.81
401.958	224.81
402.182	221.81
402.406	226.81
402.63	228.81
402.854	230.81
403.078	266.81
403.302	339.81
403.526	351.81
403.75	324.81
403.974	252.81
404.198	281.81
404.422	290.81
404.645	283.81
404.869	345.81
405.093	263.81
405.317	253.81
405.541	234.81
405.765	254.81
405.988	256.81
406.212	261.81
406.436	270.81
406.66	315.81
406.883	259.81
407.107	266.81
407.331	299.81
407.555	289.81
407.778	269.81
408.002	276.81
408.226	257.81
408.449	250.81
408.673	249.81
408.896	239.81
409.12	227.81
409.344	228.81
409.567	230.81
409.791	228.81
410.014	224.81
410.238	239.81
410.461	242.81
410.685	227.81
410.908	209.81
411.132	245.81
411.355	219.81
411.578	224.81
411.802	217.81
412.025	221.81
412.249	223.81
412.472	233.81
412.695	232.81
412.919	242.81
413.142	225.81
413.365	259.81
413.589	245.81
413.812	225.81
414.035	230.81
414.258	210.81
414.482	237.81
414.705	241.81
414.928	225.81
415.151	214.81
415.374	225.81
415.597	230.81
415.821	223.81
416.044	221.81
416.267	216.81
416.49	201.81
416.713	215.81
416.936	224.81
417.159	206.81
417.382	220.81
417.605	219.81
417.828	202.81
418.051	226.81
418.274	229.81
418.497	223.81
418.72	231.81
418.943	241.81
419.166	239.81
419.389	248.81
419.611	249.81
419.834	225.81
420.057	242.81
420.28	249.81
420.503	221.81
420.726	212.81
420.948	226.81
421.171	222.81
421.394	229.81
421.617	217.81
421.839	222.81
422.062	231.81
422.285	221.81
422.507	233.81
422.73	228.81
422.953	250.81
423.175	229.81
423.398	252.81
423.621	253.81
423.843	267.81
424.066	235.81
424.288	231.81
424.511	233.81
424.733	255.81
424.956	249.81
425.178	248.81
425.401	272.81
425.623	325.81
425.846	299.81
426.068	237.81
426.291	268.81
426.513	257.81
426.735	243.81
426.958	236.81
427.18	264.81
427.402	339.81
427.625	324.81
427.847	291.81
428.069	229.81
428.292	218.81
428.514	208.81
428.736	220.81
428.958	223.81
429.181	266.81
429.403	257.81
429.625	213.81
429.847	217.81
430.069	198.81
430.292	220.81
430.514	192.81
430.736	235.81
430.958	253.81
431.18	243.81
431.402	226.81
431.624	213.81
431.846	225.81
432.068	202.81
432.29	207.81
432.512	223.81
432.734	266.81
432.956	277.81
433.178	214.81
433.4	207.81
433.622	214.81
433.844	215.81
434.066	229.81
434.287	225.81
434.509	230.81
434.731	237.81
434.953	251.81
435.175	247.81
435.397	252.81
435.618	209.81
435.84	210.81
436.062	194.81
436.284	209.81
436.505	196.81
436.727	208.81
436.949	205.81
437.17	211.81
437.392	207.81
437.614	217.81
437.835	193.81
438.057	216.81
438.278	230.81
438.5	292.81
438.721	294.81
438.943	225.81
439.165	190.81
439.386	210.81
439.608	203.81
439.829	205.81
440.05	204.81
440.272	209.81
440.493	231.81
440.715	243.81
440.936	213.81
441.158	225.81
441.379	222.81
441.6	234.81
441.822	253.81
442.043	225.81
442.264	225.81
442.486	221.81
442.707	213.81
442.928	207.81
443.149	224.81
443.371	226.81
443.592	229.81
443.813	233.81
444.034	236.81
444.255	230.81
444.476	245.81
444.698	252.81
444.919	249.81
445.14	343.81
445.361	297.81
445.582	251.81
445.803	223.81
446.024	222.81
446.245	221.81
446.466	224.81
446.687	218.81
446.908	197.81
447.129	187.81
447.35	203.81
447.571	193.81
447.792	202.81
448.013	206.81
448.234	192.81
448.455	194.81
448.675	196.81
448.896	210.81
449.117	204.81
449.338	212.81
449.559	196.81
449.779	215.81
450	216.81
450.221	220.81
450.442	208.81
450.662	211.81
450.883	217.81
451.104	206.81
451.324	210.81
451.545	203.81
451.766	212.81
451.986	210.81
452.207	210.81
452.428	198.81
452.648	218.81
452.869	208.81
453.089	203.81
453.31	220.81
453.53	201.81
453.751	195.81
453.971	198.81
454.192	193.81
454.412	212.81
454.633	177.81
454.853	208.81
455.073	162.81
455.294	191.81
455.514	191.81
455.734	198.81
455.955	195.81
456.175	202.81
456.395	182.81
456.616	173.81
456.836	186.81
457.056	193.81
457.276	195.81
457.497	186.81
457.717	196.81
457.937	194.81
458.157	202.81
458.377	194.81
458.598	194.81
458.818	195.81
459.038	211.81
459.258	195.81
459.478	221.81
459.698	226.81
459.918	240.81
460.138	230.81
460.358	220.81
460.578	221.81
460.798	236.81
461.018	217.81
461.238	208.81
461.458	218.81
461.678	230.81
461.898	225.81
462.118	250.81
462.338	240.81
462.558	240.81
462.777	253.81
462.997	251.81
463.217	262.81
463.437	269.81
463.657	263.81
463.876	258.81
464.096	247.81
464.316	247.81
464.536	273.81
464.755	248.81
464.975	253.81
465.195	238.81
465.414	254.81
465.634	249.81
465.854	231.81
466.073	216.81
466.293	209.81
466.512	213.81
466.732	226.81
466.951	262.81
467.171	217.81
467.391	217.81
467.61	219.81
467.829	219.81
468.049	234.81
468.268	225.81
468.488	218.81
468.707	200.81
468.927	213.81
469.146	275.81
469.365	247.81
469.585	235.81
469.804	221.81
470.023	259.81
470.243	243.81
470.462	229.81
470.681	239.81
470.901	228.81
471.12	239.81
471.339	275.81
471.558	227.81
471.777	222.81
471.997	240.81
472.216	249.81
472.435	249.81
472.654	234.81
472.873	223.81
473.092	248.81
473.311	238.81
473.53	226.81
473.749	214.81
473.968	233.81
474.187	230.81
474.406	218.81
474.625	209.81
474.844	235.81
475.063	228.81
475.282	233.81
475.501	254.81
475.72	248.81
475.939	236.81
476.158	247.81
476.377	256.81
476.596	309.81
476.814	328.81
477.033	272.81
477.252	258.81
477.471	219.81
477.69	237.81
477.908	242.81
478.127	261.81
478.346	251.81
478.564	269.81
478.783	259.81
479.002	258.81
479.22	291.81
479.439	324.81
479.658	285.81
479.876	254.81
480.095	286.81
480.313	281.81
480.532	262.81
480.751	251.81
480.969	267.81
481.188	296.81
481.406	290.81
481.624	259.81
481.843	249.81
482.061	256.81
482.28	281.81
482.498	308.81
482.717	307.81
482.935	275.81
483.153	254.81
483.372	245.81
483.59	241.81
483.808	242.81
484.027	259.81
484.245	228.81
484.463	235.81
484.681	252.81
484.9	267.81
485.118	267.81
485.336	259.81
485.554	261.81
485.772	254.81
485.99	276.81
486.209	263.81
486.427	281.81
486.645	269.81
486.863	266.81
487.081	277.81
487.299	311.81
487.517	287.81
487.735	263.81
487.953	283.81
488.171	254.81
488.389	240.81
488.607	259.81
488.825	249.81
489.043	271.81
489.261	296.81
489.479	311.81
489.696	281.81
489.914	252.81
490.132	239.81
490.35	252.81
490.568	247.81
490.786	256.81
491.003	250.81
491.221	266.81
491.439	252.81
491.657	249.81
491.874	262.81
492.092	290.81
492.31	331.81
492.527	342.81
492.745	321.81
492.963	286.81
493.18	292.81
493.398	274.81
493.615	293.81
493.833	269.81
494.05	259.81
494.268	262.81
494.485	274.81
494.703	276.81
494.92	253.81
495.138	263.81
495.355	285.81
495.573	277.81
495.79	264.81
496.008	339.81
496.225	293.81
496.442	278.81
496.66	295.81
496.877	311.81
497.094	294.81
497.312	280.81
497.529	283.81
497.746	288.81
497.963	304.81
498.181	311.81
498.398	316.81
498.615	363.81
498.832	353.81
499.049	380.81
499.267	357.81
499.484	371.81
499.701	397.81
499.918	441.81
500.135	469.81
500.352	509.81
500.569	525.81
500.786	518.81
501.003	521.81
501.22	459.81
501.437	392.81
501.654	382.81
501.871	356.81
502.088	357.81
502.305	332.81
502.522	348.81
