Data from NickelSpatula.Lamp.E5.5.P2_HRD10591_11-51-01-563.txt Node
Date: Tue Jul 23 11:51:01 EDT 2019
User: cochatt
Spectrometer: HR+D1059
Trigger mode: 1
Integration Time (sec): 1.000000E-1
Scans to average: 1
Electric dark correction enabled: true
Nonlinearity correction enabled: false
Boxcar width: 0
XAxis mode: Wavelengths
Number of Pixels in Spectrum: 2048
>>>>>Begin Spectral Data<<<<<
223.165	-22.19
223.4	-22.19
223.635	-22.19
223.869	-16.19
224.104	-34.19
224.338	-13.19
224.573	-10.19
224.808	-11.19
225.042	-7.19
225.277	-6.19
225.511	5.81
225.746	-4.19
225.98	13.81
226.215	8.81
226.449	10.81
226.683	41.81
226.918	21.81
227.152	21.81
227.387	40.81
227.621	27.81
227.856	44.81
228.09	56.81
228.324	51.81
228.559	41.81
228.793	50.81
229.027	67.81
229.262	61.81
229.496	65.81
229.73	81.81
229.964	83.81
230.199	103.81
230.433	101.81
230.667	95.81
230.901	101.81
231.136	97.81
231.37	99.81
231.604	104.81
231.838	99.81
232.072	103.81
232.306	98.81
232.541	93.81
232.775	111.81
233.009	111.81
233.243	105.81
233.477	103.81
233.711	105.81
233.945	121.81
234.179	117.81
234.413	122.81
234.647	122.81
234.881	132.81
235.115	121.81
235.349	117.81
235.583	112.81
235.817	110.81
236.051	113.81
236.285	120.81
236.519	124.81
236.753	115.81
236.987	133.81
237.221	115.81
237.455	119.81
237.689	122.81
237.922	123.81
238.156	133.81
238.39	131.81
238.624	131.81
238.858	154.81
239.091	130.81
239.325	128.81
239.559	129.81
239.793	122.81
240.027	117.81
240.26	149.81
240.494	139.81
240.728	131.81
240.961	141.81
241.195	137.81
241.429	121.81
241.662	144.81
241.896	127.81
242.13	127.81
242.363	122.81
242.597	140.81
242.83	138.81
243.064	119.81
243.298	149.81
243.531	152.81
243.765	159.81
243.998	163.81
244.232	140.81
244.465	136.81
244.699	139.81
244.932	157.81
245.166	151.81
245.399	136.81
245.633	135.81
245.866	139.81
246.099	130.81
246.333	156.81
246.566	156.81
246.8	169.81
247.033	160.81
247.266	135.81
247.5	159.81
247.733	161.81
247.966	154.81
248.2	150.81
248.433	159.81
248.666	163.81
248.899	174.81
249.133	193.81
249.366	196.81
249.599	199.81
249.832	168.81
250.066	180.81
250.299	162.81
250.532	170.81
250.765	162.81
250.998	162.81
251.231	177.81
251.465	164.81
251.698	180.81
251.931	161.81
252.164	163.81
252.397	192.81
252.63	183.81
252.863	211.81
253.096	218.81
253.329	225.81
253.562	207.81
253.795	217.81
254.028	229.81
254.261	242.81
254.494	223.81
254.727	226.81
254.96	216.81
255.193	213.81
255.426	223.81
255.659	173.81
255.892	177.81
256.124	193.81
256.357	228.81
256.59	224.81
256.823	201.81
257.056	209.81
257.289	166.81
257.521	193.81
257.754	220.81
257.987	232.81
258.22	218.81
258.452	195.81
258.685	226.81
258.918	231.81
259.151	240.81
259.383	256.81
259.616	287.81
259.849	279.81
260.081	291.81
260.314	291.81
260.547	262.81
260.779	273.81
261.012	286.81
261.244	275.81
261.477	298.81
261.71	275.81
261.942	228.81
262.175	239.81
262.407	212.81
262.64	230.81
262.872	251.81
263.105	275.81
263.337	295.81
263.57	274.81
263.802	211.81
264.035	190.81
264.267	192.81
264.499	189.81
264.732	168.81
264.964	151.81
265.197	170.81
265.429	189.81
265.661	183.81
265.894	181.81
266.126	200.81
266.358	202.81
266.591	241.81
266.823	277.81
267.055	269.81
267.287	254.81
267.52	259.81
267.752	257.81
267.984	274.81
268.216	277.81
268.448	239.81
268.681	225.81
268.913	239.81
269.145	244.81
269.377	266.81
269.609	261.81
269.841	223.81
270.073	267.81
270.306	259.81
270.538	262.81
270.77	264.81
271.002	271.81
271.234	267.81
271.466	277.81
271.698	260.81
271.93	249.81
272.162	238.81
272.394	265.81
272.626	247.81
272.858	235.81
273.09	266.81
273.322	221.81
273.553	233.81
273.785	244.81
274.017	299.81
274.249	377.81
274.481	371.81
274.713	385.81
274.945	427.81
275.176	441.81
275.408	425.81
275.64	391.81
275.872	403.81
276.104	370.81
276.335	327.81
276.567	319.81
276.799	337.81
277.031	344.81
277.262	281.81
277.494	241.81
277.726	233.81
277.957	249.81
278.189	269.81
278.421	265.81
278.652	261.81
278.884	245.81
279.115	231.81
279.347	229.81
279.579	230.81
279.81	238.81
280.042	258.81
280.273	256.81
280.505	231.81
280.736	213.81
280.968	209.81
281.199	218.81
281.431	267.81
281.662	238.81
281.894	248.81
282.125	248.81
282.356	267.81
282.588	261.81
282.819	243.81
283.051	261.81
283.282	299.81
283.513	325.81
283.745	361.81
283.976	347.81
284.207	359.81
284.439	350.81
284.67	331.81
284.901	307.81
285.132	304.81
285.364	332.81
285.595	315.81
285.826	327.81
286.057	339.81
286.288	338.81
286.52	345.81
286.751	364.81
286.982	352.81
287.213	320.81
287.444	317.81
287.675	324.81
287.906	335.81
288.138	299.81
288.369	273.81
288.6	255.81
288.831	288.81
289.062	298.81
289.293	303.81
289.524	293.81
289.755	271.81
289.986	293.81
290.217	291.81
290.448	218.81
290.679	204.81
290.91	208.81
291.141	216.81
291.371	219.81
291.602	221.81
291.833	215.81
292.064	220.81
292.295	236.81
292.526	277.81
292.757	264.81
292.987	288.81
293.218	289.81
293.449	291.81
293.68	310.81
293.91	311.81
294.141	311.81
294.372	324.81
294.603	282.81
294.833	313.81
295.064	328.81
295.295	324.81
295.525	260.81
295.756	233.81
295.987	211.81
296.217	214.81
296.448	223.81
296.679	216.81
296.909	225.81
297.14	267.81
297.37	275.81
297.601	271.81
297.831	239.81
298.062	259.81
298.292	279.81
298.523	276.81
298.753	309.81
298.984	307.81
299.214	251.81
299.445	234.81
299.675	208.81
299.905	220.81
300.136	219.81
300.366	221.81
300.597	236.81
300.827	213.81
301.057	214.81
301.288	219.81
301.518	233.81
301.748	259.81
301.979	295.81
302.209	282.81
302.439	288.81
302.669	261.81
302.9	253.81
303.13	256.81
303.36	228.81
303.59	211.81
303.82	252.81
304.051	261.81
304.281	259.81
304.511	247.81
304.741	261.81
304.971	250.81
305.201	266.81
305.431	256.81
305.661	235.81
305.891	223.81
306.121	234.81
306.352	215.81
306.582	199.81
306.812	184.81
307.042	212.81
307.272	191.81
307.502	172.81
307.731	206.81
307.961	195.81
308.191	183.81
308.421	206.81
308.651	186.81
308.881	181.81
309.111	205.81
309.341	205.81
309.571	199.81
309.8	199.81
310.03	210.81
310.26	207.81
310.49	210.81
310.72	196.81
310.949	202.81
311.179	191.81
311.409	203.81
311.639	227.81
311.868	270.81
312.098	312.81
312.328	329.81
312.557	330.81
312.787	322.81
313.017	297.81
313.246	325.81
313.476	360.81
313.706	308.81
313.935	244.81
314.165	232.81
314.394	198.81
314.624	194.81
314.853	241.81
315.083	228.81
315.312	214.81
315.542	197.81
315.771	203.81
316.001	203.81
316.23	189.81
316.46	194.81
316.689	202.81
316.919	186.81
317.148	202.81
317.377	179.81
317.607	200.81
317.836	207.81
318.065	206.81
318.295	242.81
318.524	236.81
318.753	201.81
318.983	193.81
319.212	223.81
319.441	198.81
319.67	223.81
319.9	233.81
320.129	231.81
320.358	189.81
320.587	200.81
320.816	203.81
321.046	232.81
321.275	265.81
321.504	251.81
321.733	249.81
321.962	231.81
322.191	229.81
322.42	221.81
322.649	205.81
322.878	224.81
323.108	216.81
323.337	218.81
323.566	219.81
323.795	228.81
324.024	219.81
324.253	212.81
324.482	208.81
324.71	228.81
324.939	242.81
325.168	246.81
325.397	224.81
325.626	193.81
325.855	203.81
326.084	208.81
326.313	212.81
326.542	193.81
326.77	200.81
326.999	217.81
327.228	215.81
327.457	219.81
327.686	218.81
327.914	218.81
328.143	205.81
328.372	186.81
328.6	192.81
328.829	209.81
329.058	213.81
329.287	199.81
329.515	191.81
329.744	204.81
329.972	204.81
330.201	187.81
330.43	181.81
330.658	208.81
330.887	223.81
331.115	216.81
331.344	222.81
331.572	215.81
331.801	216.81
332.03	206.81
332.258	193.81
332.486	220.81
332.715	230.81
332.943	221.81
333.172	215.81
333.4	222.81
333.629	231.81
333.857	258.81
334.085	241.81
334.314	228.81
334.542	228.81
334.771	214.81
334.999	225.81
335.227	219.81
335.455	242.81
335.684	219.81
335.912	253.81
336.14	255.81
336.369	248.81
336.597	256.81
336.825	272.81
337.053	283.81
337.281	250.81
337.51	206.81
337.738	202.81
337.966	227.81
338.194	255.81
338.422	248.81
338.65	221.81
338.878	193.81
339.106	205.81
339.334	214.81
339.562	226.81
339.79	226.81
340.018	204.81
340.246	225.81
340.474	223.81
340.702	249.81
340.93	261.81
341.158	253.81
341.386	241.81
341.614	230.81
341.842	232.81
342.07	239.81
342.298	265.81
342.526	263.81
342.754	241.81
342.981	228.81
343.209	214.81
343.437	236.81
343.665	257.81
343.893	248.81
344.12	299.81
344.348	317.81
344.576	309.81
344.804	234.81
345.031	227.81
345.259	214.81
345.487	213.81
345.714	215.81
345.942	239.81
346.17	242.81
346.397	252.81
346.625	238.81
346.853	228.81
347.08	206.81
347.308	217.81
347.535	243.81
347.763	248.81
347.99	234.81
348.218	218.81
348.445	209.81
348.673	227.81
348.9	215.81
349.128	215.81
349.355	233.81
349.583	234.81
349.81	224.81
350.037	231.81
350.265	192.81
350.492	199.81
350.72	172.81
350.947	187.81
351.174	213.81
351.402	222.81
351.629	209.81
351.856	210.81
352.083	192.81
352.311	217.81
352.538	224.81
352.765	215.81
352.992	207.81
353.22	225.81
353.447	205.81
353.674	203.81
353.901	213.81
354.128	204.81
354.355	205.81
354.583	208.81
354.81	211.81
355.037	235.81
355.264	219.81
355.491	219.81
355.718	249.81
355.945	239.81
356.172	247.81
356.399	239.81
356.626	253.81
356.853	286.81
357.08	317.81
357.307	325.81
357.534	266.81
357.761	273.81
357.988	332.81
358.215	373.81
358.441	331.81
358.668	289.81
358.895	291.81
359.122	258.81
359.349	261.81
359.576	303.81
359.802	236.81
360.029	221.81
360.256	235.81
360.483	253.81
360.709	307.81
360.936	322.81
361.163	284.81
361.39	246.81
361.616	216.81
361.843	234.81
362.07	276.81
362.296	262.81
362.523	219.81
362.749	220.81
362.976	226.81
363.203	251.81
363.429	263.81
363.656	212.81
363.882	202.81
364.109	215.81
364.335	224.81
364.562	209.81
364.788	244.81
365.015	259.81
365.241	243.81
365.468	188.81
365.694	193.81
365.92	201.81
366.147	194.81
366.373	180.81
366.599	187.81
366.826	173.81
367.052	188.81
367.278	187.81
367.505	198.81
367.731	194.81
367.957	228.81
368.184	213.81
368.41	215.81
368.636	217.81
368.862	229.81
369.089	225.81
369.315	198.81
369.541	207.81
369.767	190.81
369.993	204.81
370.219	185.81
370.445	207.81
370.672	216.81
370.898	223.81
371.124	229.81
371.35	220.81
371.576	205.81
371.802	220.81
372.028	235.81
372.254	256.81
372.48	250.81
372.706	211.81
372.932	225.81
373.158	238.81
373.384	273.81
373.61	340.81
373.835	326.81
374.061	275.81
374.287	235.81
374.513	292.81
374.739	308.81
374.965	328.81
375.191	312.81
375.416	244.81
375.642	232.81
375.868	255.81
376.094	279.81
376.319	233.81
376.545	273.81
376.771	260.81
376.997	252.81
377.222	200.81
377.448	188.81
377.674	205.81
377.899	188.81
378.125	191.81
378.35	189.81
378.576	198.81
378.802	211.81
379.027	195.81
379.253	217.81
379.478	200.81
379.704	234.81
379.929	237.81
380.155	229.81
380.38	220.81
380.606	230.81
380.831	225.81
381.057	220.81
381.282	225.81
381.507	221.81
381.733	273.81
381.958	299.81
382.184	288.81
382.409	309.81
382.634	325.81
382.86	323.81
383.085	297.81
383.31	253.81
383.535	262.81
383.761	266.81
383.986	241.81
384.211	296.81
384.436	294.81
384.662	267.81
384.887	229.81
385.112	241.81
385.337	229.81
385.562	236.81
385.787	248.81
386.013	259.81
386.238	293.81
386.463	227.81
386.688	217.81
386.913	208.81
387.138	221.81
387.363	222.81
387.588	230.81
387.813	225.81
388.038	248.81
388.263	234.81
388.488	220.81
388.713	256.81
388.938	271.81
389.163	224.81
389.387	227.81
389.612	217.81
389.837	214.81
390.062	223.81
390.287	238.81
390.512	231.81
390.736	224.81
390.961	225.81
391.186	200.81
391.411	211.81
391.636	213.81
391.86	239.81
392.085	256.81
392.31	245.81
392.534	250.81
392.759	233.81
392.984	224.81
393.208	235.81
393.433	232.81
393.658	226.81
393.882	198.81
394.107	205.81
394.331	216.81
394.556	220.81
394.78	216.81
395.005	211.81
395.229	207.81
395.454	215.81
395.678	218.81
395.903	212.81
396.127	201.81
396.352	214.81
396.576	220.81
396.801	216.81
397.025	227.81
397.249	255.81
397.474	217.81
397.698	223.81
397.922	212.81
398.147	220.81
398.371	221.81
398.595	236.81
398.82	237.81
399.044	243.81
399.268	251.81
399.492	264.81
399.717	287.81
399.941	284.81
400.165	267.81
400.389	241.81
400.613	256.81
400.837	253.81
401.062	228.81
401.286	225.81
401.51	225.81
401.734	228.81
401.958	247.81
402.182	224.81
402.406	225.81
402.63	221.81
402.854	248.81
403.078	273.81
403.302	326.81
403.526	357.81
403.75	329.81
403.974	265.81
404.198	285.81
404.422	303.81
404.645	307.81
404.869	348.81
405.093	276.81
405.317	259.81
405.541	267.81
405.765	268.81
405.988	244.81
406.212	265.81
406.436	301.81
406.66	291.81
406.883	281.81
407.107	271.81
407.331	287.81
407.555	313.81
407.778	288.81
408.002	281.81
408.226	280.81
408.449	267.81
408.673	267.81
408.896	247.81
409.12	240.81
409.344	245.81
409.567	234.81
409.791	256.81
410.014	251.81
410.238	240.81
410.461	241.81
410.685	213.81
410.908	233.81
411.132	236.81
411.355	246.81
411.578	256.81
411.802	234.81
412.025	238.81
412.249	234.81
412.472	239.81
412.695	228.81
412.919	241.81
413.142	229.81
413.365	245.81
413.589	245.81
413.812	216.81
414.035	235.81
414.258	243.81
414.482	261.81
414.705	241.81
414.928	246.81
415.151	235.81
415.374	231.81
415.597	217.81
415.821	227.81
416.044	229.81
416.267	220.81
416.49	215.81
416.713	221.81
416.936	223.81
417.159	218.81
417.382	216.81
417.605	216.81
417.828	240.81
418.051	224.81
418.274	243.81
418.497	232.81
418.72	216.81
418.943	245.81
419.166	240.81
419.389	264.81
419.611	257.81
419.834	223.81
420.057	258.81
420.28	253.81
420.503	241.81
420.726	240.81
420.948	229.81
421.171	234.81
421.394	214.81
421.617	228.81
421.839	232.81
422.062	226.81
422.285	229.81
422.507	234.81
422.73	221.81
422.953	257.81
423.175	235.81
423.398	255.81
423.621	234.81
423.843	254.81
424.066	257.81
424.288	250.81
424.511	235.81
424.733	241.81
424.956	240.81
425.178	244.81
425.401	298.81
425.623	340.81
425.846	298.81
426.068	247.81
426.291	248.81
426.513	257.81
426.735	245.81
426.958	245.81
427.18	269.81
427.402	313.81
427.625	332.81
427.847	307.81
428.069	231.81
428.292	229.81
428.514	221.81
428.736	216.81
428.958	246.81
429.181	293.81
429.403	255.81
429.625	218.81
429.847	243.81
430.069	224.81
430.292	215.81
430.514	209.81
430.736	229.81
430.958	268.81
431.18	257.81
431.402	224.81
431.624	208.81
431.846	224.81
432.068	220.81
432.29	205.81
432.512	230.81
432.734	270.81
432.956	261.81
433.178	230.81
433.4	206.81
433.622	225.81
433.844	233.81
434.066	230.81
434.287	243.81
434.509	216.81
434.731	242.81
434.953	221.81
435.175	245.81
435.397	262.81
435.618	220.81
435.84	218.81
436.062	215.81
436.284	214.81
436.505	212.81
436.727	217.81
436.949	217.81
437.17	215.81
437.392	216.81
437.614	216.81
437.835	210.81
438.057	227.81
438.278	238.81
438.5	300.81
438.721	315.81
438.943	247.81
439.165	226.81
439.386	204.81
439.608	210.81
439.829	204.81
440.05	224.81
440.272	221.81
440.493	242.81
440.715	277.81
440.936	230.81
441.158	225.81
441.379	239.81
441.6	255.81
441.822	240.81
442.043	218.81
442.264	224.81
442.486	227.81
442.707	231.81
442.928	230.81
443.149	225.81
443.371	232.81
443.592	245.81
443.813	222.81
444.034	226.81
444.255	245.81
444.476	255.81
444.698	249.81
444.919	263.81
445.14	376.81
445.361	316.81
445.582	241.81
445.803	231.81
446.024	253.81
446.245	236.81
446.466	236.81
446.687	233.81
446.908	228.81
447.129	234.81
447.35	235.81
447.571	204.81
447.792	191.81
448.013	211.81
448.234	204.81
448.455	211.81
448.675	208.81
448.896	214.81
449.117	201.81
449.338	229.81
449.559	204.81
449.779	229.81
450	226.81
450.221	213.81
450.442	204.81
450.662	196.81
450.883	221.81
451.104	224.81
451.324	220.81
451.545	202.81
451.766	204.81
451.986	210.81
452.207	207.81
452.428	199.81
452.648	217.81
452.869	214.81
453.089	221.81
453.31	220.81
453.53	190.81
453.751	210.81
453.971	205.81
454.192	207.81
454.412	223.81
454.633	209.81
454.853	208.81
455.073	217.81
455.294	187.81
455.514	210.81
455.734	193.81
455.955	207.81
456.175	214.81
456.395	209.81
456.616	223.81
456.836	196.81
457.056	191.81
457.276	184.81
457.497	193.81
457.717	192.81
457.937	200.81
458.157	200.81
458.377	200.81
458.598	194.81
458.818	210.81
459.038	205.81
459.258	212.81
459.478	216.81
459.698	224.81
459.918	243.81
460.138	229.81
460.358	237.81
460.578	214.81
460.798	244.81
461.018	234.81
461.238	226.81
461.458	235.81
461.678	241.81
461.898	247.81
462.118	225.81
462.338	247.81
462.558	273.81
462.777	252.81
462.997	292.81
463.217	309.81
463.437	287.81
463.657	277.81
463.876	264.81
464.096	277.81
464.316	260.81
464.536	251.81
464.755	262.81
464.975	261.81
465.195	249.81
465.414	243.81
465.634	255.81
465.854	240.81
466.073	229.81
466.293	196.81
466.512	235.81
466.732	213.81
466.951	249.81
467.171	223.81
467.391	224.81
467.61	226.81
467.829	214.81
468.049	215.81
468.268	208.81
468.488	216.81
468.707	210.81
468.927	226.81
469.146	244.81
469.365	226.81
469.585	225.81
469.804	239.81
470.023	259.81
470.243	234.81
470.462	225.81
470.681	221.81
470.901	237.81
471.12	244.81
471.339	240.81
471.558	213.81
471.777	217.81
471.997	221.81
472.216	245.81
472.435	240.81
472.654	237.81
472.873	229.81
473.092	230.81
473.311	221.81
473.53	219.81
473.749	221.81
473.968	232.81
474.187	228.81
474.406	219.81
474.625	233.81
474.844	236.81
475.063	237.81
475.282	230.81
475.501	229.81
475.72	257.81
475.939	266.81
476.158	241.81
476.377	274.81
476.596	293.81
476.814	321.81
477.033	277.81
477.252	243.81
477.471	224.81
477.69	244.81
477.908	250.81
478.127	261.81
478.346	264.81
478.564	264.81
478.783	266.81
479.002	259.81
479.22	293.81
479.439	301.81
479.658	276.81
479.876	269.81
480.095	283.81
480.313	291.81
480.532	281.81
480.751	273.81
480.969	259.81
481.188	278.81
481.406	280.81
481.624	297.81
481.843	244.81
482.061	249.81
482.28	255.81
482.498	304.81
482.717	307.81
482.935	270.81
483.153	251.81
483.372	233.81
483.59	256.81
483.808	237.81
484.027	236.81
484.245	229.81
484.463	246.81
484.681	255.81
484.9	235.81
485.118	266.81
485.336	259.81
485.554	246.81
485.772	259.81
485.99	282.81
486.209	259.81
486.427	243.81
486.645	269.81
486.863	268.81
487.081	270.81
487.299	283.81
487.517	276.81
487.735	280.81
487.953	276.81
488.171	258.81
488.389	268.81
488.607	246.81
488.825	258.81
489.043	268.81
489.261	298.81
489.479	308.81
489.696	275.81
489.914	265.81
490.132	257.81
490.35	265.81
490.568	269.81
490.786	255.81
491.003	260.81
491.221	259.81
491.439	261.81
491.657	249.81
491.874	277.81
492.092	287.81
492.31	343.81
492.527	321.81
492.745	300.81
492.963	282.81
493.18	292.81
493.398	286.81
493.615	279.81
493.833	278.81
494.05	267.81
494.268	293.81
494.485	289.81
494.703	283.81
494.92	266.81
495.138	283.81
495.355	266.81
495.573	267.81
495.79	295.81
496.008	332.81
496.225	305.81
496.442	287.81
496.66	279.81
496.877	292.81
497.094	285.81
497.312	283.81
497.529	276.81
497.746	285.81
497.963	303.81
498.181	310.81
498.398	322.81
498.615	337.81
498.832	347.81
499.049	376.81
499.267	357.81
499.484	362.81
499.701	394.81
499.918	441.81
500.135	476.81
500.352	515.81
500.569	520.81
500.786	535.81
501.003	513.81
501.22	465.81
501.437	439.81
501.654	379.81
501.871	376.81
502.088	363.81
502.305	335.81
502.522	331.81
