Data from NickelSpatula.Lamp.E5.5.P2_HRD10591_11-52-03-556.txt Node
Date: Tue Jul 23 11:52:03 EDT 2019
User: cochatt
Spectrometer: HR+D1059
Trigger mode: 1
Integration Time (sec): 1.000000E-1
Scans to average: 1
Electric dark correction enabled: true
Nonlinearity correction enabled: false
Boxcar width: 0
XAxis mode: Wavelengths
Number of Pixels in Spectrum: 2048
>>>>>Begin Spectral Data<<<<<
223.165	-4.88
223.4	-4.88
223.635	-4.88
223.869	-17.88
224.104	-17.88
224.338	-12.88
224.573	-4.88
224.808	-8.88
225.042	-9.88
225.277	-14.88
225.511	-0.88
225.746	-15.88
225.98	4.12
226.215	6.12
226.449	25.12
226.683	23.12
226.918	24.12
227.152	26.12
227.387	35.12
227.621	36.12
227.856	31.12
228.09	53.12
228.324	45.12
228.559	46.12
228.793	59.12
229.027	106.12
229.262	73.12
229.496	95.12
229.73	80.12
229.964	69.12
230.199	84.12
230.433	102.12
230.667	98.12
230.901	98.12
231.136	96.12
231.37	101.12
231.604	115.12
231.838	102.12
232.072	126.12
232.306	115.12
232.541	119.12
232.775	99.12
233.009	116.12
233.243	101.12
233.477	122.12
233.711	133.12
233.945	112.12
234.179	115.12
234.413	126.12
234.647	135.12
234.881	158.12
235.115	139.12
235.349	135.12
235.583	117.12
235.817	130.12
236.051	135.12
236.285	147.12
236.519	162.12
236.753	139.12
236.987	127.12
237.221	138.12
237.455	126.12
237.689	137.12
237.922	150.12
238.156	133.12
238.39	161.12
238.624	185.12
238.858	173.12
239.091	153.12
239.325	151.12
239.559	145.12
239.793	150.12
240.027	189.12
240.26	193.12
240.494	176.12
240.728	156.12
240.961	194.12
241.195	175.12
241.429	178.12
241.662	182.12
241.896	153.12
242.13	139.12
242.363	133.12
242.597	134.12
242.83	162.12
243.064	167.12
243.298	173.12
243.531	185.12
243.765	187.12
243.998	186.12
244.232	179.12
244.465	162.12
244.699	175.12
244.932	178.12
245.166	167.12
245.399	153.12
245.633	155.12
245.866	163.12
246.099	153.12
246.333	190.12
246.566	216.12
246.8	213.12
247.033	202.12
247.266	198.12
247.5	190.12
247.733	168.12
247.966	178.12
248.2	182.12
248.433	183.12
248.666	224.12
248.899	201.12
249.133	214.12
249.366	234.12
249.599	254.12
249.832	243.12
250.066	228.12
250.299	215.12
250.532	204.12
250.765	229.12
250.998	211.12
251.231	211.12
251.465	206.12
251.698	223.12
251.931	214.12
252.164	212.12
252.397	226.12
252.63	266.12
252.863	282.12
253.096	292.12
253.329	275.12
253.562	265.12
253.795	290.12
254.028	341.12
254.261	333.12
254.494	298.12
254.727	270.12
254.96	276.12
255.193	300.12
255.426	295.12
255.659	215.12
255.892	208.12
256.124	228.12
256.357	250.12
256.59	295.12
256.823	274.12
257.056	236.12
257.289	241.12
257.521	262.12
257.754	271.12
257.987	334.12
258.22	294.12
258.452	258.12
258.685	282.12
258.918	317.12
259.151	305.12
259.383	318.12
259.616	354.12
259.849	366.12
260.081	401.12
260.314	419.12
260.547	345.12
260.779	354.12
261.012	427.12
261.244	387.12
261.477	398.12
261.71	342.12
261.942	298.12
262.175	317.12
262.407	293.12
262.64	311.12
262.872	373.12
263.105	373.12
263.337	399.12
263.57	374.12
263.802	243.12
264.035	241.12
264.267	234.12
264.499	217.12
264.732	192.12
264.964	191.12
265.197	197.12
265.429	214.12
265.661	241.12
265.894	222.12
266.126	232.12
266.358	247.12
266.591	295.12
266.823	342.12
267.055	336.12
267.287	315.12
267.52	305.12
267.752	325.12
267.984	359.12
268.216	339.12
268.448	307.12
268.681	271.12
268.913	299.12
269.145	311.12
269.377	325.12
269.609	338.12
269.841	300.12
270.073	316.12
270.306	343.12
270.538	344.12
270.77	341.12
271.002	354.12
271.234	360.12
271.466	343.12
271.698	346.12
271.93	317.12
272.162	342.12
272.394	344.12
272.626	317.12
272.858	341.12
273.09	342.12
273.322	289.12
273.553	287.12
273.785	320.12
274.017	429.12
274.249	503.12
274.481	534.12
274.713	575.12
274.945	671.12
275.176	680.12
275.408	620.12
275.64	576.12
275.872	578.12
276.104	495.12
276.335	446.12
276.567	439.12
276.799	450.12
277.031	451.12
277.262	371.12
277.494	289.12
277.726	289.12
277.957	296.12
278.189	344.12
278.421	354.12
278.652	333.12
278.884	320.12
279.115	292.12
279.347	259.12
279.579	282.12
279.81	305.12
280.042	300.12
280.273	307.12
280.505	281.12
280.736	241.12
280.968	262.12
281.199	269.12
281.431	323.12
281.662	310.12
281.894	298.12
282.125	325.12
282.356	335.12
282.588	328.12
282.819	287.12
283.051	296.12
283.282	380.12
283.513	423.12
283.745	468.12
283.976	514.12
284.207	459.12
284.439	466.12
284.67	443.12
284.901	397.12
285.132	449.12
285.364	459.12
285.595	442.12
285.826	447.12
286.057	457.12
286.288	455.12
286.52	433.12
286.751	472.12
286.982	485.12
287.213	426.12
287.444	395.12
287.675	414.12
287.906	425.12
288.138	360.12
288.369	346.12
288.6	284.12
288.831	317.12
289.062	371.12
289.293	414.12
289.524	375.12
289.755	384.12
289.986	387.12
290.217	359.12
290.448	285.12
290.679	250.12
290.91	237.12
291.141	252.12
291.371	254.12
291.602	240.12
291.833	245.12
292.064	258.12
292.295	291.12
292.526	327.12
292.757	328.12
292.987	367.12
293.218	365.12
293.449	383.12
293.68	413.12
293.91	410.12
294.141	420.12
294.372	389.12
294.603	342.12
294.833	383.12
295.064	451.12
295.295	434.12
295.525	328.12
295.756	289.12
295.987	260.12
296.217	259.12
296.448	259.12
296.679	257.12
296.909	307.12
297.14	297.12
297.37	341.12
297.601	325.12
297.831	273.12
298.062	287.12
298.292	325.12
298.523	348.12
298.753	409.12
298.984	362.12
299.214	289.12
299.445	259.12
299.675	274.12
299.905	259.12
300.136	271.12
300.366	272.12
300.597	260.12
300.827	246.12
301.057	232.12
301.288	250.12
301.518	253.12
301.748	273.12
301.979	307.12
302.209	325.12
302.439	312.12
302.669	291.12
302.9	297.12
303.13	305.12
303.36	270.12
303.59	261.12
303.82	286.12
304.051	290.12
304.281	324.12
304.511	309.12
304.741	275.12
304.971	296.12
305.201	307.12
305.431	294.12
305.661	233.12
305.891	249.12
306.121	256.12
306.352	229.12
306.582	226.12
306.812	213.12
307.042	221.12
307.272	204.12
307.502	197.12
307.731	220.12
307.961	228.12
308.191	218.12
308.421	212.12
308.651	206.12
308.881	197.12
309.111	195.12
309.341	224.12
309.571	236.12
309.8	235.12
310.03	227.12
310.26	261.12
310.49	240.12
310.72	229.12
310.949	234.12
311.179	218.12
311.409	243.12
311.639	258.12
311.868	336.12
312.098	405.12
312.328	454.12
312.557	422.12
312.787	424.12
313.017	373.12
313.246	411.12
313.476	449.12
313.706	383.12
313.935	334.12
314.165	273.12
314.394	239.12
314.624	243.12
314.853	264.12
315.083	267.12
315.312	266.12
315.542	231.12
315.771	251.12
316.001	229.12
316.23	199.12
316.46	200.12
316.689	200.12
316.919	216.12
317.148	228.12
317.377	234.12
317.607	214.12
317.836	230.12
318.065	242.12
318.295	289.12
318.524	262.12
318.753	255.12
318.983	243.12
319.212	234.12
319.441	244.12
319.67	257.12
319.9	282.12
320.129	271.12
320.358	243.12
320.587	224.12
320.816	232.12
321.046	271.12
321.275	304.12
321.504	291.12
321.733	293.12
321.962	273.12
322.191	278.12
322.42	269.12
322.649	252.12
322.878	274.12
323.108	279.12
323.337	282.12
323.566	251.12
323.795	267.12
324.024	259.12
324.253	257.12
324.482	249.12
324.71	261.12
324.939	280.12
325.168	261.12
325.397	245.12
325.626	245.12
325.855	215.12
326.084	237.12
326.313	209.12
326.542	217.12
326.77	229.12
326.999	219.12
327.228	233.12
327.457	256.12
327.686	242.12
327.914	220.12
328.143	221.12
328.372	209.12
328.6	205.12
328.829	215.12
329.058	216.12
329.287	203.12
329.515	215.12
329.744	223.12
329.972	216.12
330.201	218.12
330.43	219.12
330.658	220.12
330.887	252.12
331.115	234.12
331.344	246.12
331.572	246.12
331.801	225.12
332.03	218.12
332.258	226.12
332.486	252.12
332.715	241.12
332.943	240.12
333.172	224.12
333.4	247.12
333.629	263.12
333.857	283.12
334.085	291.12
334.314	277.12
334.542	251.12
334.771	241.12
334.999	237.12
335.227	231.12
335.455	229.12
335.684	258.12
335.912	292.12
336.14	315.12
336.369	301.12
336.597	294.12
336.825	311.12
337.053	353.12
337.281	290.12
337.51	240.12
337.738	237.12
337.966	245.12
338.194	275.12
338.422	257.12
338.65	247.12
338.878	234.12
339.106	232.12
339.334	241.12
339.562	259.12
339.79	253.12
340.018	237.12
340.246	236.12
340.474	258.12
340.702	289.12
340.93	313.12
341.158	305.12
341.386	256.12
341.614	244.12
341.842	271.12
342.07	277.12
342.298	319.12
342.526	349.12
342.754	262.12
342.981	262.12
343.209	238.12
343.437	278.12
343.665	282.12
343.893	289.12
344.12	328.12
344.348	375.12
344.576	339.12
344.804	281.12
345.031	254.12
345.259	237.12
345.487	223.12
345.714	229.12
345.942	254.12
346.17	280.12
346.397	278.12
346.625	251.12
346.853	217.12
347.08	230.12
347.308	251.12
347.535	261.12
347.763	273.12
347.99	224.12
348.218	228.12
348.445	239.12
348.673	231.12
348.9	245.12
349.128	237.12
349.355	264.12
349.583	258.12
349.81	260.12
350.037	228.12
350.265	205.12
350.492	188.12
350.72	204.12
350.947	202.12
351.174	213.12
351.402	232.12
351.629	231.12
351.856	217.12
352.083	216.12
352.311	218.12
352.538	241.12
352.765	257.12
352.992	240.12
353.22	230.12
353.447	249.12
353.674	229.12
353.901	234.12
354.128	223.12
354.355	252.12
354.583	233.12
354.81	249.12
355.037	257.12
355.264	252.12
355.491	267.12
355.718	282.12
355.945	245.12
356.172	261.12
356.399	241.12
356.626	272.12
356.853	349.12
357.08	354.12
357.307	376.12
357.534	303.12
357.761	307.12
357.988	366.12
358.215	437.12
358.441	403.12
358.668	344.12
358.895	324.12
359.122	263.12
359.349	270.12
359.576	310.12
359.802	262.12
360.029	230.12
360.256	252.12
360.483	280.12
360.709	365.12
360.936	372.12
361.163	323.12
361.39	258.12
361.616	232.12
361.843	274.12
362.07	302.12
362.296	299.12
362.523	245.12
362.749	237.12
362.976	231.12
363.203	280.12
363.429	297.12
363.656	243.12
363.882	241.12
364.109	243.12
364.335	259.12
364.562	243.12
364.788	250.12
365.015	295.12
365.241	284.12
365.468	238.12
365.694	208.12
365.92	199.12
366.147	196.12
366.373	208.12
366.599	197.12
366.826	208.12
367.052	221.12
367.278	182.12
367.505	205.12
367.731	219.12
367.957	248.12
368.184	263.12
368.41	230.12
368.636	249.12
368.862	251.12
369.089	248.12
369.315	226.12
369.541	207.12
369.767	209.12
369.993	220.12
370.219	214.12
370.445	238.12
370.672	255.12
370.898	252.12
371.124	252.12
371.35	221.12
371.576	223.12
371.802	235.12
372.028	263.12
372.254	293.12
372.48	263.12
372.706	237.12
372.932	263.12
373.158	274.12
373.384	287.12
373.61	365.12
373.835	378.12
374.061	307.12
374.287	268.12
374.513	312.12
374.739	359.12
374.965	378.12
375.191	388.12
375.416	295.12
375.642	248.12
375.868	275.12
376.094	321.12
376.319	270.12
376.545	313.12
376.771	295.12
376.997	257.12
377.222	212.12
377.448	180.12
377.674	202.12
377.899	191.12
378.125	184.12
378.35	202.12
378.576	215.12
378.802	204.12
379.027	242.12
379.253	215.12
379.478	218.12
379.704	259.12
379.929	263.12
380.155	268.12
380.38	215.12
380.606	246.12
380.831	275.12
381.057	262.12
381.282	248.12
381.507	263.12
381.733	330.12
381.958	342.12
382.184	347.12
382.409	367.12
382.634	351.12
382.86	365.12
383.085	329.12
383.31	281.12
383.535	298.12
383.761	285.12
383.986	265.12
384.211	334.12
384.436	323.12
384.662	258.12
384.887	242.12
385.112	254.12
385.337	264.12
385.562	259.12
385.787	274.12
386.013	296.12
386.238	298.12
386.463	266.12
386.688	238.12
386.913	234.12
387.138	216.12
387.363	233.12
387.588	239.12
387.813	241.12
388.038	266.12
388.263	248.12
388.488	224.12
388.713	276.12
388.938	288.12
389.163	244.12
389.387	225.12
389.612	213.12
389.837	229.12
390.062	235.12
390.287	240.12
390.512	259.12
390.736	227.12
390.961	224.12
391.186	224.12
391.411	230.12
391.636	231.12
391.86	239.12
392.085	245.12
392.31	261.12
392.534	243.12
392.759	246.12
392.984	253.12
393.208	260.12
393.433	245.12
393.658	217.12
393.882	215.12
394.107	203.12
394.331	204.12
394.556	205.12
394.78	226.12
395.005	220.12
395.229	224.12
395.454	215.12
395.678	223.12
395.903	239.12
396.127	242.12
396.352	238.12
396.576	239.12
396.801	262.12
397.025	262.12
397.249	271.12
397.474	226.12
397.698	231.12
397.922	261.12
398.147	237.12
398.371	234.12
398.595	263.12
398.82	249.12
399.044	250.12
399.268	263.12
399.492	297.12
399.717	291.12
399.941	297.12
400.165	273.12
400.389	258.12
400.613	269.12
400.837	253.12
401.062	225.12
401.286	231.12
401.51	238.12
401.734	237.12
401.958	233.12
402.182	237.12
402.406	249.12
402.63	247.12
402.854	258.12
403.078	296.12
403.302	373.12
403.526	389.12
403.75	363.12
403.974	289.12
404.198	303.12
404.422	302.12
404.645	331.12
404.869	360.12
405.093	305.12
405.317	257.12
405.541	265.12
405.765	272.12
405.988	271.12
406.212	274.12
406.436	298.12
406.66	352.12
406.883	278.12
407.107	295.12
407.331	332.12
407.555	322.12
407.778	303.12
408.002	291.12
408.226	263.12
408.449	285.12
408.673	286.12
408.896	257.12
409.12	241.12
409.344	260.12
409.567	263.12
409.791	249.12
410.014	262.12
410.238	247.12
410.461	262.12
410.685	256.12
410.908	234.12
411.132	246.12
411.355	257.12
411.578	263.12
411.802	247.12
412.025	242.12
412.249	262.12
412.472	233.12
412.695	243.12
412.919	257.12
413.142	251.12
413.365	257.12
413.589	275.12
413.812	225.12
414.035	237.12
414.258	249.12
414.482	261.12
414.705	281.12
414.928	240.12
415.151	221.12
415.374	223.12
415.597	240.12
415.821	243.12
416.044	230.12
416.267	234.12
416.49	222.12
416.713	230.12
416.936	221.12
417.159	226.12
417.382	240.12
417.605	241.12
417.828	255.12
418.051	244.12
418.274	233.12
418.497	254.12
418.72	248.12
418.943	261.12
419.166	256.12
419.389	266.12
419.611	267.12
419.834	266.12
420.057	284.12
420.28	286.12
420.503	262.12
420.726	234.12
420.948	234.12
421.171	238.12
421.394	257.12
421.617	237.12
421.839	234.12
422.062	255.12
422.285	246.12
422.507	244.12
422.73	255.12
422.953	253.12
423.175	245.12
423.398	262.12
423.621	261.12
423.843	272.12
424.066	257.12
424.288	252.12
424.511	242.12
424.733	231.12
424.956	258.12
425.178	280.12
425.401	322.12
425.623	389.12
425.846	315.12
426.068	262.12
426.291	279.12
426.513	242.12
426.735	239.12
426.958	258.12
427.18	294.12
427.402	335.12
427.625	375.12
427.847	313.12
428.069	256.12
428.292	253.12
428.514	240.12
428.736	229.12
428.958	257.12
429.181	306.12
429.403	262.12
429.625	242.12
429.847	240.12
430.069	237.12
430.292	231.12
430.514	242.12
430.736	228.12
430.958	266.12
431.18	266.12
431.402	214.12
431.624	220.12
431.846	215.12
432.068	220.12
432.29	209.12
432.512	225.12
432.734	282.12
432.956	286.12
433.178	250.12
433.4	225.12
433.622	243.12
433.844	242.12
434.066	258.12
434.287	254.12
434.509	222.12
434.731	239.12
434.953	265.12
435.175	264.12
435.397	289.12
435.618	252.12
435.84	240.12
436.062	231.12
436.284	238.12
436.505	212.12
436.727	210.12
436.949	234.12
437.17	245.12
437.392	214.12
437.614	229.12
437.835	213.12
438.057	214.12
438.278	259.12
438.5	310.12
438.721	319.12
438.943	244.12
439.165	234.12
439.386	211.12
439.608	224.12
439.829	207.12
440.05	201.12
440.272	207.12
440.493	258.12
440.715	299.12
440.936	261.12
441.158	225.12
441.379	235.12
441.6	261.12
441.822	282.12
442.043	246.12
442.264	226.12
442.486	229.12
442.707	226.12
442.928	264.12
443.149	243.12
443.371	247.12
443.592	256.12
443.813	266.12
444.034	241.12
444.255	258.12
444.476	261.12
444.698	256.12
444.919	275.12
445.14	329.12
445.361	325.12
445.582	267.12
445.803	255.12
446.024	266.12
446.245	261.12
446.466	253.12
446.687	254.12
446.908	239.12
447.129	239.12
447.35	214.12
447.571	213.12
447.792	207.12
448.013	220.12
448.234	217.12
448.455	208.12
448.675	215.12
448.896	206.12
449.117	224.12
449.338	216.12
449.559	221.12
449.779	228.12
450	237.12
450.221	222.12
450.442	229.12
450.662	228.12
450.883	221.12
451.104	228.12
451.324	218.12
451.545	230.12
451.766	220.12
451.986	225.12
452.207	234.12
452.428	204.12
452.648	222.12
452.869	241.12
453.089	226.12
453.31	224.12
453.53	210.12
453.751	214.12
453.971	203.12
454.192	227.12
454.412	223.12
454.633	219.12
454.853	223.12
455.073	209.12
455.294	203.12
455.514	225.12
455.734	192.12
455.955	211.12
456.175	212.12
456.395	210.12
456.616	193.12
456.836	201.12
457.056	207.12
457.276	187.12
457.497	199.12
457.717	205.12
457.937	199.12
458.157	207.12
458.377	200.12
458.598	218.12
458.818	218.12
459.038	213.12
459.258	237.12
459.478	226.12
459.698	253.12
459.918	241.12
460.138	260.12
460.358	266.12
460.578	233.12
460.798	244.12
461.018	264.12
461.238	238.12
461.458	240.12
461.678	257.12
461.898	259.12
462.118	259.12
462.338	281.12
462.558	271.12
462.777	275.12
462.997	287.12
463.217	295.12
463.437	311.12
463.657	266.12
463.876	263.12
464.096	267.12
464.316	285.12
464.536	282.12
464.755	291.12
464.975	290.12
465.195	258.12
465.414	264.12
465.634	270.12
465.854	258.12
466.073	238.12
466.293	237.12
466.512	258.12
466.732	261.12
466.951	273.12
467.171	240.12
467.391	237.12
467.61	249.12
467.829	242.12
468.049	257.12
468.268	234.12
468.488	219.12
468.707	240.12
468.927	264.12
469.146	294.12
469.365	266.12
469.585	250.12
469.804	269.12
470.023	291.12
470.243	255.12
470.462	249.12
470.681	230.12
470.901	243.12
471.12	263.12
471.339	244.12
471.558	234.12
471.777	222.12
471.997	262.12
472.216	271.12
472.435	276.12
472.654	239.12
472.873	251.12
473.092	257.12
473.311	273.12
473.53	258.12
473.749	244.12
473.968	255.12
474.187	244.12
474.406	241.12
474.625	255.12
474.844	244.12
475.063	267.12
475.282	261.12
475.501	269.12
475.72	284.12
475.939	286.12
476.158	274.12
476.377	344.12
476.596	350.12
476.814	390.12
477.033	331.12
477.252	273.12
477.471	263.12
477.69	265.12
477.908	280.12
478.127	298.12
478.346	290.12
478.564	305.12
478.783	284.12
479.002	279.12
479.22	322.12
479.439	329.12
479.658	303.12
479.876	304.12
480.095	311.12
480.313	306.12
480.532	286.12
480.751	291.12
480.969	296.12
481.188	329.12
481.406	321.12
481.624	314.12
481.843	282.12
482.061	271.12
482.28	290.12
482.498	359.12
482.717	346.12
482.935	298.12
483.153	258.12
483.372	265.12
483.59	266.12
483.808	275.12
484.027	281.12
484.245	253.12
484.463	263.12
484.681	275.12
484.9	274.12
485.118	312.12
485.336	275.12
485.554	265.12
485.772	303.12
485.99	311.12
486.209	292.12
486.427	301.12
486.645	305.12
486.863	312.12
487.081	304.12
487.299	328.12
487.517	329.12
487.735	301.12
487.953	290.12
488.171	308.12
488.389	281.12
488.607	282.12
488.825	291.12
489.043	307.12
489.261	343.12
489.479	350.12
489.696	314.12
489.914	271.12
490.132	266.12
490.35	277.12
490.568	281.12
490.786	291.12
491.003	293.12
491.221	278.12
491.439	262.12
491.657	268.12
491.874	264.12
492.092	337.12
492.31	373.12
492.527	378.12
492.745	328.12
492.963	312.12
493.18	317.12
493.398	325.12
493.615	314.12
493.833	288.12
494.05	309.12
494.268	309.12
494.485	286.12
494.703	279.12
494.92	298.12
495.138	298.12
495.355	289.12
495.573	294.12
495.79	307.12
496.008	386.12
496.225	332.12
496.442	323.12
496.66	322.12
496.877	325.12
497.094	315.12
497.312	317.12
497.529	299.12
497.746	298.12
497.963	329.12
498.181	341.12
498.398	358.12
498.615	371.12
498.832	385.12
499.049	422.12
499.267	407.12
499.484	397.12
499.701	440.12
499.918	474.12
500.135	532.12
500.352	549.12
500.569	547.12
500.786	592.12
501.003	545.12
501.22	471.12
501.437	433.12
501.654	430.12
501.871	413.12
502.088	387.12
502.305	370.12
502.522	360.12
