Data from NickelSpatula.Lamp.E10.P2_HRD10591_11-57-51-530.txt Node
Date: Tue Jul 23 11:57:51 EDT 2019
User: cochatt
Spectrometer: HR+D1059
Trigger mode: 1
Integration Time (sec): 1.000000E-1
Scans to average: 1
Electric dark correction enabled: true
Nonlinearity correction enabled: false
Boxcar width: 0
XAxis mode: Wavelengths
Number of Pixels in Spectrum: 2048
>>>>>Begin Spectral Data<<<<<
223.165	-11.75
223.4	-11.75
223.635	-11.75
223.869	-15.75
224.104	-9.75
224.338	-16.75
224.573	-5.75
224.808	-11.75
225.042	-15.75
225.277	-13.75
225.511	-15.75
225.746	-3.75
225.98	6.25
226.215	19.25
226.449	13.25
226.683	25.25
226.918	31.25
227.152	25.25
227.387	27.25
227.621	38.25
227.856	44.25
228.09	37.25
228.324	43.25
228.559	40.25
228.793	81.25
229.027	148.25
229.262	161.25
229.496	162.25
229.73	171.25
229.964	180.25
230.199	222.25
230.433	220.25
230.667	193.25
230.901	216.25
231.136	199.25
231.37	196.25
231.604	235.25
231.838	234.25
232.072	251.25
232.306	249.25
232.541	237.25
232.775	266.25
233.009	263.25
233.243	288.25
233.477	329.25
233.711	337.25
233.945	344.25
234.179	332.25
234.413	362.25
234.647	398.25
234.881	456.25
235.115	431.25
235.349	404.25
235.583	352.25
235.817	365.25
236.051	372.25
236.285	381.25
236.519	472.25
236.753	429.25
236.987	436.25
237.221	435.25
237.455	398.25
237.689	431.25
237.922	465.25
238.156	471.25
238.39	553.25
238.624	671.25
238.858	600.25
239.091	481.25
239.325	515.25
239.559	475.25
239.793	527.25
240.027	651.25
240.26	620.25
240.494	582.25
240.728	583.25
240.961	695.25
241.195	642.25
241.429	611.25
241.662	623.25
241.896	509.25
242.13	485.25
242.363	443.25
242.597	469.25
242.83	512.25
243.064	546.25
243.298	569.25
243.531	630.25
243.765	632.25
243.998	648.25
244.232	604.25
244.465	605.25
244.699	576.25
244.932	657.25
245.166	644.25
245.399	524.25
245.633	518.25
245.866	563.25
246.099	619.25
246.333	714.25
246.566	783.25
246.8	759.25
247.033	723.25
247.266	667.25
247.5	677.25
247.733	667.25
247.966	652.25
248.2	699.25
248.433	746.25
248.666	841.25
248.899	839.25
249.133	861.25
249.366	994.25
249.599	1029.25
249.832	956.25
250.066	803.25
250.299	831.25
250.532	807.25
250.765	815.25
250.998	724.25
251.231	715.25
251.465	755.25
251.698	822.25
251.931	811.25
252.164	813.25
252.397	937.25
252.63	1041.25
252.863	1161.25
253.096	1187.25
253.329	1161.25
253.562	1108.25
253.795	1221.25
254.028	1369.25
254.261	1372.25
254.494	1241.25
254.727	1147.25
254.96	1115.25
255.193	1173.25
255.426	1145.25
255.659	853.25
255.892	792.25
256.124	885.25
256.357	977.25
256.59	1183.25
256.823	1153.25
257.056	939.25
257.289	880.25
257.521	1003.25
257.754	1130.25
257.987	1235.25
258.22	1100.25
258.452	980.25
258.685	1145.25
258.918	1265.25
259.151	1232.25
259.383	1299.25
259.616	1468.25
259.849	1566.25
260.081	1677.25
260.314	1913.25
260.547	1504.25
260.779	1463.25
261.012	1693.25
261.244	1602.25
261.477	1625.25
261.71	1528.25
261.942	1289.25
262.175	1292.25
262.407	1225.25
262.64	1260.25
262.872	1513.25
263.105	1678.25
263.337	1710.25
263.57	1499.25
263.802	1032.25
264.035	897.25
264.267	846.25
264.499	780.25
264.732	716.25
264.964	712.25
265.197	726.25
265.429	753.25
265.661	795.25
265.894	845.25
266.126	919.25
266.358	993.25
266.591	1204.25
266.823	1488.25
267.055	1406.25
267.287	1277.25
267.52	1239.25
267.752	1300.25
267.984	1443.25
268.216	1369.25
268.448	1137.25
268.681	1122.25
268.913	1187.25
269.145	1261.25
269.377	1276.25
269.609	1265.25
269.841	1201.25
270.073	1260.25
270.306	1376.25
270.538	1379.25
270.77	1415.25
271.002	1388.25
271.234	1496.25
271.466	1497.25
271.698	1462.25
271.93	1427.25
272.162	1403.25
272.394	1400.25
272.626	1379.25
272.858	1467.25
273.09	1453.25
273.322	1269.25
273.553	1245.25
273.785	1495.25
274.017	1975.25
274.249	2413.25
274.481	2491.25
274.713	2681.25
274.945	3091.25
275.176	3221.25
275.408	2849.25
275.64	2643.25
275.872	2606.25
276.104	2251.25
276.335	1878.25
276.567	1883.25
276.799	1925.25
277.031	2041.25
277.262	1565.25
277.494	1223.25
277.726	1186.25
277.957	1321.25
278.189	1444.25
278.421	1439.25
278.652	1433.25
278.884	1338.25
279.115	1256.25
279.347	1163.25
279.579	1176.25
279.81	1173.25
280.042	1177.25
280.273	1225.25
280.505	1106.25
280.736	1031.25
280.968	996.25
281.199	1084.25
281.431	1226.25
281.662	1205.25
281.894	1168.25
282.125	1223.25
282.356	1306.25
282.588	1388.25
282.819	1273.25
283.051	1345.25
283.282	1669.25
283.513	1923.25
283.745	2135.25
283.976	2151.25
284.207	1997.25
284.439	2067.25
284.67	1946.25
284.901	1766.25
285.132	1924.25
285.364	1985.25
285.595	1866.25
285.826	1949.25
286.057	2026.25
286.288	1964.25
286.52	1986.25
286.751	2079.25
286.982	2047.25
287.213	1816.25
287.444	1717.25
287.675	1841.25
287.906	1823.25
288.138	1506.25
288.369	1339.25
288.6	1239.25
288.831	1289.25
289.062	1541.25
289.293	1673.25
289.524	1583.25
289.755	1573.25
289.986	1644.25
290.217	1446.25
290.448	1087.25
290.679	941.25
290.91	924.25
291.141	912.25
291.371	940.25
291.602	970.25
291.833	985.25
292.064	1036.25
292.295	1191.25
292.526	1352.25
292.757	1436.25
292.987	1551.25
293.218	1542.25
293.449	1539.25
293.68	1667.25
293.91	1572.25
294.141	1627.25
294.372	1488.25
294.603	1389.25
294.833	1553.25
295.064	1800.25
295.295	1735.25
295.525	1292.25
295.756	1130.25
295.987	985.25
296.217	988.25
296.448	1061.25
296.679	1076.25
296.909	1177.25
297.14	1293.25
297.37	1410.25
297.601	1319.25
297.831	1157.25
298.062	1246.25
298.292	1411.25
298.523	1545.25
298.753	1731.25
298.984	1561.25
299.214	1244.25
299.445	1082.25
299.675	1009.25
299.905	982.25
300.136	1033.25
300.366	1153.25
300.597	1114.25
300.827	974.25
301.057	939.25
301.288	994.25
301.518	1054.25
301.748	1172.25
301.979	1283.25
302.209	1389.25
302.439	1402.25
302.669	1205.25
302.9	1179.25
303.13	1145.25
303.36	1074.25
303.59	1030.25
303.82	1095.25
304.051	1195.25
304.281	1335.25
304.511	1269.25
304.741	1120.25
304.971	1187.25
305.201	1277.25
305.431	1199.25
305.661	1043.25
305.891	1060.25
306.121	1050.25
306.352	960.25
306.582	849.25
306.812	838.25
307.042	857.25
307.272	784.25
307.502	830.25
307.731	876.25
307.961	905.25
308.191	860.25
308.421	788.25
308.651	796.25
308.881	768.25
309.111	763.25
309.341	788.25
309.571	847.25
309.8	919.25
310.03	913.25
310.26	981.25
310.49	914.25
310.72	835.25
310.949	843.25
311.179	881.25
311.409	920.25
311.639	1074.25
311.868	1320.25
312.098	1770.25
312.328	1924.25
312.557	1815.25
312.787	1835.25
313.017	1682.25
313.246	1835.25
313.476	1929.25
313.706	1579.25
313.935	1258.25
314.165	1011.25
314.394	931.25
314.624	926.25
314.853	988.25
315.083	1036.25
315.312	1019.25
315.542	997.25
315.771	924.25
316.001	865.25
316.23	842.25
316.46	837.25
316.689	846.25
316.919	883.25
317.148	885.25
317.377	860.25
317.607	869.25
317.836	947.25
318.065	1111.25
318.295	1187.25
318.524	1159.25
318.753	986.25
318.983	933.25
319.212	917.25
319.441	975.25
319.67	1089.25
319.9	1155.25
320.129	1093.25
320.358	980.25
320.587	923.25
320.816	986.25
321.046	1138.25
321.275	1283.25
321.504	1279.25
321.733	1208.25
321.962	1186.25
322.191	1107.25
322.42	1055.25
322.649	1060.25
322.878	1145.25
323.108	1175.25
323.337	1082.25
323.566	1064.25
323.795	1034.25
324.024	988.25
324.253	953.25
324.482	951.25
324.71	1050.25
324.939	1153.25
325.168	1057.25
325.397	911.25
325.626	863.25
325.855	872.25
326.084	883.25
326.313	857.25
326.542	821.25
326.77	867.25
326.999	896.25
327.228	931.25
327.457	989.25
327.686	976.25
327.914	870.25
328.143	829.25
328.372	834.25
328.6	835.25
328.829	868.25
329.058	876.25
329.287	853.25
329.515	904.25
329.744	885.25
329.972	818.25
330.201	784.25
330.43	817.25
330.658	916.25
330.887	1041.25
331.115	999.25
331.344	966.25
331.572	945.25
331.801	887.25
332.03	844.25
332.258	879.25
332.486	931.25
332.715	945.25
332.943	896.25
333.172	884.25
333.4	916.25
333.629	994.25
333.857	1086.25
334.085	1095.25
334.314	1102.25
334.542	1011.25
334.771	955.25
334.999	931.25
335.227	899.25
335.455	900.25
335.684	1037.25
335.912	1161.25
336.14	1288.25
336.369	1260.25
336.597	1240.25
336.825	1327.25
337.053	1485.25
337.281	1205.25
337.51	999.25
337.738	963.25
337.966	1050.25
338.194	1133.25
338.422	1082.25
338.65	931.25
338.878	861.25
339.106	919.25
339.334	995.25
339.562	1043.25
339.79	1008.25
340.018	965.25
340.246	1019.25
340.474	1163.25
340.702	1240.25
340.93	1267.25
341.158	1285.25
341.386	1090.25
341.614	1065.25
341.842	1061.25
342.07	1147.25
342.298	1318.25
342.526	1383.25
342.754	1153.25
342.981	1063.25
343.209	1045.25
343.437	1127.25
343.665	1183.25
343.893	1151.25
344.12	1324.25
344.348	1544.25
344.576	1362.25
344.804	1169.25
345.031	985.25
345.259	963.25
345.487	977.25
345.714	1014.25
345.942	1069.25
346.17	1135.25
346.397	1086.25
346.625	959.25
346.853	925.25
347.08	939.25
347.308	987.25
347.535	1092.25
347.763	1079.25
347.99	980.25
348.218	929.25
348.445	953.25
348.673	967.25
348.9	936.25
349.128	1009.25
349.355	1047.25
349.583	1040.25
349.81	988.25
350.037	904.25
350.265	838.25
350.492	783.25
350.72	809.25
350.947	809.25
351.174	863.25
351.402	940.25
351.629	940.25
351.856	896.25
352.083	870.25
352.311	947.25
352.538	1029.25
352.765	1108.25
352.992	1014.25
353.22	963.25
353.447	955.25
353.674	950.25
353.901	943.25
354.128	935.25
354.355	943.25
354.583	936.25
354.81	946.25
355.037	994.25
355.264	967.25
355.491	1041.25
355.718	1106.25
355.945	1089.25
356.172	1041.25
356.399	1046.25
356.626	1312.25
356.853	1557.25
357.08	1633.25
357.307	1643.25
357.534	1304.25
357.761	1334.25
357.988	1660.25
358.215	1945.25
358.441	1834.25
358.668	1572.25
358.895	1413.25
359.122	1157.25
359.349	1169.25
359.576	1259.25
359.802	1042.25
360.029	892.25
360.256	1018.25
360.483	1223.25
360.709	1514.25
360.936	1571.25
361.163	1385.25
361.39	1083.25
361.616	1035.25
361.843	1220.25
362.07	1407.25
362.296	1317.25
362.523	1039.25
362.749	941.25
362.976	975.25
363.203	1140.25
363.429	1278.25
363.656	1074.25
363.882	969.25
364.109	953.25
364.335	979.25
364.562	944.25
364.788	1081.25
365.015	1261.25
365.241	1122.25
365.468	915.25
365.694	825.25
365.92	790.25
366.147	770.25
366.373	786.25
366.599	781.25
366.826	785.25
367.052	820.25
367.278	823.25
367.505	796.25
367.731	884.25
367.957	978.25
368.184	961.25
368.41	994.25
368.636	993.25
368.862	1025.25
369.089	957.25
369.315	880.25
369.541	899.25
369.767	881.25
369.993	844.25
370.219	860.25
370.445	889.25
370.672	959.25
370.898	1053.25
371.124	1023.25
371.35	915.25
371.576	857.25
371.802	945.25
372.028	1141.25
372.254	1263.25
372.48	1100.25
372.706	1000.25
372.932	1033.25
373.158	1087.25
373.384	1308.25
373.61	1719.25
373.835	1768.25
374.061	1332.25
374.287	1131.25
374.513	1316.25
374.739	1551.25
374.965	1615.25
375.191	1604.25
375.416	1119.25
375.642	988.25
375.868	1145.25
376.094	1288.25
376.319	1120.25
376.545	1224.25
376.771	1298.25
376.997	1113.25
377.222	854.25
377.448	757.25
377.674	707.25
377.899	758.25
378.125	746.25
378.35	735.25
378.576	754.25
378.802	810.25
379.027	912.25
379.253	881.25
379.478	915.25
379.704	1029.25
379.929	1056.25
380.155	1083.25
380.38	925.25
380.606	964.25
380.831	1081.25
381.057	991.25
381.282	965.25
381.507	1121.25
381.733	1387.25
381.958	1481.25
382.184	1549.25
382.409	1622.25
382.634	1572.25
382.86	1673.25
383.085	1349.25
383.31	1090.25
383.535	1170.25
383.761	1178.25
383.986	1121.25
384.211	1358.25
384.436	1291.25
384.662	1010.25
384.887	964.25
385.112	989.25
385.337	981.25
385.562	955.25
385.787	1054.25
386.013	1165.25
386.238	1223.25
386.463	1007.25
386.688	934.25
386.913	901.25
387.138	872.25
387.363	909.25
387.588	971.25
387.813	938.25
388.038	1039.25
388.263	971.25
388.488	923.25
388.713	1078.25
388.938	1169.25
389.163	994.25
389.387	899.25
389.612	894.25
389.837	916.25
390.062	933.25
390.287	955.25
390.512	989.25
390.736	920.25
390.961	881.25
391.186	844.25
391.411	830.25
391.636	852.25
391.86	919.25
392.085	992.25
392.31	981.25
392.534	927.25
392.759	907.25
392.984	959.25
393.208	947.25
393.433	859.25
393.658	796.25
393.882	798.25
394.107	763.25
394.331	794.25
394.556	777.25
394.78	802.25
395.005	807.25
395.229	851.25
395.454	861.25
395.678	860.25
395.903	894.25
396.127	859.25
396.352	856.25
396.576	936.25
396.801	977.25
397.025	1092.25
397.249	1110.25
397.474	917.25
397.698	903.25
397.922	965.25
398.147	914.25
398.371	903.25
398.595	951.25
398.82	951.25
399.044	946.25
399.268	995.25
399.492	1032.25
399.717	1059.25
399.941	1091.25
400.165	1038.25
400.389	1014.25
400.613	1013.25
400.837	1015.25
401.062	947.25
401.286	893.25
401.51	921.25
401.734	923.25
401.958	918.25
402.182	868.25
402.406	915.25
402.63	923.25
402.854	908.25
403.078	1055.25
403.302	1284.25
403.526	1309.25
403.75	1194.25
403.974	1057.25
404.198	1079.25
404.422	1213.25
404.645	1403.25
404.869	1547.25
405.093	1137.25
405.317	1009.25
405.541	960.25
405.765	993.25
405.988	978.25
406.212	1065.25
406.436	1255.25
406.66	1369.25
406.883	1118.25
407.107	1135.25
407.331	1360.25
407.555	1273.25
407.778	1091.25
408.002	1041.25
408.226	1015.25
408.449	999.25
408.673	975.25
408.896	908.25
409.12	920.25
409.344	897.25
409.567	876.25
409.791	898.25
410.014	862.25
410.238	892.25
410.461	864.25
410.685	887.25
410.908	869.25
411.132	925.25
411.355	921.25
411.578	944.25
411.802	913.25
412.025	950.25
412.249	953.25
412.472	919.25
412.695	958.25
412.919	956.25
413.142	937.25
413.365	1017.25
413.589	1031.25
413.812	953.25
414.035	893.25
414.258	902.25
414.482	1020.25
414.705	1077.25
414.928	933.25
415.151	874.25
415.374	858.25
415.597	864.25
415.821	902.25
416.044	895.25
416.267	859.25
416.49	892.25
416.713	851.25
416.936	845.25
417.159	862.25
417.382	878.25
417.605	883.25
417.828	897.25
418.051	898.25
418.274	898.25
418.497	920.25
418.72	906.25
418.943	922.25
419.166	985.25
419.389	968.25
419.611	988.25
419.834	981.25
420.057	1098.25
420.28	1065.25
420.503	993.25
420.726	892.25
420.948	855.25
421.171	876.25
421.394	879.25
421.617	821.25
421.839	888.25
422.062	928.25
422.285	932.25
422.507	926.25
422.73	948.25
422.953	968.25
423.175	926.25
423.398	934.25
423.621	983.25
423.843	1013.25
424.066	963.25
424.288	925.25
424.511	887.25
424.733	901.25
424.956	939.25
425.178	1038.25
425.401	1191.25
425.623	1337.25
425.846	1122.25
426.068	992.25
426.291	1099.25
426.513	992.25
426.735	936.25
426.958	1004.25
427.18	1133.25
427.402	1440.25
427.625	1395.25
427.847	1162.25
428.069	873.25
428.292	904.25
428.514	891.25
428.736	839.25
428.958	923.25
429.181	1098.25
429.403	916.25
429.625	870.25
429.847	850.25
430.069	889.25
430.292	915.25
430.514	858.25
430.736	935.25
430.958	1160.25
431.18	1033.25
431.402	819.25
431.624	783.25
431.846	812.25
432.068	771.25
432.29	805.25
432.512	919.25
432.734	1158.25
432.956	1108.25
433.178	864.25
433.4	811.25
433.622	839.25
433.844	843.25
434.066	950.25
434.287	908.25
434.509	877.25
434.731	915.25
434.953	879.25
435.175	908.25
435.397	1000.25
435.618	888.25
435.84	828.25
436.062	823.25
436.284	799.25
436.505	769.25
436.727	785.25
436.949	807.25
437.17	839.25
437.392	849.25
437.614	823.25
437.835	832.25
438.057	840.25
438.278	932.25
438.5	1324.25
438.721	1310.25
438.943	915.25
439.165	822.25
439.386	782.25
439.608	785.25
439.829	794.25
440.05	782.25
440.272	874.25
440.493	1016.25
440.715	1201.25
440.936	972.25
441.158	835.25
441.379	864.25
441.6	963.25
441.822	1010.25
442.043	871.25
442.264	882.25
442.486	860.25
442.707	831.25
442.928	845.25
443.149	872.25
443.371	885.25
443.592	921.25
443.813	939.25
444.034	888.25
444.255	893.25
444.476	921.25
444.698	915.25
444.919	929.25
445.14	1039.25
445.361	1013.25
445.582	929.25
445.803	921.25
446.024	928.25
446.245	899.25
446.466	904.25
446.687	874.25
446.908	864.25
447.129	841.25
447.35	805.25
447.571	809.25
447.792	793.25
448.013	796.25
448.234	751.25
448.455	771.25
448.675	800.25
448.896	787.25
449.117	776.25
449.338	821.25
449.559	831.25
449.779	858.25
450	857.25
450.221	813.25
450.442	803.25
450.662	782.25
450.883	791.25
451.104	811.25
451.324	785.25
451.545	814.25
451.766	809.25
451.986	777.25
452.207	769.25
452.428	765.25
452.648	768.25
452.869	792.25
453.089	861.25
453.31	835.25
453.53	721.25
453.751	736.25
453.971	733.25
454.192	778.25
454.412	773.25
454.633	764.25
454.853	739.25
455.073	742.25
455.294	753.25
455.514	733.25
455.734	747.25
455.955	813.25
456.175	793.25
456.395	739.25
456.616	690.25
456.836	709.25
457.056	715.25
457.276	696.25
457.497	708.25
457.717	709.25
457.937	702.25
458.157	733.25
458.377	732.25
458.598	771.25
458.818	758.25
459.038	799.25
459.258	808.25
459.478	841.25
459.698	864.25
459.918	884.25
460.138	860.25
460.358	904.25
460.578	856.25
460.798	867.25
461.018	877.25
461.238	843.25
461.458	845.25
461.678	890.25
461.898	921.25
462.118	887.25
462.338	947.25
462.558	948.25
462.777	987.25
462.997	1023.25
463.217	990.25
463.437	1041.25
463.657	1008.25
463.876	956.25
464.096	952.25
464.316	975.25
464.536	965.25
464.755	1025.25
464.975	992.25
465.195	946.25
465.414	995.25
465.634	945.25
465.854	925.25
466.073	887.25
466.293	889.25
466.512	937.25
466.732	1023.25
466.951	1029.25
467.171	909.25
467.391	866.25
467.61	864.25
467.829	931.25
468.049	956.25
468.268	867.25
468.488	854.25
468.707	910.25
468.927	1063.25
469.146	1122.25
469.365	1017.25
469.585	922.25
469.804	1016.25
470.023	1105.25
470.243	983.25
470.462	904.25
470.681	933.25
470.901	880.25
471.12	956.25
471.339	943.25
471.558	918.25
471.777	948.25
471.997	991.25
472.216	1110.25
472.435	1066.25
472.654	948.25
472.873	973.25
473.092	1003.25
473.311	1031.25
473.53	945.25
473.749	917.25
473.968	961.25
474.187	941.25
474.406	932.25
474.625	947.25
474.844	945.25
475.063	1023.25
475.282	1009.25
475.501	1055.25
475.72	1103.25
475.939	1063.25
476.158	1090.25
476.377	1229.25
476.596	1428.25
476.814	1479.25
477.033	1227.25
477.252	1033.25
477.471	1010.25
477.69	951.25
477.908	1114.25
478.127	1140.25
478.346	1048.25
478.564	1103.25
478.783	1062.25
479.002	1113.25
479.22	1266.25
479.439	1401.25
479.658	1207.25
479.876	1121.25
480.095	1203.25
480.313	1210.25
480.532	1112.25
480.751	1094.25
480.969	1120.25
481.188	1244.25
481.406	1328.25
481.624	1236.25
481.843	1129.25
482.061	1051.25
482.28	1207.25
482.498	1444.25
482.717	1352.25
482.935	1198.25
483.153	1107.25
483.372	1045.25
483.59	1069.25
483.808	1036.25
484.027	1041.25
484.245	1005.25
484.463	983.25
484.681	1029.25
484.9	1097.25
485.118	1195.25
485.336	1116.25
485.554	1056.25
485.772	1068.25
485.99	1149.25
486.209	1238.25
486.427	1209.25
486.645	1202.25
486.863	1233.25
487.081	1201.25
487.299	1337.25
487.517	1299.25
487.735	1194.25
487.953	1212.25
488.171	1221.25
488.389	1203.25
488.607	1084.25
488.825	1169.25
489.043	1225.25
489.261	1397.25
489.479	1512.25
489.696	1265.25
489.914	1163.25
490.132	1094.25
490.35	1113.25
490.568	1116.25
490.786	1113.25
491.003	1135.25
491.221	1182.25
491.439	1143.25
491.657	1173.25
491.874	1223.25
492.092	1452.25
492.31	1693.25
492.527	1685.25
492.745	1498.25
492.963	1359.25
493.18	1274.25
493.398	1271.25
493.615	1273.25
493.833	1239.25
494.05	1244.25
494.268	1240.25
494.485	1228.25
494.703	1186.25
494.92	1192.25
