Data from NickelSpatula.Lamp.E5.5.P2_HRD10591_11-51-15-562.txt Node
Date: Tue Jul 23 11:51:15 EDT 2019
User: cochatt
Spectrometer: HR+D1059
Trigger mode: 1
Integration Time (sec): 1.000000E-1
Scans to average: 1
Electric dark correction enabled: true
Nonlinearity correction enabled: false
Boxcar width: 0
XAxis mode: Wavelengths
Number of Pixels in Spectrum: 2048
>>>>>Begin Spectral Data<<<<<
223.165	-17.56
223.4	-17.56
223.635	-17.56
223.869	-12.56
224.104	-21.56
224.338	-2.56
224.573	-23.56
224.808	0.44
225.042	-8.56
225.277	-31.56
225.511	-10.56
225.746	1.44
225.98	9.44
226.215	16.44
226.449	21.44
226.683	32.44
226.918	22.44
227.152	24.44
227.387	35.44
227.621	21.44
227.856	41.44
228.09	33.44
228.324	45.44
228.559	53.44
228.793	48.44
229.027	65.44
229.262	64.44
229.496	65.44
229.73	75.44
229.964	89.44
230.199	84.44
230.433	95.44
230.667	93.44
230.901	91.44
231.136	101.44
231.37	103.44
231.604	92.44
231.838	102.44
232.072	117.44
232.306	97.44
232.541	103.44
232.775	104.44
233.009	105.44
233.243	108.44
233.477	100.44
233.711	113.44
233.945	116.44
234.179	109.44
234.413	119.44
234.647	123.44
234.881	138.44
235.115	125.44
235.349	118.44
235.583	100.44
235.817	116.44
236.051	133.44
236.285	138.44
236.519	134.44
236.753	124.44
236.987	125.44
237.221	124.44
237.455	124.44
237.689	122.44
237.922	121.44
238.156	111.44
238.39	133.44
238.624	168.44
238.858	159.44
239.091	135.44
239.325	143.44
239.559	129.44
239.793	156.44
240.027	157.44
240.26	155.44
240.494	160.44
240.728	146.44
240.961	166.44
241.195	147.44
241.429	143.44
241.662	168.44
241.896	138.44
242.13	129.44
242.363	132.44
242.597	145.44
242.83	138.44
243.064	145.44
243.298	157.44
243.531	144.44
243.765	165.44
243.998	147.44
244.232	157.44
244.465	144.44
244.699	161.44
244.932	161.44
245.166	185.44
245.399	149.44
245.633	141.44
245.866	157.44
246.099	154.44
246.333	155.44
246.566	191.44
246.8	167.44
247.033	160.44
247.266	171.44
247.5	155.44
247.733	169.44
247.966	151.44
248.2	152.44
248.433	173.44
248.666	172.44
248.899	171.44
249.133	177.44
249.366	206.44
249.599	203.44
249.832	203.44
250.066	203.44
250.299	189.44
250.532	198.44
250.765	179.44
250.998	178.44
251.231	170.44
251.465	189.44
251.698	185.44
251.931	177.44
252.164	187.44
252.397	211.44
252.63	226.44
252.863	243.44
253.096	240.44
253.329	210.44
253.562	216.44
253.795	238.44
254.028	263.44
254.261	273.44
254.494	233.44
254.727	235.44
254.96	216.44
255.193	237.44
255.426	229.44
255.659	194.44
255.892	179.44
256.124	182.44
256.357	199.44
256.59	246.44
256.823	219.44
257.056	215.44
257.289	181.44
257.521	215.44
257.754	249.44
257.987	263.44
258.22	238.44
258.452	233.44
258.685	228.44
258.918	241.44
259.151	268.44
259.383	281.44
259.616	322.44
259.849	315.44
260.081	339.44
260.314	357.44
260.547	288.44
260.779	289.44
261.012	338.44
261.244	296.44
261.477	317.44
261.71	279.44
261.942	261.44
262.175	265.44
262.407	246.44
262.64	259.44
262.872	290.44
263.105	314.44
263.337	336.44
263.57	301.44
263.802	224.44
264.035	205.44
264.267	212.44
264.499	187.44
264.732	170.44
264.964	167.44
265.197	165.44
265.429	188.44
265.661	182.44
265.894	207.44
266.126	214.44
266.358	231.44
266.591	255.44
266.823	312.44
267.055	267.44
267.287	237.44
267.52	274.44
267.752	278.44
267.984	279.44
268.216	290.44
268.448	249.44
268.681	233.44
268.913	242.44
269.145	257.44
269.377	261.44
269.609	275.44
269.841	275.44
270.073	265.44
270.306	287.44
270.538	303.44
270.77	301.44
271.002	282.44
271.234	321.44
271.466	279.44
271.698	286.44
271.93	287.44
272.162	283.44
272.394	265.44
272.626	270.44
272.858	289.44
273.09	270.44
273.322	255.44
273.553	267.44
273.785	282.44
274.017	334.44
274.249	408.44
274.481	429.44
274.713	475.44
274.945	539.44
275.176	536.44
275.408	503.44
275.64	454.44
275.872	460.44
276.104	401.44
276.335	369.44
276.567	360.44
276.799	373.44
277.031	364.44
277.262	317.44
277.494	269.44
277.726	244.44
277.957	246.44
278.189	293.44
278.421	284.44
278.652	276.44
278.884	280.44
279.115	251.44
279.347	257.44
279.579	249.44
279.81	263.44
280.042	258.44
280.273	266.44
280.505	245.44
280.736	220.44
280.968	217.44
281.199	237.44
281.431	259.44
281.662	262.44
281.894	233.44
282.125	253.44
282.356	282.44
282.588	284.44
282.819	234.44
283.051	271.44
283.282	308.44
283.513	356.44
283.745	392.44
283.976	377.44
284.207	351.44
284.439	389.44
284.67	377.44
284.901	327.44
285.132	346.44
285.364	369.44
285.595	361.44
285.826	367.44
286.057	381.44
286.288	360.44
286.52	361.44
286.751	372.44
286.982	363.44
287.213	342.44
287.444	335.44
287.675	359.44
287.906	367.44
288.138	317.44
288.369	282.44
288.6	280.44
288.831	278.44
289.062	289.44
289.293	361.44
289.524	311.44
289.755	305.44
289.986	326.44
290.217	285.44
290.448	239.44
290.679	220.44
290.91	214.44
291.141	222.44
291.371	214.44
291.602	217.44
291.833	233.44
292.064	231.44
292.295	243.44
292.526	275.44
292.757	275.44
292.987	308.44
293.218	323.44
293.449	317.44
293.68	350.44
293.91	313.44
294.141	331.44
294.372	325.44
294.603	299.44
294.833	295.44
295.064	360.44
295.295	341.44
295.525	271.44
295.756	248.44
295.987	221.44
296.217	224.44
296.448	227.44
296.679	230.44
296.909	235.44
297.14	257.44
297.37	274.44
297.601	280.44
297.831	256.44
298.062	259.44
298.292	285.44
298.523	312.44
298.753	341.44
298.984	299.44
299.214	268.44
299.445	226.44
299.675	218.44
299.905	227.44
300.136	225.44
300.366	256.44
300.597	243.44
300.827	230.44
301.057	223.44
301.288	214.44
301.518	250.44
301.748	274.44
301.979	277.44
302.209	277.44
302.439	288.44
302.669	267.44
302.9	261.44
303.13	248.44
303.36	250.44
303.59	242.44
303.82	247.44
304.051	266.44
304.281	287.44
304.511	283.44
304.741	256.44
304.971	244.44
305.201	272.44
305.431	265.44
305.661	222.44
305.891	239.44
306.121	247.44
306.352	213.44
306.582	219.44
306.812	202.44
307.042	196.44
307.272	198.44
307.502	205.44
307.731	200.44
307.961	197.44
308.191	197.44
308.421	202.44
308.651	178.44
308.881	191.44
309.111	197.44
309.341	189.44
309.571	202.44
309.8	223.44
310.03	201.44
310.26	213.44
310.49	209.44
310.72	193.44
310.949	196.44
311.179	196.44
311.409	215.44
311.639	235.44
311.868	258.44
312.098	335.44
312.328	350.44
312.557	358.44
312.787	370.44
313.017	331.44
313.246	345.44
313.476	364.44
313.706	328.44
313.935	271.44
314.165	218.44
314.394	209.44
314.624	194.44
314.853	224.44
315.083	219.44
315.312	208.44
315.542	218.44
315.771	213.44
316.001	208.44
316.23	203.44
316.46	198.44
316.689	197.44
316.919	211.44
317.148	199.44
317.377	197.44
317.607	181.44
317.836	210.44
318.065	217.44
318.295	248.44
318.524	240.44
318.753	209.44
318.983	199.44
319.212	209.44
319.441	226.44
319.67	222.44
319.9	251.44
320.129	226.44
320.358	214.44
320.587	209.44
320.816	228.44
321.046	227.44
321.275	265.44
321.504	243.44
321.733	249.44
321.962	249.44
322.191	229.44
322.42	229.44
322.649	221.44
322.878	244.44
323.108	248.44
323.337	232.44
323.566	240.44
323.795	217.44
324.024	222.44
324.253	198.44
324.482	226.44
324.71	214.44
324.939	241.44
325.168	240.44
325.397	216.44
325.626	193.44
325.855	184.44
326.084	212.44
326.313	221.44
326.542	194.44
326.77	211.44
326.999	209.44
327.228	215.44
327.457	206.44
327.686	219.44
327.914	202.44
328.143	198.44
328.372	206.44
328.6	194.44
328.829	193.44
329.058	199.44
329.287	212.44
329.515	192.44
329.744	203.44
329.972	201.44
330.201	198.44
330.43	190.44
330.658	206.44
330.887	238.44
331.115	228.44
331.344	220.44
331.572	231.44
331.801	204.44
332.03	200.44
332.258	199.44
332.486	212.44
332.715	209.44
332.943	214.44
333.172	231.44
333.4	232.44
333.629	250.44
333.857	261.44
334.085	266.44
334.314	239.44
334.542	223.44
334.771	217.44
334.999	218.44
335.227	203.44
335.455	229.44
335.684	243.44
335.912	266.44
336.14	271.44
336.369	260.44
336.597	254.44
336.825	277.44
337.053	307.44
337.281	277.44
337.51	240.44
337.738	214.44
337.966	239.44
338.194	252.44
338.422	228.44
338.65	224.44
338.878	207.44
339.106	220.44
339.334	230.44
339.562	225.44
339.79	215.44
340.018	202.44
340.246	230.44
340.474	239.44
340.702	263.44
340.93	272.44
341.158	260.44
341.386	232.44
341.614	239.44
341.842	257.44
342.07	231.44
342.298	256.44
342.526	261.44
342.754	249.44
342.981	230.44
343.209	233.44
343.437	245.44
343.665	250.44
343.893	254.44
344.12	306.44
344.348	330.44
344.576	304.44
344.804	269.44
345.031	233.44
345.259	210.44
345.487	219.44
345.714	224.44
345.942	224.44
346.17	259.44
346.397	242.44
346.625	226.44
346.853	208.44
347.08	212.44
347.308	240.44
347.535	253.44
347.763	261.44
347.99	213.44
348.218	221.44
348.445	227.44
348.673	213.44
348.9	224.44
349.128	236.44
349.355	247.44
349.583	241.44
349.81	218.44
350.037	211.44
350.265	194.44
350.492	190.44
350.72	184.44
350.947	201.44
351.174	208.44
351.402	212.44
351.629	221.44
351.856	220.44
352.083	190.44
352.311	218.44
352.538	215.44
352.765	236.44
352.992	218.44
353.22	224.44
353.447	217.44
353.674	220.44
353.901	208.44
354.128	216.44
354.355	223.44
354.583	218.44
354.81	214.44
355.037	250.44
355.264	233.44
355.491	226.44
355.718	226.44
355.945	243.44
356.172	231.44
356.399	224.44
356.626	273.44
356.853	301.44
357.08	326.44
357.307	321.44
357.534	277.44
357.761	267.44
357.988	344.44
358.215	375.44
358.441	354.44
358.668	312.44
358.895	286.44
359.122	247.44
359.349	251.44
359.576	295.44
359.802	242.44
360.029	219.44
360.256	230.44
360.483	258.44
360.709	309.44
360.936	327.44
361.163	289.44
361.39	250.44
361.616	225.44
361.843	230.44
362.07	289.44
362.296	269.44
362.523	218.44
362.749	229.44
362.976	231.44
363.203	256.44
363.429	257.44
363.656	212.44
363.882	209.44
364.109	217.44
364.335	231.44
364.562	218.44
364.788	239.44
365.015	281.44
365.241	246.44
365.468	199.44
365.694	200.44
365.92	189.44
366.147	204.44
366.373	190.44
366.599	198.44
366.826	182.44
367.052	190.44
367.278	193.44
367.505	203.44
367.731	200.44
367.957	219.44
368.184	223.44
368.41	210.44
368.636	205.44
368.862	225.44
369.089	239.44
369.315	211.44
369.541	198.44
369.767	190.44
369.993	208.44
370.219	211.44
370.445	201.44
370.672	224.44
370.898	219.44
371.124	227.44
371.35	215.44
371.576	207.44
371.802	226.44
372.028	254.44
372.254	281.44
372.48	266.44
372.706	234.44
372.932	227.44
373.158	241.44
373.384	263.44
373.61	341.44
373.835	346.44
374.061	282.44
374.287	244.44
374.513	282.44
374.739	332.44
374.965	349.44
375.191	338.44
375.416	269.44
375.642	234.44
375.868	257.44
376.094	282.44
376.319	243.44
376.545	266.44
376.771	267.44
376.997	241.44
377.222	218.44
377.448	200.44
377.674	193.44
377.899	196.44
378.125	196.44
378.35	179.44
378.576	194.44
378.802	204.44
379.027	222.44
379.253	208.44
379.478	215.44
379.704	243.44
379.929	228.44
380.155	237.44
380.38	219.44
380.606	216.44
380.831	227.44
381.057	262.44
381.282	207.44
381.507	253.44
381.733	288.44
381.958	288.44
382.184	316.44
382.409	330.44
382.634	314.44
382.86	315.44
383.085	284.44
383.31	255.44
383.535	259.44
383.761	274.44
383.986	273.44
384.211	285.44
384.436	279.44
384.662	241.44
384.887	237.44
385.112	245.44
385.337	236.44
385.562	265.44
385.787	262.44
386.013	269.44
386.238	261.44
386.463	228.44
386.688	219.44
386.913	241.44
387.138	201.44
387.363	207.44
387.588	221.44
387.813	221.44
388.038	248.44
388.263	224.44
388.488	234.44
388.713	249.44
388.938	267.44
389.163	245.44
389.387	202.44
389.612	205.44
389.837	214.44
390.062	225.44
390.287	218.44
390.512	248.44
390.736	226.44
390.961	218.44
391.186	223.44
391.411	226.44
391.636	223.44
391.86	223.44
392.085	235.44
392.31	247.44
392.534	239.44
392.759	246.44
392.984	229.44
393.208	238.44
393.433	209.44
393.658	201.44
393.882	204.44
394.107	201.44
394.331	185.44
394.556	194.44
394.78	189.44
395.005	203.44
395.229	211.44
395.454	223.44
395.678	209.44
395.903	220.44
396.127	223.44
396.352	209.44
396.576	215.44
396.801	232.44
397.025	241.44
397.249	254.44
397.474	241.44
397.698	227.44
397.922	239.44
398.147	214.44
398.371	222.44
398.595	245.44
398.82	233.44
399.044	217.44
399.268	259.44
399.492	302.44
399.717	288.44
399.941	298.44
400.165	263.44
400.389	261.44
400.613	251.44
400.837	239.44
401.062	201.44
401.286	237.44
401.51	251.44
401.734	227.44
401.958	233.44
402.182	221.44
402.406	234.44
402.63	225.44
402.854	245.44
403.078	280.44
403.302	370.44
403.526	358.44
403.75	314.44
403.974	271.44
404.198	291.44
404.422	305.44
404.645	325.44
404.869	350.44
405.093	294.44
405.317	257.44
405.541	242.44
405.765	256.44
405.988	251.44
406.212	264.44
406.436	282.44
406.66	319.44
406.883	281.44
407.107	275.44
407.331	302.44
407.555	305.44
407.778	289.44
408.002	289.44
408.226	270.44
408.449	249.44
408.673	249.44
408.896	251.44
409.12	235.44
409.344	244.44
409.567	251.44
409.791	234.44
410.014	237.44
410.238	231.44
410.461	239.44
410.685	233.44
410.908	241.44
411.132	246.44
411.355	254.44
411.578	247.44
411.802	222.44
412.025	252.44
412.249	243.44
412.472	233.44
412.695	229.44
412.919	241.44
413.142	245.44
413.365	245.44
413.589	257.44
413.812	235.44
414.035	237.44
414.258	237.44
414.482	266.44
414.705	276.44
414.928	248.44
415.151	223.44
415.374	238.44
415.597	237.44
415.821	237.44
416.044	213.44
416.267	213.44
416.49	228.44
416.713	223.44
416.936	221.44
417.159	239.44
417.382	224.44
417.605	213.44
417.828	223.44
418.051	240.44
418.274	228.44
418.497	230.44
418.72	237.44
418.943	242.44
419.166	252.44
419.389	244.44
419.611	239.44
419.834	240.44
420.057	268.44
420.28	268.44
420.503	241.44
420.726	243.44
420.948	239.44
421.171	227.44
421.394	227.44
421.617	225.44
421.839	221.44
422.062	217.44
422.285	233.44
422.507	215.44
422.73	228.44
422.953	235.44
423.175	239.44
423.398	238.44
423.621	225.44
423.843	257.44
424.066	248.44
424.288	238.44
424.511	232.44
424.733	251.44
424.956	253.44
425.178	275.44
425.401	288.44
425.623	323.44
425.846	290.44
426.068	255.44
426.291	255.44
426.513	238.44
426.735	246.44
426.958	261.44
427.18	231.44
427.402	313.44
427.625	342.44
427.847	310.44
428.069	230.44
428.292	227.44
428.514	226.44
428.736	232.44
428.958	248.44
429.181	310.44
429.403	249.44
429.625	218.44
429.847	224.44
430.069	214.44
430.292	220.44
430.514	232.44
430.736	237.44
430.958	249.44
431.18	259.44
431.402	222.44
431.624	219.44
431.846	233.44
432.068	217.44
432.29	238.44
432.512	237.44
432.734	291.44
432.956	264.44
433.178	228.44
433.4	227.44
433.622	208.44
433.844	220.44
434.066	256.44
434.287	243.44
434.509	233.44
434.731	261.44
434.953	244.44
435.175	240.44
435.397	272.44
435.618	246.44
435.84	210.44
436.062	218.44
436.284	212.44
436.505	210.44
436.727	203.44
436.949	210.44
437.17	226.44
437.392	214.44
437.614	215.44
437.835	202.44
438.057	217.44
438.278	224.44
438.5	283.44
438.721	303.44
438.943	226.44
439.165	222.44
439.386	218.44
439.608	213.44
439.829	208.44
440.05	236.44
440.272	223.44
440.493	241.44
440.715	283.44
440.936	242.44
441.158	231.44
441.379	232.44
441.6	251.44
441.822	272.44
442.043	246.44
442.264	230.44
442.486	230.44
442.707	219.44
442.928	218.44
443.149	237.44
443.371	236.44
443.592	235.44
443.813	232.44
444.034	266.44
444.255	243.44
444.476	250.44
444.698	235.44
444.919	250.44
445.14	351.44
445.361	296.44
445.582	242.44
445.803	247.44
446.024	235.44
446.245	244.44
446.466	253.44
446.687	235.44
446.908	219.44
447.129	238.44
447.35	213.44
447.571	218.44
447.792	222.44
448.013	210.44
448.234	214.44
448.455	213.44
448.675	212.44
448.896	218.44
449.117	216.44
449.338	211.44
449.559	212.44
449.779	213.44
450	210.44
450.221	227.44
450.442	226.44
450.662	214.44
450.883	218.44
451.104	212.44
451.324	226.44
451.545	239.44
451.766	203.44
451.986	216.44
452.207	221.44
452.428	213.44
452.648	203.44
452.869	202.44
453.089	221.44
453.31	219.44
453.53	218.44
453.751	221.44
453.971	193.44
454.192	216.44
454.412	214.44
454.633	224.44
454.853	201.44
455.073	212.44
455.294	179.44
455.514	193.44
455.734	196.44
455.955	213.44
456.175	202.44
456.395	203.44
456.616	199.44
456.836	200.44
457.056	189.44
457.276	190.44
457.497	198.44
457.717	189.44
457.937	197.44
458.157	184.44
458.377	197.44
458.598	201.44
458.818	196.44
459.038	197.44
459.258	216.44
459.478	223.44
459.698	231.44
459.918	229.44
460.138	209.44
460.358	239.44
460.578	228.44
460.798	238.44
461.018	233.44
461.238	231.44
461.458	241.44
461.678	236.44
461.898	257.44
462.118	246.44
462.338	244.44
462.558	269.44
462.777	259.44
462.997	264.44
463.217	274.44
463.437	294.44
463.657	290.44
463.876	263.44
464.096	263.44
464.316	279.44
464.536	259.44
464.755	285.44
464.975	274.44
465.195	268.44
465.414	257.44
465.634	237.44
465.854	238.44
466.073	227.44
466.293	227.44
466.512	225.44
466.732	240.44
466.951	246.44
467.171	261.44
467.391	220.44
467.61	217.44
467.829	221.44
468.049	213.44
468.268	202.44
468.488	224.44
468.707	232.44
468.927	235.44
469.146	244.44
469.365	262.44
469.585	229.44
469.804	245.44
470.023	260.44
470.243	253.44
470.462	229.44
470.681	228.44
470.901	219.44
471.12	242.44
471.339	227.44
471.558	226.44
471.777	215.44
471.997	225.44
472.216	250.44
472.435	239.44
472.654	242.44
472.873	239.44
473.092	255.44
473.311	246.44
473.53	226.44
473.749	232.44
473.968	233.44
474.187	221.44
474.406	234.44
474.625	227.44
474.844	218.44
475.063	233.44
475.282	249.44
475.501	255.44
475.72	281.44
475.939	273.44
476.158	253.44
476.377	275.44
476.596	313.44
476.814	324.44
477.033	283.44
477.252	262.44
477.471	257.44
477.69	246.44
477.908	261.44
478.127	276.44
478.346	256.44
478.564	274.44
478.783	262.44
479.002	264.44
479.22	298.44
479.439	323.44
479.658	271.44
479.876	265.44
480.095	284.44
480.313	290.44
480.532	274.44
480.751	273.44
480.969	265.44
481.188	286.44
481.406	281.44
481.624	270.44
481.843	246.44
482.061	271.44
482.28	254.44
482.498	310.44
482.717	313.44
482.935	273.44
483.153	265.44
483.372	244.44
483.59	254.44
483.808	240.44
484.027	247.44
484.245	231.44
484.463	224.44
484.681	243.44
484.9	259.44
485.118	273.44
485.336	260.44
485.554	248.44
485.772	259.44
485.99	270.44
486.209	293.44
486.427	296.44
486.645	265.44
486.863	292.44
487.081	279.44
487.299	303.44
487.517	295.44
487.735	280.44
487.953	274.44
488.171	289.44
488.389	259.44
488.607	253.44
488.825	265.44
489.043	272.44
489.261	301.44
489.479	319.44
489.696	282.44
489.914	273.44
490.132	257.44
490.35	266.44
490.568	278.44
490.786	259.44
491.003	269.44
491.221	267.44
491.439	248.44
491.657	257.44
491.874	251.44
492.092	296.44
492.31	343.44
492.527	358.44
492.745	316.44
492.963	275.44
493.18	298.44
493.398	283.44
493.615	288.44
493.833	288.44
494.05	289.44
494.268	265.44
494.485	277.44
494.703	267.44
494.92	279.44
495.138	284.44
495.355	264.44
495.573	288.44
495.79	299.44
496.008	340.44
496.225	311.44
496.442	288.44
496.66	291.44
496.877	288.44
497.094	288.44
497.312	304.44
497.529	288.44
497.746	291.44
497.963	302.44
498.181	320.44
498.398	349.44
498.615	335.44
498.832	373.44
499.049	395.44
499.267	369.44
499.484	382.44
499.701	405.44
499.918	437.44
500.135	502.44
500.352	525.44
500.569	562.44
500.786	562.44
501.003	520.44
501.22	455.44
501.437	435.44
501.654	381.44
501.871	369.44
502.088	369.44
502.305	349.44
502.522	317.44
