Data from NiCl2@0.5M.TitratingCurve.Agarose3%dH2O.NegLispCup.LampEnergy10.LIBS07252019_HRD10591_18-21-35-572.txt Node
Date: Thu Jul 25 18:21:35 EDT 2019
User: cochatt
Spectrometer: HR+D1059
Trigger mode: 1
Integration Time (sec): 1.000000E-1
Scans to average: 1
Electric dark correction enabled: true
Nonlinearity correction enabled: false
Boxcar width: 0
XAxis mode: Wavelengths
Number of Pixels in Spectrum: 2048
>>>>>Begin Spectral Data<<<<<
223.165	-6.62
223.4	-6.62
223.635	-6.62
223.869	-17.62
224.104	-28.62
224.338	-10.62
224.573	-26.62
224.808	-12.62
225.042	-11.62
225.277	-18.62
225.511	-11.62
225.746	28.38
225.98	20.38
226.215	23.38
226.449	15.38
226.683	5.38
226.918	23.38
227.152	28.38
227.387	34.38
227.621	55.38
227.856	42.38
228.09	45.38
228.324	58.38
228.559	64.38
228.793	79.38
229.027	92.38
229.262	106.38
229.496	106.38
229.73	134.38
229.964	119.38
230.199	144.38
230.433	119.38
230.667	133.38
230.901	137.38
231.136	129.38
231.37	146.38
231.604	128.38
231.838	158.38
232.072	148.38
232.306	141.38
232.541	153.38
232.775	155.38
233.009	152.38
233.243	141.38
233.477	140.38
233.711	139.38
233.945	141.38
234.179	151.38
234.413	145.38
234.647	154.38
234.881	158.38
235.115	145.38
235.349	156.38
235.583	141.38
235.817	142.38
236.051	144.38
236.285	158.38
236.519	149.38
236.753	139.38
236.987	149.38
237.221	153.38
237.455	145.38
237.689	157.38
237.922	166.38
238.156	147.38
238.39	166.38
238.624	164.38
238.858	172.38
239.091	168.38
239.325	162.38
239.559	164.38
239.793	158.38
240.027	180.38
240.26	189.38
240.494	181.38
240.728	161.38
240.961	161.38
241.195	173.38
241.429	171.38
241.662	183.38
241.896	193.38
242.13	190.38
242.363	181.38
242.597	180.38
242.83	191.38
243.064	194.38
243.298	185.38
243.531	195.38
243.765	170.38
243.998	191.38
244.232	195.38
244.465	196.38
244.699	210.38
244.932	202.38
245.166	208.38
245.399	207.38
245.633	209.38
245.866	196.38
246.099	191.38
246.333	213.38
246.566	215.38
246.8	221.38
247.033	211.38
247.266	192.38
247.5	205.38
247.733	212.38
247.966	217.38
248.2	242.38
248.433	228.38
248.666	206.38
248.899	232.38
249.133	236.38
249.366	236.38
249.599	224.38
249.832	224.38
250.066	236.38
250.299	219.38
250.532	242.38
250.765	236.38
250.998	252.38
251.231	244.38
251.465	242.38
251.698	232.38
251.931	248.38
252.164	228.38
252.397	255.38
252.63	243.38
252.863	253.38
253.096	245.38
253.329	250.38
253.562	259.38
253.795	255.38
254.028	259.38
254.261	254.38
254.494	263.38
254.727	271.38
254.96	256.38
255.193	254.38
255.426	270.38
255.659	266.38
255.892	280.38
256.124	269.38
256.357	267.38
256.59	259.38
256.823	278.38
257.056	279.38
257.289	281.38
257.521	271.38
257.754	268.38
257.987	270.38
258.22	271.38
258.452	271.38
258.685	307.38
258.918	272.38
259.151	278.38
259.383	286.38
259.616	292.38
259.849	297.38
260.081	280.38
260.314	292.38
260.547	283.38
260.779	292.38
261.012	293.38
261.244	293.38
261.477	303.38
261.71	303.38
261.942	293.38
262.175	305.38
262.407	300.38
262.64	299.38
262.872	314.38
263.105	310.38
263.337	304.38
263.57	313.38
263.802	304.38
264.035	337.38
264.267	306.38
264.499	307.38
264.732	305.38
264.964	327.38
265.197	303.38
265.429	307.38
265.661	329.38
265.894	333.38
266.126	349.38
266.358	334.38
266.591	335.38
266.823	344.38
267.055	333.38
267.287	327.38
267.52	323.38
267.752	350.38
267.984	338.38
268.216	347.38
268.448	327.38
268.681	332.38
268.913	349.38
269.145	351.38
269.377	330.38
269.609	342.38
269.841	345.38
270.073	327.38
270.306	346.38
270.538	347.38
270.77	348.38
271.002	352.38
271.234	337.38
271.466	364.38
271.698	346.38
271.93	358.38
272.162	365.38
272.394	349.38
272.626	345.38
272.858	349.38
273.09	353.38
273.322	357.38
273.553	350.38
273.785	365.38
274.017	374.38
274.249	371.38
274.481	396.38
274.713	381.38
274.945	382.38
275.176	353.38
275.408	383.38
275.64	401.38
275.872	364.38
276.104	395.38
276.335	378.38
276.567	361.38
276.799	385.38
277.031	397.38
277.262	389.38
277.494	374.38
277.726	382.38
277.957	406.38
278.189	397.38
278.421	379.38
278.652	398.38
278.884	390.38
279.115	411.38
279.347	417.38
279.579	404.38
279.81	391.38
280.042	419.38
280.273	420.38
280.505	415.38
280.736	411.38
280.968	434.38
281.199	412.38
281.431	434.38
281.662	411.38
281.894	430.38
282.125	419.38
282.356	432.38
282.588	432.38
282.819	428.38
283.051	446.38
283.282	423.38
283.513	419.38
283.745	431.38
283.976	419.38
284.207	454.38
284.439	430.38
284.67	456.38
284.901	428.38
285.132	462.38
285.364	452.38
285.595	442.38
285.826	443.38
286.057	444.38
286.288	435.38
286.52	434.38
286.751	438.38
286.982	478.38
287.213	447.38
287.444	459.38
287.675	464.38
287.906	473.38
288.138	468.38
288.369	464.38
288.6	463.38
288.831	471.38
289.062	463.38
289.293	461.38
289.524	478.38
289.755	479.38
289.986	473.38
290.217	492.38
290.448	459.38
290.679	481.38
290.91	475.38
291.141	473.38
291.371	479.38
291.602	471.38
291.833	499.38
292.064	511.38
292.295	497.38
292.526	472.38
292.757	480.38
292.987	463.38
293.218	473.38
293.449	494.38
293.68	486.38
293.91	488.38
294.141	474.38
294.372	486.38
294.603	480.38
294.833	509.38
295.064	489.38
295.295	511.38
295.525	486.38
295.756	521.38
295.987	515.38
296.217	521.38
296.448	522.38
296.679	505.38
296.909	481.38
297.14	513.38
297.37	531.38
297.601	509.38
297.831	509.38
298.062	524.38
298.292	534.38
298.523	540.38
298.753	528.38
298.984	518.38
299.214	530.38
299.445	543.38
299.675	538.38
299.905	552.38
300.136	529.38
300.366	564.38
300.597	576.38
300.827	557.38
301.057	548.38
301.288	539.38
301.518	556.38
301.748	559.38
301.979	580.38
302.209	538.38
302.439	558.38
302.669	542.38
302.9	552.38
303.13	553.38
303.36	550.38
303.59	555.38
303.82	556.38
304.051	558.38
304.281	589.38
304.511	560.38
304.741	571.38
304.971	572.38
305.201	582.38
305.431	542.38
305.661	596.38
305.891	575.38
306.121	571.38
306.352	563.38
306.582	547.38
306.812	539.38
307.042	537.38
307.272	547.38
307.502	540.38
307.731	539.38
307.961	520.38
308.191	532.38
308.421	540.38
308.651	546.38
308.881	532.38
309.111	540.38
309.341	541.38
309.571	529.38
309.8	552.38
310.03	557.38
310.26	587.38
310.49	586.38
310.72	558.38
310.949	554.38
311.179	567.38
311.409	539.38
311.639	574.38
311.868	563.38
312.098	543.38
312.328	553.38
312.557	563.38
312.787	569.38
313.017	578.38
313.246	569.38
313.476	577.38
313.706	602.38
313.935	572.38
314.165	603.38
314.394	583.38
314.624	590.38
314.853	601.38
315.083	589.38
315.312	590.38
315.542	597.38
315.771	577.38
316.001	580.38
316.23	546.38
316.46	581.38
316.689	582.38
316.919	558.38
317.148	604.38
317.377	579.38
317.607	600.38
317.836	587.38
318.065	579.38
318.295	557.38
318.524	575.38
318.753	585.38
318.983	551.38
319.212	556.38
319.441	573.38
319.67	574.38
319.9	585.38
320.129	585.38
320.358	564.38
320.587	582.38
320.816	567.38
321.046	574.38
321.275	574.38
321.504	581.38
321.733	606.38
321.962	596.38
322.191	609.38
322.42	586.38
322.649	583.38
322.878	590.38
323.108	577.38
323.337	608.38
323.566	607.38
323.795	586.38
324.024	610.38
324.253	589.38
324.482	604.38
324.71	601.38
324.939	622.38
325.168	624.38
325.397	590.38
325.626	614.38
325.855	646.38
326.084	619.38
326.313	627.38
326.542	657.38
326.77	651.38
326.999	645.38
327.228	619.38
327.457	620.38
327.686	624.38
327.914	598.38
328.143	624.38
328.372	614.38
328.6	629.38
328.829	637.38
329.058	638.38
329.287	647.38
329.515	629.38
329.744	637.38
329.972	627.38
330.201	624.38
330.43	647.38
330.658	641.38
330.887	653.38
331.115	660.38
331.344	686.38
331.572	675.38
331.801	685.38
332.03	687.38
332.258	706.38
332.486	695.38
332.715	719.38
332.943	725.38
333.172	755.38
333.4	774.38
333.629	811.38
333.857	835.38
334.085	809.38
334.314	799.38
334.542	796.38
334.771	810.38
334.999	783.38
335.227	809.38
335.455	805.38
335.684	777.38
335.912	767.38
336.14	761.38
336.369	765.38
336.597	795.38
336.825	777.38
337.053	775.38
337.281	775.38
337.51	758.38
337.738	745.38
337.966	716.38
338.194	736.38
338.422	742.38
338.65	690.38
338.878	699.38
339.106	698.38
339.334	715.38
339.562	718.38
339.79	656.38
340.018	671.38
340.246	677.38
340.474	667.38
340.702	644.38
340.93	654.38
341.158	682.38
341.386	690.38
341.614	723.38
341.842	698.38
342.07	648.38
342.298	657.38
342.526	663.38
342.754	663.38
342.981	655.38
343.209	686.38
343.437	710.38
343.665	731.38
343.893	775.38
344.12	797.38
344.348	783.38
344.576	753.38
344.804	734.38
345.031	723.38
345.259	694.38
345.487	696.38
345.714	678.38
345.942	685.38
346.17	707.38
346.397	675.38
346.625	665.38
346.853	663.38
347.08	611.38
347.308	658.38
347.535	668.38
347.763	625.38
347.99	631.38
348.218	638.38
348.445	641.38
348.673	638.38
348.9	619.38
349.128	651.38
349.355	643.38
349.583	674.38
349.81	630.38
350.037	625.38
350.265	628.38
350.492	610.38
350.72	609.38
350.947	611.38
351.174	631.38
351.402	630.38
351.629	646.38
351.856	644.38
352.083	616.38
352.311	653.38
352.538	663.38
352.765	669.38
352.992	612.38
353.22	619.38
353.447	593.38
353.674	585.38
353.901	584.38
354.128	597.38
354.355	577.38
354.583	607.38
354.81	602.38
355.037	612.38
355.264	620.38
355.491	613.38
355.718	600.38
355.945	601.38
356.172	641.38
356.399	608.38
356.626	627.38
356.853	636.38
357.08	634.38
357.307	617.38
357.534	592.38
357.761	599.38
357.988	627.38
358.215	590.38
358.441	634.38
358.668	608.38
358.895	627.38
359.122	578.38
359.349	603.38
359.576	646.38
359.802	598.38
360.029	607.38
360.256	603.38
360.483	613.38
360.709	614.38
360.936	624.38
361.163	632.38
361.39	633.38
361.616	609.38
361.843	607.38
362.07	634.38
362.296	636.38
362.523	635.38
362.749	606.38
362.976	617.38
363.203	582.38
363.429	594.38
363.656	603.38
363.882	575.38
364.109	584.38
364.335	599.38
364.562	603.38
364.788	587.38
365.015	587.38
365.241	591.38
365.468	581.38
365.694	601.38
365.92	590.38
366.147	595.38
366.373	599.38
366.599	586.38
366.826	612.38
367.052	598.38
367.278	613.38
367.505	609.38
367.731	593.38
367.957	581.38
368.184	590.38
368.41	599.38
368.636	599.38
368.862	619.38
369.089	608.38
369.315	615.38
369.541	635.38
369.767	621.38
369.993	607.38
370.219	612.38
370.445	632.38
370.672	653.38
370.898	640.38
371.124	633.38
371.35	644.38
371.576	646.38
371.802	641.38
372.028	628.38
372.254	650.38
372.48	649.38
372.706	675.38
372.932	663.38
373.158	669.38
373.384	655.38
373.61	641.38
373.835	653.38
374.061	652.38
374.287	652.38
374.513	654.38
374.739	648.38
374.965	713.38
375.191	717.38
375.416	706.38
375.642	695.38
375.868	673.38
376.094	644.38
376.319	660.38
376.545	651.38
376.771	647.38
376.997	659.38
377.222	656.38
377.448	645.38
377.674	661.38
377.899	649.38
378.125	660.38
378.35	633.38
378.576	638.38
378.802	639.38
379.027	621.38
379.253	618.38
379.478	634.38
379.704	641.38
379.929	601.38
380.155	641.38
380.38	613.38
380.606	631.38
380.831	634.38
381.057	657.38
381.282	633.38
381.507	645.38
381.733	629.38
381.958	650.38
382.184	653.38
382.409	648.38
382.634	653.38
382.86	661.38
383.085	669.38
383.31	678.38
383.535	695.38
383.761	663.38
383.986	686.38
384.211	695.38
384.436	733.38
384.662	746.38
384.887	749.38
385.112	748.38
385.337	735.38
385.562	716.38
385.787	786.38
386.013	773.38
386.238	760.38
386.463	777.38
386.688	779.38
386.913	757.38
387.138	725.38
387.363	741.38
387.588	747.38
387.813	759.38
388.038	750.38
388.263	727.38
388.488	760.38
388.713	749.38
388.938	758.38
389.163	730.38
389.387	731.38
389.612	743.38
389.837	743.38
390.062	725.38
390.287	761.38
390.512	748.38
390.736	774.38
390.961	781.38
391.186	789.38
391.411	761.38
391.636	837.38
391.86	836.38
392.085	867.38
392.31	857.38
392.534	858.38
392.759	847.38
392.984	823.38
393.208	798.38
393.433	813.38
393.658	824.38
393.882	791.38
394.107	812.38
394.331	807.38
394.556	811.38
394.78	829.38
395.005	830.38
395.229	814.38
395.454	847.38
395.678	858.38
395.903	852.38
396.127	826.38
396.352	840.38
396.576	836.38
396.801	842.38
397.025	807.38
397.249	843.38
397.474	845.38
397.698	883.38
397.922	892.38
398.147	878.38
398.371	875.38
398.595	889.38
398.82	948.38
399.044	980.38
399.268	1084.38
399.492	1204.38
399.717	1303.38
399.941	1328.38
400.165	1223.38
400.389	1159.38
400.613	1097.38
400.837	1015.38
401.062	1014.38
401.286	959.38
401.51	965.38
401.734	927.38
401.958	966.38
402.182	991.38
402.406	964.38
402.63	992.38
402.854	1016.38
403.078	988.38
403.302	1015.38
403.526	1032.38
403.75	1039.38
403.974	1055.38
404.198	1036.38
404.422	1083.38
404.645	1049.38
404.869	1047.38
405.093	1032.38
405.317	1031.38
405.541	1039.38
405.765	1044.38
405.988	1029.38
406.212	1035.38
406.436	1039.38
406.66	1124.38
406.883	1083.38
407.107	1132.38
407.331	1185.38
407.555	1186.38
407.778	1214.38
408.002	1213.38
408.226	1131.38
408.449	1118.38
408.673	1084.38
408.896	1087.38
409.12	1087.38
409.344	1108.38
409.567	1062.38
409.791	1113.38
410.014	1073.38
410.238	1062.38
410.461	1048.38
410.685	1016.38
410.908	1029.38
411.132	1016.38
411.355	982.38
411.578	989.38
411.802	1000.38
412.025	980.38
412.249	1022.38
412.472	1002.38
412.695	1006.38
412.919	983.38
413.142	985.38
413.365	969.38
413.589	1002.38
413.812	996.38
414.035	987.38
414.258	959.38
414.482	960.38
414.705	980.38
414.928	983.38
415.151	980.38
415.374	947.38
415.597	953.38
415.821	925.38
416.044	960.38
416.267	923.38
416.49	932.38
416.713	950.38
416.936	943.38
417.159	918.38
417.382	923.38
417.605	935.38
417.828	968.38
418.051	934.38
418.274	936.38
418.497	941.38
418.72	966.38
418.943	961.38
419.166	1034.38
419.389	1102.38
419.611	1055.38
419.834	1059.38
420.057	1004.38
420.28	974.38
420.503	942.38
420.726	940.38
420.948	943.38
421.171	945.38
421.394	931.38
421.617	964.38
421.839	966.38
422.062	957.38
422.285	964.38
422.507	977.38
422.73	979.38
422.953	983.38
423.175	996.38
423.398	988.38
423.621	959.38
423.843	968.38
424.066	980.38
424.288	979.38
424.511	1005.38
424.733	967.38
424.956	960.38
425.178	965.38
425.401	924.38
425.623	936.38
425.846	917.38
426.068	928.38
426.291	939.38
426.513	907.38
426.735	904.38
426.958	895.38
427.18	899.38
427.402	898.38
427.625	906.38
427.847	869.38
428.069	867.38
428.292	853.38
428.514	871.38
428.736	877.38
428.958	874.38
429.181	839.38
429.403	857.38
429.625	861.38
429.847	853.38
430.069	861.38
430.292	886.38
430.514	855.38
430.736	856.38
430.958	879.38
431.18	852.38
431.402	851.38
431.624	867.38
431.846	850.38
432.068	887.38
432.29	883.38
432.512	877.38
432.734	903.38
432.956	859.38
433.178	885.38
433.4	873.38
433.622	892.38
433.844	892.38
434.066	895.38
434.287	925.38
434.509	909.38
434.731	956.38
434.953	940.38
435.175	948.38
435.397	968.38
435.618	931.38
435.84	895.38
436.062	869.38
436.284	904.38
436.505	871.38
436.727	908.38
436.949	877.38
437.17	855.38
437.392	851.38
437.614	868.38
437.835	862.38
438.057	856.38
438.278	842.38
438.5	853.38
438.721	835.38
438.943	857.38
439.165	864.38
439.386	847.38
439.608	870.38
439.829	872.38
440.05	881.38
440.272	893.38
440.493	878.38
440.715	895.38
440.936	911.38
441.158	937.38
441.379	950.38
441.6	947.38
441.822	954.38
442.043	982.38
442.264	931.38
442.486	955.38
442.707	942.38
442.928	942.38
443.149	963.38
443.371	960.38
443.592	973.38
443.813	979.38
444.034	963.38
444.255	1001.38
444.476	1065.38
444.698	1089.38
444.919	1110.38
445.14	1160.38
445.361	1077.38
445.582	1023.38
445.803	967.38
446.024	941.38
446.245	950.38
446.466	921.38
446.687	922.38
446.908	920.38
447.129	881.38
447.35	857.38
447.571	861.38
447.792	804.38
448.013	843.38
448.234	796.38
448.455	846.38
448.675	822.38
448.896	829.38
449.117	795.38
449.338	821.38
449.559	823.38
449.779	819.38
450	806.38
450.221	821.38
450.442	831.38
450.662	861.38
450.883	835.38
451.104	850.38
451.324	820.38
451.545	821.38
451.766	821.38
451.986	823.38
452.207	801.38
452.428	785.38
452.648	809.38
452.869	772.38
453.089	781.38
453.31	825.38
453.53	796.38
453.751	763.38
453.971	780.38
454.192	780.38
454.412	791.38
454.633	773.38
454.853	757.38
455.073	744.38
455.294	783.38
455.514	745.38
455.734	779.38
455.955	759.38
456.175	765.38
456.395	744.38
456.616	779.38
456.836	755.38
457.056	765.38
457.276	743.38
457.497	777.38
457.717	755.38
457.937	773.38
458.157	768.38
458.377	793.38
458.598	831.38
458.818	789.38
459.038	821.38
459.258	875.38
459.478	887.38
459.698	946.38
459.918	974.38
460.138	957.38
460.358	1003.38
460.578	1051.38
460.798	1046.38
461.018	1057.38
461.238	1024.38
461.458	1037.38
461.678	1057.38
461.898	1061.38
462.118	1045.38
462.338	1108.38
462.558	1134.38
462.777	1181.38
462.997	1246.38
463.217	1280.38
463.437	1311.38
463.657	1237.38
463.876	1223.38
464.096	1203.38
464.316	1198.38
464.536	1182.38
464.755	1165.38
464.975	1102.38
465.195	1027.38
465.414	1004.38
465.634	937.38
465.854	890.38
466.073	904.38
466.293	886.38
466.512	855.38
466.732	874.38
466.951	885.38
467.171	853.38
467.391	868.38
467.61	862.38
467.829	857.38
468.049	833.38
468.268	843.38
468.488	820.38
468.707	808.38
468.927	848.38
469.146	849.38
469.365	843.38
469.585	853.38
469.804	861.38
470.023	888.38
470.243	872.38
470.462	878.38
470.681	877.38
470.901	896.38
471.12	864.38
471.339	863.38
471.558	852.38
471.777	872.38
471.997	859.38
472.216	848.38
472.435	839.38
472.654	812.38
472.873	812.38
473.092	812.38
473.311	800.38
473.53	816.38
473.749	783.38
473.968	824.38
474.187	783.38
474.406	816.38
474.625	785.38
474.844	825.38
475.063	814.38
475.282	815.38
475.501	814.38
475.72	823.38
475.939	795.38
476.158	843.38
476.377	846.38
476.596	879.38
476.814	852.38
477.033	842.38
477.252	870.38
477.471	927.38
477.69	893.38
477.908	918.38
478.127	945.38
478.346	942.38
478.564	976.38
478.783	966.38
479.002	1001.38
479.22	1036.38
479.439	1008.38
479.658	978.38
479.876	994.38
480.095	1007.38
480.313	1051.38
480.532	1057.38
480.751	1059.38
480.969	1021.38
481.188	995.38
481.406	956.38
481.624	940.38
481.843	952.38
482.061	927.38
482.28	921.38
482.498	901.38
482.717	896.38
482.935	958.38
483.153	944.38
483.372	928.38
483.59	934.38
483.808	945.38
484.027	942.38
484.245	937.38
484.463	944.38
484.681	943.38
484.9	948.38
485.118	956.38
485.336	953.38
485.554	953.38
485.772	975.38
485.99	936.38
486.209	960.38
486.427	935.38
486.645	971.38
486.863	969.38
487.081	981.38
487.299	977.38
487.517	957.38
487.735	963.38
487.953	977.38
488.171	996.38
488.389	956.38
488.607	931.38
488.825	919.38
489.043	969.38
489.261	961.38
489.479	960.38
489.696	955.38
489.914	935.38
490.132	976.38
490.35	915.38
490.568	968.38
490.786	1003.38
491.003	984.38
491.221	947.38
491.439	980.38
491.657	976.38
491.874	999.38
492.092	1011.38
492.31	1006.38
492.527	1025.38
492.745	1016.38
492.963	1001.38
493.18	1003.38
493.398	1008.38
493.615	1011.38
493.833	1023.38
494.05	1044.38
494.268	1040.38
494.485	1050.38
494.703	1040.38
494.92	1040.38
495.138	1038.38
495.355	1054.38
495.573	1055.38
495.79	1059.38
496.008	1039.38
496.225	1029.38
496.442	1084.38
496.66	1087.38
496.877	1088.38
497.094	1148.38
497.312	1111.38
497.529	1165.38
497.746	1199.38
497.963	1244.38
498.181	1298.38
498.398	1311.38
498.615	1393.38
498.832	1469.38
499.049	1605.38
499.267	1689.38
499.484	1869.38
499.701	1981.38
