Data from NiCl2@0.125M.TitratingCurve.Agarose3%dH2O.NegLispCup.LampEnergy10.LIBS07252019_HRD10591_18-29-54-575.txt Node
Date: Thu Jul 25 18:29:54 EDT 2019
User: cochatt
Spectrometer: HR+D1059
Trigger mode: 1
Integration Time (sec): 1.000000E-1
Scans to average: 1
Electric dark correction enabled: true
Nonlinearity correction enabled: false
Boxcar width: 0
XAxis mode: Wavelengths
Number of Pixels in Spectrum: 2048
>>>>>Begin Spectral Data<<<<<
223.165	-14.06
223.4	-14.06
223.635	-14.06
223.869	-28.06
224.104	-26.06
224.338	-23.06
224.573	-12.06
224.808	-8.06
225.042	-5.06
225.277	-1.06
225.511	-13.06
225.746	-4.06
225.98	14.94
226.215	16.94
226.449	26.94
226.683	19.94
226.918	24.94
227.152	30.94
227.387	33.94
227.621	46.94
227.856	48.94
228.09	48.94
228.324	51.94
228.559	56.94
228.793	76.94
229.027	108.94
229.262	113.94
229.496	125.94
229.73	130.94
229.964	132.94
230.199	121.94
230.433	114.94
230.667	131.94
230.901	127.94
231.136	127.94
231.37	156.94
231.604	136.94
231.838	129.94
232.072	141.94
232.306	143.94
232.541	150.94
232.775	167.94
233.009	165.94
233.243	162.94
233.477	147.94
233.711	166.94
233.945	160.94
234.179	161.94
234.413	160.94
234.647	162.94
234.881	160.94
235.115	156.94
235.349	166.94
235.583	167.94
235.817	167.94
236.051	171.94
236.285	163.94
236.519	159.94
236.753	159.94
236.987	163.94
237.221	161.94
237.455	177.94
237.689	164.94
237.922	166.94
238.156	175.94
238.39	178.94
238.624	186.94
238.858	175.94
239.091	187.94
239.325	181.94
239.559	162.94
239.793	192.94
240.027	190.94
240.26	199.94
240.494	181.94
240.728	175.94
240.961	200.94
241.195	204.94
241.429	200.94
241.662	206.94
241.896	199.94
242.13	217.94
242.363	198.94
242.597	216.94
242.83	221.94
243.064	216.94
243.298	212.94
243.531	220.94
243.765	222.94
243.998	223.94
244.232	212.94
244.465	220.94
244.699	240.94
244.932	228.94
245.166	228.94
245.399	232.94
245.633	251.94
245.866	238.94
246.099	231.94
246.333	252.94
246.566	222.94
246.8	232.94
247.033	244.94
247.266	239.94
247.5	247.94
247.733	263.94
247.966	257.94
248.2	260.94
248.433	274.94
248.666	272.94
248.899	263.94
249.133	272.94
249.366	267.94
249.599	262.94
249.832	273.94
250.066	289.94
250.299	262.94
250.532	286.94
250.765	263.94
250.998	281.94
251.231	299.94
251.465	286.94
251.698	277.94
251.931	290.94
252.164	293.94
252.397	285.94
252.63	296.94
252.863	294.94
253.096	298.94
253.329	282.94
253.562	289.94
253.795	283.94
254.028	283.94
254.261	286.94
254.494	303.94
254.727	322.94
254.96	317.94
255.193	324.94
255.426	302.94
255.659	325.94
255.892	319.94
256.124	313.94
256.357	306.94
256.59	311.94
256.823	313.94
257.056	315.94
257.289	329.94
257.521	337.94
257.754	326.94
257.987	323.94
258.22	327.94
258.452	340.94
258.685	320.94
258.918	342.94
259.151	328.94
259.383	344.94
259.616	327.94
259.849	323.94
260.081	340.94
260.314	363.94
260.547	352.94
260.779	360.94
261.012	363.94
261.244	365.94
261.477	346.94
261.71	363.94
261.942	360.94
262.175	338.94
262.407	342.94
262.64	361.94
262.872	342.94
263.105	357.94
263.337	350.94
263.57	388.94
263.802	363.94
264.035	364.94
264.267	362.94
264.499	351.94
264.732	391.94
264.964	363.94
265.197	370.94
265.429	372.94
265.661	388.94
265.894	380.94
266.126	371.94
266.358	382.94
266.591	400.94
266.823	394.94
267.055	409.94
267.287	404.94
267.52	410.94
267.752	390.94
267.984	380.94
268.216	395.94
268.448	398.94
268.681	402.94
268.913	400.94
269.145	403.94
269.377	396.94
269.609	409.94
269.841	417.94
270.073	380.94
270.306	410.94
270.538	403.94
270.77	408.94
271.002	404.94
271.234	410.94
271.466	398.94
271.698	406.94
271.93	416.94
272.162	414.94
272.394	407.94
272.626	411.94
272.858	448.94
273.09	430.94
273.322	425.94
273.553	440.94
273.785	445.94
274.017	416.94
274.249	432.94
274.481	418.94
274.713	424.94
274.945	446.94
275.176	452.94
275.408	438.94
275.64	450.94
275.872	464.94
276.104	443.94
276.335	436.94
276.567	438.94
276.799	423.94
277.031	457.94
277.262	464.94
277.494	478.94
277.726	469.94
277.957	462.94
278.189	459.94
278.421	461.94
278.652	461.94
278.884	462.94
279.115	460.94
279.347	484.94
279.579	472.94
279.81	487.94
280.042	451.94
280.273	501.94
280.505	486.94
280.736	483.94
280.968	476.94
281.199	504.94
281.431	490.94
281.662	488.94
281.894	493.94
282.125	471.94
282.356	492.94
282.588	487.94
282.819	502.94
283.051	490.94
283.282	514.94
283.513	517.94
283.745	515.94
283.976	510.94
284.207	510.94
284.439	512.94
284.67	506.94
284.901	527.94
285.132	534.94
285.364	528.94
285.595	531.94
285.826	502.94
286.057	534.94
286.288	554.94
286.52	512.94
286.751	520.94
286.982	565.94
287.213	550.94
287.444	522.94
287.675	550.94
287.906	553.94
288.138	546.94
288.369	561.94
288.6	551.94
288.831	570.94
289.062	554.94
289.293	554.94
289.524	564.94
289.755	555.94
289.986	544.94
290.217	555.94
290.448	538.94
290.679	583.94
290.91	582.94
291.141	559.94
291.371	588.94
291.602	577.94
291.833	580.94
292.064	571.94
292.295	578.94
292.526	579.94
292.757	552.94
292.987	551.94
293.218	524.94
293.449	570.94
293.68	560.94
293.91	594.94
294.141	573.94
294.372	570.94
294.603	569.94
294.833	586.94
295.064	588.94
295.295	593.94
295.525	582.94
295.756	570.94
295.987	594.94
296.217	598.94
296.448	591.94
296.679	588.94
296.909	607.94
297.14	588.94
297.37	628.94
297.601	619.94
297.831	623.94
298.062	595.94
298.292	618.94
298.523	657.94
298.753	642.94
298.984	632.94
299.214	612.94
299.445	606.94
299.675	603.94
299.905	628.94
300.136	615.94
300.366	634.94
300.597	640.94
300.827	658.94
301.057	625.94
301.288	647.94
301.518	649.94
301.748	644.94
301.979	636.94
302.209	649.94
302.439	635.94
302.669	638.94
302.9	643.94
303.13	637.94
303.36	656.94
303.59	633.94
303.82	651.94
304.051	631.94
304.281	656.94
304.511	610.94
304.741	622.94
304.971	653.94
305.201	635.94
305.431	629.94
305.661	603.94
305.891	632.94
306.121	627.94
306.352	616.94
306.582	634.94
306.812	610.94
307.042	626.94
307.272	617.94
307.502	607.94
307.731	588.94
307.961	610.94
308.191	614.94
308.421	615.94
308.651	609.94
308.881	598.94
309.111	619.94
309.341	606.94
309.571	614.94
309.8	614.94
310.03	623.94
310.26	622.94
310.49	599.94
310.72	635.94
310.949	633.94
311.179	632.94
311.409	642.94
311.639	624.94
311.868	644.94
312.098	640.94
312.328	627.94
312.557	657.94
312.787	680.94
313.017	640.94
313.246	658.94
313.476	665.94
313.706	662.94
313.935	681.94
314.165	651.94
314.394	662.94
314.624	663.94
314.853	661.94
315.083	693.94
315.312	664.94
315.542	659.94
315.771	640.94
316.001	661.94
316.23	635.94
316.46	641.94
316.689	646.94
316.919	656.94
317.148	663.94
317.377	646.94
317.607	638.94
317.836	641.94
318.065	641.94
318.295	631.94
318.524	654.94
318.753	625.94
318.983	640.94
319.212	615.94
319.441	664.94
319.67	642.94
319.9	638.94
320.129	635.94
320.358	648.94
320.587	641.94
320.816	680.94
321.046	642.94
321.275	642.94
321.504	656.94
321.733	673.94
321.962	638.94
322.191	640.94
322.42	658.94
322.649	664.94
322.878	646.94
323.108	644.94
323.337	650.94
323.566	656.94
323.795	688.94
324.024	666.94
324.253	679.94
324.482	662.94
324.71	662.94
324.939	653.94
325.168	681.94
325.397	681.94
325.626	684.94
325.855	697.94
326.084	703.94
326.313	711.94
326.542	716.94
326.77	736.94
326.999	715.94
327.228	705.94
327.457	709.94
327.686	705.94
327.914	695.94
328.143	699.94
328.372	693.94
328.6	704.94
328.829	689.94
329.058	720.94
329.287	694.94
329.515	704.94
329.744	731.94
329.972	700.94
330.201	689.94
330.43	700.94
330.658	721.94
330.887	717.94
331.115	738.94
331.344	743.94
331.572	756.94
331.801	764.94
332.03	796.94
332.258	770.94
332.486	822.94
332.715	850.94
332.943	873.94
333.172	930.94
333.4	992.94
333.629	979.94
333.857	975.94
334.085	978.94
334.314	972.94
334.542	943.94
334.771	910.94
334.999	863.94
335.227	885.94
335.455	901.94
335.684	906.94
335.912	864.94
336.14	883.94
336.369	848.94
336.597	844.94
336.825	850.94
337.053	839.94
337.281	838.94
337.51	815.94
337.738	821.94
337.966	836.94
338.194	774.94
338.422	767.94
338.65	772.94
338.878	796.94
339.106	767.94
339.334	768.94
339.562	740.94
339.79	727.94
340.018	741.94
340.246	726.94
340.474	740.94
340.702	724.94
340.93	753.94
341.158	755.94
341.386	726.94
341.614	758.94
341.842	719.94
342.07	721.94
342.298	732.94
342.526	723.94
342.754	711.94
342.981	730.94
343.209	749.94
343.437	809.94
343.665	826.94
343.893	890.94
344.12	921.94
344.348	903.94
344.576	849.94
344.804	822.94
345.031	774.94
345.259	753.94
345.487	753.94
345.714	735.94
345.942	726.94
346.17	721.94
346.397	695.94
346.625	744.94
346.853	708.94
347.08	725.94
347.308	754.94
347.535	741.94
347.763	718.94
347.99	736.94
348.218	747.94
348.445	726.94
348.673	701.94
348.9	696.94
349.128	715.94
349.355	721.94
349.583	702.94
349.81	704.94
350.037	675.94
350.265	698.94
350.492	686.94
350.72	712.94
350.947	679.94
351.174	696.94
351.402	686.94
351.629	676.94
351.856	704.94
352.083	686.94
352.311	677.94
352.538	692.94
352.765	692.94
352.992	677.94
353.22	694.94
353.447	664.94
353.674	687.94
353.901	684.94
354.128	672.94
354.355	691.94
354.583	675.94
354.81	662.94
355.037	686.94
355.264	692.94
355.491	675.94
355.718	681.94
355.945	689.94
356.172	709.94
356.399	678.94
356.626	692.94
356.853	714.94
357.08	682.94
357.307	711.94
357.534	675.94
357.761	695.94
357.988	670.94
358.215	669.94
358.441	682.94
358.668	680.94
358.895	702.94
359.122	666.94
359.349	674.94
359.576	687.94
359.802	694.94
360.029	692.94
360.256	677.94
360.483	673.94
360.709	714.94
360.936	703.94
361.163	683.94
361.39	680.94
361.616	686.94
361.843	668.94
362.07	674.94
362.296	670.94
362.523	687.94
362.749	703.94
362.976	666.94
363.203	707.94
363.429	668.94
363.656	682.94
363.882	669.94
364.109	706.94
364.335	693.94
364.562	696.94
364.788	691.94
365.015	663.94
365.241	666.94
365.468	687.94
365.694	704.94
365.92	675.94
366.147	692.94
366.373	697.94
366.599	675.94
366.826	662.94
367.052	665.94
367.278	703.94
367.505	672.94
367.731	675.94
367.957	682.94
368.184	702.94
368.41	694.94
368.636	689.94
368.862	696.94
369.089	696.94
369.315	718.94
369.541	708.94
369.767	699.94
369.993	698.94
370.219	700.94
370.445	743.94
370.672	743.94
370.898	715.94
371.124	722.94
371.35	741.94
371.576	735.94
371.802	746.94
372.028	743.94
372.254	756.94
372.48	774.94
372.706	766.94
372.932	800.94
373.158	792.94
373.384	751.94
373.61	746.94
373.835	760.94
374.061	747.94
374.287	770.94
374.513	744.94
374.739	781.94
374.965	825.94
375.191	816.94
375.416	830.94
375.642	796.94
375.868	800.94
376.094	780.94
376.319	784.94
376.545	775.94
376.771	744.94
376.997	730.94
377.222	774.94
377.448	726.94
377.674	757.94
377.899	747.94
378.125	754.94
378.35	740.94
378.576	730.94
378.802	719.94
379.027	774.94
379.253	726.94
379.478	722.94
379.704	738.94
379.929	738.94
380.155	734.94
380.38	736.94
380.606	733.94
380.831	740.94
381.057	731.94
381.282	725.94
381.507	716.94
381.733	723.94
381.958	751.94
382.184	740.94
382.409	776.94
382.634	827.94
382.86	784.94
383.085	821.94
383.31	818.94
383.535	847.94
383.761	835.94
383.986	849.94
384.211	866.94
384.436	860.94
384.662	888.94
384.887	896.94
385.112	891.94
385.337	914.94
385.562	917.94
385.787	889.94
386.013	933.94
386.238	910.94
386.463	902.94
386.688	912.94
386.913	897.94
387.138	885.94
387.363	891.94
387.588	870.94
387.813	863.94
388.038	851.94
388.263	890.94
388.488	886.94
388.713	885.94
388.938	882.94
389.163	860.94
389.387	856.94
389.612	879.94
389.837	880.94
390.062	879.94
390.287	873.94
390.512	894.94
390.736	896.94
390.961	880.94
391.186	921.94
391.411	896.94
391.636	954.94
391.86	998.94
392.085	1047.94
392.31	1026.94
392.534	1015.94
392.759	990.94
392.984	963.94
393.208	937.94
393.433	945.94
393.658	933.94
393.882	923.94
394.107	946.94
394.331	986.94
394.556	951.94
394.78	943.94
395.005	989.94
395.229	954.94
395.454	967.94
395.678	1004.94
395.903	1019.94
396.127	986.94
396.352	980.94
396.576	935.94
396.801	930.94
397.025	948.94
397.249	972.94
397.474	997.94
397.698	967.94
397.922	962.94
398.147	972.94
398.371	996.94
398.595	1049.94
398.82	1070.94
399.044	1180.94
399.268	1314.94
399.492	1515.94
399.717	1760.94
399.941	1809.94
400.165	1515.94
400.389	1402.94
400.613	1235.94
400.837	1143.94
401.062	1157.94
401.286	1147.94
401.51	1123.94
401.734	1102.94
401.958	1162.94
402.182	1135.94
402.406	1182.94
402.63	1184.94
402.854	1221.94
403.078	1232.94
403.302	1310.94
403.526	1307.94
403.75	1322.94
403.974	1392.94
404.198	1339.94
404.422	1361.94
404.645	1325.94
404.869	1287.94
405.093	1330.94
405.317	1270.94
405.541	1284.94
405.765	1213.94
405.988	1245.94
406.212	1219.94
406.436	1241.94
406.66	1259.94
406.883	1265.94
407.107	1390.94
407.331	1414.94
407.555	1491.94
407.778	1516.94
408.002	1414.94
408.226	1393.94
408.449	1384.94
408.673	1288.94
408.896	1286.94
409.12	1313.94
409.344	1314.94
409.567	1270.94
409.791	1342.94
410.014	1314.94
410.238	1279.94
410.461	1263.94
410.685	1289.94
410.908	1252.94
411.132	1196.94
411.355	1152.94
411.578	1188.94
411.802	1185.94
412.025	1179.94
412.249	1203.94
412.472	1214.94
412.695	1141.94
412.919	1121.94
413.142	1148.94
413.365	1104.94
413.589	1134.94
413.812	1128.94
414.035	1095.94
414.258	1093.94
414.482	1119.94
414.705	1159.94
414.928	1136.94
415.151	1143.94
415.374	1124.94
415.597	1140.94
415.821	1111.94
416.044	1091.94
416.267	1112.94
416.49	1050.94
416.713	1112.94
416.936	1119.94
417.159	1094.94
417.382	1111.94
417.605	1097.94
417.828	1149.94
418.051	1141.94
418.274	1123.94
418.497	1142.94
418.72	1147.94
418.943	1153.94
419.166	1219.94
419.389	1331.94
419.611	1254.94
419.834	1218.94
420.057	1168.94
420.28	1124.94
420.503	1088.94
420.726	1092.94
420.948	1108.94
421.171	1122.94
421.394	1126.94
421.617	1117.94
421.839	1135.94
422.062	1125.94
422.285	1107.94
422.507	1181.94
422.73	1152.94
422.953	1186.94
423.175	1215.94
423.398	1217.94
423.621	1222.94
423.843	1223.94
424.066	1227.94
424.288	1217.94
424.511	1192.94
424.733	1190.94
424.956	1195.94
425.178	1162.94
425.401	1165.94
425.623	1176.94
425.846	1111.94
426.068	1081.94
426.291	1094.94
426.513	1046.94
426.735	1046.94
426.958	1060.94
427.18	1034.94
427.402	992.94
427.625	1030.94
427.847	1015.94
428.069	1002.94
428.292	1023.94
428.514	1006.94
428.736	1004.94
428.958	977.94
429.181	977.94
429.403	983.94
429.625	987.94
429.847	964.94
430.069	996.94
430.292	984.94
430.514	961.94
430.736	954.94
430.958	958.94
431.18	959.94
431.402	994.94
431.624	964.94
431.846	978.94
432.068	1012.94
432.29	1026.94
432.512	1001.94
432.734	977.94
432.956	1000.94
433.178	975.94
433.4	1028.94
433.622	1011.94
433.844	1024.94
434.066	1046.94
434.287	1022.94
434.509	1022.94
434.731	1086.94
434.953	1114.94
435.175	1163.94
435.397	1101.94
435.618	1053.94
435.84	1029.94
436.062	1056.94
436.284	1002.94
436.505	994.94
436.727	1029.94
436.949	993.94
437.17	998.94
437.392	982.94
437.614	951.94
437.835	953.94
438.057	963.94
438.278	959.94
438.5	962.94
438.721	993.94
438.943	981.94
439.165	974.94
439.386	981.94
439.608	987.94
439.829	996.94
440.05	1026.94
440.272	1008.94
440.493	1007.94
440.715	1052.94
440.936	1054.94
441.158	1014.94
441.379	1085.94
441.6	1166.94
441.822	1222.94
442.043	1172.94
442.264	1158.94
442.486	1082.94
442.707	1090.94
442.928	1111.94
443.149	1108.94
443.371	1122.94
443.592	1145.94
443.813	1131.94
444.034	1148.94
444.255	1170.94
444.476	1225.94
444.698	1358.94
444.919	1432.94
445.14	1500.94
445.361	1313.94
445.582	1221.94
445.803	1088.94
446.024	1099.94
446.245	1074.94
446.466	1040.94
446.687	1036.94
446.908	1028.94
447.129	998.94
447.35	962.94
447.571	990.94
447.792	923.94
448.013	946.94
448.234	924.94
448.455	924.94
448.675	920.94
448.896	913.94
449.117	890.94
449.338	927.94
449.559	904.94
449.779	921.94
450	890.94
450.221	924.94
450.442	920.94
450.662	937.94
450.883	942.94
451.104	989.94
451.324	965.94
451.545	989.94
451.766	963.94
451.986	937.94
452.207	942.94
452.428	946.94
452.648	931.94
452.869	930.94
453.089	906.94
453.31	923.94
453.53	910.94
453.751	891.94
453.971	889.94
454.192	859.94
454.412	885.94
454.633	874.94
454.853	881.94
455.073	872.94
455.294	875.94
455.514	878.94
455.734	858.94
455.955	848.94
456.175	862.94
456.395	856.94
456.616	859.94
456.836	895.94
457.056	855.94
457.276	839.94
457.497	872.94
457.717	850.94
457.937	897.94
458.157	878.94
458.377	870.94
458.598	892.94
458.818	950.94
459.038	957.94
459.258	990.94
459.478	1040.94
459.698	1064.94
459.918	1096.94
460.138	1091.94
460.358	1183.94
460.578	1190.94
460.798	1234.94
461.018	1215.94
461.238	1189.94
461.458	1171.94
461.678	1216.94
461.898	1187.94
462.118	1196.94
462.338	1265.94
462.558	1293.94
462.777	1372.94
462.997	1499.94
463.217	1622.94
463.437	1708.94
463.657	1530.94
463.876	1439.94
464.096	1433.94
464.316	1425.94
464.536	1434.94
464.755	1377.94
464.975	1311.94
465.195	1246.94
465.414	1217.94
465.634	1106.94
465.854	1061.94
466.073	1034.94
466.293	1031.94
466.512	1002.94
466.732	971.94
466.951	962.94
467.171	949.94
467.391	982.94
467.61	986.94
467.829	956.94
468.049	964.94
468.268	926.94
468.488	909.94
468.707	915.94
468.927	922.94
469.146	919.94
469.365	934.94
469.585	954.94
469.804	973.94
470.023	991.94
470.243	997.94
470.462	1036.94
470.681	1012.94
470.901	1028.94
471.12	972.94
471.339	946.94
471.558	975.94
471.777	926.94
471.997	961.94
472.216	923.94
472.435	896.94
472.654	895.94
472.873	890.94
473.092	894.94
473.311	887.94
473.53	888.94
473.749	879.94
473.968	898.94
474.187	893.94
474.406	884.94
474.625	895.94
474.844	866.94
475.063	904.94
475.282	903.94
475.501	911.94
475.72	916.94
475.939	922.94
476.158	910.94
476.377	932.94
476.596	924.94
476.814	964.94
477.033	921.94
477.252	962.94
477.471	968.94
477.69	977.94
477.908	1056.94
478.127	1029.94
478.346	1060.94
478.564	1100.94
478.783	1094.94
479.002	1130.94
479.22	1123.94
479.439	1124.94
479.658	1115.94
479.876	1126.94
480.095	1123.94
480.313	1180.94
480.532	1225.94
480.751	1262.94
480.969	1188.94
481.188	1111.94
481.406	1080.94
481.624	1036.94
481.843	1066.94
482.061	1013.94
482.28	1023.94
482.498	1033.94
482.717	1013.94
482.935	1020.94
483.153	1004.94
483.372	1041.94
483.59	1036.94
483.808	1044.94
484.027	1027.94
484.245	1017.94
484.463	1064.94
484.681	1052.94
484.9	1063.94
485.118	1038.94
485.336	1055.94
485.554	1106.94
485.772	1120.94
485.99	1094.94
486.209	1139.94
486.427	1122.94
486.645	1111.94
486.863	1092.94
487.081	1059.94
487.299	1106.94
487.517	1057.94
487.735	1068.94
487.953	1067.94
488.171	1060.94
488.389	1091.94
488.607	1085.94
488.825	1034.94
489.043	1083.94
489.261	1033.94
489.479	1063.94
489.696	1050.94
489.914	1040.94
490.132	1090.94
490.35	1035.94
490.568	1084.94
490.786	1078.94
491.003	1077.94
491.221	1077.94
491.439	1099.94
491.657	1074.94
491.874	1059.94
492.092	1095.94
492.31	1080.94
492.527	1096.94
492.745	1099.94
492.963	1088.94
493.18	1132.94
493.398	1114.94
493.615	1084.94
493.833	1122.94
494.05	1129.94
494.268	1163.94
494.485	1183.94
494.703	1151.94
494.92	1146.94
495.138	1128.94
495.355	1104.94
495.573	1128.94
495.79	1121.94
496.008	1144.94
496.225	1156.94
496.442	1156.94
496.66	1161.94
496.877	1186.94
497.094	1187.94
497.312	1238.94
