Data from NiCl2@0.25M.TitratingCurve.Agarose3%dH2O.NegLispCup.LampEnergy10.LIBS07252019_HRD10591_18-25-45-573.txt Node
Date: Thu Jul 25 18:25:45 EDT 2019
User: cochatt
Spectrometer: HR+D1059
Trigger mode: 1
Integration Time (sec): 1.000000E-1
Scans to average: 1
Electric dark correction enabled: true
Nonlinearity correction enabled: false
Boxcar width: 0
XAxis mode: Wavelengths
Number of Pixels in Spectrum: 2048
>>>>>Begin Spectral Data<<<<<
223.165	-13.44
223.4	-13.44
223.635	-13.44
223.869	-22.44
224.104	-4.44
224.338	-6.44
224.573	-14.44
224.808	-24.44
225.042	-4.44
225.277	-14.44
225.511	-4.44
225.746	6.56
225.98	15.56
226.215	-10.44
226.449	18.56
226.683	22.56
226.918	31.56
227.152	24.56
227.387	42.56
227.621	39.56
227.856	57.56
228.09	38.56
228.324	45.56
228.559	53.56
228.793	82.56
229.027	142.56
229.262	143.56
229.496	143.56
229.73	169.56
229.964	162.56
230.199	179.56
230.433	173.56
230.667	187.56
230.901	157.56
231.136	182.56
231.37	184.56
231.604	189.56
231.838	185.56
232.072	182.56
232.306	182.56
232.541	196.56
232.775	196.56
233.009	194.56
233.243	221.56
233.477	201.56
233.711	217.56
233.945	210.56
234.179	219.56
234.413	194.56
234.647	201.56
234.881	197.56
235.115	200.56
235.349	209.56
235.583	209.56
235.817	215.56
236.051	213.56
236.285	213.56
236.519	213.56
236.753	210.56
236.987	214.56
237.221	223.56
237.455	232.56
237.689	221.56
237.922	255.56
238.156	233.56
238.39	244.56
238.624	241.56
238.858	245.56
239.091	223.56
239.325	233.56
239.559	228.56
239.793	241.56
240.027	255.56
240.26	249.56
240.494	268.56
240.728	282.56
240.961	266.56
241.195	281.56
241.429	266.56
241.662	272.56
241.896	291.56
242.13	288.56
242.363	282.56
242.597	312.56
242.83	302.56
243.064	285.56
243.298	302.56
243.531	293.56
243.765	299.56
243.998	317.56
244.232	314.56
244.465	333.56
244.699	317.56
244.932	326.56
245.166	335.56
245.399	324.56
245.633	320.56
245.866	316.56
246.099	320.56
246.333	332.56
246.566	330.56
246.8	335.56
247.033	342.56
247.266	329.56
247.5	341.56
247.733	344.56
247.966	360.56
248.2	333.56
248.433	336.56
248.666	367.56
248.899	356.56
249.133	376.56
249.366	349.56
249.599	371.56
249.832	397.56
250.066	374.56
250.299	379.56
250.532	380.56
250.765	360.56
250.998	385.56
251.231	381.56
251.465	378.56
251.698	387.56
251.931	380.56
252.164	422.56
252.397	415.56
252.63	410.56
252.863	389.56
253.096	403.56
253.329	426.56
253.562	410.56
253.795	397.56
254.028	417.56
254.261	405.56
254.494	421.56
254.727	423.56
254.96	434.56
255.193	439.56
255.426	438.56
255.659	423.56
255.892	436.56
256.124	437.56
256.357	449.56
256.59	455.56
256.823	451.56
257.056	447.56
257.289	455.56
257.521	461.56
257.754	465.56
257.987	469.56
258.22	459.56
258.452	459.56
258.685	463.56
258.918	470.56
259.151	449.56
259.383	465.56
259.616	476.56
259.849	480.56
260.081	469.56
260.314	474.56
260.547	489.56
260.779	503.56
261.012	497.56
261.244	491.56
261.477	487.56
261.71	489.56
261.942	473.56
262.175	490.56
262.407	511.56
262.64	519.56
262.872	504.56
263.105	504.56
263.337	513.56
263.57	531.56
263.802	530.56
264.035	528.56
264.267	542.56
264.499	535.56
264.732	528.56
264.964	551.56
265.197	550.56
265.429	565.56
265.661	546.56
265.894	539.56
266.126	541.56
266.358	563.56
266.591	559.56
266.823	609.56
267.055	565.56
267.287	558.56
267.52	563.56
267.752	578.56
267.984	574.56
268.216	573.56
268.448	572.56
268.681	596.56
268.913	587.56
269.145	569.56
269.377	577.56
269.609	588.56
269.841	578.56
270.073	569.56
270.306	608.56
270.538	590.56
270.77	591.56
271.002	604.56
271.234	600.56
271.466	591.56
271.698	604.56
271.93	622.56
272.162	621.56
272.394	608.56
272.626	618.56
272.858	625.56
273.09	629.56
273.322	616.56
273.553	604.56
273.785	638.56
274.017	632.56
274.249	628.56
274.481	630.56
274.713	639.56
274.945	643.56
275.176	651.56
275.408	655.56
275.64	643.56
275.872	639.56
276.104	648.56
276.335	637.56
276.567	643.56
276.799	669.56
277.031	645.56
277.262	677.56
277.494	678.56
277.726	659.56
277.957	705.56
278.189	689.56
278.421	690.56
278.652	695.56
278.884	678.56
279.115	669.56
279.347	711.56
279.579	718.56
279.81	697.56
280.042	708.56
280.273	705.56
280.505	703.56
280.736	700.56
280.968	715.56
281.199	724.56
281.431	731.56
281.662	693.56
281.894	711.56
282.125	738.56
282.356	773.56
282.588	716.56
282.819	745.56
283.051	772.56
283.282	769.56
283.513	754.56
283.745	754.56
283.976	771.56
284.207	772.56
284.439	770.56
284.67	771.56
284.901	772.56
285.132	781.56
285.364	800.56
285.595	780.56
285.826	781.56
286.057	799.56
286.288	786.56
286.52	805.56
286.751	782.56
286.982	809.56
287.213	803.56
287.444	772.56
287.675	798.56
287.906	817.56
288.138	806.56
288.369	833.56
288.6	827.56
288.831	807.56
289.062	842.56
289.293	822.56
289.524	812.56
289.755	799.56
289.986	825.56
290.217	830.56
290.448	856.56
290.679	854.56
290.91	853.56
291.141	842.56
291.371	839.56
291.602	819.56
291.833	836.56
292.064	844.56
292.295	845.56
292.526	836.56
292.757	852.56
292.987	813.56
293.218	850.56
293.449	835.56
293.68	850.56
293.91	850.56
294.141	832.56
294.372	828.56
294.603	849.56
294.833	859.56
295.064	856.56
295.295	845.56
295.525	851.56
295.756	854.56
295.987	861.56
296.217	856.56
296.448	867.56
296.679	858.56
296.909	854.56
297.14	879.56
297.37	869.56
297.601	894.56
297.831	863.56
298.062	885.56
298.292	938.56
298.523	935.56
298.753	913.56
298.984	915.56
299.214	893.56
299.445	917.56
299.675	905.56
299.905	917.56
300.136	901.56
300.366	900.56
300.597	939.56
300.827	934.56
301.057	935.56
301.288	931.56
301.518	953.56
301.748	958.56
301.979	939.56
302.209	966.56
302.439	954.56
302.669	953.56
302.9	921.56
303.13	925.56
303.36	940.56
303.59	934.56
303.82	952.56
304.051	981.56
304.281	959.56
304.511	940.56
304.741	916.56
304.971	940.56
305.201	940.56
305.431	960.56
305.661	959.56
305.891	925.56
306.121	931.56
306.352	942.56
306.582	926.56
306.812	950.56
307.042	956.56
307.272	922.56
307.502	920.56
307.731	940.56
307.961	924.56
308.191	934.56
308.421	894.56
308.651	931.56
308.881	917.56
309.111	910.56
309.341	913.56
309.571	921.56
309.8	916.56
310.03	956.56
310.26	946.56
310.49	940.56
310.72	949.56
310.949	956.56
311.179	934.56
311.409	935.56
311.639	938.56
311.868	958.56
312.098	960.56
312.328	968.56
312.557	970.56
312.787	978.56
313.017	954.56
313.246	991.56
313.476	985.56
313.706	1001.56
313.935	995.56
314.165	1033.56
314.394	998.56
314.624	994.56
314.853	999.56
315.083	1000.56
315.312	990.56
315.542	977.56
315.771	981.56
316.001	981.56
316.23	1007.56
316.46	987.56
316.689	1027.56
316.919	979.56
317.148	995.56
317.377	981.56
317.607	990.56
317.836	969.56
318.065	967.56
318.295	991.56
318.524	961.56
318.753	984.56
318.983	989.56
319.212	975.56
319.441	978.56
319.67	990.56
319.9	998.56
320.129	980.56
320.358	964.56
320.587	977.56
320.816	978.56
321.046	977.56
321.275	986.56
321.504	997.56
321.733	995.56
321.962	985.56
322.191	984.56
322.42	973.56
322.649	1004.56
322.878	993.56
323.108	998.56
323.337	1033.56
323.566	1030.56
323.795	1021.56
324.024	1031.56
324.253	985.56
324.482	979.56
324.71	1040.56
324.939	1029.56
325.168	1051.56
325.397	1039.56
325.626	1038.56
325.855	1061.56
326.084	1060.56
326.313	1071.56
326.542	1091.56
326.77	1153.56
326.999	1101.56
327.228	1051.56
327.457	1061.56
327.686	1073.56
327.914	1068.56
328.143	1096.56
328.372	1065.56
328.6	1074.56
328.829	1059.56
329.058	1071.56
329.287	1085.56
329.515	1087.56
329.744	1117.56
329.972	1113.56
330.201	1100.56
330.43	1124.56
330.658	1130.56
330.887	1131.56
331.115	1121.56
331.344	1138.56
331.572	1125.56
331.801	1211.56
332.03	1155.56
332.258	1189.56
332.486	1230.56
332.715	1245.56
332.943	1291.56
333.172	1316.56
333.4	1348.56
333.629	1394.56
333.857	1435.56
334.085	1420.56
334.314	1427.56
334.542	1433.56
334.771	1410.56
334.999	1393.56
335.227	1379.56
335.455	1379.56
335.684	1404.56
335.912	1355.56
336.14	1305.56
336.369	1330.56
336.597	1302.56
336.825	1316.56
337.053	1323.56
337.281	1317.56
337.51	1279.56
337.738	1251.56
337.966	1213.56
338.194	1192.56
338.422	1215.56
338.65	1176.56
338.878	1189.56
339.106	1196.56
339.334	1167.56
339.562	1174.56
339.79	1179.56
340.018	1141.56
340.246	1114.56
340.474	1110.56
340.702	1145.56
340.93	1128.56
341.158	1146.56
341.386	1144.56
341.614	1120.56
341.842	1138.56
342.07	1129.56
342.298	1139.56
342.526	1117.56
342.754	1127.56
342.981	1132.56
343.209	1161.56
343.437	1195.56
343.665	1231.56
343.893	1289.56
344.12	1367.56
344.348	1348.56
344.576	1323.56
344.804	1273.56
345.031	1190.56
345.259	1196.56
345.487	1143.56
345.714	1153.56
345.942	1125.56
346.17	1121.56
346.397	1101.56
346.625	1101.56
346.853	1104.56
347.08	1077.56
347.308	1111.56
347.535	1096.56
347.763	1105.56
347.99	1106.56
348.218	1101.56
348.445	1105.56
348.673	1080.56
348.9	1097.56
349.128	1088.56
349.355	1059.56
349.583	1078.56
349.81	1083.56
350.037	1065.56
350.265	1069.56
350.492	1048.56
350.72	1039.56
350.947	1046.56
351.174	1031.56
351.402	1077.56
351.629	1026.56
351.856	1037.56
352.083	1014.56
352.311	1057.56
352.538	1061.56
352.765	1041.56
352.992	1045.56
353.22	1036.56
353.447	1047.56
353.674	1009.56
353.901	1058.56
354.128	1047.56
354.355	1035.56
354.583	1061.56
354.81	1001.56
355.037	1058.56
355.264	1018.56
355.491	1029.56
355.718	1074.56
355.945	1048.56
356.172	1015.56
356.399	1067.56
356.626	1051.56
356.853	1079.56
357.08	1067.56
357.307	1051.56
357.534	1053.56
357.761	1055.56
357.988	1063.56
358.215	1062.56
358.441	1042.56
358.668	1056.56
358.895	1034.56
359.122	1061.56
359.349	1055.56
359.576	1042.56
359.802	1066.56
360.029	1016.56
360.256	1042.56
360.483	1040.56
360.709	1058.56
360.936	1077.56
361.163	1063.56
361.39	1039.56
361.616	1033.56
361.843	1057.56
362.07	1049.56
362.296	1022.56
362.523	1035.56
362.749	1027.56
362.976	1043.56
363.203	1052.56
363.429	1034.56
363.656	1057.56
363.882	1030.56
364.109	1038.56
364.335	1033.56
364.562	1048.56
364.788	1053.56
365.015	1013.56
365.241	1050.56
365.468	1039.56
365.694	1034.56
365.92	1045.56
366.147	1034.56
366.373	1021.56
366.599	1033.56
366.826	1030.56
367.052	1011.56
367.278	1036.56
367.505	1045.56
367.731	1062.56
367.957	1044.56
368.184	1052.56
368.41	1050.56
368.636	1052.56
368.862	1084.56
369.089	1078.56
369.315	1082.56
369.541	1090.56
369.767	1076.56
369.993	1086.56
370.219	1102.56
370.445	1094.56
370.672	1108.56
370.898	1119.56
371.124	1134.56
371.35	1166.56
371.576	1096.56
371.802	1155.56
372.028	1141.56
372.254	1154.56
372.48	1155.56
372.706	1169.56
372.932	1175.56
373.158	1163.56
373.384	1164.56
373.61	1153.56
373.835	1138.56
374.061	1135.56
374.287	1137.56
374.513	1159.56
374.739	1215.56
374.965	1212.56
375.191	1265.56
375.416	1245.56
375.642	1221.56
375.868	1220.56
376.094	1191.56
376.319	1162.56
376.545	1177.56
376.771	1155.56
376.997	1166.56
377.222	1141.56
377.448	1148.56
377.674	1153.56
377.899	1161.56
378.125	1124.56
378.35	1105.56
378.576	1125.56
378.802	1143.56
379.027	1141.56
379.253	1132.56
379.478	1129.56
379.704	1157.56
379.929	1119.56
380.155	1129.56
380.38	1126.56
380.606	1110.56
380.831	1105.56
381.057	1162.56
381.282	1146.56
381.507	1131.56
381.733	1128.56
381.958	1142.56
382.184	1171.56
382.409	1161.56
382.634	1168.56
382.86	1198.56
383.085	1202.56
383.31	1238.56
383.535	1220.56
383.761	1239.56
383.986	1262.56
384.211	1299.56
384.436	1303.56
384.662	1316.56
384.887	1349.56
385.112	1325.56
385.337	1345.56
385.562	1348.56
385.787	1345.56
386.013	1394.56
386.238	1373.56
386.463	1405.56
386.688	1398.56
386.913	1380.56
387.138	1378.56
387.363	1423.56
387.588	1367.56
387.813	1404.56
388.038	1364.56
388.263	1424.56
388.488	1421.56
388.713	1404.56
388.938	1366.56
389.163	1361.56
389.387	1374.56
389.612	1344.56
389.837	1418.56
390.062	1383.56
390.287	1409.56
390.512	1382.56
390.736	1405.56
390.961	1385.56
391.186	1423.56
391.411	1498.56
391.636	1509.56
391.86	1543.56
392.085	1550.56
392.31	1547.56
392.534	1551.56
392.759	1521.56
392.984	1513.56
393.208	1461.56
393.433	1469.56
393.658	1477.56
393.882	1483.56
394.107	1485.56
394.331	1486.56
394.556	1463.56
394.78	1496.56
395.005	1505.56
395.229	1518.56
395.454	1565.56
395.678	1555.56
395.903	1559.56
396.127	1550.56
396.352	1525.56
396.576	1521.56
396.801	1533.56
397.025	1539.56
397.249	1556.56
397.474	1587.56
397.698	1590.56
397.922	1578.56
398.147	1595.56
398.371	1646.56
398.595	1687.56
398.82	1749.56
399.044	1846.56
399.268	2017.56
399.492	2214.56
399.717	2415.56
399.941	2489.56
400.165	2363.56
400.389	2197.56
400.613	2074.56
400.837	1954.56
401.062	1843.56
401.286	1843.56
401.51	1817.56
401.734	1747.56
401.958	1847.56
402.182	1803.56
402.406	1783.56
402.63	1755.56
402.854	1851.56
403.078	1848.56
403.302	1869.56
403.526	1900.56
403.75	1892.56
403.974	1958.56
404.198	1910.56
404.422	1948.56
404.645	1938.56
404.869	1938.56
405.093	1958.56
405.317	1889.56
405.541	1942.56
405.765	1941.56
405.988	1897.56
406.212	1978.56
406.436	1979.56
406.66	1985.56
406.883	1993.56
407.107	2084.56
407.331	2181.56
407.555	2231.56
407.778	2232.56
408.002	2189.56
408.226	2169.56
408.449	2144.56
408.673	2065.56
408.896	2003.56
409.12	2021.56
409.344	1984.56
409.567	1998.56
409.791	1994.56
410.014	1992.56
410.238	1952.56
410.461	1954.56
410.685	1939.56
410.908	1902.56
411.132	1846.56
411.355	1843.56
411.578	1831.56
411.802	1832.56
412.025	1836.56
412.249	1851.56
412.472	1815.56
412.695	1834.56
412.919	1743.56
413.142	1764.56
413.365	1791.56
413.589	1769.56
413.812	1762.56
414.035	1725.56
414.258	1746.56
414.482	1733.56
414.705	1762.56
414.928	1785.56
415.151	1800.56
415.374	1758.56
415.597	1781.56
415.821	1650.56
416.044	1699.56
416.267	1666.56
416.49	1703.56
416.713	1690.56
416.936	1727.56
417.159	1680.56
417.382	1671.56
417.605	1681.56
417.828	1717.56
418.051	1720.56
418.274	1702.56
418.497	1719.56
418.72	1751.56
418.943	1718.56
419.166	1889.56
419.389	1969.56
419.611	1962.56
419.834	1890.56
420.057	1797.56
420.28	1726.56
420.503	1713.56
420.726	1698.56
420.948	1698.56
421.171	1712.56
421.394	1679.56
421.617	1693.56
421.839	1696.56
422.062	1733.56
422.285	1658.56
422.507	1721.56
422.73	1725.56
422.953	1742.56
423.175	1750.56
423.398	1767.56
423.621	1723.56
423.843	1748.56
424.066	1749.56
424.288	1739.56
424.511	1709.56
424.733	1702.56
424.956	1719.56
425.178	1738.56
425.401	1747.56
425.623	1705.56
425.846	1619.56
426.068	1698.56
426.291	1637.56
426.513	1653.56
426.735	1605.56
426.958	1623.56
427.18	1562.56
427.402	1606.56
427.625	1574.56
427.847	1542.56
428.069	1574.56
428.292	1562.56
428.514	1571.56
428.736	1538.56
428.958	1571.56
429.181	1502.56
429.403	1505.56
429.625	1513.56
429.847	1482.56
430.069	1473.56
430.292	1507.56
430.514	1474.56
430.736	1484.56
430.958	1492.56
431.18	1492.56
431.402	1518.56
431.624	1527.56
431.846	1544.56
432.068	1545.56
432.29	1582.56
432.512	1499.56
432.734	1491.56
432.956	1546.56
433.178	1541.56
433.4	1533.56
433.622	1538.56
433.844	1577.56
434.066	1543.56
434.287	1580.56
434.509	1637.56
434.731	1643.56
434.953	1656.56
435.175	1707.56
435.397	1697.56
435.618	1586.56
435.84	1579.56
436.062	1550.56
436.284	1550.56
436.505	1531.56
436.727	1547.56
436.949	1546.56
437.17	1506.56
437.392	1485.56
437.614	1467.56
437.835	1433.56
438.057	1449.56
438.278	1448.56
438.5	1430.56
438.721	1467.56
438.943	1477.56
439.165	1449.56
439.386	1450.56
439.608	1492.56
439.829	1503.56
440.05	1474.56
440.272	1498.56
440.493	1491.56
440.715	1526.56
440.936	1518.56
441.158	1572.56
441.379	1578.56
441.6	1681.56
441.822	1654.56
442.043	1669.56
442.264	1638.56
442.486	1659.56
442.707	1627.56
442.928	1608.56
443.149	1638.56
443.371	1619.56
443.592	1658.56
443.813	1681.56
444.034	1691.56
444.255	1770.56
444.476	1784.56
444.698	1903.56
444.919	1935.56
445.14	1969.56
445.361	1882.56
445.582	1760.56
445.803	1690.56
446.024	1643.56
446.245	1577.56
446.466	1585.56
446.687	1552.56
446.908	1566.56
447.129	1513.56
447.35	1454.56
447.571	1483.56
447.792	1440.56
448.013	1427.56
448.234	1414.56
448.455	1409.56
448.675	1402.56
448.896	1401.56
449.117	1359.56
449.338	1345.56
449.559	1341.56
449.779	1369.56
450	1324.56
450.221	1370.56
450.442	1356.56
450.662	1401.56
450.883	1411.56
451.104	1412.56
451.324	1399.56
451.545	1395.56
451.766	1402.56
451.986	1354.56
452.207	1355.56
452.428	1349.56
452.648	1348.56
452.869	1356.56
453.089	1337.56
453.31	1394.56
453.53	1337.56
453.751	1332.56
453.971	1329.56
454.192	1329.56
454.412	1299.56
454.633	1303.56
454.853	1314.56
455.073	1299.56
455.294	1292.56
455.514	1318.56
455.734	1272.56
455.955	1257.56
456.175	1307.56
456.395	1275.56
456.616	1263.56
456.836	1283.56
457.056	1278.56
457.276	1283.56
457.497	1321.56
457.717	1318.56
457.937	1286.56
458.157	1312.56
458.377	1358.56
458.598	1372.56
458.818	1429.56
459.038	1461.56
459.258	1469.56
459.478	1544.56
459.698	1547.56
459.918	1613.56
460.138	1671.56
460.358	1740.56
460.578	1750.56
460.798	1789.56
461.018	1783.56
461.238	1758.56
461.458	1786.56
461.678	1761.56
461.898	1843.56
462.118	1867.56
462.338	1892.56
462.558	1943.56
462.777	2059.56
462.997	2205.56
463.217	2274.56
463.437	2293.56
463.657	2221.56
463.876	2150.56
464.096	2094.56
464.316	2072.56
464.536	2104.56
464.755	2028.56
464.975	1956.56
465.195	1881.56
465.414	1762.56
465.634	1672.56
465.854	1625.56
466.073	1582.56
466.293	1555.56
466.512	1537.56
466.732	1448.56
466.951	1475.56
467.171	1458.56
467.391	1481.56
467.61	1416.56
467.829	1491.56
468.049	1448.56
468.268	1402.56
468.488	1378.56
468.707	1411.56
468.927	1397.56
469.146	1420.56
469.365	1409.56
469.585	1433.56
469.804	1433.56
470.023	1448.56
470.243	1467.56
470.462	1475.56
470.681	1507.56
470.901	1488.56
471.12	1488.56
471.339	1451.56
471.558	1424.56
471.777	1431.56
471.997	1433.56
472.216	1406.56
472.435	1423.56
472.654	1429.56
472.873	1360.56
473.092	1382.56
473.311	1390.56
473.53	1400.56
473.749	1363.56
473.968	1377.56
474.187	1377.56
474.406	1355.56
474.625	1384.56
474.844	1369.56
475.063	1339.56
475.282	1383.56
475.501	1384.56
475.72	1378.56
475.939	1402.56
476.158	1421.56
476.377	1449.56
476.596	1457.56
476.814	1435.56
477.033	1453.56
477.252	1493.56
477.471	1539.56
477.69	1527.56
477.908	1589.56
478.127	1618.56
478.346	1640.56
478.564	1633.56
478.783	1687.56
479.002	1645.56
479.22	1745.56
479.439	1708.56
479.658	1711.56
479.876	1757.56
480.095	1775.56
480.313	1798.56
480.532	1781.56
480.751	1827.56
480.969	1762.56
481.188	1715.56
481.406	1700.56
481.624	1657.56
481.843	1639.56
482.061	1612.56
482.28	1601.56
482.498	1522.56
482.717	1571.56
482.935	1582.56
483.153	1556.56
483.372	1568.56
483.59	1567.56
483.808	1559.56
484.027	1595.56
484.245	1589.56
484.463	1615.56
484.681	1661.56
484.9	1636.56
485.118	1638.56
485.336	1648.56
485.554	1644.56
485.772	1659.56
485.99	1642.56
486.209	1669.56
486.427	1696.56
486.645	1675.56
486.863	1678.56
487.081	1662.56
487.299	1674.56
487.517	1616.56
487.735	1610.56
487.953	1626.56
488.171	1637.56
488.389	1645.56
488.607	1614.56
488.825	1643.56
489.043	1642.56
489.261	1619.56
489.479	1645.56
489.696	1643.56
489.914	1657.56
490.132	1664.56
490.35	1674.56
490.568	1669.56
490.786	1652.56
491.003	1689.56
491.221	1704.56
