Data from NiCl2@0.0625M.TitratingCurve.Agarose3%dH2O.NegLispCup.LampEnergy10.LIBS07252019_HRD10591_18-32-52-576.txt Node
Date: Thu Jul 25 18:32:52 EDT 2019
User: cochatt
Spectrometer: HR+D1059
Trigger mode: 1
Integration Time (sec): 1.000000E-1
Scans to average: 1
Electric dark correction enabled: true
Nonlinearity correction enabled: false
Boxcar width: 0
XAxis mode: Wavelengths
Number of Pixels in Spectrum: 2048
>>>>>Begin Spectral Data<<<<<
223.165	-9.94
223.4	-9.94
223.635	-9.94
223.869	-9.94
224.104	-28.94
224.338	-8.94
224.573	-22.94
224.808	-3.94
225.042	-13.94
225.277	-7.94
225.511	-3.94
225.746	8.06
225.98	16.06
226.215	14.06
226.449	16.06
226.683	18.06
226.918	14.06
227.152	24.06
227.387	36.06
227.621	40.06
227.856	40.06
228.09	52.06
228.324	56.06
228.559	53.06
228.793	79.06
229.027	169.06
229.262	167.06
229.496	163.06
229.73	168.06
229.964	191.06
230.199	204.06
230.433	186.06
230.667	198.06
230.901	199.06
231.136	183.06
231.37	215.06
231.604	202.06
231.838	216.06
232.072	218.06
232.306	208.06
232.541	215.06
232.775	208.06
233.009	232.06
233.243	219.06
233.477	215.06
233.711	231.06
233.945	226.06
234.179	222.06
234.413	230.06
234.647	231.06
234.881	228.06
235.115	232.06
235.349	237.06
235.583	236.06
235.817	213.06
236.051	244.06
236.285	248.06
236.519	239.06
236.753	243.06
236.987	252.06
237.221	265.06
237.455	264.06
237.689	268.06
237.922	249.06
238.156	277.06
238.39	263.06
238.624	276.06
238.858	284.06
239.091	274.06
239.325	288.06
239.559	273.06
239.793	272.06
240.027	278.06
240.26	290.06
240.494	294.06
240.728	287.06
240.961	300.06
241.195	310.06
241.429	307.06
241.662	303.06
241.896	309.06
242.13	317.06
242.363	327.06
242.597	306.06
242.83	314.06
243.064	314.06
243.298	337.06
243.531	358.06
243.765	335.06
243.998	343.06
244.232	341.06
244.465	359.06
244.699	343.06
244.932	359.06
245.166	375.06
245.399	362.06
245.633	356.06
245.866	365.06
246.099	359.06
246.333	379.06
246.566	372.06
246.8	396.06
247.033	389.06
247.266	381.06
247.5	388.06
247.733	377.06
247.966	418.06
248.2	423.06
248.433	414.06
248.666	417.06
248.899	403.06
249.133	398.06
249.366	424.06
249.599	431.06
249.832	418.06
250.066	434.06
250.299	448.06
250.532	433.06
250.765	442.06
250.998	450.06
251.231	455.06
251.465	454.06
251.698	469.06
251.931	472.06
252.164	452.06
252.397	464.06
252.63	468.06
252.863	474.06
253.096	460.06
253.329	462.06
253.562	472.06
253.795	476.06
254.028	481.06
254.261	514.06
254.494	475.06
254.727	483.06
254.96	493.06
255.193	516.06
255.426	504.06
255.659	486.06
255.892	501.06
256.124	536.06
256.357	513.06
256.59	518.06
256.823	518.06
257.056	533.06
257.289	521.06
257.521	540.06
257.754	527.06
257.987	550.06
258.22	547.06
258.452	520.06
258.685	537.06
258.918	565.06
259.151	529.06
259.383	549.06
259.616	570.06
259.849	554.06
260.081	571.06
260.314	583.06
260.547	562.06
260.779	556.06
261.012	589.06
261.244	575.06
261.477	575.06
261.71	566.06
261.942	581.06
262.175	584.06
262.407	584.06
262.64	584.06
262.872	605.06
263.105	585.06
263.337	587.06
263.57	591.06
263.802	586.06
264.035	606.06
264.267	590.06
264.499	625.06
264.732	620.06
264.964	608.06
265.197	628.06
265.429	626.06
265.661	617.06
265.894	637.06
266.126	601.06
266.358	615.06
266.591	641.06
266.823	644.06
267.055	643.06
267.287	650.06
267.52	653.06
267.752	645.06
267.984	646.06
268.216	662.06
268.448	658.06
268.681	684.06
268.913	691.06
269.145	686.06
269.377	686.06
269.609	679.06
269.841	690.06
270.073	660.06
270.306	681.06
270.538	676.06
270.77	707.06
271.002	681.06
271.234	691.06
271.466	725.06
271.698	690.06
271.93	716.06
272.162	688.06
272.394	720.06
272.626	712.06
272.858	713.06
273.09	718.06
273.322	737.06
273.553	741.06
273.785	704.06
274.017	728.06
274.249	755.06
274.481	742.06
274.713	761.06
274.945	765.06
275.176	758.06
275.408	779.06
275.64	801.06
275.872	759.06
276.104	774.06
276.335	747.06
276.567	770.06
276.799	763.06
277.031	776.06
277.262	785.06
277.494	785.06
277.726	789.06
277.957	803.06
278.189	808.06
278.421	816.06
278.652	813.06
278.884	805.06
279.115	820.06
279.347	832.06
279.579	830.06
279.81	829.06
280.042	838.06
280.273	824.06
280.505	839.06
280.736	825.06
280.968	828.06
281.199	826.06
281.431	851.06
281.662	871.06
281.894	848.06
282.125	847.06
282.356	853.06
282.588	882.06
282.819	867.06
283.051	875.06
283.282	859.06
283.513	876.06
283.745	888.06
283.976	907.06
284.207	879.06
284.439	902.06
284.67	902.06
284.901	882.06
285.132	890.06
285.364	870.06
285.595	893.06
285.826	892.06
286.057	923.06
286.288	883.06
286.52	899.06
286.751	915.06
286.982	922.06
287.213	930.06
287.444	958.06
287.675	944.06
287.906	967.06
288.138	948.06
288.369	911.06
288.6	945.06
288.831	938.06
289.062	943.06
289.293	931.06
289.524	946.06
289.755	948.06
289.986	955.06
290.217	964.06
290.448	963.06
290.679	966.06
290.91	967.06
291.141	969.06
291.371	948.06
291.602	981.06
291.833	992.06
292.064	983.06
292.295	989.06
292.526	932.06
292.757	975.06
292.987	975.06
293.218	996.06
293.449	980.06
293.68	1005.06
293.91	981.06
294.141	987.06
294.372	948.06
294.603	984.06
294.833	1013.06
295.064	974.06
295.295	954.06
295.525	976.06
295.756	998.06
295.987	981.06
296.217	990.06
296.448	1017.06
296.679	1000.06
296.909	992.06
297.14	985.06
297.37	1004.06
297.601	1037.06
297.831	1033.06
298.062	1025.06
298.292	1047.06
298.523	1044.06
298.753	1067.06
298.984	1032.06
299.214	1034.06
299.445	1022.06
299.675	1055.06
299.905	1063.06
300.136	1059.06
300.366	1062.06
300.597	1058.06
300.827	1084.06
301.057	1066.06
301.288	1090.06
301.518	1099.06
301.748	1101.06
301.979	1111.06
302.209	1130.06
302.439	1116.06
302.669	1115.06
302.9	1120.06
303.13	1117.06
303.36	1132.06
303.59	1127.06
303.82	1114.06
304.051	1085.06
304.281	1117.06
304.511	1113.06
304.741	1112.06
304.971	1085.06
305.201	1108.06
305.431	1129.06
305.661	1101.06
305.891	1090.06
306.121	1119.06
306.352	1113.06
306.582	1098.06
306.812	1071.06
307.042	1110.06
307.272	1065.06
307.502	1120.06
307.731	1103.06
307.961	1082.06
308.191	1090.06
308.421	1077.06
308.651	1108.06
308.881	1101.06
309.111	1086.06
309.341	1118.06
309.571	1150.06
309.8	1131.06
310.03	1119.06
310.26	1106.06
310.49	1112.06
310.72	1115.06
310.949	1111.06
311.179	1101.06
311.409	1122.06
311.639	1131.06
311.868	1119.06
312.098	1122.06
312.328	1142.06
312.557	1178.06
312.787	1122.06
313.017	1126.06
313.246	1173.06
313.476	1172.06
313.706	1182.06
313.935	1170.06
314.165	1164.06
314.394	1168.06
314.624	1195.06
314.853	1184.06
315.083	1176.06
315.312	1195.06
315.542	1183.06
315.771	1188.06
316.001	1185.06
316.23	1138.06
316.46	1171.06
316.689	1176.06
316.919	1194.06
317.148	1172.06
317.377	1203.06
317.607	1155.06
317.836	1151.06
318.065	1159.06
318.295	1182.06
318.524	1164.06
318.753	1146.06
318.983	1182.06
319.212	1161.06
319.441	1181.06
319.67	1161.06
319.9	1150.06
320.129	1177.06
320.358	1168.06
320.587	1163.06
320.816	1181.06
321.046	1208.06
321.275	1171.06
321.504	1178.06
321.733	1179.06
321.962	1197.06
322.191	1202.06
322.42	1194.06
322.649	1184.06
322.878	1188.06
323.108	1170.06
323.337	1195.06
323.566	1205.06
323.795	1238.06
324.024	1239.06
324.253	1189.06
324.482	1219.06
324.71	1205.06
324.939	1190.06
325.168	1209.06
325.397	1256.06
325.626	1234.06
325.855	1220.06
326.084	1306.06
326.313	1281.06
326.542	1285.06
326.77	1287.06
326.999	1269.06
327.228	1273.06
327.457	1242.06
327.686	1259.06
327.914	1271.06
328.143	1284.06
328.372	1291.06
328.6	1274.06
328.829	1290.06
329.058	1296.06
329.287	1245.06
329.515	1245.06
329.744	1287.06
329.972	1311.06
330.201	1312.06
330.43	1331.06
330.658	1298.06
330.887	1341.06
331.115	1320.06
331.344	1354.06
331.572	1382.06
331.801	1380.06
332.03	1399.06
332.258	1422.06
332.486	1425.06
332.715	1466.06
332.943	1501.06
333.172	1562.06
333.4	1614.06
333.629	1651.06
333.857	1665.06
334.085	1658.06
334.314	1632.06
334.542	1611.06
334.771	1610.06
334.999	1630.06
335.227	1618.06
335.455	1603.06
335.684	1574.06
335.912	1563.06
336.14	1529.06
336.369	1546.06
336.597	1518.06
336.825	1528.06
337.053	1564.06
337.281	1499.06
337.51	1473.06
337.738	1466.06
337.966	1464.06
338.194	1449.06
338.422	1421.06
338.65	1423.06
338.878	1399.06
339.106	1375.06
339.334	1418.06
339.562	1433.06
339.79	1374.06
340.018	1394.06
340.246	1334.06
340.474	1351.06
340.702	1324.06
340.93	1348.06
341.158	1385.06
341.386	1342.06
341.614	1371.06
341.842	1384.06
342.07	1337.06
342.298	1320.06
342.526	1365.06
342.754	1330.06
342.981	1336.06
343.209	1374.06
343.437	1398.06
343.665	1464.06
343.893	1575.06
344.12	1580.06
344.348	1555.06
344.576	1517.06
344.804	1476.06
345.031	1421.06
345.259	1353.06
345.487	1369.06
345.714	1352.06
345.942	1315.06
346.17	1325.06
346.397	1313.06
346.625	1287.06
346.853	1325.06
347.08	1271.06
347.308	1324.06
347.535	1314.06
347.763	1283.06
347.99	1250.06
348.218	1282.06
348.445	1281.06
348.673	1284.06
348.9	1274.06
349.128	1290.06
349.355	1264.06
349.583	1273.06
349.81	1279.06
350.037	1285.06
350.265	1268.06
350.492	1283.06
350.72	1267.06
350.947	1246.06
351.174	1253.06
351.402	1268.06
351.629	1250.06
351.856	1280.06
352.083	1236.06
352.311	1205.06
352.538	1258.06
352.765	1263.06
352.992	1252.06
353.22	1211.06
353.447	1214.06
353.674	1246.06
353.901	1215.06
354.128	1254.06
354.355	1236.06
354.583	1269.06
354.81	1240.06
355.037	1254.06
355.264	1236.06
355.491	1235.06
355.718	1268.06
355.945	1236.06
356.172	1241.06
356.399	1258.06
356.626	1271.06
356.853	1266.06
357.08	1240.06
357.307	1274.06
357.534	1258.06
357.761	1272.06
357.988	1261.06
358.215	1254.06
358.441	1259.06
358.668	1246.06
358.895	1204.06
359.122	1255.06
359.349	1215.06
359.576	1230.06
359.802	1225.06
360.029	1222.06
360.256	1245.06
360.483	1254.06
360.709	1270.06
360.936	1250.06
361.163	1273.06
361.39	1246.06
361.616	1234.06
361.843	1247.06
362.07	1257.06
362.296	1245.06
362.523	1224.06
362.749	1284.06
362.976	1289.06
363.203	1267.06
363.429	1271.06
363.656	1252.06
363.882	1228.06
364.109	1220.06
364.335	1270.06
364.562	1272.06
364.788	1268.06
365.015	1274.06
365.241	1286.06
365.468	1268.06
365.694	1261.06
365.92	1245.06
366.147	1235.06
366.373	1244.06
366.599	1243.06
366.826	1253.06
367.052	1220.06
367.278	1290.06
367.505	1258.06
367.731	1286.06
367.957	1274.06
368.184	1269.06
368.41	1274.06
368.636	1279.06
368.862	1318.06
369.089	1284.06
369.315	1311.06
369.541	1295.06
369.767	1311.06
369.993	1307.06
370.219	1282.06
370.445	1338.06
370.672	1351.06
370.898	1314.06
371.124	1379.06
371.35	1376.06
371.576	1375.06
371.802	1354.06
372.028	1344.06
372.254	1358.06
372.48	1383.06
372.706	1386.06
372.932	1433.06
373.158	1402.06
373.384	1401.06
373.61	1347.06
373.835	1370.06
374.061	1362.06
374.287	1364.06
374.513	1406.06
374.739	1444.06
374.965	1479.06
375.191	1462.06
375.416	1507.06
375.642	1416.06
375.868	1427.06
376.094	1450.06
376.319	1397.06
376.545	1362.06
376.771	1350.06
376.997	1366.06
377.222	1358.06
377.448	1366.06
377.674	1346.06
377.899	1319.06
378.125	1349.06
378.35	1350.06
378.576	1364.06
378.802	1296.06
379.027	1306.06
379.253	1375.06
379.478	1334.06
379.704	1342.06
379.929	1349.06
380.155	1351.06
380.38	1315.06
380.606	1344.06
380.831	1342.06
381.057	1368.06
381.282	1323.06
381.507	1326.06
381.733	1355.06
381.958	1355.06
382.184	1371.06
382.409	1382.06
382.634	1435.06
382.86	1414.06
383.085	1433.06
383.31	1432.06
383.535	1451.06
383.761	1468.06
383.986	1462.06
384.211	1512.06
384.436	1535.06
384.662	1556.06
384.887	1579.06
385.112	1600.06
385.337	1634.06
385.562	1588.06
385.787	1607.06
386.013	1613.06
386.238	1650.06
386.463	1674.06
386.688	1623.06
386.913	1623.06
387.138	1615.06
387.363	1659.06
387.588	1606.06
387.813	1641.06
388.038	1607.06
388.263	1620.06
388.488	1604.06
388.713	1654.06
388.938	1628.06
389.163	1565.06
389.387	1623.06
389.612	1604.06
389.837	1593.06
390.062	1567.06
390.287	1602.06
390.512	1608.06
390.736	1616.06
390.961	1652.06
391.186	1663.06
391.411	1699.06
391.636	1732.06
391.86	1731.06
392.085	1773.06
392.31	1800.06
392.534	1775.06
392.759	1750.06
392.984	1744.06
393.208	1780.06
393.433	1863.06
393.658	1926.06
393.882	1752.06
394.107	1704.06
394.331	1743.06
394.556	1737.06
394.78	1732.06
395.005	1768.06
395.229	1756.06
395.454	1793.06
395.678	1831.06
395.903	1824.06
396.127	1790.06
396.352	1770.06
396.576	1782.06
396.801	1782.06
397.025	1877.06
397.249	1896.06
397.474	1804.06
397.698	1842.06
397.922	1816.06
398.147	1846.06
398.371	1869.06
398.595	1898.06
398.82	1992.06
399.044	2092.06
399.268	2326.06
399.492	2559.06
399.717	2745.06
399.941	2786.06
400.165	2542.06
400.389	2413.06
400.613	2263.06
400.837	2159.06
401.062	2082.06
401.286	2070.06
401.51	2012.06
401.734	1996.06
401.958	2007.06
402.182	2004.06
402.406	2054.06
402.63	2072.06
402.854	2108.06
403.078	2074.06
403.302	2129.06
403.526	2124.06
403.75	2212.06
403.974	2235.06
404.198	2238.06
404.422	2230.06
404.645	2204.06
404.869	2182.06
405.093	2173.06
405.317	2191.06
405.541	2177.06
405.765	2134.06
405.988	2156.06
406.212	2189.06
406.436	2175.06
406.66	2235.06
406.883	2243.06
407.107	2400.06
407.331	2467.06
407.555	2540.06
407.778	2498.06
408.002	2445.06
408.226	2379.06
408.449	2356.06
408.673	2313.06
408.896	2262.06
409.12	2241.06
409.344	2291.06
409.567	2215.06
409.791	2227.06
410.014	2229.06
410.238	2191.06
410.461	2155.06
410.685	2192.06
410.908	2176.06
411.132	2106.06
411.355	2110.06
411.578	2090.06
411.802	2101.06
412.025	2038.06
412.249	2131.06
412.472	2126.06
412.695	2059.06
412.919	2026.06
413.142	2056.06
413.365	2006.06
413.589	2020.06
413.812	2024.06
414.035	1998.06
414.258	1986.06
414.482	2042.06
414.705	2019.06
414.928	2011.06
415.151	1975.06
415.374	2037.06
415.597	2018.06
415.821	1952.06
416.044	1902.06
416.267	1920.06
416.49	1903.06
416.713	1946.06
416.936	1918.06
417.159	1950.06
417.382	1944.06
417.605	1873.06
417.828	1920.06
418.051	1934.06
418.274	1913.06
418.497	1943.06
418.72	1975.06
418.943	1947.06
419.166	2067.06
419.389	2235.06
419.611	2162.06
419.834	2092.06
420.057	2019.06
420.28	1956.06
420.503	1926.06
420.726	1876.06
420.948	1912.06
421.171	1890.06
421.394	1911.06
421.617	1908.06
421.839	1954.06
422.062	1948.06
422.285	1904.06
422.507	1939.06
422.73	1982.06
422.953	2006.06
423.175	2009.06
423.398	1981.06
423.621	2000.06
423.843	2007.06
424.066	2068.06
424.288	1984.06
424.511	1955.06
424.733	1965.06
424.956	1961.06
425.178	1962.06
425.401	1953.06
425.623	1954.06
425.846	1903.06
426.068	1877.06
426.291	1879.06
426.513	1870.06
426.735	1822.06
426.958	1848.06
427.18	1785.06
427.402	1812.06
427.625	1816.06
427.847	1798.06
428.069	1739.06
428.292	1775.06
428.514	1730.06
428.736	1764.06
428.958	1766.06
429.181	1743.06
429.403	1706.06
429.625	1715.06
429.847	1718.06
430.069	1698.06
430.292	1727.06
430.514	1712.06
430.736	1760.06
430.958	1742.06
431.18	1752.06
431.402	1702.06
431.624	1743.06
431.846	1761.06
432.068	1784.06
432.29	1739.06
432.512	1734.06
432.734	1753.06
432.956	1778.06
433.178	1782.06
433.4	1790.06
433.622	1816.06
433.844	1759.06
434.066	1811.06
434.287	1818.06
434.509	1843.06
434.731	1910.06
434.953	1892.06
435.175	1998.06
435.397	1975.06
435.618	1864.06
435.84	1823.06
436.062	1824.06
436.284	1759.06
436.505	1747.06
436.727	1773.06
436.949	1764.06
437.17	1759.06
437.392	1713.06
437.614	1694.06
437.835	1699.06
438.057	1679.06
438.278	1668.06
438.5	1683.06
438.721	1647.06
438.943	1677.06
439.165	1677.06
439.386	1678.06
439.608	1709.06
439.829	1742.06
440.05	1703.06
440.272	1742.06
440.493	1742.06
440.715	1766.06
440.936	1786.06
441.158	1828.06
441.379	1851.06
441.6	1917.06
441.822	1949.06
442.043	1965.06
442.264	1906.06
442.486	1847.06
442.707	1865.06
442.928	1849.06
443.149	1892.06
443.371	1863.06
443.592	1879.06
443.813	1919.06
444.034	1936.06
444.255	1995.06
444.476	2039.06
444.698	2131.06
444.919	2183.06
445.14	2219.06
445.361	2074.06
445.582	1966.06
445.803	1882.06
446.024	1812.06
446.245	1822.06
446.466	1802.06
446.687	1758.06
446.908	1710.06
447.129	1689.06
447.35	1664.06
447.571	1647.06
447.792	1655.06
448.013	1608.06
448.234	1590.06
448.455	1601.06
448.675	1552.06
448.896	1582.06
449.117	1558.06
449.338	1593.06
449.559	1554.06
449.779	1527.06
450	1542.06
450.221	1546.06
450.442	1588.06
450.662	1592.06
450.883	1572.06
451.104	1584.06
451.324	1606.06
451.545	1538.06
451.766	1559.06
451.986	1564.06
452.207	1565.06
452.428	1541.06
452.648	1555.06
452.869	1539.06
453.089	1506.06
453.31	1551.06
453.53	1501.06
453.751	1496.06
453.971	1510.06
454.192	1498.06
454.412	1482.06
454.633	1466.06
454.853	1474.06
455.073	1471.06
455.294	1475.06
455.514	1436.06
455.734	1512.06
455.955	1458.06
456.175	1478.06
456.395	1443.06
456.616	1471.06
456.836	1508.06
457.056	1483.06
457.276	1464.06
457.497	1460.06
457.717	1488.06
457.937	1468.06
458.157	1526.06
458.377	1527.06
458.598	1586.06
458.818	1600.06
459.038	1641.06
459.258	1670.06
459.478	1740.06
459.698	1752.06
459.918	1796.06
460.138	1866.06
460.358	1930.06
460.578	1942.06
460.798	1970.06
461.018	1983.06
461.238	1980.06
461.458	1986.06
461.678	1943.06
461.898	1954.06
462.118	1987.06
462.338	2102.06
462.558	2206.06
462.777	2211.06
462.997	2378.06
463.217	2486.06
463.437	2513.06
463.657	2395.06
463.876	2311.06
464.096	2276.06
464.316	2266.06
464.536	2277.06
464.755	2179.06
464.975	2097.06
465.195	2028.06
465.414	1944.06
465.634	1869.06
465.854	1804.06
466.073	1768.06
466.293	1762.06
466.512	1680.06
466.732	1647.06
466.951	1656.06
467.171	1639.06
467.391	1669.06
467.61	1632.06
467.829	1630.06
468.049	1645.06
468.268	1596.06
468.488	1612.06
468.707	1596.06
468.927	1584.06
469.146	1590.06
469.365	1616.06
469.585	1608.06
469.804	1619.06
470.023	1681.06
470.243	1662.06
470.462	1673.06
470.681	1686.06
470.901	1706.06
471.12	1688.06
471.339	1630.06
471.558	1625.06
471.777	1613.06
471.997	1629.06
472.216	1630.06
472.435	1583.06
472.654	1586.06
472.873	1540.06
473.092	1588.06
473.311	1557.06
473.53	1551.06
473.749	1593.06
473.968	1551.06
474.187	1550.06
474.406	1543.06
474.625	1572.06
474.844	1529.06
475.063	1600.06
475.282	1594.06
475.501	1621.06
475.72	1587.06
475.939	1623.06
476.158	1605.06
476.377	1671.06
476.596	1642.06
476.814	1700.06
477.033	1696.06
477.252	1749.06
477.471	1731.06
477.69	1764.06
477.908	1832.06
478.127	1848.06
478.346	1842.06
478.564	1894.06
478.783	1908.06
479.002	1979.06
479.22	1966.06
479.439	2018.06
479.658	1977.06
479.876	2003.06
480.095	2041.06
480.313	2054.06
480.532	2108.06
480.751	2125.06
480.969	2064.06
481.188	1967.06
481.406	1976.06
481.624	1910.06
481.843	1901.06
482.061	1858.06
482.28	1892.06
482.498	1910.06
482.717	1893.06
482.935	1934.06
483.153	1913.06
483.372	1894.06
483.59	1914.06
483.808	1922.06
484.027	1940.06
484.245	1908.06
484.463	1980.06
484.681	2015.06
484.9	1986.06
485.118	2014.06
485.336	1991.06
485.554	2037.06
485.772	2040.06
485.99	2071.06
486.209	2018.06
486.427	2042.06
486.645	2040.06
486.863	1983.06
487.081	2018.06
487.299	2000.06
487.517	1979.06
487.735	1997.06
487.953	2019.06
488.171	2014.06
488.389	1978.06
488.607	1980.06
488.825	2006.06
489.043	1958.06
489.261	1960.06
489.479	1972.06
489.696	1968.06
