Data from NiCl2@0.25M.TitratingCurve.Agarose3%dH2O.NegLispCup.LampEnergy10.LIBS07252019_HRD10591_18-25-54-573.txt Node
Date: Thu Jul 25 18:25:54 EDT 2019
User: cochatt
Spectrometer: HR+D1059
Trigger mode: 1
Integration Time (sec): 1.000000E-1
Scans to average: 1
Electric dark correction enabled: true
Nonlinearity correction enabled: false
Boxcar width: 0
XAxis mode: Wavelengths
Number of Pixels in Spectrum: 2048
>>>>>Begin Spectral Data<<<<<
223.165	-14.5
223.4	-14.5
223.635	-14.5
223.869	-14.5
224.104	-18.5
224.338	-14.5
224.573	0.5
224.808	-17.5
225.042	-3.5
225.277	-11.5
225.511	0.5
225.746	-0.5
225.98	-4.5
226.215	2.5
226.449	18.5
226.683	25.5
226.918	13.5
227.152	38.5
227.387	36.5
227.621	46.5
227.856	33.5
228.09	58.5
228.324	52.5
228.559	52.5
228.793	72.5
229.027	145.5
229.262	136.5
229.496	119.5
229.73	138.5
229.964	138.5
230.199	143.5
230.433	165.5
230.667	166.5
230.901	161.5
231.136	165.5
231.37	140.5
231.604	157.5
231.838	166.5
232.072	172.5
232.306	194.5
232.541	185.5
232.775	181.5
233.009	162.5
233.243	185.5
233.477	178.5
233.711	180.5
233.945	181.5
234.179	186.5
234.413	187.5
234.647	192.5
234.881	183.5
235.115	188.5
235.349	174.5
235.583	197.5
235.817	186.5
236.051	190.5
236.285	212.5
236.519	194.5
236.753	191.5
236.987	196.5
237.221	205.5
237.455	190.5
237.689	192.5
237.922	198.5
238.156	198.5
238.39	219.5
238.624	220.5
238.858	206.5
239.091	210.5
239.325	212.5
239.559	219.5
239.793	225.5
240.027	234.5
240.26	235.5
240.494	233.5
240.728	242.5
240.961	210.5
241.195	232.5
241.429	261.5
241.662	250.5
241.896	257.5
242.13	245.5
242.363	234.5
242.597	251.5
242.83	252.5
243.064	260.5
243.298	263.5
243.531	264.5
243.765	264.5
243.998	280.5
244.232	248.5
244.465	251.5
244.699	288.5
244.932	274.5
245.166	265.5
245.399	289.5
245.633	273.5
245.866	283.5
246.099	295.5
246.333	290.5
246.566	281.5
246.8	289.5
247.033	295.5
247.266	289.5
247.5	303.5
247.733	314.5
247.966	278.5
248.2	311.5
248.433	317.5
248.666	316.5
248.899	306.5
249.133	317.5
249.366	310.5
249.599	328.5
249.832	302.5
250.066	347.5
250.299	340.5
250.532	350.5
250.765	346.5
250.998	337.5
251.231	328.5
251.465	339.5
251.698	332.5
251.931	327.5
252.164	345.5
252.397	357.5
252.63	357.5
252.863	355.5
253.096	349.5
253.329	374.5
253.562	368.5
253.795	385.5
254.028	385.5
254.261	369.5
254.494	376.5
254.727	373.5
254.96	353.5
255.193	364.5
255.426	384.5
255.659	377.5
255.892	406.5
256.124	375.5
256.357	388.5
256.59	372.5
256.823	387.5
257.056	388.5
257.289	403.5
257.521	409.5
257.754	400.5
257.987	398.5
258.22	402.5
258.452	391.5
258.685	441.5
258.918	411.5
259.151	414.5
259.383	432.5
259.616	425.5
259.849	430.5
260.081	439.5
260.314	432.5
260.547	425.5
260.779	420.5
261.012	425.5
261.244	440.5
261.477	426.5
261.71	416.5
261.942	421.5
262.175	422.5
262.407	462.5
262.64	433.5
262.872	446.5
263.105	443.5
263.337	466.5
263.57	454.5
263.802	481.5
264.035	460.5
264.267	445.5
264.499	476.5
264.732	441.5
264.964	470.5
265.197	494.5
265.429	468.5
265.661	470.5
265.894	467.5
266.126	478.5
266.358	483.5
266.591	473.5
266.823	485.5
267.055	493.5
267.287	498.5
267.52	493.5
267.752	478.5
267.984	493.5
268.216	497.5
268.448	511.5
268.681	492.5
268.913	487.5
269.145	516.5
269.377	501.5
269.609	513.5
269.841	498.5
270.073	501.5
270.306	517.5
270.538	513.5
270.77	515.5
271.002	511.5
271.234	515.5
271.466	532.5
271.698	532.5
271.93	521.5
272.162	551.5
272.394	526.5
272.626	544.5
272.858	539.5
273.09	542.5
273.322	534.5
273.553	518.5
273.785	557.5
274.017	556.5
274.249	562.5
274.481	555.5
274.713	556.5
274.945	586.5
275.176	561.5
275.408	553.5
275.64	555.5
275.872	584.5
276.104	579.5
276.335	574.5
276.567	571.5
276.799	574.5
277.031	567.5
277.262	599.5
277.494	580.5
277.726	590.5
277.957	604.5
278.189	596.5
278.421	580.5
278.652	577.5
278.884	588.5
279.115	610.5
279.347	615.5
279.579	619.5
279.81	605.5
280.042	631.5
280.273	601.5
280.505	629.5
280.736	626.5
280.968	628.5
281.199	641.5
281.431	639.5
281.662	628.5
281.894	652.5
282.125	624.5
282.356	663.5
282.588	666.5
282.819	638.5
283.051	632.5
283.282	648.5
283.513	660.5
283.745	696.5
283.976	644.5
284.207	643.5
284.439	657.5
284.67	640.5
284.901	688.5
285.132	686.5
285.364	656.5
285.595	646.5
285.826	677.5
286.057	697.5
286.288	677.5
286.52	707.5
286.751	682.5
286.982	704.5
287.213	696.5
287.444	694.5
287.675	672.5
287.906	686.5
288.138	696.5
288.369	699.5
288.6	694.5
288.831	728.5
289.062	690.5
289.293	732.5
289.524	730.5
289.755	698.5
289.986	700.5
290.217	721.5
290.448	706.5
290.679	742.5
290.91	748.5
291.141	724.5
291.371	755.5
291.602	729.5
291.833	716.5
292.064	733.5
292.295	718.5
292.526	729.5
292.757	719.5
292.987	717.5
293.218	734.5
293.449	734.5
293.68	730.5
293.91	709.5
294.141	713.5
294.372	728.5
294.603	741.5
294.833	762.5
295.064	754.5
295.295	724.5
295.525	748.5
295.756	743.5
295.987	736.5
296.217	763.5
296.448	750.5
296.679	786.5
296.909	768.5
297.14	793.5
297.37	782.5
297.601	782.5
297.831	773.5
298.062	780.5
298.292	798.5
298.523	814.5
298.753	792.5
298.984	793.5
299.214	801.5
299.445	800.5
299.675	786.5
299.905	792.5
300.136	792.5
300.366	784.5
300.597	813.5
300.827	804.5
301.057	831.5
301.288	820.5
301.518	816.5
301.748	850.5
301.979	850.5
302.209	851.5
302.439	821.5
302.669	816.5
302.9	833.5
303.13	822.5
303.36	810.5
303.59	816.5
303.82	837.5
304.051	839.5
304.281	805.5
304.511	823.5
304.741	815.5
304.971	822.5
305.201	822.5
305.431	823.5
305.661	821.5
305.891	829.5
306.121	802.5
306.352	812.5
306.582	816.5
306.812	824.5
307.042	806.5
307.272	821.5
307.502	802.5
307.731	814.5
307.961	801.5
308.191	796.5
308.421	813.5
308.651	806.5
308.881	789.5
309.111	798.5
309.341	800.5
309.571	792.5
309.8	799.5
310.03	817.5
310.26	811.5
310.49	818.5
310.72	806.5
310.949	793.5
311.179	803.5
311.409	826.5
311.639	832.5
311.868	845.5
312.098	844.5
312.328	819.5
312.557	824.5
312.787	848.5
313.017	846.5
313.246	868.5
313.476	891.5
313.706	855.5
313.935	861.5
314.165	857.5
314.394	869.5
314.624	891.5
314.853	889.5
315.083	845.5
315.312	878.5
315.542	834.5
315.771	873.5
316.001	834.5
316.23	858.5
316.46	838.5
316.689	844.5
316.919	822.5
317.148	843.5
317.377	896.5
317.607	847.5
317.836	848.5
318.065	835.5
318.295	830.5
318.524	825.5
318.753	825.5
318.983	839.5
319.212	854.5
319.441	832.5
319.67	835.5
319.9	864.5
320.129	832.5
320.358	829.5
320.587	850.5
320.816	849.5
321.046	825.5
321.275	852.5
321.504	874.5
321.733	853.5
321.962	863.5
322.191	860.5
322.42	864.5
322.649	833.5
322.878	850.5
323.108	860.5
323.337	872.5
323.566	872.5
323.795	872.5
324.024	881.5
324.253	885.5
324.482	889.5
324.71	897.5
324.939	879.5
325.168	900.5
325.397	892.5
325.626	901.5
325.855	931.5
326.084	938.5
326.313	936.5
326.542	940.5
326.77	952.5
326.999	927.5
327.228	919.5
327.457	923.5
327.686	928.5
327.914	897.5
328.143	920.5
328.372	934.5
328.6	920.5
328.829	918.5
329.058	941.5
329.287	953.5
329.515	942.5
329.744	953.5
329.972	938.5
330.201	934.5
330.43	960.5
330.658	965.5
330.887	970.5
331.115	1024.5
331.344	977.5
331.572	981.5
331.801	1017.5
332.03	992.5
332.258	1040.5
332.486	1051.5
332.715	1092.5
332.943	1160.5
333.172	1172.5
333.4	1232.5
333.629	1237.5
333.857	1276.5
334.085	1274.5
334.314	1223.5
334.542	1241.5
334.771	1265.5
334.999	1218.5
335.227	1220.5
335.455	1178.5
335.684	1190.5
335.912	1202.5
336.14	1165.5
336.369	1127.5
336.597	1162.5
336.825	1149.5
337.053	1124.5
337.281	1123.5
337.51	1107.5
337.738	1088.5
337.966	1061.5
338.194	1050.5
338.422	1064.5
338.65	1032.5
338.878	1021.5
339.106	1018.5
339.334	1020.5
339.562	997.5
339.79	979.5
340.018	952.5
340.246	949.5
340.474	997.5
340.702	968.5
340.93	980.5
341.158	984.5
341.386	977.5
341.614	989.5
341.842	969.5
342.07	976.5
342.298	969.5
342.526	965.5
342.754	981.5
342.981	962.5
343.209	1013.5
343.437	1032.5
343.665	1098.5
343.893	1152.5
344.12	1213.5
344.348	1152.5
344.576	1121.5
344.804	1073.5
345.031	1043.5
345.259	1014.5
345.487	1000.5
345.714	959.5
345.942	965.5
346.17	965.5
346.397	939.5
346.625	974.5
346.853	959.5
347.08	944.5
347.308	928.5
347.535	970.5
347.763	953.5
347.99	938.5
348.218	961.5
348.445	904.5
348.673	924.5
348.9	952.5
349.128	955.5
349.355	929.5
349.583	934.5
349.81	945.5
350.037	914.5
350.265	909.5
350.492	880.5
350.72	914.5
350.947	897.5
351.174	921.5
351.402	913.5
351.629	904.5
351.856	897.5
352.083	877.5
352.311	902.5
352.538	889.5
352.765	892.5
352.992	862.5
353.22	884.5
353.447	921.5
353.674	913.5
353.901	876.5
354.128	880.5
354.355	868.5
354.583	896.5
354.81	873.5
355.037	887.5
355.264	902.5
355.491	910.5
355.718	930.5
355.945	889.5
356.172	898.5
356.399	935.5
356.626	914.5
356.853	907.5
357.08	926.5
357.307	919.5
357.534	889.5
357.761	911.5
357.988	919.5
358.215	892.5
358.441	905.5
358.668	868.5
358.895	894.5
359.122	890.5
359.349	925.5
359.576	894.5
359.802	909.5
360.029	894.5
360.256	902.5
360.483	911.5
360.709	908.5
360.936	892.5
361.163	892.5
361.39	942.5
361.616	908.5
361.843	897.5
362.07	906.5
362.296	907.5
362.523	916.5
362.749	914.5
362.976	913.5
363.203	926.5
363.429	934.5
363.656	925.5
363.882	900.5
364.109	900.5
364.335	885.5
364.562	923.5
364.788	903.5
365.015	918.5
365.241	919.5
365.468	914.5
365.694	868.5
365.92	893.5
366.147	908.5
366.373	877.5
366.599	899.5
366.826	892.5
367.052	916.5
367.278	875.5
367.505	903.5
367.731	907.5
367.957	909.5
368.184	906.5
368.41	900.5
368.636	907.5
368.862	919.5
369.089	894.5
369.315	930.5
369.541	922.5
369.767	955.5
369.993	950.5
370.219	955.5
370.445	959.5
370.672	967.5
370.898	966.5
371.124	1005.5
371.35	977.5
371.576	981.5
371.802	956.5
372.028	978.5
372.254	1000.5
372.48	990.5
372.706	1029.5
372.932	1031.5
373.158	1016.5
373.384	989.5
373.61	1003.5
373.835	999.5
374.061	980.5
374.287	1038.5
374.513	1018.5
374.739	1042.5
374.965	1092.5
375.191	1077.5
375.416	1078.5
375.642	1084.5
375.868	1037.5
376.094	1012.5
376.319	1020.5
376.545	998.5
376.771	995.5
376.997	988.5
377.222	982.5
377.448	988.5
377.674	977.5
377.899	1015.5
378.125	982.5
378.35	961.5
378.576	998.5
378.802	974.5
379.027	971.5
379.253	998.5
379.478	1018.5
379.704	991.5
379.929	1008.5
380.155	1003.5
380.38	1000.5
380.606	972.5
380.831	958.5
381.057	956.5
381.282	1002.5
381.507	988.5
381.733	989.5
381.958	1000.5
382.184	1002.5
382.409	994.5
382.634	1027.5
382.86	1067.5
383.085	1061.5
383.31	1066.5
383.535	1109.5
383.761	1104.5
383.986	1101.5
384.211	1099.5
384.436	1154.5
384.662	1156.5
384.887	1172.5
385.112	1185.5
385.337	1190.5
385.562	1164.5
385.787	1181.5
386.013	1236.5
386.238	1231.5
386.463	1234.5
386.688	1235.5
386.913	1193.5
387.138	1240.5
387.363	1213.5
387.588	1187.5
387.813	1207.5
388.038	1212.5
388.263	1221.5
388.488	1228.5
388.713	1232.5
388.938	1232.5
389.163	1195.5
389.387	1177.5
389.612	1176.5
389.837	1192.5
390.062	1177.5
390.287	1187.5
390.512	1207.5
390.736	1192.5
390.961	1227.5
391.186	1265.5
391.411	1271.5
391.636	1304.5
391.86	1334.5
392.085	1371.5
392.31	1366.5
392.534	1348.5
392.759	1311.5
392.984	1314.5
393.208	1271.5
393.433	1274.5
393.658	1275.5
393.882	1295.5
394.107	1261.5
394.331	1301.5
394.556	1295.5
394.78	1305.5
395.005	1320.5
395.229	1348.5
395.454	1324.5
395.678	1364.5
395.903	1360.5
396.127	1369.5
396.352	1338.5
396.576	1291.5
396.801	1293.5
397.025	1329.5
397.249	1305.5
397.474	1362.5
397.698	1377.5
397.922	1397.5
398.147	1402.5
398.371	1433.5
398.595	1485.5
398.82	1547.5
399.044	1673.5
399.268	1817.5
399.492	2059.5
399.717	2210.5
399.941	2314.5
400.165	2149.5
400.389	1938.5
400.613	1756.5
400.837	1652.5
401.062	1634.5
401.286	1619.5
401.51	1577.5
401.734	1555.5
401.958	1571.5
402.182	1620.5
402.406	1595.5
402.63	1597.5
402.854	1659.5
403.078	1666.5
403.302	1667.5
403.526	1737.5
403.75	1724.5
403.974	1732.5
404.198	1732.5
404.422	1767.5
404.645	1721.5
404.869	1741.5
405.093	1753.5
405.317	1688.5
405.541	1706.5
405.765	1696.5
405.988	1656.5
406.212	1729.5
406.436	1716.5
406.66	1798.5
406.883	1761.5
407.107	1871.5
407.331	1921.5
407.555	2017.5
407.778	1997.5
408.002	2002.5
408.226	1899.5
408.449	1895.5
408.673	1769.5
408.896	1764.5
409.12	1767.5
409.344	1781.5
409.567	1714.5
409.791	1739.5
410.014	1702.5
410.238	1733.5
410.461	1721.5
410.685	1656.5
410.908	1665.5
411.132	1628.5
411.355	1566.5
411.578	1611.5
411.802	1617.5
412.025	1582.5
412.249	1662.5
412.472	1673.5
412.695	1594.5
412.919	1552.5
413.142	1523.5
413.365	1547.5
413.589	1565.5
413.812	1509.5
414.035	1538.5
414.258	1508.5
414.482	1531.5
414.705	1570.5
414.928	1550.5
415.151	1544.5
415.374	1537.5
415.597	1541.5
415.821	1472.5
416.044	1464.5
416.267	1490.5
416.49	1494.5
416.713	1501.5
416.936	1506.5
417.159	1464.5
417.382	1474.5
417.605	1490.5
417.828	1484.5
418.051	1509.5
418.274	1507.5
418.497	1502.5
418.72	1585.5
418.943	1605.5
419.166	1659.5
419.389	1809.5
419.611	1748.5
419.834	1617.5
420.057	1610.5
420.28	1529.5
420.503	1485.5
420.726	1492.5
420.948	1496.5
421.171	1514.5
421.394	1519.5
421.617	1479.5
421.839	1530.5
422.062	1524.5
422.285	1481.5
422.507	1562.5
422.73	1528.5
422.953	1504.5
423.175	1590.5
423.398	1566.5
423.621	1542.5
423.843	1580.5
424.066	1568.5
424.288	1545.5
424.511	1562.5
424.733	1505.5
424.956	1529.5
425.178	1532.5
425.401	1499.5
425.623	1518.5
425.846	1464.5
426.068	1451.5
426.291	1451.5
426.513	1402.5
426.735	1428.5
426.958	1438.5
427.18	1410.5
427.402	1411.5
427.625	1393.5
427.847	1342.5
428.069	1360.5
428.292	1356.5
428.514	1355.5
428.736	1322.5
428.958	1343.5
429.181	1318.5
429.403	1323.5
429.625	1272.5
429.847	1287.5
430.069	1303.5
430.292	1269.5
430.514	1261.5
430.736	1293.5
430.958	1325.5
431.18	1306.5
431.402	1320.5
431.624	1308.5
431.846	1326.5
432.068	1332.5
432.29	1352.5
432.512	1320.5
432.734	1333.5
432.956	1335.5
433.178	1347.5
433.4	1331.5
433.622	1328.5
433.844	1337.5
434.066	1335.5
434.287	1360.5
434.509	1413.5
434.731	1460.5
434.953	1480.5
435.175	1514.5
435.397	1509.5
435.618	1413.5
435.84	1400.5
436.062	1383.5
436.284	1336.5
436.505	1335.5
436.727	1317.5
436.949	1298.5
437.17	1307.5
437.392	1290.5
437.614	1266.5
437.835	1252.5
438.057	1233.5
438.278	1245.5
438.5	1253.5
438.721	1309.5
438.943	1299.5
439.165	1259.5
439.386	1269.5
439.608	1318.5
439.829	1334.5
440.05	1285.5
440.272	1326.5
440.493	1301.5
440.715	1359.5
440.936	1389.5
441.158	1421.5
441.379	1416.5
441.6	1504.5
441.822	1528.5
442.043	1523.5
442.264	1479.5
442.486	1445.5
442.707	1425.5
442.928	1446.5
443.149	1456.5
443.371	1451.5
443.592	1437.5
443.813	1495.5
444.034	1499.5
444.255	1559.5
444.476	1667.5
444.698	1703.5
444.919	1761.5
445.14	1793.5
445.361	1644.5
445.582	1550.5
445.803	1494.5
446.024	1393.5
446.245	1421.5
446.466	1346.5
446.687	1344.5
446.908	1335.5
447.129	1293.5
447.35	1290.5
447.571	1250.5
447.792	1237.5
448.013	1244.5
448.234	1230.5
448.455	1230.5
448.675	1196.5
448.896	1200.5
449.117	1209.5
449.338	1205.5
449.559	1167.5
449.779	1205.5
450	1181.5
450.221	1204.5
450.442	1208.5
450.662	1221.5
450.883	1192.5
451.104	1230.5
451.324	1237.5
451.545	1225.5
451.766	1187.5
451.986	1196.5
452.207	1197.5
452.428	1160.5
452.648	1212.5
452.869	1168.5
453.089	1129.5
453.31	1164.5
453.53	1156.5
453.751	1117.5
453.971	1178.5
454.192	1162.5
454.412	1132.5
454.633	1124.5
454.853	1127.5
455.073	1127.5
455.294	1105.5
455.514	1106.5
455.734	1150.5
455.955	1091.5
456.175	1096.5
456.395	1107.5
456.616	1115.5
456.836	1114.5
457.056	1119.5
457.276	1130.5
457.497	1140.5
457.717	1110.5
457.937	1130.5
458.157	1172.5
458.377	1148.5
458.598	1226.5
458.818	1255.5
459.038	1294.5
459.258	1334.5
459.478	1358.5
459.698	1351.5
459.918	1425.5
460.138	1458.5
460.358	1539.5
460.578	1545.5
460.798	1596.5
461.018	1564.5
461.238	1596.5
461.458	1596.5
461.678	1595.5
461.898	1591.5
462.118	1601.5
462.338	1712.5
462.558	1771.5
462.777	1800.5
462.997	1955.5
463.217	2075.5
463.437	2102.5
463.657	1971.5
463.876	1920.5
464.096	1903.5
464.316	1829.5
464.536	1829.5
464.755	1764.5
464.975	1716.5
465.195	1660.5
465.414	1554.5
465.634	1456.5
465.854	1409.5
466.073	1372.5
466.293	1376.5
466.512	1333.5
466.732	1302.5
466.951	1264.5
467.171	1279.5
467.391	1269.5
467.61	1250.5
467.829	1253.5
468.049	1252.5
468.268	1234.5
468.488	1224.5
468.707	1227.5
468.927	1207.5
469.146	1210.5
469.365	1269.5
469.585	1230.5
469.804	1280.5
470.023	1266.5
470.243	1308.5
470.462	1314.5
470.681	1329.5
470.901	1308.5
471.12	1316.5
471.339	1268.5
471.558	1225.5
471.777	1220.5
471.997	1224.5
472.216	1201.5
472.435	1198.5
472.654	1170.5
472.873	1167.5
473.092	1192.5
473.311	1194.5
473.53	1202.5
473.749	1189.5
473.968	1196.5
474.187	1194.5
474.406	1150.5
474.625	1177.5
474.844	1190.5
475.063	1197.5
475.282	1204.5
475.501	1226.5
475.72	1226.5
475.939	1196.5
476.158	1222.5
476.377	1226.5
476.596	1235.5
476.814	1285.5
477.033	1289.5
477.252	1264.5
477.471	1312.5
477.69	1332.5
477.908	1375.5
478.127	1404.5
478.346	1404.5
478.564	1441.5
478.783	1460.5
479.002	1503.5
479.22	1501.5
479.439	1509.5
479.658	1502.5
479.876	1514.5
480.095	1505.5
480.313	1569.5
480.532	1624.5
480.751	1592.5
480.969	1526.5
481.188	1479.5
481.406	1488.5
481.624	1420.5
481.843	1416.5
482.061	1381.5
482.28	1381.5
482.498	1347.5
482.717	1347.5
482.935	1336.5
483.153	1344.5
483.372	1339.5
483.59	1350.5
483.808	1349.5
484.027	1374.5
484.245	1365.5
484.463	1388.5
484.681	1400.5
484.9	1394.5
485.118	1399.5
485.336	1420.5
485.554	1403.5
485.772	1433.5
485.99	1418.5
486.209	1438.5
486.427	1453.5
486.645	1436.5
486.863	1432.5
487.081	1427.5
487.299	1433.5
487.517	1411.5
487.735	1386.5
487.953	1438.5
488.171	1440.5
488.389	1404.5
488.607	1412.5
488.825	1390.5
489.043	1429.5
489.261	1387.5
489.479	1394.5
489.696	1428.5
489.914	1408.5
490.132	1399.5
490.35	1440.5
490.568	1387.5
490.786	1436.5
491.003	1430.5
491.221	1484.5
491.439	1486.5
491.657	1457.5
491.874	1433.5
492.092	1460.5
492.31	1473.5
492.527	1483.5
492.745	1453.5
492.963	1468.5
493.18	1481.5
493.398	1482.5
493.615	1493.5
493.833	1506.5
494.05	1520.5
494.268	1522.5
494.485	1548.5
494.703	1538.5
494.92	1529.5
495.138	1510.5
495.355	1540.5
495.573	1546.5
495.79	1546.5
496.008	1556.5
496.225	1576.5
496.442	1594.5
496.66	1621.5
496.877	1623.5
497.094	1664.5
497.312	1708.5
497.529	1730.5
497.746	1816.5
497.963	1885.5
498.181	1969.5
498.398	2015.5
498.615	2191.5
498.832	2328.5
499.049	2477.5
499.267	2704.5
499.484	2942.5
499.701	3307.5
499.918	3628.5
500.135	4018.5
500.352	4372.5
500.569	4616.5
500.786	4621.5
501.003	4357.5
501.22	3977.5
501.437	3582.5
501.654	3165.5
501.871	2934.5
502.088	2661.5
502.305	2513.5
502.522	2332.5
502.739	2286.5
502.956	2119.5
503.172	2035.5
503.389	1944.5
503.606	1895.5
503.823	1844.5
504.04	1780.5
504.256	1860.5
504.473	1870.5
504.69	1842.5
504.907	1844.5
505.123	1740.5
505.34	1652.5
505.557	1589.5
505.773	1500.5
505.99	1495.5
506.207	1472.5
506.423	1418.5
506.64	1449.5
506.856	1369.5
507.073	1357.5
507.289	1367.5
507.506	1405.5
507.722	1366.5
507.939	1348.5
508.155	1321.5
508.372	1316.5
508.588	1293.5
508.805	1292.5
509.021	1300.5
509.238	1270.5
509.454	1268.5
509.67	1271.5
509.887	1273.5
510.103	1238.5
