Data from NiCl2@0.5M.TitratingCurve.Agarose3%dH2O.NegLispCup.LampEnergy10.LIBS07252019_HRD10591_18-21-23-571.txt Node
Date: Thu Jul 25 18:21:23 EDT 2019
User: cochatt
Spectrometer: HR+D1059
Trigger mode: 1
Integration Time (sec): 1.000000E-1
Scans to average: 1
Electric dark correction enabled: true
Nonlinearity correction enabled: false
Boxcar width: 0
XAxis mode: Wavelengths
Number of Pixels in Spectrum: 2048
>>>>>Begin Spectral Data<<<<<
223.165	-21.94
223.4	-21.94
223.635	-21.94
223.869	-19.94
224.104	-12.94
224.338	-33.94
224.573	-12.94
224.808	-28.94
225.042	4.06
225.277	-13.94
225.511	4.06
225.746	14.06
225.98	9.06
226.215	19.06
226.449	24.06
226.683	25.06
226.918	18.06
227.152	27.06
227.387	35.06
227.621	31.06
227.856	51.06
228.09	44.06
228.324	40.06
228.559	50.06
228.793	59.06
229.027	83.06
229.262	99.06
229.496	102.06
229.73	98.06
229.964	99.06
230.199	96.06
230.433	112.06
230.667	121.06
230.901	108.06
231.136	114.06
231.37	114.06
231.604	118.06
231.838	116.06
232.072	123.06
232.306	135.06
232.541	120.06
232.775	112.06
233.009	120.06
233.243	128.06
233.477	128.06
233.711	117.06
233.945	122.06
234.179	135.06
234.413	122.06
234.647	140.06
234.881	123.06
235.115	120.06
235.349	134.06
235.583	124.06
235.817	120.06
236.051	129.06
236.285	124.06
236.519	135.06
236.753	132.06
236.987	127.06
237.221	139.06
237.455	134.06
237.689	135.06
237.922	134.06
238.156	147.06
238.39	138.06
238.624	145.06
238.858	162.06
239.091	132.06
239.325	147.06
239.559	133.06
239.793	134.06
240.027	148.06
240.26	141.06
240.494	138.06
240.728	140.06
240.961	138.06
241.195	158.06
241.429	145.06
241.662	152.06
241.896	139.06
242.13	161.06
242.363	164.06
242.597	170.06
242.83	149.06
243.064	156.06
243.298	169.06
243.531	174.06
243.765	167.06
243.998	180.06
244.232	176.06
244.465	152.06
244.699	166.06
244.932	165.06
245.166	170.06
245.399	172.06
245.633	172.06
245.866	184.06
246.099	181.06
246.333	185.06
246.566	188.06
246.8	175.06
247.033	164.06
247.266	170.06
247.5	194.06
247.733	193.06
247.966	201.06
248.2	199.06
248.433	180.06
248.666	170.06
248.899	192.06
249.133	184.06
249.366	200.06
249.599	181.06
249.832	186.06
250.066	195.06
250.299	197.06
250.532	186.06
250.765	195.06
250.998	192.06
251.231	190.06
251.465	196.06
251.698	208.06
251.931	213.06
252.164	200.06
252.397	208.06
252.63	203.06
252.863	201.06
253.096	220.06
253.329	213.06
253.562	217.06
253.795	195.06
254.028	207.06
254.261	232.06
254.494	216.06
254.727	224.06
254.96	234.06
255.193	219.06
255.426	199.06
255.659	222.06
255.892	225.06
256.124	222.06
256.357	217.06
256.59	215.06
256.823	228.06
257.056	216.06
257.289	228.06
257.521	228.06
257.754	217.06
257.987	230.06
258.22	215.06
258.452	252.06
258.685	240.06
258.918	235.06
259.151	222.06
259.383	240.06
259.616	242.06
259.849	227.06
260.081	245.06
260.314	247.06
260.547	255.06
260.779	223.06
261.012	234.06
261.244	230.06
261.477	265.06
261.71	254.06
261.942	239.06
262.175	238.06
262.407	261.06
262.64	246.06
262.872	253.06
263.105	250.06
263.337	255.06
263.57	269.06
263.802	248.06
264.035	275.06
264.267	256.06
264.499	258.06
264.732	283.06
264.964	254.06
265.197	238.06
265.429	256.06
265.661	262.06
265.894	250.06
266.126	265.06
266.358	265.06
266.591	277.06
266.823	264.06
267.055	265.06
267.287	265.06
267.52	267.06
267.752	267.06
267.984	259.06
268.216	278.06
268.448	262.06
268.681	282.06
268.913	297.06
269.145	275.06
269.377	272.06
269.609	275.06
269.841	278.06
270.073	289.06
270.306	284.06
270.538	281.06
270.77	288.06
271.002	295.06
271.234	281.06
271.466	289.06
271.698	289.06
271.93	308.06
272.162	286.06
272.394	290.06
272.626	283.06
272.858	288.06
273.09	310.06
273.322	326.06
273.553	305.06
273.785	304.06
274.017	311.06
274.249	308.06
274.481	314.06
274.713	304.06
274.945	299.06
275.176	314.06
275.408	310.06
275.64	321.06
275.872	310.06
276.104	324.06
276.335	311.06
276.567	331.06
276.799	291.06
277.031	311.06
277.262	314.06
277.494	326.06
277.726	323.06
277.957	312.06
278.189	320.06
278.421	302.06
278.652	336.06
278.884	332.06
279.115	341.06
279.347	322.06
279.579	334.06
279.81	323.06
280.042	332.06
280.273	335.06
280.505	339.06
280.736	333.06
280.968	332.06
281.199	346.06
281.431	343.06
281.662	359.06
281.894	346.06
282.125	350.06
282.356	355.06
282.588	340.06
282.819	336.06
283.051	357.06
283.282	357.06
283.513	371.06
283.745	361.06
283.976	361.06
284.207	372.06
284.439	352.06
284.67	374.06
284.901	380.06
285.132	358.06
285.364	373.06
285.595	349.06
285.826	353.06
286.057	362.06
286.288	353.06
286.52	376.06
286.751	380.06
286.982	370.06
287.213	391.06
287.444	382.06
287.675	364.06
287.906	377.06
288.138	372.06
288.369	398.06
288.6	404.06
288.831	377.06
289.062	370.06
289.293	371.06
289.524	388.06
289.755	383.06
289.986	384.06
290.217	382.06
290.448	389.06
290.679	387.06
290.91	387.06
291.141	403.06
291.371	368.06
291.602	378.06
291.833	396.06
292.064	386.06
292.295	406.06
292.526	386.06
292.757	402.06
292.987	406.06
293.218	399.06
293.449	404.06
293.68	379.06
293.91	401.06
294.141	403.06
294.372	382.06
294.603	398.06
294.833	404.06
295.064	406.06
295.295	385.06
295.525	397.06
295.756	389.06
295.987	401.06
296.217	416.06
296.448	389.06
296.679	406.06
296.909	412.06
297.14	404.06
297.37	417.06
297.601	426.06
297.831	412.06
298.062	434.06
298.292	435.06
298.523	420.06
298.753	438.06
298.984	436.06
299.214	438.06
299.445	446.06
299.675	443.06
299.905	426.06
300.136	426.06
300.366	443.06
300.597	469.06
300.827	447.06
301.057	452.06
301.288	460.06
301.518	464.06
301.748	460.06
301.979	471.06
302.209	455.06
302.439	463.06
302.669	448.06
302.9	468.06
303.13	443.06
303.36	455.06
303.59	445.06
303.82	451.06
304.051	463.06
304.281	433.06
304.511	431.06
304.741	454.06
304.971	470.06
305.201	464.06
305.431	420.06
305.661	461.06
305.891	464.06
306.121	466.06
306.352	461.06
306.582	439.06
306.812	436.06
307.042	442.06
307.272	433.06
307.502	428.06
307.731	447.06
307.961	442.06
308.191	451.06
308.421	458.06
308.651	446.06
308.881	430.06
309.111	441.06
309.341	443.06
309.571	443.06
309.8	435.06
310.03	436.06
310.26	479.06
310.49	444.06
310.72	457.06
310.949	470.06
311.179	438.06
311.409	452.06
311.639	468.06
311.868	470.06
312.098	449.06
312.328	467.06
312.557	470.06
312.787	462.06
313.017	477.06
313.246	451.06
313.476	475.06
313.706	499.06
313.935	473.06
314.165	472.06
314.394	483.06
314.624	489.06
314.853	475.06
315.083	471.06
315.312	479.06
315.542	473.06
315.771	483.06
316.001	486.06
316.23	472.06
316.46	468.06
316.689	471.06
316.919	463.06
317.148	451.06
317.377	466.06
317.607	457.06
317.836	471.06
318.065	457.06
318.295	464.06
318.524	460.06
318.753	454.06
318.983	459.06
319.212	495.06
319.441	458.06
319.67	467.06
319.9	459.06
320.129	479.06
320.358	456.06
320.587	458.06
320.816	478.06
321.046	479.06
321.275	474.06
321.504	483.06
321.733	489.06
321.962	474.06
322.191	479.06
322.42	487.06
322.649	470.06
322.878	488.06
323.108	472.06
323.337	491.06
323.566	485.06
323.795	476.06
324.024	482.06
324.253	504.06
324.482	487.06
324.71	504.06
324.939	468.06
325.168	491.06
325.397	492.06
325.626	504.06
325.855	500.06
326.084	525.06
326.313	510.06
326.542	525.06
326.77	525.06
326.999	528.06
327.228	513.06
327.457	507.06
327.686	498.06
327.914	511.06
328.143	538.06
328.372	522.06
328.6	528.06
328.829	524.06
329.058	528.06
329.287	502.06
329.515	527.06
329.744	519.06
329.972	544.06
330.201	539.06
330.43	525.06
330.658	526.06
330.887	537.06
331.115	555.06
331.344	567.06
331.572	551.06
331.801	561.06
332.03	582.06
332.258	601.06
332.486	594.06
332.715	612.06
332.943	651.06
333.172	639.06
333.4	670.06
333.629	662.06
333.857	670.06
334.085	679.06
334.314	680.06
334.542	666.06
334.771	659.06
334.999	648.06
335.227	642.06
335.455	638.06
335.684	644.06
335.912	629.06
336.14	642.06
336.369	637.06
336.597	656.06
336.825	614.06
337.053	643.06
337.281	618.06
337.51	600.06
337.738	584.06
337.966	596.06
338.194	599.06
338.422	583.06
338.65	574.06
338.878	554.06
339.106	567.06
339.334	574.06
339.562	575.06
339.79	542.06
340.018	536.06
340.246	545.06
340.474	537.06
340.702	548.06
340.93	538.06
341.158	554.06
341.386	557.06
341.614	586.06
341.842	545.06
342.07	541.06
342.298	530.06
342.526	550.06
342.754	543.06
342.981	528.06
343.209	541.06
343.437	593.06
343.665	596.06
343.893	646.06
344.12	656.06
344.348	640.06
344.576	599.06
344.804	603.06
345.031	578.06
345.259	564.06
345.487	571.06
345.714	564.06
345.942	554.06
346.17	551.06
346.397	545.06
346.625	549.06
346.853	531.06
347.08	528.06
347.308	528.06
347.535	536.06
347.763	496.06
347.99	532.06
348.218	522.06
348.445	531.06
348.673	529.06
348.9	524.06
349.128	535.06
349.355	518.06
349.583	547.06
349.81	513.06
350.037	496.06
350.265	492.06
350.492	483.06
350.72	494.06
350.947	504.06
351.174	522.06
351.402	526.06
351.629	525.06
351.856	530.06
352.083	492.06
352.311	529.06
352.538	521.06
352.765	532.06
352.992	509.06
353.22	490.06
353.447	514.06
353.674	482.06
353.901	480.06
354.128	495.06
354.355	518.06
354.583	478.06
354.81	497.06
355.037	511.06
355.264	515.06
355.491	498.06
355.718	498.06
355.945	499.06
356.172	496.06
356.399	491.06
356.626	498.06
356.853	520.06
357.08	520.06
357.307	527.06
357.534	505.06
357.761	499.06
357.988	477.06
358.215	475.06
358.441	508.06
358.668	510.06
358.895	494.06
359.122	494.06
359.349	484.06
359.576	485.06
359.802	490.06
360.029	515.06
360.256	510.06
360.483	495.06
360.709	475.06
360.936	500.06
361.163	521.06
361.39	511.06
361.616	512.06
361.843	516.06
362.07	519.06
362.296	514.06
362.523	511.06
362.749	481.06
362.976	487.06
363.203	516.06
363.429	488.06
363.656	484.06
363.882	477.06
364.109	485.06
364.335	476.06
364.562	491.06
364.788	498.06
365.015	508.06
365.241	487.06
365.468	475.06
365.694	483.06
365.92	502.06
366.147	475.06
366.373	482.06
366.599	506.06
366.826	470.06
367.052	485.06
367.278	499.06
367.505	486.06
367.731	479.06
367.957	484.06
368.184	463.06
368.41	504.06
368.636	497.06
368.862	505.06
369.089	486.06
369.315	511.06
369.541	487.06
369.767	508.06
369.993	496.06
370.219	510.06
370.445	512.06
370.672	515.06
370.898	539.06
371.124	528.06
371.35	531.06
371.576	545.06
371.802	524.06
372.028	523.06
372.254	524.06
372.48	545.06
372.706	528.06
372.932	530.06
373.158	535.06
373.384	543.06
373.61	535.06
373.835	527.06
374.061	547.06
374.287	550.06
374.513	555.06
374.739	571.06
374.965	577.06
375.191	594.06
375.416	588.06
375.642	573.06
375.868	584.06
376.094	530.06
376.319	524.06
376.545	539.06
376.771	535.06
376.997	528.06
377.222	520.06
377.448	540.06
377.674	533.06
377.899	522.06
378.125	533.06
378.35	528.06
378.576	546.06
378.802	536.06
379.027	524.06
379.253	531.06
379.478	519.06
379.704	528.06
379.929	519.06
380.155	518.06
380.38	516.06
380.606	517.06
380.831	508.06
381.057	532.06
381.282	492.06
381.507	513.06
381.733	522.06
381.958	524.06
382.184	569.06
382.409	561.06
382.634	558.06
382.86	542.06
383.085	567.06
383.31	569.06
383.535	578.06
383.761	572.06
383.986	569.06
384.211	603.06
384.436	619.06
384.662	607.06
384.887	613.06
385.112	590.06
385.337	631.06
385.562	638.06
385.787	619.06
386.013	632.06
386.238	640.06
386.463	644.06
386.688	623.06
386.913	611.06
387.138	614.06
387.363	636.06
387.588	607.06
387.813	616.06
388.038	607.06
388.263	616.06
388.488	625.06
388.713	634.06
388.938	617.06
389.163	590.06
389.387	609.06
389.612	581.06
389.837	602.06
390.062	631.06
390.287	596.06
390.512	630.06
390.736	636.06
390.961	635.06
391.186	647.06
391.411	655.06
391.636	678.06
391.86	696.06
392.085	702.06
392.31	695.06
392.534	674.06
392.759	662.06
392.984	658.06
393.208	652.06
393.433	651.06
393.658	673.06
393.882	652.06
394.107	641.06
394.331	669.06
394.556	668.06
394.78	662.06
395.005	696.06
395.229	696.06
395.454	715.06
395.678	698.06
395.903	727.06
396.127	703.06
396.352	641.06
396.576	670.06
396.801	654.06
397.025	675.06
397.249	683.06
397.474	714.06
397.698	710.06
397.922	714.06
398.147	709.06
398.371	737.06
398.595	744.06
398.82	792.06
399.044	801.06
399.268	906.06
399.492	1055.06
399.717	1128.06
399.941	1119.06
400.165	996.06
400.389	957.06
400.613	893.06
400.837	817.06
401.062	790.06
401.286	792.06
401.51	798.06
401.734	769.06
401.958	783.06
402.182	798.06
402.406	827.06
402.63	811.06
402.854	844.06
403.078	835.06
403.302	849.06
403.526	884.06
403.75	884.06
403.974	889.06
404.198	908.06
404.422	894.06
404.645	889.06
404.869	875.06
405.093	894.06
405.317	850.06
405.541	859.06
405.765	866.06
405.988	839.06
406.212	835.06
406.436	840.06
406.66	873.06
406.883	922.06
407.107	935.06
407.331	1001.06
407.555	1011.06
407.778	1008.06
408.002	993.06
408.226	983.06
408.449	913.06
408.673	912.06
408.896	899.06
409.12	900.06
409.344	872.06
409.567	869.06
409.791	902.06
410.014	894.06
410.238	886.06
410.461	873.06
410.685	845.06
410.908	827.06
411.132	839.06
411.355	848.06
411.578	807.06
411.802	816.06
412.025	826.06
412.249	818.06
412.472	810.06
412.695	830.06
412.919	795.06
413.142	799.06
413.365	816.06
413.589	791.06
413.812	762.06
414.035	798.06
414.258	795.06
414.482	798.06
414.705	805.06
414.928	814.06
415.151	812.06
415.374	780.06
415.597	775.06
415.821	772.06
416.044	794.06
416.267	779.06
416.49	754.06
416.713	778.06
416.936	787.06
417.159	789.06
417.382	764.06
417.605	766.06
417.828	792.06
418.051	757.06
418.274	801.06
418.497	805.06
418.72	826.06
418.943	802.06
419.166	869.06
419.389	879.06
419.611	891.06
419.834	854.06
420.057	830.06
420.28	808.06
420.503	770.06
420.726	775.06
420.948	774.06
421.171	766.06
421.394	792.06
421.617	801.06
421.839	811.06
422.062	797.06
422.285	779.06
422.507	828.06
422.73	814.06
422.953	843.06
423.175	803.06
423.398	855.06
423.621	827.06
423.843	842.06
424.066	842.06
424.288	821.06
424.511	837.06
424.733	831.06
424.956	800.06
425.178	810.06
425.401	769.06
425.623	788.06
425.846	759.06
426.068	769.06
426.291	765.06
426.513	745.06
426.735	753.06
426.958	740.06
427.18	730.06
427.402	745.06
427.625	728.06
427.847	722.06
428.069	717.06
428.292	735.06
428.514	732.06
428.736	723.06
428.958	715.06
429.181	697.06
429.403	700.06
429.625	715.06
429.847	677.06
430.069	712.06
430.292	711.06
430.514	660.06
430.736	698.06
430.958	690.06
431.18	695.06
431.402	711.06
431.624	736.06
431.846	703.06
432.068	716.06
432.29	761.06
432.512	716.06
432.734	702.06
432.956	700.06
433.178	739.06
433.4	730.06
433.622	718.06
433.844	739.06
434.066	751.06
434.287	747.06
434.509	758.06
434.731	775.06
434.953	800.06
435.175	787.06
435.397	767.06
435.618	774.06
435.84	742.06
436.062	708.06
436.284	743.06
436.505	717.06
436.727	730.06
436.949	738.06
437.17	730.06
437.392	726.06
437.614	699.06
437.835	714.06
438.057	698.06
438.278	693.06
438.5	707.06
438.721	705.06
438.943	718.06
439.165	698.06
439.386	709.06
439.608	724.06
439.829	720.06
440.05	747.06
440.272	752.06
440.493	736.06
440.715	738.06
440.936	741.06
441.158	753.06
441.379	784.06
441.6	820.06
441.822	812.06
442.043	830.06
442.264	795.06
442.486	774.06
442.707	784.06
442.928	798.06
443.149	810.06
443.371	800.06
443.592	822.06
443.813	824.06
444.034	833.06
444.255	848.06
444.476	878.06
444.698	929.06
444.919	955.06
445.14	986.06
445.361	931.06
445.582	838.06
445.803	791.06
446.024	777.06
446.245	757.06
446.466	794.06
446.687	729.06
446.908	753.06
447.129	725.06
447.35	703.06
447.571	722.06
447.792	715.06
448.013	713.06
448.234	679.06
448.455	697.06
448.675	691.06
448.896	676.06
449.117	682.06
449.338	680.06
449.559	647.06
449.779	670.06
450	644.06
450.221	641.06
450.442	670.06
450.662	672.06
450.883	688.06
451.104	710.06
451.324	673.06
451.545	667.06
451.766	676.06
451.986	694.06
452.207	695.06
452.428	658.06
452.648	674.06
452.869	644.06
453.089	648.06
453.31	665.06
453.53	662.06
453.751	661.06
453.971	659.06
454.192	649.06
454.412	646.06
454.633	647.06
454.853	626.06
455.073	660.06
455.294	635.06
455.514	644.06
455.734	642.06
455.955	627.06
456.175	604.06
456.395	628.06
456.616	634.06
456.836	631.06
457.056	666.06
457.276	633.06
457.497	639.06
457.717	644.06
457.937	668.06
458.157	617.06
458.377	641.06
458.598	654.06
458.818	697.06
459.038	694.06
459.258	725.06
459.478	735.06
459.698	788.06
459.918	763.06
460.138	810.06
460.358	843.06
460.578	862.06
460.798	876.06
461.018	859.06
461.238	844.06
461.458	854.06
461.678	855.06
461.898	871.06
462.118	854.06
462.338	913.06
462.558	927.06
462.777	970.06
462.997	1031.06
463.217	1113.06
463.437	1113.06
463.657	1064.06
463.876	1006.06
464.096	994.06
464.316	977.06
464.536	998.06
464.755	952.06
464.975	931.06
465.195	871.06
465.414	858.06
465.634	814.06
465.854	750.06
466.073	723.06
466.293	736.06
466.512	735.06
466.732	731.06
466.951	710.06
467.171	706.06
467.391	703.06
467.61	695.06
467.829	686.06
468.049	720.06
468.268	699.06
468.488	674.06
468.707	670.06
468.927	690.06
469.146	683.06
469.365	718.06
469.585	696.06
469.804	720.06
470.023	726.06
470.243	728.06
470.462	730.06
470.681	728.06
470.901	710.06
471.12	724.06
471.339	734.06
471.558	710.06
471.777	687.06
471.997	694.06
472.216	690.06
472.435	676.06
472.654	665.06
472.873	660.06
473.092	656.06
473.311	671.06
473.53	683.06
473.749	665.06
473.968	649.06
474.187	646.06
474.406	658.06
474.625	689.06
474.844	645.06
475.063	686.06
475.282	668.06
475.501	679.06
475.72	671.06
475.939	683.06
476.158	697.06
476.377	666.06
476.596	703.06
476.814	691.06
477.033	707.06
477.252	716.06
477.471	734.06
477.69	775.06
477.908	766.06
478.127	771.06
478.346	790.06
478.564	792.06
478.783	833.06
479.002	830.06
479.22	833.06
479.439	824.06
479.658	824.06
479.876	837.06
480.095	845.06
480.313	858.06
480.532	878.06
480.751	874.06
480.969	824.06
481.188	818.06
481.406	807.06
481.624	798.06
481.843	768.06
482.061	746.06
482.28	754.06
482.498	763.06
482.717	728.06
482.935	736.06
483.153	775.06
483.372	794.06
483.59	755.06
483.808	767.06
484.027	763.06
484.245	744.06
484.463	778.06
484.681	800.06
484.9	775.06
485.118	780.06
485.336	790.06
485.554	772.06
485.772	787.06
485.99	813.06
486.209	806.06
486.427	796.06
486.645	785.06
486.863	779.06
487.081	796.06
487.299	795.06
487.517	774.06
487.735	808.06
487.953	816.06
488.171	807.06
488.389	806.06
488.607	777.06
488.825	783.06
489.043	773.06
489.261	793.06
489.479	795.06
489.696	798.06
489.914	810.06
490.132	791.06
490.35	799.06
490.568	808.06
490.786	832.06
491.003	803.06
491.221	783.06
491.439	807.06
491.657	814.06
491.874	836.06
492.092	831.06
492.31	832.06
492.527	832.06
492.745	825.06
492.963	838.06
493.18	807.06
493.398	838.06
493.615	843.06
493.833	834.06
494.05	856.06
494.268	855.06
494.485	888.06
494.703	838.06
494.92	875.06
495.138	874.06
495.355	827.06
495.573	816.06
495.79	857.06
496.008	866.06
496.225	883.06
496.442	908.06
496.66	890.06
496.877	903.06
497.094	923.06
497.312	923.06
497.529	950.06
497.746	956.06
497.963	995.06
498.181	1019.06
498.398	1105.06
498.615	1144.06
498.832	1182.06
499.049	1252.06
499.267	1398.06
499.484	1513.06
499.701	1665.06
499.918	1791.06
500.135	2070.06
500.352	2277.06
500.569	2370.06
500.786	2379.06
501.003	2232.06
501.22	1990.06
