Data from NiCl2@0.0625M.TitratingCurve.Agarose3%dH2O.NegLispCup.LampEnergy10.LIBS07252019_HRD10591_18-35-04-576.txt Node
Date: Thu Jul 25 18:35:04 EDT 2019
User: cochatt
Spectrometer: HR+D1059
Trigger mode: 1
Integration Time (sec): 1.000000E-1
Scans to average: 1
Electric dark correction enabled: true
Nonlinearity correction enabled: false
Boxcar width: 0
XAxis mode: Wavelengths
Number of Pixels in Spectrum: 2048
>>>>>Begin Spectral Data<<<<<
223.165	-15.25
223.4	-15.25
223.635	-15.25
223.869	-23.25
224.104	-22.25
224.338	-15.25
224.573	2.75
224.808	-18.25
225.042	0.75
225.277	-12.25
225.511	-13.25
225.746	4.75
225.98	9.75
226.215	16.75
226.449	23.75
226.683	19.75
226.918	17.75
227.152	23.75
227.387	39.75
227.621	43.75
227.856	48.75
228.09	43.75
228.324	52.75
228.559	40.75
228.793	81.75
229.027	141.75
229.262	147.75
229.496	140.75
229.73	166.75
229.964	169.75
230.199	173.75
230.433	157.75
230.667	190.75
230.901	181.75
231.136	189.75
231.37	181.75
231.604	176.75
231.838	206.75
232.072	199.75
232.306	200.75
232.541	184.75
232.775	202.75
233.009	205.75
233.243	193.75
233.477	206.75
233.711	188.75
233.945	202.75
234.179	184.75
234.413	203.75
234.647	219.75
234.881	202.75
235.115	204.75
235.349	192.75
235.583	214.75
235.817	208.75
236.051	229.75
236.285	213.75
236.519	220.75
236.753	220.75
236.987	234.75
237.221	247.75
237.455	236.75
237.689	226.75
237.922	244.75
238.156	239.75
238.39	237.75
238.624	233.75
238.858	248.75
239.091	258.75
239.325	262.75
239.559	247.75
239.793	254.75
240.027	267.75
240.26	267.75
240.494	277.75
240.728	268.75
240.961	284.75
241.195	287.75
241.429	295.75
241.662	290.75
241.896	291.75
242.13	271.75
242.363	304.75
242.597	272.75
242.83	294.75
243.064	293.75
243.298	308.75
243.531	308.75
243.765	304.75
243.998	303.75
244.232	300.75
244.465	315.75
244.699	330.75
244.932	323.75
245.166	344.75
245.399	316.75
245.633	327.75
245.866	343.75
246.099	334.75
246.333	336.75
246.566	329.75
246.8	348.75
247.033	334.75
247.266	350.75
247.5	353.75
247.733	345.75
247.966	344.75
248.2	349.75
248.433	340.75
248.666	357.75
248.899	370.75
249.133	386.75
249.366	387.75
249.599	392.75
249.832	367.75
250.066	380.75
250.299	396.75
250.532	392.75
250.765	411.75
250.998	403.75
251.231	403.75
251.465	414.75
251.698	418.75
251.931	426.75
252.164	422.75
252.397	404.75
252.63	419.75
252.863	430.75
253.096	417.75
253.329	450.75
253.562	442.75
253.795	422.75
254.028	438.75
254.261	446.75
254.494	437.75
254.727	436.75
254.96	447.75
255.193	444.75
255.426	440.75
255.659	450.75
255.892	451.75
256.124	461.75
256.357	456.75
256.59	455.75
256.823	475.75
257.056	463.75
257.289	461.75
257.521	459.75
257.754	475.75
257.987	462.75
258.22	482.75
258.452	471.75
258.685	482.75
258.918	481.75
259.151	485.75
259.383	516.75
259.616	476.75
259.849	470.75
260.081	510.75
260.314	502.75
260.547	515.75
260.779	494.75
261.012	517.75
261.244	509.75
261.477	532.75
261.71	511.75
261.942	524.75
262.175	519.75
262.407	527.75
262.64	531.75
262.872	538.75
263.105	536.75
263.337	537.75
263.57	540.75
263.802	558.75
264.035	529.75
264.267	548.75
264.499	554.75
264.732	544.75
264.964	571.75
265.197	574.75
265.429	547.75
265.661	578.75
265.894	571.75
266.126	595.75
266.358	570.75
266.591	566.75
266.823	588.75
267.055	564.75
267.287	588.75
267.52	582.75
267.752	584.75
267.984	592.75
268.216	600.75
268.448	582.75
268.681	586.75
268.913	611.75
269.145	610.75
269.377	616.75
269.609	598.75
269.841	607.75
270.073	620.75
270.306	591.75
270.538	620.75
270.77	627.75
271.002	616.75
271.234	628.75
271.466	635.75
271.698	622.75
271.93	654.75
272.162	637.75
272.394	635.75
272.626	649.75
272.858	663.75
273.09	643.75
273.322	660.75
273.553	629.75
273.785	638.75
274.017	654.75
274.249	645.75
274.481	652.75
274.713	677.75
274.945	670.75
275.176	694.75
275.408	698.75
275.64	682.75
275.872	690.75
276.104	695.75
276.335	680.75
276.567	682.75
276.799	720.75
277.031	710.75
277.262	682.75
277.494	698.75
277.726	698.75
277.957	710.75
278.189	709.75
278.421	697.75
278.652	711.75
278.884	714.75
279.115	735.75
279.347	727.75
279.579	723.75
279.81	752.75
280.042	743.75
280.273	727.75
280.505	755.75
280.736	748.75
280.968	748.75
281.199	740.75
281.431	777.75
281.662	779.75
281.894	769.75
282.125	770.75
282.356	785.75
282.588	759.75
282.819	794.75
283.051	778.75
283.282	777.75
283.513	790.75
283.745	810.75
283.976	787.75
284.207	802.75
284.439	802.75
284.67	818.75
284.901	809.75
285.132	772.75
285.364	802.75
285.595	812.75
285.826	835.75
286.057	800.75
286.288	814.75
286.52	822.75
286.751	829.75
286.982	830.75
287.213	841.75
287.444	853.75
287.675	818.75
287.906	859.75
288.138	829.75
288.369	840.75
288.6	861.75
288.831	862.75
289.062	854.75
289.293	831.75
289.524	869.75
289.755	839.75
289.986	838.75
290.217	859.75
290.448	859.75
290.679	875.75
290.91	864.75
291.141	857.75
291.371	874.75
291.602	883.75
291.833	859.75
292.064	874.75
292.295	842.75
292.526	849.75
292.757	867.75
292.987	863.75
293.218	848.75
293.449	879.75
293.68	853.75
293.91	872.75
294.141	877.75
294.372	875.75
294.603	906.75
294.833	878.75
295.064	889.75
295.295	922.75
295.525	888.75
295.756	874.75
295.987	869.75
296.217	915.75
296.448	861.75
296.679	883.75
296.909	906.75
297.14	899.75
297.37	918.75
297.601	918.75
297.831	917.75
298.062	905.75
298.292	922.75
298.523	944.75
298.753	941.75
298.984	926.75
299.214	925.75
299.445	913.75
299.675	939.75
299.905	920.75
300.136	939.75
300.366	967.75
300.597	962.75
300.827	979.75
301.057	1008.75
301.288	983.75
301.518	972.75
301.748	974.75
301.979	991.75
302.209	1002.75
302.439	979.75
302.669	1005.75
302.9	1010.75
303.13	958.75
303.36	992.75
303.59	1000.75
303.82	980.75
304.051	983.75
304.281	1000.75
304.511	987.75
304.741	1000.75
304.971	1000.75
305.201	995.75
305.431	983.75
305.661	974.75
305.891	991.75
306.121	993.75
306.352	992.75
306.582	977.75
306.812	943.75
307.042	985.75
307.272	972.75
307.502	976.75
307.731	983.75
307.961	968.75
308.191	970.75
308.421	984.75
308.651	1001.75
308.881	978.75
309.111	990.75
309.341	995.75
309.571	971.75
309.8	980.75
310.03	989.75
310.26	1015.75
310.49	996.75
310.72	981.75
310.949	983.75
311.179	1000.75
311.409	971.75
311.639	1006.75
311.868	1012.75
312.098	992.75
312.328	1031.75
312.557	1016.75
312.787	1049.75
313.017	1020.75
313.246	1012.75
313.476	1037.75
313.706	1076.75
313.935	1057.75
314.165	1092.75
314.394	1058.75
314.624	1098.75
314.853	1065.75
315.083	1066.75
315.312	1055.75
315.542	1058.75
315.771	1052.75
316.001	1068.75
316.23	1066.75
316.46	1044.75
316.689	1046.75
316.919	1032.75
317.148	1042.75
317.377	1043.75
317.607	1069.75
317.836	1039.75
318.065	1042.75
318.295	1049.75
318.524	1058.75
318.753	1037.75
318.983	1044.75
319.212	1058.75
319.441	1011.75
319.67	1063.75
319.9	1036.75
320.129	1045.75
320.358	1035.75
320.587	1034.75
320.816	1056.75
321.046	1054.75
321.275	1054.75
321.504	1050.75
321.733	1044.75
321.962	1050.75
322.191	1059.75
322.42	1075.75
322.649	1070.75
322.878	1082.75
323.108	1044.75
323.337	1056.75
323.566	1058.75
323.795	1099.75
324.024	1092.75
324.253	1078.75
324.482	1094.75
324.71	1104.75
324.939	1093.75
325.168	1103.75
325.397	1107.75
325.626	1124.75
325.855	1128.75
326.084	1111.75
326.313	1135.75
326.542	1159.75
326.77	1154.75
326.999	1135.75
327.228	1129.75
327.457	1107.75
327.686	1139.75
327.914	1116.75
328.143	1142.75
328.372	1118.75
328.6	1126.75
328.829	1145.75
329.058	1136.75
329.287	1107.75
329.515	1154.75
329.744	1151.75
329.972	1184.75
330.201	1157.75
330.43	1168.75
330.658	1162.75
330.887	1177.75
331.115	1165.75
331.344	1191.75
331.572	1192.75
331.801	1214.75
332.03	1243.75
332.258	1266.75
332.486	1249.75
332.715	1333.75
332.943	1382.75
333.172	1391.75
333.4	1432.75
333.629	1432.75
333.857	1492.75
334.085	1490.75
334.314	1509.75
334.542	1459.75
334.771	1427.75
334.999	1428.75
335.227	1438.75
335.455	1404.75
335.684	1371.75
335.912	1400.75
336.14	1386.75
336.369	1394.75
336.597	1374.75
336.825	1391.75
337.053	1384.75
337.281	1343.75
337.51	1314.75
337.738	1329.75
337.966	1311.75
338.194	1294.75
338.422	1252.75
338.65	1247.75
338.878	1260.75
339.106	1261.75
339.334	1257.75
339.562	1242.75
339.79	1219.75
340.018	1230.75
340.246	1161.75
340.474	1173.75
340.702	1196.75
340.93	1200.75
341.158	1196.75
341.386	1188.75
341.614	1220.75
341.842	1168.75
342.07	1174.75
342.298	1174.75
342.526	1190.75
342.754	1214.75
342.981	1228.75
343.209	1204.75
343.437	1261.75
343.665	1311.75
343.893	1378.75
344.12	1396.75
344.348	1405.75
344.576	1334.75
344.804	1295.75
345.031	1257.75
345.259	1229.75
345.487	1237.75
345.714	1206.75
345.942	1198.75
346.17	1197.75
346.397	1176.75
346.625	1152.75
346.853	1152.75
347.08	1147.75
347.308	1155.75
347.535	1164.75
347.763	1181.75
347.99	1126.75
348.218	1141.75
348.445	1144.75
348.673	1131.75
348.9	1144.75
349.128	1168.75
349.355	1134.75
349.583	1170.75
349.81	1145.75
350.037	1141.75
350.265	1096.75
350.492	1117.75
350.72	1136.75
350.947	1110.75
351.174	1113.75
351.402	1143.75
351.629	1122.75
351.856	1154.75
352.083	1128.75
352.311	1100.75
352.538	1101.75
352.765	1140.75
352.992	1115.75
353.22	1093.75
353.447	1071.75
353.674	1085.75
353.901	1071.75
354.128	1097.75
354.355	1064.75
354.583	1086.75
354.81	1104.75
355.037	1096.75
355.264	1098.75
355.491	1087.75
355.718	1132.75
355.945	1109.75
356.172	1109.75
356.399	1121.75
356.626	1123.75
356.853	1151.75
357.08	1116.75
357.307	1115.75
357.534	1105.75
357.761	1128.75
357.988	1131.75
358.215	1113.75
358.441	1109.75
358.668	1099.75
358.895	1139.75
359.122	1094.75
359.349	1102.75
359.576	1098.75
359.802	1124.75
360.029	1129.75
360.256	1146.75
360.483	1105.75
360.709	1128.75
360.936	1140.75
361.163	1124.75
361.39	1107.75
361.616	1105.75
361.843	1108.75
362.07	1114.75
362.296	1129.75
362.523	1127.75
362.749	1100.75
362.976	1104.75
363.203	1103.75
363.429	1126.75
363.656	1143.75
363.882	1129.75
364.109	1112.75
364.335	1088.75
364.562	1112.75
364.788	1125.75
365.015	1088.75
365.241	1124.75
365.468	1126.75
365.694	1105.75
365.92	1102.75
366.147	1103.75
366.373	1124.75
366.599	1123.75
366.826	1132.75
367.052	1101.75
367.278	1148.75
367.505	1128.75
367.731	1144.75
367.957	1146.75
368.184	1141.75
368.41	1160.75
368.636	1089.75
368.862	1159.75
369.089	1166.75
369.315	1162.75
369.541	1154.75
369.767	1158.75
369.993	1146.75
370.219	1160.75
370.445	1162.75
370.672	1189.75
370.898	1158.75
371.124	1199.75
371.35	1223.75
371.576	1222.75
371.802	1183.75
372.028	1225.75
372.254	1241.75
372.48	1234.75
372.706	1252.75
372.932	1261.75
373.158	1246.75
373.384	1216.75
373.61	1187.75
373.835	1208.75
374.061	1236.75
374.287	1215.75
374.513	1223.75
374.739	1263.75
374.965	1309.75
375.191	1353.75
375.416	1291.75
375.642	1271.75
375.868	1254.75
376.094	1241.75
376.319	1220.75
376.545	1205.75
376.771	1215.75
376.997	1223.75
377.222	1203.75
377.448	1211.75
377.674	1202.75
377.899	1181.75
378.125	1192.75
378.35	1187.75
378.576	1195.75
378.802	1202.75
379.027	1227.75
379.253	1194.75
379.478	1151.75
379.704	1169.75
379.929	1182.75
380.155	1188.75
380.38	1191.75
380.606	1187.75
380.831	1220.75
381.057	1196.75
381.282	1207.75
381.507	1206.75
381.733	1224.75
381.958	1171.75
382.184	1210.75
382.409	1248.75
382.634	1251.75
382.86	1251.75
383.085	1263.75
383.31	1278.75
383.535	1291.75
383.761	1304.75
383.986	1334.75
384.211	1317.75
384.436	1357.75
384.662	1353.75
384.887	1418.75
385.112	1403.75
385.337	1394.75
385.562	1388.75
385.787	1426.75
386.013	1420.75
386.238	1436.75
386.463	1431.75
386.688	1448.75
386.913	1431.75
387.138	1447.75
387.363	1446.75
387.588	1412.75
387.813	1404.75
388.038	1415.75
388.263	1403.75
388.488	1433.75
388.713	1454.75
388.938	1471.75
389.163	1414.75
389.387	1415.75
389.612	1407.75
389.837	1436.75
390.062	1374.75
390.287	1413.75
390.512	1414.75
390.736	1419.75
390.961	1455.75
391.186	1471.75
391.411	1511.75
391.636	1557.75
391.86	1576.75
392.085	1601.75
392.31	1602.75
392.534	1553.75
392.759	1545.75
392.984	1514.75
393.208	1501.75
393.433	1522.75
393.658	1511.75
393.882	1534.75
394.107	1532.75
394.331	1519.75
394.556	1520.75
394.78	1510.75
395.005	1502.75
395.229	1544.75
395.454	1555.75
395.678	1620.75
395.903	1599.75
396.127	1586.75
396.352	1525.75
396.576	1514.75
396.801	1543.75
397.025	1579.75
397.249	1601.75
397.474	1622.75
397.698	1643.75
397.922	1640.75
398.147	1626.75
398.371	1649.75
398.595	1696.75
398.82	1787.75
399.044	1865.75
399.268	2038.75
399.492	2250.75
399.717	2457.75
399.941	2486.75
400.165	2332.75
400.389	2106.75
400.613	1976.75
400.837	1908.75
401.062	1896.75
401.286	1835.75
401.51	1820.75
401.734	1780.75
401.958	1806.75
402.182	1831.75
402.406	1815.75
402.63	1840.75
402.854	1856.75
403.078	1821.75
403.302	1920.75
403.526	1886.75
403.75	1930.75
403.974	1978.75
404.198	1968.75
404.422	1959.75
404.645	1936.75
404.869	1899.75
405.093	1942.75
405.317	1937.75
405.541	1954.75
405.765	1951.75
405.988	1922.75
406.212	1946.75
406.436	1915.75
406.66	1976.75
406.883	1975.75
407.107	2088.75
407.331	2152.75
407.555	2232.75
407.778	2266.75
408.002	2186.75
408.226	2176.75
408.449	2096.75
408.673	2064.75
408.896	2064.75
409.12	2021.75
409.344	1992.75
409.567	1972.75
409.791	1964.75
410.014	1978.75
410.238	1956.75
410.461	1951.75
410.685	1971.75
410.908	1945.75
411.132	1909.75
411.355	1838.75
411.578	1854.75
411.802	1833.75
412.025	1850.75
412.249	1877.75
412.472	1880.75
412.695	1829.75
412.919	1820.75
413.142	1751.75
413.365	1790.75
413.589	1798.75
413.812	1771.75
414.035	1780.75
414.258	1780.75
414.482	1799.75
414.705	1830.75
414.928	1759.75
415.151	1801.75
415.374	1779.75
415.597	1788.75
415.821	1752.75
416.044	1707.75
416.267	1733.75
416.49	1738.75
416.713	1712.75
416.936	1741.75
417.159	1694.75
417.382	1690.75
417.605	1718.75
417.828	1723.75
418.051	1740.75
418.274	1721.75
418.497	1722.75
418.72	1767.75
418.943	1751.75
419.166	1858.75
419.389	1993.75
419.611	1970.75
419.834	1860.75
420.057	1808.75
420.28	1745.75
420.503	1726.75
420.726	1694.75
420.948	1668.75
421.171	1721.75
421.394	1705.75
421.617	1695.75
421.839	1692.75
422.062	1734.75
422.285	1703.75
422.507	1758.75
422.73	1794.75
422.953	1774.75
423.175	1748.75
423.398	1759.75
423.621	1770.75
423.843	1763.75
424.066	1757.75
424.288	1767.75
424.511	1758.75
424.733	1782.75
424.956	1719.75
425.178	1733.75
425.401	1753.75
425.623	1734.75
425.846	1650.75
426.068	1709.75
426.291	1670.75
426.513	1648.75
426.735	1650.75
426.958	1622.75
427.18	1590.75
427.402	1600.75
427.625	1624.75
427.847	1597.75
428.069	1552.75
428.292	1579.75
428.514	1601.75
428.736	1551.75
428.958	1582.75
429.181	1507.75
429.403	1538.75
429.625	1568.75
429.847	1534.75
430.069	1501.75
430.292	1579.75
430.514	1513.75
430.736	1566.75
430.958	1537.75
431.18	1577.75
431.402	1583.75
431.624	1574.75
431.846	1590.75
432.068	1587.75
432.29	1594.75
432.512	1585.75
432.734	1587.75
432.956	1589.75
433.178	1576.75
433.4	1599.75
433.622	1620.75
433.844	1644.75
434.066	1631.75
434.287	1622.75
434.509	1668.75
434.731	1718.75
434.953	1755.75
435.175	1694.75
435.397	1703.75
435.618	1687.75
435.84	1646.75
436.062	1564.75
436.284	1591.75
436.505	1590.75
436.727	1562.75
436.949	1559.75
437.17	1554.75
437.392	1509.75
437.614	1506.75
437.835	1513.75
438.057	1494.75
438.278	1487.75
438.5	1488.75
438.721	1509.75
438.943	1521.75
439.165	1479.75
439.386	1476.75
439.608	1545.75
439.829	1547.75
440.05	1541.75
440.272	1527.75
440.493	1517.75
440.715	1589.75
440.936	1587.75
441.158	1619.75
441.379	1614.75
441.6	1708.75
441.822	1720.75
442.043	1734.75
442.264	1677.75
442.486	1662.75
442.707	1657.75
442.928	1623.75
443.149	1683.75
443.371	1673.75
443.592	1693.75
443.813	1717.75
444.034	1720.75
444.255	1800.75
444.476	1856.75
444.698	1891.75
444.919	1941.75
445.14	2002.75
445.361	1903.75
445.582	1746.75
445.803	1707.75
446.024	1684.75
446.245	1650.75
446.466	1548.75
446.687	1550.75
446.908	1574.75
447.129	1555.75
447.35	1477.75
447.571	1486.75
447.792	1442.75
448.013	1442.75
448.234	1412.75
448.455	1414.75
448.675	1378.75
448.896	1420.75
449.117	1370.75
449.338	1375.75
449.559	1390.75
449.779	1384.75
450	1354.75
450.221	1383.75
450.442	1407.75
450.662	1408.75
450.883	1394.75
451.104	1422.75
451.324	1396.75
451.545	1387.75
451.766	1396.75
451.986	1386.75
452.207	1417.75
452.428	1383.75
452.648	1364.75
452.869	1335.75
453.089	1320.75
453.31	1382.75
453.53	1338.75
453.751	1337.75
453.971	1332.75
454.192	1341.75
454.412	1298.75
454.633	1319.75
454.853	1325.75
455.073	1319.75
455.294	1325.75
455.514	1316.75
455.734	1334.75
455.955	1314.75
456.175	1284.75
456.395	1297.75
456.616	1298.75
456.836	1318.75
457.056	1327.75
457.276	1287.75
457.497	1315.75
457.717	1357.75
457.937	1366.75
458.157	1351.75
458.377	1398.75
458.598	1394.75
458.818	1437.75
459.038	1444.75
459.258	1485.75
459.478	1505.75
459.698	1587.75
459.918	1607.75
460.138	1683.75
460.358	1672.75
460.578	1731.75
460.798	1768.75
461.018	1772.75
461.238	1759.75
461.458	1768.75
461.678	1750.75
461.898	1806.75
462.118	1785.75
462.338	1864.75
462.558	1910.75
462.777	2019.75
462.997	2116.75
463.217	2243.75
463.437	2237.75
463.657	2131.75
463.876	2047.75
464.096	2042.75
464.316	2016.75
464.536	1976.75
464.755	1930.75
464.975	1917.75
465.195	1813.75
465.414	1739.75
465.634	1661.75
465.854	1594.75
466.073	1558.75
466.293	1529.75
466.512	1554.75
466.732	1481.75
466.951	1453.75
467.171	1465.75
467.391	1472.75
467.61	1452.75
467.829	1424.75
468.049	1454.75
468.268	1412.75
468.488	1407.75
468.707	1384.75
468.927	1425.75
469.146	1404.75
469.365	1398.75
469.585	1417.75
469.804	1438.75
470.023	1500.75
470.243	1490.75
470.462	1520.75
470.681	1506.75
470.901	1485.75
471.12	1494.75
471.339	1456.75
471.558	1462.75
471.777	1479.75
471.997	1428.75
472.216	1437.75
472.435	1418.75
472.654	1394.75
472.873	1397.75
473.092	1427.75
473.311	1398.75
473.53	1402.75
473.749	1411.75
473.968	1394.75
474.187	1362.75
474.406	1401.75
474.625	1419.75
474.844	1417.75
475.063	1413.75
475.282	1423.75
475.501	1412.75
475.72	1443.75
475.939	1431.75
476.158	1448.75
476.377	1469.75
476.596	1438.75
476.814	1501.75
477.033	1488.75
477.252	1549.75
477.471	1567.75
477.69	1559.75
477.908	1572.75
478.127	1655.75
478.346	1644.75
478.564	1677.75
478.783	1711.75
479.002	1704.75
479.22	1739.75
479.439	1758.75
479.658	1726.75
479.876	1765.75
480.095	1804.75
480.313	1871.75
480.532	1830.75
480.751	1858.75
480.969	1818.75
481.188	1752.75
481.406	1754.75
481.624	1691.75
481.843	1716.75
482.061	1681.75
482.28	1672.75
482.498	1688.75
482.717	1665.75
482.935	1711.75
483.153	1696.75
483.372	1712.75
483.59	1715.75
483.808	1722.75
484.027	1719.75
484.245	1732.75
484.463	1766.75
484.681	1824.75
484.9	1839.75
485.118	1802.75
485.336	1894.75
485.554	1867.75
485.772	1859.75
485.99	1868.75
486.209	1856.75
486.427	1876.75
486.645	1812.75
486.863	1870.75
487.081	1838.75
487.299	1832.75
487.517	1831.75
487.735	1841.75
487.953	1826.75
488.171	1803.75
488.389	1818.75
488.607	1770.75
488.825	1753.75
489.043	1760.75
489.261	1775.75
489.479	1774.75
489.696	1726.75
489.914	1755.75
490.132	1772.75
490.35	1764.75
490.568	1793.75
