Data from NiCl2@0.25M.TitratingCurve.Agarose3%dH2O.NegLispCup.LampEnergy10.LIBS07252019_HRD10591_18-23-21-572.txt Node
Date: Thu Jul 25 18:23:21 EDT 2019
User: cochatt
Spectrometer: HR+D1059
Trigger mode: 1
Integration Time (sec): 1.000000E-1
Scans to average: 1
Electric dark correction enabled: true
Nonlinearity correction enabled: false
Boxcar width: 0
XAxis mode: Wavelengths
Number of Pixels in Spectrum: 2048
>>>>>Begin Spectral Data<<<<<
223.165	-12.56
223.4	-12.56
223.635	-12.56
223.869	-5.56
224.104	-14.56
224.338	-10.56
224.573	-10.56
224.808	-8.56
225.042	-12.56
225.277	-21.56
225.511	-3.56
225.746	-0.56
225.98	-0.56
226.215	19.44
226.449	14.44
226.683	16.44
226.918	27.44
227.152	23.44
227.387	21.44
227.621	46.44
227.856	52.44
228.09	19.44
228.324	71.44
228.559	67.44
228.793	70.44
229.027	96.44
229.262	101.44
229.496	119.44
229.73	113.44
229.964	114.44
230.199	105.44
230.433	122.44
230.667	117.44
230.901	131.44
231.136	132.44
231.37	131.44
231.604	146.44
231.838	137.44
232.072	127.44
232.306	144.44
232.541	127.44
232.775	129.44
233.009	135.44
233.243	140.44
233.477	146.44
233.711	141.44
233.945	140.44
234.179	155.44
234.413	163.44
234.647	147.44
234.881	125.44
235.115	147.44
235.349	146.44
235.583	147.44
235.817	145.44
236.051	147.44
236.285	141.44
236.519	149.44
236.753	146.44
236.987	133.44
237.221	143.44
237.455	144.44
237.689	138.44
237.922	155.44
238.156	164.44
238.39	145.44
238.624	164.44
238.858	163.44
239.091	158.44
239.325	148.44
239.559	153.44
239.793	166.44
240.027	167.44
240.26	166.44
240.494	156.44
240.728	163.44
240.961	164.44
241.195	165.44
241.429	167.44
241.662	173.44
241.896	176.44
242.13	181.44
242.363	173.44
242.597	173.44
242.83	163.44
243.064	183.44
243.298	184.44
243.531	183.44
243.765	198.44
243.998	193.44
244.232	189.44
244.465	191.44
244.699	173.44
244.932	206.44
245.166	188.44
245.399	182.44
245.633	198.44
245.866	198.44
246.099	196.44
246.333	196.44
246.566	202.44
246.8	189.44
247.033	199.44
247.266	209.44
247.5	194.44
247.733	206.44
247.966	221.44
248.2	201.44
248.433	212.44
248.666	207.44
248.899	206.44
249.133	207.44
249.366	210.44
249.599	214.44
249.832	230.44
250.066	229.44
250.299	244.44
250.532	237.44
250.765	227.44
250.998	229.44
251.231	231.44
251.465	236.44
251.698	218.44
251.931	222.44
252.164	240.44
252.397	235.44
252.63	229.44
252.863	237.44
253.096	242.44
253.329	257.44
253.562	238.44
253.795	240.44
254.028	250.44
254.261	250.44
254.494	217.44
254.727	243.44
254.96	247.44
255.193	246.44
255.426	242.44
255.659	262.44
255.892	260.44
256.124	241.44
256.357	257.44
256.59	262.44
256.823	260.44
257.056	256.44
257.289	271.44
257.521	276.44
257.754	270.44
257.987	258.44
258.22	270.44
258.452	271.44
258.685	270.44
258.918	262.44
259.151	267.44
259.383	278.44
259.616	259.44
259.849	277.44
260.081	277.44
260.314	274.44
260.547	285.44
260.779	286.44
261.012	287.44
261.244	297.44
261.477	290.44
261.71	271.44
261.942	296.44
262.175	276.44
262.407	287.44
262.64	295.44
262.872	291.44
263.105	279.44
263.337	325.44
263.57	292.44
263.802	311.44
264.035	308.44
264.267	297.44
264.499	301.44
264.732	286.44
264.964	305.44
265.197	301.44
265.429	324.44
265.661	320.44
265.894	332.44
266.126	309.44
266.358	305.44
266.591	314.44
266.823	326.44
267.055	314.44
267.287	322.44
267.52	298.44
267.752	322.44
267.984	329.44
268.216	316.44
268.448	331.44
268.681	322.44
268.913	319.44
269.145	345.44
269.377	330.44
269.609	344.44
269.841	335.44
270.073	315.44
270.306	327.44
270.538	327.44
270.77	353.44
271.002	313.44
271.234	333.44
271.466	335.44
271.698	347.44
271.93	334.44
272.162	344.44
272.394	344.44
272.626	344.44
272.858	340.44
273.09	360.44
273.322	330.44
273.553	357.44
273.785	366.44
274.017	353.44
274.249	368.44
274.481	369.44
274.713	370.44
274.945	369.44
275.176	378.44
275.408	354.44
275.64	358.44
275.872	356.44
276.104	381.44
276.335	363.44
276.567	374.44
276.799	353.44
277.031	362.44
277.262	365.44
277.494	361.44
277.726	374.44
277.957	361.44
278.189	379.44
278.421	359.44
278.652	366.44
278.884	399.44
279.115	381.44
279.347	384.44
279.579	378.44
279.81	379.44
280.042	389.44
280.273	393.44
280.505	404.44
280.736	398.44
280.968	401.44
281.199	408.44
281.431	423.44
281.662	403.44
281.894	412.44
282.125	387.44
282.356	443.44
282.588	419.44
282.819	429.44
283.051	421.44
283.282	412.44
283.513	407.44
283.745	424.44
283.976	410.44
284.207	424.44
284.439	406.44
284.67	424.44
284.901	421.44
285.132	419.44
285.364	411.44
285.595	445.44
285.826	431.44
286.057	449.44
286.288	427.44
286.52	473.44
286.751	438.44
286.982	428.44
287.213	456.44
287.444	444.44
287.675	424.44
287.906	465.44
288.138	441.44
288.369	435.44
288.6	453.44
288.831	449.44
289.062	439.44
289.293	457.44
289.524	474.44
289.755	466.44
289.986	457.44
290.217	460.44
290.448	452.44
290.679	454.44
290.91	453.44
291.141	469.44
291.371	442.44
291.602	460.44
291.833	479.44
292.064	466.44
292.295	459.44
292.526	466.44
292.757	458.44
292.987	468.44
293.218	481.44
293.449	450.44
293.68	441.44
293.91	456.44
294.141	459.44
294.372	478.44
294.603	481.44
294.833	457.44
295.064	475.44
295.295	487.44
295.525	481.44
295.756	473.44
295.987	460.44
296.217	480.44
296.448	484.44
296.679	472.44
296.909	484.44
297.14	485.44
297.37	517.44
297.601	478.44
297.831	526.44
298.062	521.44
298.292	510.44
298.523	490.44
298.753	503.44
298.984	486.44
299.214	497.44
299.445	491.44
299.675	507.44
299.905	509.44
300.136	501.44
300.366	503.44
300.597	498.44
300.827	512.44
301.057	524.44
301.288	517.44
301.518	534.44
301.748	538.44
301.979	535.44
302.209	540.44
302.439	508.44
302.669	508.44
302.9	516.44
303.13	526.44
303.36	509.44
303.59	510.44
303.82	497.44
304.051	519.44
304.281	539.44
304.511	518.44
304.741	519.44
304.971	517.44
305.201	532.44
305.431	534.44
305.661	522.44
305.891	503.44
306.121	518.44
306.352	525.44
306.582	540.44
306.812	524.44
307.042	525.44
307.272	522.44
307.502	511.44
307.731	507.44
307.961	512.44
308.191	519.44
308.421	519.44
308.651	534.44
308.881	539.44
309.111	557.44
309.341	526.44
309.571	540.44
309.8	521.44
310.03	503.44
310.26	519.44
310.49	506.44
310.72	535.44
310.949	529.44
311.179	539.44
311.409	520.44
311.639	542.44
311.868	555.44
312.098	549.44
312.328	549.44
312.557	548.44
312.787	546.44
313.017	546.44
313.246	521.44
313.476	563.44
313.706	567.44
313.935	564.44
314.165	591.44
314.394	591.44
314.624	552.44
314.853	541.44
315.083	536.44
315.312	561.44
315.542	563.44
315.771	562.44
316.001	537.44
316.23	542.44
316.46	545.44
316.689	550.44
316.919	561.44
317.148	546.44
317.377	565.44
317.607	576.44
317.836	545.44
318.065	555.44
318.295	542.44
318.524	564.44
318.753	553.44
318.983	551.44
319.212	545.44
319.441	554.44
319.67	570.44
319.9	570.44
320.129	550.44
320.358	565.44
320.587	549.44
320.816	558.44
321.046	567.44
321.275	550.44
321.504	576.44
321.733	561.44
321.962	585.44
322.191	559.44
322.42	547.44
322.649	570.44
322.878	555.44
323.108	558.44
323.337	589.44
323.566	579.44
323.795	559.44
324.024	573.44
324.253	577.44
324.482	563.44
324.71	595.44
324.939	554.44
325.168	583.44
325.397	595.44
325.626	607.44
325.855	588.44
326.084	600.44
326.313	614.44
326.542	614.44
326.77	617.44
326.999	591.44
327.228	616.44
327.457	600.44
327.686	585.44
327.914	602.44
328.143	603.44
328.372	605.44
328.6	585.44
328.829	637.44
329.058	611.44
329.287	610.44
329.515	609.44
329.744	612.44
329.972	630.44
330.201	635.44
330.43	619.44
330.658	617.44
330.887	647.44
331.115	632.44
331.344	640.44
331.572	640.44
331.801	649.44
332.03	680.44
332.258	688.44
332.486	702.44
332.715	706.44
332.943	726.44
333.172	743.44
333.4	776.44
333.629	809.44
333.857	815.44
334.085	805.44
334.314	789.44
334.542	783.44
334.771	753.44
334.999	763.44
335.227	750.44
335.455	753.44
335.684	765.44
335.912	757.44
336.14	741.44
336.369	733.44
336.597	723.44
336.825	729.44
337.053	718.44
337.281	730.44
337.51	695.44
337.738	686.44
337.966	685.44
338.194	664.44
338.422	661.44
338.65	654.44
338.878	673.44
339.106	674.44
339.334	684.44
339.562	657.44
339.79	691.44
340.018	639.44
340.246	636.44
340.474	653.44
340.702	642.44
340.93	625.44
341.158	654.44
341.386	669.44
341.614	643.44
341.842	627.44
342.07	606.44
342.298	637.44
342.526	635.44
342.754	637.44
342.981	648.44
343.209	655.44
343.437	686.44
343.665	729.44
343.893	744.44
344.12	761.44
344.348	768.44
344.576	710.44
344.804	686.44
345.031	653.44
345.259	667.44
345.487	651.44
345.714	650.44
345.942	641.44
346.17	633.44
346.397	615.44
346.625	631.44
346.853	632.44
347.08	611.44
347.308	634.44
347.535	639.44
347.763	602.44
347.99	606.44
348.218	621.44
348.445	623.44
348.673	614.44
348.9	602.44
349.128	597.44
349.355	606.44
349.583	617.44
349.81	606.44
350.037	613.44
350.265	607.44
350.492	600.44
350.72	605.44
350.947	581.44
351.174	586.44
351.402	607.44
351.629	610.44
351.856	609.44
352.083	599.44
352.311	606.44
352.538	602.44
352.765	601.44
352.992	586.44
353.22	591.44
353.447	588.44
353.674	580.44
353.901	595.44
354.128	584.44
354.355	605.44
354.583	585.44
354.81	610.44
355.037	600.44
355.264	619.44
355.491	596.44
355.718	588.44
355.945	608.44
356.172	584.44
356.399	581.44
356.626	602.44
356.853	634.44
357.08	609.44
357.307	623.44
357.534	600.44
357.761	616.44
357.988	588.44
358.215	599.44
358.441	610.44
358.668	598.44
358.895	610.44
359.122	610.44
359.349	594.44
359.576	586.44
359.802	600.44
360.029	586.44
360.256	627.44
360.483	601.44
360.709	591.44
360.936	609.44
361.163	612.44
361.39	609.44
361.616	616.44
361.843	593.44
362.07	603.44
362.296	611.44
362.523	601.44
362.749	609.44
362.976	619.44
363.203	583.44
363.429	601.44
363.656	626.44
363.882	617.44
364.109	618.44
364.335	606.44
364.562	584.44
364.788	615.44
365.015	610.44
365.241	611.44
365.468	620.44
365.694	591.44
365.92	610.44
366.147	595.44
366.373	573.44
366.599	588.44
366.826	591.44
367.052	580.44
367.278	613.44
367.505	613.44
367.731	605.44
367.957	616.44
368.184	603.44
368.41	618.44
368.636	619.44
368.862	614.44
369.089	627.44
369.315	633.44
369.541	633.44
369.767	636.44
369.993	628.44
370.219	619.44
370.445	618.44
370.672	636.44
370.898	625.44
371.124	651.44
371.35	660.44
371.576	653.44
371.802	623.44
372.028	659.44
372.254	662.44
372.48	641.44
372.706	669.44
372.932	669.44
373.158	696.44
373.384	663.44
373.61	638.44
373.835	655.44
374.061	636.44
374.287	661.44
374.513	659.44
374.739	717.44
374.965	699.44
375.191	718.44
375.416	709.44
375.642	714.44
375.868	699.44
376.094	682.44
376.319	675.44
376.545	646.44
376.771	655.44
376.997	661.44
377.222	641.44
377.448	639.44
377.674	665.44
377.899	642.44
378.125	669.44
378.35	655.44
378.576	645.44
378.802	648.44
379.027	661.44
379.253	656.44
379.478	619.44
379.704	635.44
379.929	636.44
380.155	629.44
380.38	641.44
380.606	648.44
380.831	653.44
381.057	644.44
381.282	646.44
381.507	642.44
381.733	673.44
381.958	682.44
382.184	675.44
382.409	692.44
382.634	682.44
382.86	690.44
383.085	695.44
383.31	716.44
383.535	697.44
383.761	731.44
383.986	732.44
384.211	750.44
384.436	733.44
384.662	772.44
384.887	757.44
385.112	773.44
385.337	773.44
385.562	785.44
385.787	776.44
386.013	795.44
386.238	805.44
386.463	758.44
386.688	792.44
386.913	775.44
387.138	766.44
387.363	753.44
387.588	767.44
387.813	759.44
388.038	745.44
388.263	757.44
388.488	768.44
388.713	754.44
388.938	748.44
389.163	761.44
389.387	756.44
389.612	783.44
389.837	738.44
390.062	750.44
390.287	755.44
390.512	777.44
390.736	770.44
390.961	787.44
391.186	801.44
391.411	839.44
391.636	838.44
391.86	833.44
392.085	875.44
392.31	876.44
392.534	830.44
392.759	818.44
392.984	817.44
393.208	836.44
393.433	818.44
393.658	829.44
393.882	827.44
394.107	804.44
394.331	810.44
394.556	847.44
394.78	830.44
395.005	828.44
395.229	842.44
395.454	861.44
395.678	842.44
395.903	846.44
396.127	860.44
396.352	821.44
396.576	837.44
396.801	838.44
397.025	809.44
397.249	828.44
397.474	886.44
397.698	881.44
397.922	888.44
398.147	878.44
398.371	897.44
398.595	925.44
398.82	967.44
399.044	1034.44
399.268	1126.44
399.492	1277.44
399.717	1407.44
399.941	1406.44
400.165	1272.44
400.389	1165.44
400.613	1061.44
400.837	1001.44
401.062	995.44
401.286	956.44
401.51	934.44
401.734	954.44
401.958	983.44
402.182	994.44
402.406	989.44
402.63	991.44
402.854	1016.44
403.078	1070.44
403.302	1045.44
403.526	1046.44
403.75	1117.44
403.974	1111.44
404.198	1089.44
404.422	1079.44
404.645	1094.44
404.869	1074.44
405.093	1097.44
405.317	1073.44
405.541	1047.44
405.765	1043.44
405.988	1023.44
406.212	1029.44
406.436	1032.44
406.66	1059.44
406.883	1055.44
407.107	1141.44
407.331	1208.44
407.555	1222.44
407.778	1206.44
408.002	1227.44
408.226	1150.44
408.449	1157.44
408.673	1064.44
408.896	1103.44
409.12	1081.44
409.344	1080.44
409.567	1057.44
409.791	1073.44
410.014	1074.44
410.238	1036.44
410.461	1054.44
410.685	1037.44
410.908	1006.44
411.132	1003.44
411.355	1002.44
411.578	987.44
411.802	984.44
412.025	985.44
412.249	1019.44
412.472	984.44
412.695	999.44
412.919	929.44
413.142	938.44
413.365	975.44
413.589	979.44
413.812	956.44
414.035	974.44
414.258	945.44
414.482	959.44
414.705	973.44
414.928	979.44
415.151	985.44
415.374	956.44
415.597	931.44
415.821	967.44
416.044	920.44
416.267	960.44
416.49	958.44
416.713	925.44
416.936	931.44
417.159	917.44
417.382	907.44
417.605	928.44
417.828	945.44
418.051	946.44
418.274	938.44
418.497	937.44
418.72	973.44
418.943	963.44
419.166	1016.44
419.389	1086.44
419.611	1077.44
419.834	1024.44
420.057	974.44
420.28	962.44
420.503	944.44
420.726	941.44
420.948	931.44
421.171	951.44
421.394	941.44
421.617	924.44
421.839	947.44
422.062	958.44
422.285	915.44
422.507	960.44
422.73	981.44
422.953	986.44
423.175	972.44
423.398	979.44
423.621	976.44
423.843	1002.44
424.066	1017.44
424.288	990.44
424.511	982.44
424.733	968.44
424.956	991.44
425.178	961.44
425.401	952.44
425.623	937.44
425.846	949.44
426.068	925.44
426.291	903.44
426.513	910.44
426.735	893.44
426.958	879.44
427.18	860.44
427.402	854.44
427.625	881.44
427.847	866.44
428.069	865.44
428.292	837.44
428.514	860.44
428.736	826.44
428.958	842.44
429.181	836.44
429.403	801.44
429.625	824.44
429.847	833.44
430.069	812.44
430.292	839.44
430.514	821.44
430.736	825.44
430.958	826.44
431.18	847.44
431.402	819.44
431.624	826.44
431.846	841.44
432.068	854.44
432.29	885.44
432.512	837.44
432.734	832.44
432.956	866.44
433.178	846.44
433.4	849.44
433.622	848.44
433.844	870.44
434.066	858.44
434.287	873.44
434.509	893.44
434.731	910.44
434.953	923.44
435.175	949.44
435.397	948.44
435.618	898.44
435.84	870.44
436.062	836.44
436.284	844.44
436.505	859.44
436.727	827.44
436.949	847.44
437.17	854.44
437.392	860.44
437.614	827.44
437.835	812.44
438.057	810.44
438.278	807.44
438.5	783.44
438.721	812.44
438.943	829.44
439.165	799.44
439.386	825.44
439.608	829.44
439.829	823.44
440.05	831.44
440.272	839.44
440.493	853.44
440.715	849.44
440.936	867.44
441.158	888.44
441.379	903.44
441.6	923.44
441.822	942.44
442.043	947.44
442.264	937.44
442.486	912.44
442.707	929.44
442.928	908.44
443.149	913.44
443.371	946.44
443.592	941.44
443.813	938.44
444.034	963.44
444.255	974.44
444.476	1010.44
444.698	1068.44
444.919	1090.44
445.14	1192.44
445.361	1047.44
445.582	966.44
445.803	927.44
446.024	888.44
446.245	877.44
446.466	874.44
446.687	852.44
446.908	863.44
447.129	811.44
447.35	824.44
447.571	819.44
447.792	779.44
448.013	795.44
448.234	770.44
448.455	792.44
448.675	780.44
448.896	803.44
449.117	769.44
449.338	777.44
449.559	757.44
449.779	746.44
450	771.44
450.221	775.44
450.442	783.44
450.662	772.44
450.883	793.44
451.104	783.44
451.324	803.44
451.545	795.44
451.766	782.44
451.986	783.44
452.207	768.44
452.428	773.44
452.648	788.44
452.869	747.44
453.089	737.44
453.31	747.44
453.53	762.44
453.751	725.44
453.971	745.44
454.192	760.44
454.412	725.44
454.633	709.44
454.853	741.44
455.073	717.44
455.294	729.44
455.514	721.44
455.734	726.44
455.955	716.44
456.175	725.44
456.395	702.44
456.616	717.44
456.836	741.44
457.056	728.44
457.276	713.44
457.497	730.44
457.717	734.44
457.937	734.44
458.157	759.44
458.377	737.44
458.598	763.44
458.818	783.44
459.038	772.44
459.258	824.44
459.478	830.44
459.698	875.44
459.918	897.44
460.138	921.44
460.358	981.44
460.578	991.44
460.798	987.44
461.018	979.44
461.238	990.44
461.458	966.44
461.678	992.44
461.898	1002.44
462.118	980.44
462.338	1034.44
462.558	1029.44
462.777	1109.44
462.997	1193.44
463.217	1289.44
463.437	1257.44
463.657	1193.44
463.876	1109.44
464.096	1131.44
464.316	1126.44
464.536	1143.44
464.755	1116.44
464.975	1068.44
465.195	1049.44
465.414	959.44
465.634	895.44
465.854	891.44
466.073	883.44
466.293	855.44
466.512	828.44
466.732	851.44
466.951	827.44
467.171	795.44
467.391	836.44
467.61	830.44
467.829	784.44
468.049	813.44
468.268	766.44
468.488	758.44
468.707	782.44
468.927	794.44
469.146	789.44
469.365	800.44
469.585	785.44
469.804	838.44
470.023	832.44
470.243	817.44
470.462	821.44
470.681	829.44
470.901	859.44
471.12	845.44
471.339	793.44
471.558	805.44
471.777	804.44
471.997	763.44
472.216	789.44
472.435	813.44
472.654	788.44
472.873	766.44
473.092	762.44
473.311	768.44
473.53	759.44
473.749	749.44
473.968	754.44
474.187	737.44
474.406	777.44
474.625	771.44
474.844	757.44
475.063	799.44
475.282	791.44
475.501	769.44
475.72	793.44
475.939	766.44
476.158	799.44
476.377	803.44
476.596	786.44
476.814	778.44
477.033	818.44
477.252	818.44
477.471	818.44
477.69	848.44
477.908	901.44
478.127	903.44
478.346	908.44
478.564	930.44
478.783	931.44
479.002	942.44
479.22	958.44
479.439	916.44
479.658	952.44
479.876	948.44
480.095	957.44
480.313	981.44
480.532	1046.44
480.751	1005.44
480.969	986.44
481.188	947.44
481.406	926.44
481.624	905.44
481.843	897.44
482.061	903.44
482.28	859.44
482.498	889.44
482.717	881.44
482.935	903.44
483.153	907.44
483.372	869.44
483.59	904.44
483.808	909.44
484.027	888.44
484.245	873.44
484.463	901.44
484.681	915.44
484.9	894.44
485.118	868.44
485.336	921.44
485.554	897.44
485.772	926.44
485.99	939.44
486.209	899.44
486.427	931.44
486.645	940.44
486.863	917.44
487.081	919.44
487.299	914.44
487.517	913.44
487.735	927.44
487.953	924.44
488.171	917.44
488.389	928.44
488.607	927.44
488.825	901.44
489.043	910.44
489.261	917.44
489.479	915.44
489.696	913.44
489.914	930.44
490.132	962.44
490.35	926.44
490.568	923.44
490.786	937.44
491.003	922.44
491.221	961.44
491.439	961.44
491.657	935.44
491.874	933.44
492.092	953.44
492.31	961.44
492.527	954.44
492.745	951.44
492.963	980.44
493.18	965.44
493.398	941.44
493.615	959.44
493.833	969.44
494.05	968.44
494.268	988.44
494.485	971.44
494.703	1004.44
494.92	993.44
495.138	983.44
495.355	960.44
495.573	979.44
495.79	995.44
496.008	1015.44
496.225	1000.44
496.442	1043.44
496.66	1054.44
496.877	994.44
497.094	1041.44
497.312	1056.44
497.529	1099.44
497.746	1126.44
497.963	1167.44
498.181	1211.44
498.398	1271.44
498.615	1321.44
498.832	1379.44
499.049	1502.44
499.267	1621.44
499.484	1740.44
499.701	1949.44
499.918	2149.44
500.135	2406.44
500.352	2659.44
