Data from NiCl2@0.125M.TitratingCurve.Agarose3%dH2O.NegLispCup.LampEnergy10.LIBS07252019_HRD10591_18-29-18-574.txt Node
Date: Thu Jul 25 18:29:18 EDT 2019
User: cochatt
Spectrometer: HR+D1059
Trigger mode: 1
Integration Time (sec): 1.000000E-1
Scans to average: 1
Electric dark correction enabled: true
Nonlinearity correction enabled: false
Boxcar width: 0
XAxis mode: Wavelengths
Number of Pixels in Spectrum: 2048
>>>>>Begin Spectral Data<<<<<
223.165	-9.94
223.4	-9.94
223.635	-9.94
223.869	-12.94
224.104	-27.94
224.338	-21.94
224.573	-24.94
224.808	-16.94
225.042	-3.94
225.277	-11.94
225.511	1.06
225.746	1.06
225.98	19.06
226.215	13.06
226.449	10.06
226.683	25.06
226.918	32.06
227.152	29.06
227.387	25.06
227.621	46.06
227.856	54.06
228.09	55.06
228.324	49.06
228.559	45.06
228.793	59.06
229.027	110.06
229.262	108.06
229.496	105.06
229.73	114.06
229.964	122.06
230.199	133.06
230.433	137.06
230.667	126.06
230.901	135.06
231.136	134.06
231.37	136.06
231.604	146.06
231.838	139.06
232.072	141.06
232.306	151.06
232.541	146.06
232.775	126.06
233.009	156.06
233.243	140.06
233.477	146.06
233.711	164.06
233.945	142.06
234.179	161.06
234.413	156.06
234.647	150.06
234.881	151.06
235.115	163.06
235.349	147.06
235.583	156.06
235.817	154.06
236.051	172.06
236.285	150.06
236.519	162.06
236.753	154.06
236.987	170.06
237.221	147.06
237.455	155.06
237.689	160.06
237.922	180.06
238.156	157.06
238.39	151.06
238.624	165.06
238.858	165.06
239.091	144.06
239.325	165.06
239.559	164.06
239.793	181.06
240.027	166.06
240.26	169.06
240.494	174.06
240.728	175.06
240.961	163.06
241.195	176.06
241.429	190.06
241.662	164.06
241.896	178.06
242.13	183.06
242.363	192.06
242.597	192.06
242.83	192.06
243.064	194.06
243.298	208.06
243.531	196.06
243.765	185.06
243.998	199.06
244.232	191.06
244.465	199.06
244.699	206.06
244.932	204.06
245.166	200.06
245.399	202.06
245.633	221.06
245.866	224.06
246.099	215.06
246.333	214.06
246.566	221.06
246.8	224.06
247.033	211.06
247.266	211.06
247.5	223.06
247.733	216.06
247.966	214.06
248.2	229.06
248.433	242.06
248.666	229.06
248.899	234.06
249.133	232.06
249.366	242.06
249.599	255.06
249.832	253.06
250.066	250.06
250.299	219.06
250.532	234.06
250.765	263.06
250.998	262.06
251.231	221.06
251.465	262.06
251.698	244.06
251.931	276.06
252.164	282.06
252.397	265.06
252.63	266.06
252.863	272.06
253.096	260.06
253.329	258.06
253.562	276.06
253.795	286.06
254.028	275.06
254.261	269.06
254.494	271.06
254.727	283.06
254.96	273.06
255.193	267.06
255.426	268.06
255.659	281.06
255.892	276.06
256.124	284.06
256.357	280.06
256.59	294.06
256.823	288.06
257.056	292.06
257.289	290.06
257.521	291.06
257.754	288.06
257.987	298.06
258.22	286.06
258.452	303.06
258.685	289.06
258.918	292.06
259.151	308.06
259.383	298.06
259.616	277.06
259.849	277.06
260.081	293.06
260.314	304.06
260.547	291.06
260.779	309.06
261.012	320.06
261.244	300.06
261.477	315.06
261.71	318.06
261.942	326.06
262.175	294.06
262.407	326.06
262.64	317.06
262.872	318.06
263.105	341.06
263.337	317.06
263.57	326.06
263.802	329.06
264.035	308.06
264.267	334.06
264.499	311.06
264.732	346.06
264.964	355.06
265.197	330.06
265.429	330.06
265.661	338.06
265.894	340.06
266.126	346.06
266.358	334.06
266.591	342.06
266.823	343.06
267.055	350.06
267.287	347.06
267.52	340.06
267.752	366.06
267.984	354.06
268.216	363.06
268.448	364.06
268.681	364.06
268.913	353.06
269.145	363.06
269.377	345.06
269.609	361.06
269.841	350.06
270.073	372.06
270.306	363.06
270.538	342.06
270.77	342.06
271.002	358.06
271.234	373.06
271.466	349.06
271.698	362.06
271.93	351.06
272.162	361.06
272.394	354.06
272.626	362.06
272.858	376.06
273.09	379.06
273.322	382.06
273.553	384.06
273.785	370.06
274.017	406.06
274.249	400.06
274.481	379.06
274.713	373.06
274.945	370.06
275.176	392.06
275.408	393.06
275.64	407.06
275.872	412.06
276.104	389.06
276.335	380.06
276.567	390.06
276.799	391.06
277.031	416.06
277.262	384.06
277.494	397.06
277.726	393.06
277.957	414.06
278.189	396.06
278.421	415.06
278.652	412.06
278.884	404.06
279.115	419.06
279.347	412.06
279.579	429.06
279.81	424.06
280.042	441.06
280.273	428.06
280.505	403.06
280.736	398.06
280.968	419.06
281.199	422.06
281.431	427.06
281.662	446.06
281.894	423.06
282.125	458.06
282.356	450.06
282.588	448.06
282.819	450.06
283.051	446.06
283.282	444.06
283.513	446.06
283.745	462.06
283.976	453.06
284.207	458.06
284.439	452.06
284.67	462.06
284.901	468.06
285.132	456.06
285.364	483.06
285.595	476.06
285.826	451.06
286.057	438.06
286.288	494.06
286.52	455.06
286.751	479.06
286.982	477.06
287.213	463.06
287.444	467.06
287.675	489.06
287.906	472.06
288.138	490.06
288.369	496.06
288.6	455.06
288.831	472.06
289.062	494.06
289.293	479.06
289.524	487.06
289.755	502.06
289.986	489.06
290.217	496.06
290.448	503.06
290.679	514.06
290.91	494.06
291.141	494.06
291.371	501.06
291.602	477.06
291.833	500.06
292.064	510.06
292.295	498.06
292.526	482.06
292.757	480.06
292.987	490.06
293.218	505.06
293.449	506.06
293.68	509.06
293.91	478.06
294.141	481.06
294.372	517.06
294.603	497.06
294.833	484.06
295.064	498.06
295.295	488.06
295.525	494.06
295.756	510.06
295.987	492.06
296.217	521.06
296.448	520.06
296.679	504.06
296.909	515.06
297.14	527.06
297.37	536.06
297.601	543.06
297.831	526.06
298.062	554.06
298.292	574.06
298.523	572.06
298.753	551.06
298.984	542.06
299.214	559.06
299.445	547.06
299.675	532.06
299.905	569.06
300.136	534.06
300.366	535.06
300.597	571.06
300.827	538.06
301.057	564.06
301.288	559.06
301.518	555.06
301.748	567.06
301.979	576.06
302.209	576.06
302.439	580.06
302.669	569.06
302.9	547.06
303.13	562.06
303.36	568.06
303.59	563.06
303.82	566.06
304.051	546.06
304.281	552.06
304.511	560.06
304.741	567.06
304.971	558.06
305.201	555.06
305.431	564.06
305.661	556.06
305.891	532.06
306.121	553.06
306.352	556.06
306.582	542.06
306.812	524.06
307.042	554.06
307.272	563.06
307.502	552.06
307.731	531.06
307.961	536.06
308.191	538.06
308.421	518.06
308.651	533.06
308.881	551.06
309.111	548.06
309.341	538.06
309.571	544.06
309.8	551.06
310.03	574.06
310.26	531.06
310.49	552.06
310.72	563.06
310.949	556.06
311.179	540.06
311.409	540.06
311.639	543.06
311.868	569.06
312.098	558.06
312.328	571.06
312.557	566.06
312.787	572.06
313.017	572.06
313.246	591.06
313.476	586.06
313.706	592.06
313.935	575.06
314.165	579.06
314.394	580.06
314.624	613.06
314.853	576.06
315.083	558.06
315.312	574.06
315.542	586.06
315.771	580.06
316.001	559.06
316.23	573.06
316.46	562.06
316.689	578.06
316.919	576.06
317.148	570.06
317.377	565.06
317.607	571.06
317.836	572.06
318.065	558.06
318.295	568.06
318.524	548.06
318.753	572.06
318.983	552.06
319.212	549.06
319.441	576.06
319.67	552.06
319.9	549.06
320.129	549.06
320.358	574.06
320.587	556.06
320.816	577.06
321.046	588.06
321.275	580.06
321.504	570.06
321.733	576.06
321.962	575.06
322.191	574.06
322.42	591.06
322.649	566.06
322.878	573.06
323.108	578.06
323.337	587.06
323.566	576.06
323.795	579.06
324.024	578.06
324.253	582.06
324.482	586.06
324.71	600.06
324.939	589.06
325.168	568.06
325.397	568.06
325.626	585.06
325.855	609.06
326.084	611.06
326.313	617.06
326.542	629.06
326.77	634.06
326.999	648.06
327.228	614.06
327.457	596.06
327.686	610.06
327.914	617.06
328.143	615.06
328.372	618.06
328.6	598.06
328.829	596.06
329.058	612.06
329.287	607.06
329.515	606.06
329.744	644.06
329.972	611.06
330.201	630.06
330.43	640.06
330.658	622.06
330.887	668.06
331.115	659.06
331.344	658.06
331.572	658.06
331.801	627.06
332.03	648.06
332.258	670.06
332.486	733.06
332.715	716.06
332.943	745.06
333.172	771.06
333.4	852.06
333.629	862.06
333.857	880.06
334.085	855.06
334.314	805.06
334.542	809.06
334.771	772.06
334.999	781.06
335.227	775.06
335.455	780.06
335.684	782.06
335.912	769.06
336.14	769.06
336.369	720.06
336.597	735.06
336.825	748.06
337.053	737.06
337.281	730.06
337.51	708.06
337.738	713.06
337.966	685.06
338.194	671.06
338.422	685.06
338.65	671.06
338.878	694.06
339.106	678.06
339.334	683.06
339.562	652.06
339.79	640.06
340.018	612.06
340.246	624.06
340.474	652.06
340.702	632.06
340.93	649.06
341.158	641.06
341.386	659.06
341.614	636.06
341.842	618.06
342.07	611.06
342.298	624.06
342.526	639.06
342.754	633.06
342.981	628.06
343.209	647.06
343.437	662.06
343.665	712.06
343.893	779.06
344.12	812.06
344.348	790.06
344.576	751.06
344.804	711.06
345.031	650.06
345.259	646.06
345.487	650.06
345.714	653.06
345.942	635.06
346.17	644.06
346.397	618.06
346.625	630.06
346.853	636.06
347.08	624.06
347.308	628.06
347.535	663.06
347.763	651.06
347.99	650.06
348.218	655.06
348.445	645.06
348.673	620.06
348.9	629.06
349.128	619.06
349.355	630.06
349.583	606.06
349.81	617.06
350.037	622.06
350.265	598.06
350.492	596.06
350.72	624.06
350.947	596.06
351.174	586.06
351.402	603.06
351.629	591.06
351.856	596.06
352.083	614.06
352.311	586.06
352.538	591.06
352.765	598.06
352.992	594.06
353.22	572.06
353.447	599.06
353.674	587.06
353.901	579.06
354.128	610.06
354.355	574.06
354.583	588.06
354.81	602.06
355.037	611.06
355.264	593.06
355.491	611.06
355.718	598.06
355.945	596.06
356.172	597.06
356.399	598.06
356.626	619.06
356.853	628.06
357.08	600.06
357.307	580.06
357.534	611.06
357.761	602.06
357.988	587.06
358.215	610.06
358.441	582.06
358.668	599.06
358.895	607.06
359.122	597.06
359.349	580.06
359.576	600.06
359.802	594.06
360.029	602.06
360.256	581.06
360.483	595.06
360.709	596.06
360.936	591.06
361.163	595.06
361.39	604.06
361.616	630.06
361.843	585.06
362.07	600.06
362.296	599.06
362.523	582.06
362.749	592.06
362.976	596.06
363.203	590.06
363.429	592.06
363.656	600.06
363.882	596.06
364.109	594.06
364.335	593.06
364.562	588.06
364.788	586.06
365.015	615.06
365.241	588.06
365.468	607.06
365.694	619.06
365.92	593.06
366.147	589.06
366.373	607.06
366.599	589.06
366.826	578.06
367.052	588.06
367.278	615.06
367.505	570.06
367.731	608.06
367.957	618.06
368.184	607.06
368.41	578.06
368.636	600.06
368.862	616.06
369.089	600.06
369.315	626.06
369.541	621.06
369.767	621.06
369.993	607.06
370.219	610.06
370.445	618.06
370.672	614.06
370.898	648.06
371.124	657.06
371.35	638.06
371.576	680.06
371.802	653.06
372.028	654.06
372.254	652.06
372.48	652.06
372.706	684.06
372.932	694.06
373.158	694.06
373.384	657.06
373.61	643.06
373.835	664.06
374.061	646.06
374.287	651.06
374.513	686.06
374.739	681.06
374.965	706.06
375.191	741.06
375.416	730.06
375.642	694.06
375.868	693.06
376.094	700.06
376.319	694.06
376.545	655.06
376.771	663.06
376.997	671.06
377.222	682.06
377.448	655.06
377.674	678.06
377.899	683.06
378.125	652.06
378.35	634.06
378.576	643.06
378.802	678.06
379.027	644.06
379.253	654.06
379.478	669.06
379.704	650.06
379.929	623.06
380.155	651.06
380.38	662.06
380.606	634.06
380.831	651.06
381.057	640.06
381.282	646.06
381.507	659.06
381.733	656.06
381.958	652.06
382.184	644.06
382.409	666.06
382.634	672.06
382.86	661.06
383.085	695.06
383.31	698.06
383.535	724.06
383.761	692.06
383.986	762.06
384.211	746.06
384.436	763.06
384.662	771.06
384.887	797.06
385.112	783.06
385.337	801.06
385.562	813.06
385.787	787.06
386.013	818.06
386.238	805.06
386.463	803.06
386.688	796.06
386.913	761.06
387.138	783.06
387.363	778.06
387.588	763.06
387.813	730.06
388.038	758.06
388.263	770.06
388.488	773.06
388.713	790.06
388.938	763.06
389.163	751.06
389.387	750.06
389.612	736.06
389.837	752.06
390.062	778.06
390.287	740.06
390.512	778.06
390.736	778.06
390.961	805.06
391.186	791.06
391.411	836.06
391.636	852.06
391.86	870.06
392.085	899.06
392.31	897.06
392.534	879.06
392.759	846.06
392.984	847.06
393.208	803.06
393.433	836.06
393.658	857.06
393.882	869.06
394.107	818.06
394.331	826.06
394.556	831.06
394.78	827.06
395.005	861.06
395.229	862.06
395.454	863.06
395.678	882.06
395.903	882.06
396.127	868.06
396.352	843.06
396.576	832.06
396.801	806.06
397.025	833.06
397.249	837.06
397.474	872.06
397.698	880.06
397.922	893.06
398.147	868.06
398.371	885.06
398.595	908.06
398.82	979.06
399.044	1002.06
399.268	1146.06
399.492	1340.06
399.717	1533.06
399.941	1563.06
400.165	1343.06
400.389	1194.06
400.613	1117.06
400.837	1040.06
401.062	998.06
401.286	996.06
401.51	965.06
401.734	977.06
401.958	973.06
402.182	1004.06
402.406	1044.06
402.63	1038.06
402.854	1057.06
403.078	1080.06
403.302	1096.06
403.526	1147.06
403.75	1113.06
403.974	1160.06
404.198	1160.06
404.422	1193.06
404.645	1127.06
404.869	1128.06
405.093	1148.06
405.317	1140.06
405.541	1099.06
405.765	1094.06
405.988	1095.06
406.212	1094.06
406.436	1099.06
406.66	1109.06
406.883	1117.06
407.107	1197.06
407.331	1247.06
407.555	1360.06
407.778	1271.06
408.002	1296.06
408.226	1195.06
408.449	1189.06
408.673	1146.06
408.896	1131.06
409.12	1102.06
409.344	1109.06
409.567	1147.06
409.791	1131.06
410.014	1144.06
410.238	1110.06
410.461	1125.06
410.685	1109.06
410.908	1082.06
411.132	1037.06
411.355	1013.06
411.578	1000.06
411.802	1044.06
412.025	1011.06
412.249	1032.06
412.472	1045.06
412.695	1028.06
412.919	963.06
413.142	982.06
413.365	989.06
413.589	1026.06
413.812	971.06
414.035	954.06
414.258	984.06
414.482	1012.06
414.705	1026.06
414.928	1035.06
415.151	993.06
415.374	994.06
415.597	999.06
415.821	966.06
416.044	954.06
416.267	948.06
416.49	963.06
416.713	981.06
416.936	944.06
417.159	960.06
417.382	976.06
417.605	981.06
417.828	983.06
418.051	999.06
418.274	991.06
418.497	984.06
418.72	1038.06
418.943	1001.06
419.166	1069.06
419.389	1148.06
419.611	1156.06
419.834	1098.06
420.057	1054.06
420.28	1015.06
420.503	1000.06
420.726	994.06
420.948	976.06
421.171	964.06
421.394	953.06
421.617	983.06
421.839	992.06
422.062	993.06
422.285	982.06
422.507	1001.06
422.73	1006.06
422.953	1016.06
423.175	1035.06
423.398	1054.06
423.621	1055.06
423.843	1096.06
424.066	1104.06
424.288	1080.06
424.511	1047.06
424.733	1043.06
424.956	1030.06
425.178	1010.06
425.401	999.06
425.623	982.06
425.846	954.06
426.068	962.06
426.291	964.06
426.513	900.06
426.735	908.06
426.958	927.06
427.18	884.06
427.402	891.06
427.625	914.06
427.847	875.06
428.069	892.06
428.292	900.06
428.514	879.06
428.736	887.06
428.958	868.06
429.181	859.06
429.403	862.06
429.625	866.06
429.847	827.06
430.069	833.06
430.292	869.06
430.514	874.06
430.736	854.06
430.958	856.06
431.18	875.06
431.402	868.06
431.624	844.06
431.846	859.06
432.068	896.06
432.29	902.06
432.512	892.06
432.734	904.06
432.956	867.06
433.178	884.06
433.4	894.06
433.622	894.06
433.844	878.06
434.066	859.06
434.287	889.06
434.509	944.06
434.731	924.06
434.953	981.06
435.175	1002.06
435.397	987.06
435.618	908.06
435.84	909.06
436.062	916.06
436.284	879.06
436.505	888.06
436.727	880.06
436.949	910.06
437.17	885.06
437.392	866.06
437.614	842.06
437.835	830.06
438.057	853.06
438.278	842.06
438.5	852.06
438.721	855.06
438.943	851.06
439.165	892.06
439.386	879.06
439.608	868.06
439.829	871.06
440.05	886.06
440.272	910.06
440.493	902.06
440.715	877.06
440.936	922.06
441.158	931.06
441.379	970.06
441.6	1042.06
441.822	1026.06
442.043	1035.06
442.264	1001.06
442.486	985.06
442.707	966.06
442.928	981.06
443.149	1006.06
443.371	976.06
443.592	973.06
443.813	999.06
444.034	1027.06
444.255	1059.06
444.476	1114.06
444.698	1178.06
444.919	1220.06
445.14	1282.06
445.361	1158.06
445.582	1055.06
445.803	986.06
446.024	944.06
446.245	934.06
446.466	940.06
446.687	908.06
446.908	897.06
447.129	858.06
447.35	896.06
447.571	844.06
447.792	833.06
448.013	836.06
448.234	826.06
448.455	847.06
448.675	814.06
448.896	828.06
449.117	815.06
449.338	821.06
449.559	802.06
449.779	800.06
450	786.06
450.221	817.06
450.442	814.06
450.662	822.06
450.883	849.06
451.104	834.06
451.324	841.06
451.545	869.06
451.766	838.06
451.986	836.06
452.207	845.06
452.428	806.06
452.648	827.06
452.869	826.06
453.089	814.06
453.31	828.06
453.53	815.06
453.751	832.06
453.971	804.06
454.192	822.06
454.412	790.06
454.633	792.06
454.853	795.06
455.073	798.06
455.294	774.06
455.514	760.06
455.734	766.06
455.955	751.06
456.175	760.06
456.395	764.06
456.616	782.06
456.836	772.06
457.056	764.06
457.276	749.06
457.497	773.06
457.717	754.06
457.937	758.06
458.157	754.06
458.377	799.06
458.598	808.06
458.818	795.06
459.038	818.06
459.258	849.06
459.478	871.06
459.698	939.06
459.918	942.06
460.138	979.06
460.358	1036.06
460.578	1057.06
460.798	1079.06
461.018	1068.06
461.238	1056.06
461.458	1059.06
461.678	1044.06
461.898	1065.06
462.118	1062.06
462.338	1137.06
462.558	1144.06
462.777	1177.06
462.997	1311.06
463.217	1454.06
463.437	1494.06
463.657	1333.06
463.876	1245.06
464.096	1251.06
464.316	1239.06
464.536	1279.06
464.755	1230.06
464.975	1172.06
465.195	1093.06
465.414	1036.06
465.634	964.06
465.854	912.06
466.073	897.06
466.293	910.06
466.512	916.06
466.732	876.06
466.951	861.06
467.171	848.06
467.391	852.06
467.61	888.06
467.829	850.06
468.049	868.06
468.268	829.06
468.488	830.06
468.707	817.06
468.927	830.06
469.146	818.06
469.365	840.06
469.585	846.06
469.804	862.06
470.023	886.06
470.243	882.06
470.462	864.06
470.681	901.06
470.901	898.06
471.12	883.06
471.339	878.06
471.558	857.06
471.777	835.06
471.997	832.06
472.216	820.06
472.435	815.06
472.654	812.06
472.873	781.06
473.092	792.06
473.311	798.06
473.53	799.06
473.749	777.06
473.968	784.06
474.187	793.06
474.406	807.06
474.625	782.06
474.844	814.06
475.063	765.06
475.282	788.06
475.501	812.06
475.72	800.06
475.939	776.06
476.158	831.06
476.377	845.06
476.596	826.06
476.814	835.06
477.033	836.06
477.252	834.06
477.471	840.06
477.69	910.06
477.908	912.06
478.127	951.06
478.346	938.06
478.564	974.06
478.783	931.06
479.002	989.06
479.22	1004.06
479.439	960.06
479.658	981.06
479.876	1009.06
480.095	998.06
480.313	1028.06
480.532	1072.06
480.751	1080.06
480.969	1013.06
481.188	1014.06
481.406	971.06
481.624	934.06
481.843	895.06
482.061	896.06
482.28	872.06
482.498	892.06
482.717	884.06
482.935	869.06
483.153	892.06
483.372	871.06
483.59	892.06
483.808	898.06
484.027	885.06
484.245	906.06
484.463	890.06
484.681	924.06
484.9	891.06
485.118	923.06
485.336	941.06
485.554	956.06
485.772	990.06
485.99	958.06
486.209	980.06
486.427	928.06
486.645	960.06
486.863	954.06
487.081	962.06
487.299	933.06
487.517	954.06
487.735	945.06
487.953	940.06
488.171	935.06
488.389	934.06
488.607	949.06
488.825	916.06
489.043	920.06
489.261	963.06
489.479	938.06
489.696	932.06
489.914	937.06
490.132	922.06
490.35	957.06
490.568	947.06
490.786	937.06
491.003	943.06
491.221	950.06
491.439	951.06
491.657	948.06
491.874	960.06
492.092	948.06
492.31	955.06
492.527	951.06
492.745	970.06
492.963	976.06
493.18	960.06
493.398	977.06
493.615	980.06
493.833	982.06
494.05	991.06
494.268	996.06
494.485	969.06
494.703	985.06
494.92	996.06
495.138	990.06
495.355	983.06
495.573	999.06
495.79	997.06
496.008	1023.06
496.225	994.06
496.442	1015.06
496.66	1015.06
496.877	1043.06
497.094	1006.06
497.312	1061.06
497.529	1094.06
497.746	1119.06
497.963	1112.06
498.181	1200.06
498.398	1239.06
498.615	1318.06
498.832	1422.06
499.049	1566.06
499.267	1658.06
499.484	1803.06
499.701	2022.06
