Data from NiCl2@0.125M.TitratingCurve.Agarose3%dH2O.NegLispCup.LampEnergy10.LIBS07252019_HRD10591_18-28-37-574.txt Node
Date: Thu Jul 25 18:28:37 EDT 2019
User: cochatt
Spectrometer: HR+D1059
Trigger mode: 1
Integration Time (sec): 1.000000E-1
Scans to average: 1
Electric dark correction enabled: true
Nonlinearity correction enabled: false
Boxcar width: 0
XAxis mode: Wavelengths
Number of Pixels in Spectrum: 2048
>>>>>Begin Spectral Data<<<<<
223.165	-24.25
223.4	-24.25
223.635	-24.25
223.869	-9.25
224.104	-26.25
224.338	-27.25
224.573	-19.25
224.808	-10.25
225.042	12.75
225.277	-7.25
225.511	-0.25
225.746	0.75
225.98	6.75
226.215	13.75
226.449	9.75
226.683	13.75
226.918	38.75
227.152	27.75
227.387	40.75
227.621	35.75
227.856	47.75
228.09	55.75
228.324	59.75
228.559	53.75
228.793	70.75
229.027	122.75
229.262	123.75
229.496	110.75
229.73	124.75
229.964	118.75
230.199	142.75
230.433	139.75
230.667	130.75
230.901	139.75
231.136	150.75
231.37	142.75
231.604	147.75
231.838	152.75
232.072	153.75
232.306	147.75
232.541	167.75
232.775	162.75
233.009	169.75
233.243	149.75
233.477	149.75
233.711	159.75
233.945	155.75
234.179	150.75
234.413	150.75
234.647	162.75
234.881	162.75
235.115	165.75
235.349	164.75
235.583	168.75
235.817	163.75
236.051	160.75
236.285	156.75
236.519	156.75
236.753	158.75
236.987	201.75
237.221	176.75
237.455	182.75
237.689	171.75
237.922	188.75
238.156	183.75
238.39	186.75
238.624	186.75
238.858	160.75
239.091	184.75
239.325	186.75
239.559	175.75
239.793	188.75
240.027	190.75
240.26	190.75
240.494	187.75
240.728	190.75
240.961	187.75
241.195	226.75
241.429	202.75
241.662	212.75
241.896	188.75
242.13	211.75
242.363	207.75
242.597	208.75
242.83	213.75
243.064	192.75
243.298	222.75
243.531	215.75
243.765	219.75
243.998	216.75
244.232	218.75
244.465	232.75
244.699	225.75
244.932	215.75
245.166	226.75
245.399	251.75
245.633	250.75
245.866	249.75
246.099	246.75
246.333	242.75
246.566	251.75
246.8	230.75
247.033	234.75
247.266	252.75
247.5	235.75
247.733	243.75
247.966	258.75
248.2	261.75
248.433	267.75
248.666	246.75
248.899	252.75
249.133	249.75
249.366	267.75
249.599	259.75
249.832	273.75
250.066	254.75
250.299	262.75
250.532	266.75
250.765	265.75
250.998	267.75
251.231	279.75
251.465	278.75
251.698	281.75
251.931	295.75
252.164	281.75
252.397	294.75
252.63	295.75
252.863	298.75
253.096	269.75
253.329	290.75
253.562	289.75
253.795	299.75
254.028	292.75
254.261	318.75
254.494	296.75
254.727	292.75
254.96	296.75
255.193	295.75
255.426	296.75
255.659	310.75
255.892	314.75
256.124	304.75
256.357	302.75
256.59	314.75
256.823	308.75
257.056	319.75
257.289	322.75
257.521	323.75
257.754	338.75
257.987	325.75
258.22	327.75
258.452	324.75
258.685	326.75
258.918	317.75
259.151	326.75
259.383	337.75
259.616	346.75
259.849	328.75
260.081	369.75
260.314	353.75
260.547	330.75
260.779	344.75
261.012	340.75
261.244	340.75
261.477	348.75
261.71	336.75
261.942	357.75
262.175	334.75
262.407	357.75
262.64	343.75
262.872	342.75
263.105	361.75
263.337	363.75
263.57	352.75
263.802	371.75
264.035	362.75
264.267	340.75
264.499	377.75
264.732	356.75
264.964	364.75
265.197	364.75
265.429	386.75
265.661	387.75
265.894	385.75
266.126	393.75
266.358	380.75
266.591	388.75
266.823	391.75
267.055	398.75
267.287	385.75
267.52	416.75
267.752	401.75
267.984	395.75
268.216	401.75
268.448	386.75
268.681	386.75
268.913	405.75
269.145	408.75
269.377	400.75
269.609	394.75
269.841	398.75
270.073	403.75
270.306	407.75
270.538	394.75
270.77	418.75
271.002	420.75
271.234	427.75
271.466	402.75
271.698	405.75
271.93	409.75
272.162	400.75
272.394	437.75
272.626	429.75
272.858	414.75
273.09	423.75
273.322	422.75
273.553	435.75
273.785	436.75
274.017	434.75
274.249	436.75
274.481	435.75
274.713	418.75
274.945	471.75
275.176	446.75
275.408	459.75
275.64	460.75
275.872	442.75
276.104	450.75
276.335	462.75
276.567	458.75
276.799	461.75
277.031	463.75
277.262	457.75
277.494	447.75
277.726	478.75
277.957	464.75
278.189	486.75
278.421	452.75
278.652	446.75
278.884	468.75
279.115	473.75
279.347	472.75
279.579	476.75
279.81	464.75
280.042	463.75
280.273	480.75
280.505	482.75
280.736	487.75
280.968	477.75
281.199	504.75
281.431	508.75
281.662	487.75
281.894	483.75
282.125	501.75
282.356	500.75
282.588	502.75
282.819	479.75
283.051	498.75
283.282	486.75
283.513	507.75
283.745	494.75
283.976	495.75
284.207	502.75
284.439	525.75
284.67	509.75
284.901	540.75
285.132	511.75
285.364	508.75
285.595	532.75
285.826	528.75
286.057	522.75
286.288	516.75
286.52	510.75
286.751	537.75
286.982	514.75
287.213	540.75
287.444	527.75
287.675	526.75
287.906	547.75
288.138	538.75
288.369	544.75
288.6	550.75
288.831	543.75
289.062	572.75
289.293	554.75
289.524	548.75
289.755	556.75
289.986	566.75
290.217	543.75
290.448	543.75
290.679	552.75
290.91	568.75
291.141	578.75
291.371	572.75
291.602	559.75
291.833	583.75
292.064	556.75
292.295	574.75
292.526	576.75
292.757	556.75
292.987	547.75
293.218	558.75
293.449	585.75
293.68	570.75
293.91	562.75
294.141	582.75
294.372	580.75
294.603	578.75
294.833	602.75
295.064	577.75
295.295	606.75
295.525	570.75
295.756	607.75
295.987	597.75
296.217	584.75
296.448	608.75
296.679	598.75
296.909	602.75
297.14	612.75
297.37	598.75
297.601	614.75
297.831	598.75
298.062	602.75
298.292	599.75
298.523	619.75
298.753	634.75
298.984	629.75
299.214	605.75
299.445	597.75
299.675	609.75
299.905	634.75
300.136	610.75
300.366	642.75
300.597	644.75
300.827	629.75
301.057	629.75
301.288	640.75
301.518	671.75
301.748	642.75
301.979	678.75
302.209	653.75
302.439	648.75
302.669	656.75
302.9	650.75
303.13	640.75
303.36	635.75
303.59	634.75
303.82	635.75
304.051	651.75
304.281	651.75
304.511	627.75
304.741	624.75
304.971	634.75
305.201	634.75
305.431	640.75
305.661	624.75
305.891	616.75
306.121	656.75
306.352	621.75
306.582	636.75
306.812	614.75
307.042	644.75
307.272	631.75
307.502	610.75
307.731	604.75
307.961	630.75
308.191	620.75
308.421	619.75
308.651	612.75
308.881	627.75
309.111	618.75
309.341	617.75
309.571	619.75
309.8	636.75
310.03	632.75
310.26	627.75
310.49	611.75
310.72	635.75
310.949	620.75
311.179	622.75
311.409	620.75
311.639	637.75
311.868	617.75
312.098	623.75
312.328	662.75
312.557	643.75
312.787	668.75
313.017	666.75
313.246	656.75
313.476	659.75
313.706	666.75
313.935	657.75
314.165	667.75
314.394	654.75
314.624	662.75
314.853	651.75
315.083	663.75
315.312	692.75
315.542	639.75
315.771	682.75
316.001	650.75
316.23	642.75
316.46	650.75
316.689	626.75
316.919	653.75
317.148	675.75
317.377	640.75
317.607	654.75
317.836	667.75
318.065	636.75
318.295	648.75
318.524	646.75
318.753	649.75
318.983	656.75
319.212	651.75
319.441	664.75
319.67	658.75
319.9	671.75
320.129	646.75
320.358	639.75
320.587	662.75
320.816	644.75
321.046	647.75
321.275	636.75
321.504	644.75
321.733	680.75
321.962	655.75
322.191	662.75
322.42	662.75
322.649	651.75
322.878	676.75
323.108	652.75
323.337	675.75
323.566	658.75
323.795	668.75
324.024	700.75
324.253	673.75
324.482	686.75
324.71	699.75
324.939	711.75
325.168	657.75
325.397	672.75
325.626	676.75
325.855	680.75
326.084	714.75
326.313	740.75
326.542	743.75
326.77	734.75
326.999	664.75
327.228	696.75
327.457	706.75
327.686	702.75
327.914	722.75
328.143	683.75
328.372	704.75
328.6	706.75
328.829	716.75
329.058	714.75
329.287	720.75
329.515	730.75
329.744	708.75
329.972	729.75
330.201	705.75
330.43	720.75
330.658	746.75
330.887	751.75
331.115	736.75
331.344	775.75
331.572	764.75
331.801	767.75
332.03	788.75
332.258	816.75
332.486	813.75
332.715	813.75
332.943	861.75
333.172	878.75
333.4	934.75
333.629	966.75
333.857	996.75
334.085	960.75
334.314	952.75
334.542	924.75
334.771	943.75
334.999	891.75
335.227	903.75
335.455	900.75
335.684	898.75
335.912	869.75
336.14	866.75
336.369	830.75
336.597	862.75
336.825	871.75
337.053	863.75
337.281	870.75
337.51	847.75
337.738	815.75
337.966	787.75
338.194	788.75
338.422	750.75
338.65	791.75
338.878	778.75
339.106	796.75
339.334	809.75
339.562	789.75
339.79	744.75
340.018	752.75
340.246	738.75
340.474	746.75
340.702	741.75
340.93	758.75
341.158	777.75
341.386	747.75
341.614	762.75
341.842	752.75
342.07	721.75
342.298	726.75
342.526	724.75
342.754	723.75
342.981	730.75
343.209	745.75
343.437	805.75
343.665	837.75
343.893	903.75
344.12	912.75
344.348	892.75
344.576	847.75
344.804	815.75
345.031	790.75
345.259	783.75
345.487	748.75
345.714	740.75
345.942	774.75
346.17	754.75
346.397	737.75
346.625	740.75
346.853	710.75
347.08	718.75
347.308	731.75
347.535	751.75
347.763	739.75
347.99	718.75
348.218	749.75
348.445	734.75
348.673	734.75
348.9	728.75
349.128	708.75
349.355	707.75
349.583	699.75
349.81	697.75
350.037	710.75
350.265	713.75
350.492	690.75
350.72	680.75
350.947	692.75
351.174	696.75
351.402	703.75
351.629	713.75
351.856	697.75
352.083	687.75
352.311	670.75
352.538	685.75
352.765	739.75
352.992	690.75
353.22	685.75
353.447	685.75
353.674	692.75
353.901	691.75
354.128	700.75
354.355	695.75
354.583	696.75
354.81	683.75
355.037	687.75
355.264	686.75
355.491	690.75
355.718	694.75
355.945	708.75
356.172	718.75
356.399	719.75
356.626	702.75
356.853	714.75
357.08	740.75
357.307	696.75
357.534	676.75
357.761	715.75
357.988	706.75
358.215	699.75
358.441	695.75
358.668	674.75
358.895	715.75
359.122	688.75
359.349	664.75
359.576	701.75
359.802	706.75
360.029	692.75
360.256	681.75
360.483	671.75
360.709	698.75
360.936	702.75
361.163	706.75
361.39	690.75
361.616	690.75
361.843	698.75
362.07	709.75
362.296	710.75
362.523	682.75
362.749	708.75
362.976	694.75
363.203	711.75
363.429	695.75
363.656	705.75
363.882	670.75
364.109	709.75
364.335	678.75
364.562	683.75
364.788	687.75
365.015	710.75
365.241	684.75
365.468	661.75
365.694	675.75
365.92	677.75
366.147	726.75
366.373	699.75
366.599	677.75
366.826	702.75
367.052	694.75
367.278	704.75
367.505	710.75
367.731	693.75
367.957	693.75
368.184	717.75
368.41	701.75
368.636	684.75
368.862	709.75
369.089	714.75
369.315	709.75
369.541	714.75
369.767	720.75
369.993	747.75
370.219	720.75
370.445	737.75
370.672	738.75
370.898	733.75
371.124	747.75
371.35	747.75
371.576	773.75
371.802	765.75
372.028	774.75
372.254	777.75
372.48	758.75
372.706	780.75
372.932	779.75
373.158	793.75
373.384	775.75
373.61	753.75
373.835	746.75
374.061	748.75
374.287	764.75
374.513	774.75
374.739	774.75
374.965	806.75
375.191	837.75
375.416	846.75
375.642	824.75
375.868	784.75
376.094	775.75
376.319	798.75
376.545	766.75
376.771	755.75
376.997	768.75
377.222	755.75
377.448	755.75
377.674	760.75
377.899	725.75
378.125	730.75
378.35	755.75
378.576	733.75
378.802	736.75
379.027	755.75
379.253	756.75
379.478	735.75
379.704	736.75
379.929	738.75
380.155	740.75
380.38	761.75
380.606	739.75
380.831	744.75
381.057	783.75
381.282	769.75
381.507	775.75
381.733	779.75
381.958	778.75
382.184	772.75
382.409	797.75
382.634	792.75
382.86	805.75
383.085	797.75
383.31	812.75
383.535	836.75
383.761	846.75
383.986	844.75
384.211	848.75
384.436	875.75
384.662	912.75
384.887	904.75
385.112	923.75
385.337	926.75
385.562	930.75
385.787	921.75
386.013	939.75
386.238	927.75
386.463	902.75
386.688	950.75
386.913	883.75
387.138	897.75
387.363	903.75
387.588	898.75
387.813	905.75
388.038	898.75
388.263	910.75
388.488	920.75
388.713	902.75
388.938	895.75
389.163	885.75
389.387	918.75
389.612	890.75
389.837	895.75
390.062	858.75
390.287	885.75
390.512	900.75
390.736	925.75
390.961	934.75
391.186	939.75
391.411	968.75
391.636	972.75
391.86	1007.75
392.085	1025.75
392.31	1010.75
392.534	997.75
392.759	1017.75
392.984	954.75
393.208	980.75
393.433	982.75
393.658	982.75
393.882	960.75
394.107	983.75
394.331	969.75
394.556	974.75
394.78	971.75
395.005	971.75
395.229	976.75
395.454	1022.75
395.678	1024.75
395.903	1007.75
396.127	997.75
396.352	993.75
396.576	971.75
396.801	952.75
397.025	1004.75
397.249	982.75
397.474	1065.75
397.698	1006.75
397.922	1063.75
398.147	1041.75
398.371	1047.75
398.595	1068.75
398.82	1122.75
399.044	1205.75
399.268	1338.75
399.492	1508.75
399.717	1724.75
399.941	1753.75
400.165	1605.75
400.389	1427.75
400.613	1310.75
400.837	1256.75
401.062	1206.75
401.286	1131.75
401.51	1160.75
401.734	1138.75
401.958	1173.75
402.182	1168.75
402.406	1182.75
402.63	1203.75
402.854	1259.75
403.078	1251.75
403.302	1241.75
403.526	1317.75
403.75	1296.75
403.974	1286.75
404.198	1301.75
404.422	1310.75
404.645	1328.75
404.869	1339.75
405.093	1292.75
405.317	1284.75
405.541	1266.75
405.765	1299.75
405.988	1263.75
406.212	1303.75
406.436	1253.75
406.66	1284.75
406.883	1314.75
407.107	1390.75
407.331	1458.75
407.555	1483.75
407.778	1490.75
408.002	1421.75
408.226	1395.75
408.449	1382.75
408.673	1314.75
408.896	1312.75
409.12	1278.75
409.344	1282.75
409.567	1303.75
409.791	1312.75
410.014	1301.75
410.238	1285.75
410.461	1282.75
410.685	1242.75
410.908	1216.75
411.132	1192.75
411.355	1205.75
411.578	1205.75
411.802	1221.75
412.025	1235.75
412.249	1214.75
412.472	1209.75
412.695	1164.75
412.919	1163.75
413.142	1154.75
413.365	1148.75
413.589	1135.75
413.812	1119.75
414.035	1144.75
414.258	1131.75
414.482	1162.75
414.705	1166.75
414.928	1165.75
415.151	1159.75
415.374	1162.75
415.597	1146.75
415.821	1142.75
416.044	1168.75
416.267	1118.75
416.49	1123.75
416.713	1100.75
416.936	1102.75
417.159	1127.75
417.382	1114.75
417.605	1148.75
417.828	1138.75
418.051	1144.75
418.274	1147.75
418.497	1099.75
418.72	1134.75
418.943	1158.75
419.166	1232.75
419.389	1358.75
419.611	1294.75
419.834	1247.75
420.057	1214.75
420.28	1124.75
420.503	1141.75
420.726	1143.75
420.948	1114.75
421.171	1102.75
421.394	1142.75
421.617	1130.75
421.839	1156.75
422.062	1130.75
422.285	1134.75
422.507	1134.75
422.73	1152.75
422.953	1172.75
423.175	1190.75
423.398	1184.75
423.621	1183.75
423.843	1214.75
424.066	1193.75
424.288	1209.75
424.511	1164.75
424.733	1168.75
424.956	1169.75
425.178	1193.75
425.401	1186.75
425.623	1166.75
425.846	1123.75
426.068	1116.75
426.291	1093.75
426.513	1068.75
426.735	1055.75
426.958	1071.75
427.18	1043.75
427.402	1080.75
427.625	1069.75
427.847	1039.75
428.069	1000.75
428.292	1060.75
428.514	1022.75
428.736	1035.75
428.958	1028.75
429.181	1010.75
429.403	1005.75
429.625	1009.75
429.847	979.75
430.069	1018.75
430.292	999.75
430.514	997.75
430.736	1006.75
430.958	1002.75
431.18	981.75
431.402	991.75
431.624	1009.75
431.846	994.75
432.068	1010.75
432.29	1068.75
432.512	1015.75
432.734	1033.75
432.956	1032.75
433.178	1026.75
433.4	1066.75
433.622	1060.75
433.844	1030.75
434.066	1048.75
434.287	1069.75
434.509	1067.75
434.731	1114.75
434.953	1132.75
435.175	1167.75
435.397	1131.75
435.618	1076.75
435.84	1083.75
436.062	1070.75
436.284	1036.75
436.505	1031.75
436.727	1034.75
436.949	1064.75
437.17	1072.75
437.392	1013.75
437.614	1016.75
437.835	1015.75
438.057	971.75
438.278	975.75
438.5	973.75
438.721	973.75
438.943	983.75
439.165	1014.75
439.386	1044.75
439.608	1006.75
439.829	1026.75
440.05	1025.75
440.272	1034.75
440.493	1044.75
440.715	1041.75
440.936	1061.75
441.158	1109.75
441.379	1145.75
441.6	1151.75
441.822	1183.75
442.043	1184.75
442.264	1132.75
442.486	1162.75
442.707	1160.75
442.928	1132.75
443.149	1112.75
443.371	1166.75
443.592	1126.75
443.813	1123.75
444.034	1189.75
444.255	1207.75
444.476	1255.75
444.698	1355.75
444.919	1410.75
445.14	1482.75
445.361	1326.75
445.582	1222.75
445.803	1160.75
446.024	1121.75
446.245	1072.75
446.466	1060.75
446.687	1071.75
446.908	1048.75
447.129	1018.75
447.35	1025.75
447.571	1011.75
447.792	978.75
448.013	969.75
448.234	972.75
448.455	993.75
448.675	959.75
448.896	948.75
449.117	957.75
449.338	957.75
449.559	957.75
449.779	903.75
450	912.75
450.221	941.75
450.442	958.75
450.662	965.75
450.883	950.75
451.104	987.75
451.324	1019.75
451.545	990.75
451.766	970.75
451.986	957.75
452.207	969.75
452.428	957.75
452.648	903.75
452.869	918.75
453.089	925.75
453.31	923.75
453.53	950.75
453.751	908.75
453.971	926.75
454.192	935.75
454.412	920.75
454.633	892.75
454.853	904.75
455.073	884.75
455.294	924.75
455.514	859.75
455.734	886.75
455.955	884.75
456.175	874.75
456.395	880.75
456.616	879.75
456.836	893.75
457.056	864.75
457.276	885.75
457.497	916.75
457.717	887.75
457.937	907.75
458.157	919.75
458.377	902.75
458.598	905.75
458.818	918.75
459.038	975.75
459.258	990.75
459.478	1053.75
459.698	1093.75
459.918	1086.75
460.138	1131.75
460.358	1201.75
460.578	1222.75
460.798	1212.75
461.018	1244.75
461.238	1205.75
461.458	1231.75
461.678	1216.75
461.898	1241.75
462.118	1247.75
462.338	1298.75
462.558	1365.75
462.777	1437.75
462.997	1484.75
463.217	1695.75
463.437	1655.75
463.657	1542.75
463.876	1431.75
464.096	1458.75
464.316	1465.75
464.536	1429.75
464.755	1377.75
464.975	1327.75
465.195	1311.75
465.414	1204.75
465.634	1142.75
465.854	1114.75
466.073	1058.75
466.293	1062.75
466.512	1049.75
466.732	1029.75
466.951	1031.75
467.171	1031.75
467.391	1025.75
467.61	1014.75
467.829	993.75
468.049	967.75
468.268	971.75
468.488	953.75
468.707	951.75
468.927	978.75
469.146	943.75
469.365	946.75
469.585	982.75
469.804	1015.75
470.023	1026.75
470.243	1013.75
470.462	1046.75
470.681	1039.75
470.901	1092.75
471.12	1040.75
471.339	1010.75
471.558	991.75
471.777	995.75
471.997	982.75
472.216	934.75
472.435	948.75
472.654	936.75
472.873	932.75
473.092	922.75
473.311	924.75
473.53	948.75
473.749	954.75
473.968	946.75
474.187	935.75
474.406	926.75
474.625	927.75
474.844	915.75
475.063	938.75
475.282	946.75
475.501	941.75
475.72	935.75
475.939	950.75
476.158	957.75
476.377	972.75
476.596	980.75
476.814	976.75
477.033	974.75
477.252	979.75
477.471	1042.75
477.69	1046.75
477.908	1092.75
478.127	1106.75
478.346	1111.75
478.564	1135.75
478.783	1149.75
479.002	1164.75
479.22	1167.75
479.439	1176.75
479.658	1167.75
479.876	1172.75
480.095	1197.75
480.313	1269.75
480.532	1283.75
480.751	1243.75
480.969	1212.75
481.188	1161.75
481.406	1159.75
481.624	1125.75
481.843	1102.75
482.061	1103.75
482.28	1070.75
482.498	1094.75
482.717	1061.75
482.935	1068.75
483.153	1069.75
483.372	1077.75
483.59	1053.75
483.808	1071.75
484.027	1071.75
484.245	1064.75
484.463	1087.75
484.681	1105.75
484.9	1103.75
485.118	1119.75
485.336	1074.75
485.554	1133.75
485.772	1136.75
485.99	1139.75
486.209	1144.75
486.427	1149.75
486.645	1103.75
486.863	1134.75
487.081	1143.75
487.299	1120.75
487.517	1146.75
487.735	1116.75
487.953	1116.75
488.171	1109.75
488.389	1124.75
488.607	1100.75
488.825	1127.75
489.043	1119.75
489.261	1103.75
489.479	1132.75
489.696	1106.75
489.914	1120.75
490.132	1129.75
490.35	1125.75
490.568	1117.75
490.786	1123.75
491.003	1097.75
491.221	1122.75
491.439	1120.75
491.657	1130.75
491.874	1138.75
492.092	1158.75
492.31	1165.75
492.527	1142.75
492.745	1132.75
492.963	1138.75
493.18	1149.75
493.398	1168.75
493.615	1156.75
493.833	1143.75
494.05	1176.75
494.268	1175.75
494.485	1215.75
494.703	1155.75
494.92	1239.75
495.138	1164.75
495.355	1187.75
495.573	1206.75
495.79	1186.75
496.008	1195.75
496.225	1197.75
496.442	1243.75
496.66	1229.75
