Data from NiCl2@0.5M.TitratingCurve.Agarose3%dH2O.NegLispCup.LampEnergy10.LIBS07252019_HRD10591_18-19-46-571.txt Node
Date: Thu Jul 25 18:19:46 EDT 2019
User: cochatt
Spectrometer: HR+D1059
Trigger mode: 1
Integration Time (sec): 1.000000E-1
Scans to average: 1
Electric dark correction enabled: true
Nonlinearity correction enabled: false
Boxcar width: 0
XAxis mode: Wavelengths
Number of Pixels in Spectrum: 2048
>>>>>Begin Spectral Data<<<<<
223.165	-15.62
223.4	-15.62
223.635	-15.62
223.869	-8.62
224.104	-10.62
224.338	-8.62
224.573	-15.62
224.808	-10.62
225.042	-11.62
225.277	-19.62
225.511	10.38
225.746	4.38
225.98	8.38
226.215	0.38
226.449	1.38
226.683	22.38
226.918	19.38
227.152	34.38
227.387	43.38
227.621	28.38
227.856	44.38
228.09	58.38
228.324	66.38
228.559	61.38
228.793	78.38
229.027	81.38
229.262	108.38
229.496	87.38
229.73	111.38
229.964	108.38
230.199	103.38
230.433	106.38
230.667	118.38
230.901	112.38
231.136	111.38
231.37	122.38
231.604	119.38
231.838	136.38
232.072	123.38
232.306	134.38
232.541	138.38
232.775	131.38
233.009	120.38
233.243	147.38
233.477	137.38
233.711	126.38
233.945	134.38
234.179	117.38
234.413	131.38
234.647	127.38
234.881	133.38
235.115	147.38
235.349	122.38
235.583	124.38
235.817	123.38
236.051	127.38
236.285	124.38
236.519	131.38
236.753	129.38
236.987	134.38
237.221	136.38
237.455	132.38
237.689	151.38
237.922	138.38
238.156	135.38
238.39	129.38
238.624	130.38
238.858	148.38
239.091	150.38
239.325	134.38
239.559	139.38
239.793	143.38
240.027	155.38
240.26	141.38
240.494	150.38
240.728	160.38
240.961	155.38
241.195	156.38
241.429	153.38
241.662	148.38
241.896	139.38
242.13	153.38
242.363	155.38
242.597	141.38
242.83	154.38
243.064	164.38
243.298	171.38
243.531	165.38
243.765	154.38
243.998	157.38
244.232	170.38
244.465	167.38
244.699	170.38
244.932	162.38
245.166	160.38
245.399	176.38
245.633	170.38
245.866	174.38
246.099	166.38
246.333	174.38
246.566	181.38
246.8	180.38
247.033	169.38
247.266	187.38
247.5	187.38
247.733	183.38
247.966	181.38
248.2	166.38
248.433	188.38
248.666	182.38
248.899	194.38
249.133	192.38
249.366	197.38
249.599	186.38
249.832	172.38
250.066	194.38
250.299	196.38
250.532	196.38
250.765	184.38
250.998	186.38
251.231	193.38
251.465	201.38
251.698	205.38
251.931	188.38
252.164	212.38
252.397	205.38
252.63	222.38
252.863	203.38
253.096	205.38
253.329	215.38
253.562	202.38
253.795	211.38
254.028	218.38
254.261	201.38
254.494	212.38
254.727	217.38
254.96	207.38
255.193	218.38
255.426	207.38
255.659	213.38
255.892	214.38
256.124	225.38
256.357	217.38
256.59	236.38
256.823	220.38
257.056	217.38
257.289	227.38
257.521	195.38
257.754	218.38
257.987	237.38
258.22	230.38
258.452	229.38
258.685	223.38
258.918	232.38
259.151	250.38
259.383	236.38
259.616	223.38
259.849	216.38
260.081	230.38
260.314	236.38
260.547	237.38
260.779	233.38
261.012	257.38
261.244	238.38
261.477	231.38
261.71	254.38
261.942	242.38
262.175	252.38
262.407	244.38
262.64	249.38
262.872	240.38
263.105	262.38
263.337	276.38
263.57	249.38
263.802	259.38
264.035	251.38
264.267	263.38
264.499	259.38
264.732	271.38
264.964	285.38
265.197	264.38
265.429	264.38
265.661	267.38
265.894	267.38
266.126	292.38
266.358	264.38
266.591	274.38
266.823	258.38
267.055	277.38
267.287	245.38
267.52	281.38
267.752	275.38
267.984	270.38
268.216	283.38
268.448	265.38
268.681	288.38
268.913	280.38
269.145	281.38
269.377	269.38
269.609	261.38
269.841	270.38
270.073	284.38
270.306	278.38
270.538	286.38
270.77	279.38
271.002	289.38
271.234	290.38
271.466	280.38
271.698	293.38
271.93	294.38
272.162	298.38
272.394	310.38
272.626	291.38
272.858	285.38
273.09	307.38
273.322	292.38
273.553	299.38
273.785	308.38
274.017	306.38
274.249	295.38
274.481	300.38
274.713	301.38
274.945	305.38
275.176	316.38
275.408	314.38
275.64	322.38
275.872	307.38
276.104	326.38
276.335	309.38
276.567	295.38
276.799	313.38
277.031	314.38
277.262	333.38
277.494	304.38
277.726	320.38
277.957	325.38
278.189	333.38
278.421	324.38
278.652	327.38
278.884	333.38
279.115	328.38
279.347	335.38
279.579	355.38
279.81	322.38
280.042	358.38
280.273	324.38
280.505	330.38
280.736	318.38
280.968	340.38
281.199	342.38
281.431	356.38
281.662	355.38
281.894	354.38
282.125	334.38
282.356	359.38
282.588	355.38
282.819	334.38
283.051	363.38
283.282	371.38
283.513	352.38
283.745	378.38
283.976	346.38
284.207	357.38
284.439	354.38
284.67	360.38
284.901	343.38
285.132	365.38
285.364	356.38
285.595	358.38
285.826	363.38
286.057	357.38
286.288	376.38
286.52	379.38
286.751	374.38
286.982	386.38
287.213	372.38
287.444	380.38
287.675	372.38
287.906	383.38
288.138	398.38
288.369	366.38
288.6	392.38
288.831	400.38
289.062	382.38
289.293	384.38
289.524	391.38
289.755	400.38
289.986	383.38
290.217	395.38
290.448	386.38
290.679	378.38
290.91	377.38
291.141	400.38
291.371	390.38
291.602	396.38
291.833	401.38
292.064	392.38
292.295	400.38
292.526	402.38
292.757	410.38
292.987	394.38
293.218	406.38
293.449	406.38
293.68	394.38
293.91	385.38
294.141	390.38
294.372	396.38
294.603	405.38
294.833	411.38
295.064	392.38
295.295	386.38
295.525	429.38
295.756	414.38
295.987	393.38
296.217	406.38
296.448	411.38
296.679	413.38
296.909	413.38
297.14	432.38
297.37	413.38
297.601	431.38
297.831	439.38
298.062	395.38
298.292	438.38
298.523	434.38
298.753	416.38
298.984	414.38
299.214	437.38
299.445	435.38
299.675	432.38
299.905	436.38
300.136	431.38
300.366	423.38
300.597	431.38
300.827	456.38
301.057	437.38
301.288	465.38
301.518	434.38
301.748	437.38
301.979	466.38
302.209	457.38
302.439	445.38
302.669	438.38
302.9	455.38
303.13	444.38
303.36	447.38
303.59	434.38
303.82	430.38
304.051	455.38
304.281	457.38
304.511	460.38
304.741	464.38
304.971	443.38
305.201	445.38
305.431	469.38
305.661	468.38
305.891	460.38
306.121	468.38
306.352	449.38
306.582	432.38
306.812	449.38
307.042	458.38
307.272	461.38
307.502	459.38
307.731	439.38
307.961	446.38
308.191	441.38
308.421	441.38
308.651	460.38
308.881	444.38
309.111	456.38
309.341	447.38
309.571	474.38
309.8	448.38
310.03	450.38
310.26	462.38
310.49	463.38
310.72	480.38
310.949	454.38
311.179	458.38
311.409	457.38
311.639	463.38
311.868	457.38
312.098	466.38
312.328	471.38
312.557	478.38
312.787	470.38
313.017	488.38
313.246	470.38
313.476	514.38
313.706	495.38
313.935	498.38
314.165	481.38
314.394	463.38
314.624	494.38
314.853	474.38
315.083	484.38
315.312	494.38
315.542	487.38
315.771	485.38
316.001	483.38
316.23	488.38
316.46	475.38
316.689	504.38
316.919	470.38
317.148	467.38
317.377	472.38
317.607	475.38
317.836	502.38
318.065	477.38
318.295	476.38
318.524	484.38
318.753	487.38
318.983	493.38
319.212	476.38
319.441	486.38
319.67	488.38
319.9	481.38
320.129	463.38
320.358	478.38
320.587	479.38
320.816	492.38
321.046	494.38
321.275	515.38
321.504	482.38
321.733	502.38
321.962	494.38
322.191	486.38
322.42	518.38
322.649	496.38
322.878	483.38
323.108	492.38
323.337	487.38
323.566	498.38
323.795	493.38
324.024	492.38
324.253	505.38
324.482	502.38
324.71	512.38
324.939	511.38
325.168	512.38
325.397	517.38
325.626	528.38
325.855	507.38
326.084	528.38
326.313	522.38
326.542	520.38
326.77	533.38
326.999	532.38
327.228	526.38
327.457	518.38
327.686	552.38
327.914	528.38
328.143	536.38
328.372	529.38
328.6	524.38
328.829	546.38
329.058	536.38
329.287	532.38
329.515	525.38
329.744	541.38
329.972	531.38
330.201	532.38
330.43	535.38
330.658	534.38
330.887	554.38
331.115	567.38
331.344	571.38
331.572	572.38
331.801	578.38
332.03	573.38
332.258	572.38
332.486	590.38
332.715	585.38
332.943	612.38
333.172	651.38
333.4	652.38
333.629	673.38
333.857	664.38
334.085	641.38
334.314	666.38
334.542	669.38
334.771	657.38
334.999	656.38
335.227	649.38
335.455	627.38
335.684	628.38
335.912	636.38
336.14	642.38
336.369	626.38
336.597	632.38
336.825	632.38
337.053	609.38
337.281	637.38
337.51	623.38
337.738	605.38
337.966	596.38
338.194	609.38
338.422	592.38
338.65	610.38
338.878	570.38
339.106	572.38
339.334	592.38
339.562	575.38
339.79	568.38
340.018	551.38
340.246	566.38
340.474	538.38
340.702	558.38
340.93	553.38
341.158	564.38
341.386	543.38
341.614	602.38
341.842	582.38
342.07	551.38
342.298	563.38
342.526	564.38
342.754	541.38
342.981	558.38
343.209	551.38
343.437	595.38
343.665	629.38
343.893	613.38
344.12	658.38
344.348	637.38
344.576	623.38
344.804	607.38
345.031	589.38
345.259	589.38
345.487	566.38
345.714	545.38
345.942	578.38
346.17	582.38
346.397	591.38
346.625	535.38
346.853	544.38
347.08	571.38
347.308	555.38
347.535	550.38
347.763	542.38
347.99	549.38
348.218	527.38
348.445	555.38
348.673	549.38
348.9	517.38
349.128	547.38
349.355	558.38
349.583	547.38
349.81	534.38
350.037	532.38
350.265	520.38
350.492	518.38
350.72	524.38
350.947	518.38
351.174	527.38
351.402	540.38
351.629	516.38
351.856	538.38
352.083	529.38
352.311	532.38
352.538	564.38
352.765	537.38
352.992	499.38
353.22	538.38
353.447	490.38
353.674	515.38
353.901	516.38
354.128	478.38
354.355	506.38
354.583	498.38
354.81	500.38
355.037	511.38
355.264	500.38
355.491	520.38
355.718	495.38
355.945	518.38
356.172	499.38
356.399	522.38
356.626	524.38
356.853	540.38
357.08	533.38
357.307	518.38
357.534	512.38
357.761	511.38
357.988	524.38
358.215	493.38
358.441	501.38
358.668	506.38
358.895	504.38
359.122	498.38
359.349	518.38
359.576	510.38
359.802	518.38
360.029	507.38
360.256	502.38
360.483	486.38
360.709	502.38
360.936	520.38
361.163	512.38
361.39	510.38
361.616	511.38
361.843	532.38
362.07	548.38
362.296	550.38
362.523	515.38
362.749	535.38
362.976	501.38
363.203	493.38
363.429	492.38
363.656	500.38
363.882	512.38
364.109	506.38
364.335	504.38
364.562	528.38
364.788	522.38
365.015	495.38
365.241	496.38
365.468	510.38
365.694	503.38
365.92	520.38
366.147	506.38
366.373	493.38
366.599	494.38
366.826	504.38
367.052	500.38
367.278	499.38
367.505	491.38
367.731	518.38
367.957	487.38
368.184	493.38
368.41	512.38
368.636	514.38
368.862	535.38
369.089	508.38
369.315	525.38
369.541	529.38
369.767	524.38
369.993	522.38
370.219	516.38
370.445	523.38
370.672	520.38
370.898	530.38
371.124	546.38
371.35	532.38
371.576	545.38
371.802	541.38
372.028	516.38
372.254	536.38
372.48	555.38
372.706	559.38
372.932	566.38
373.158	567.38
373.384	552.38
373.61	524.38
373.835	536.38
374.061	554.38
374.287	540.38
374.513	550.38
374.739	598.38
374.965	557.38
375.191	565.38
375.416	567.38
375.642	581.38
375.868	561.38
376.094	551.38
376.319	545.38
376.545	523.38
376.771	556.38
376.997	554.38
377.222	524.38
377.448	538.38
377.674	540.38
377.899	541.38
378.125	515.38
378.35	532.38
378.576	521.38
378.802	526.38
379.027	526.38
379.253	517.38
379.478	539.38
379.704	514.38
379.929	517.38
380.155	534.38
380.38	526.38
380.606	524.38
380.831	519.38
381.057	560.38
381.282	550.38
381.507	535.38
381.733	530.38
381.958	540.38
382.184	532.38
382.409	532.38
382.634	571.38
382.86	568.38
383.085	573.38
383.31	574.38
383.535	580.38
383.761	568.38
383.986	579.38
384.211	577.38
384.436	573.38
384.662	591.38
384.887	614.38
385.112	609.38
385.337	591.38
385.562	609.38
385.787	618.38
386.013	630.38
386.238	613.38
386.463	621.38
386.688	645.38
386.913	634.38
387.138	615.38
387.363	589.38
387.588	594.38
387.813	620.38
388.038	600.38
388.263	607.38
388.488	610.38
388.713	607.38
388.938	589.38
389.163	598.38
389.387	626.38
389.612	611.38
389.837	633.38
390.062	604.38
390.287	630.38
390.512	590.38
390.736	608.38
390.961	624.38
391.186	635.38
391.411	665.38
391.636	664.38
391.86	636.38
392.085	708.38
392.31	675.38
392.534	642.38
392.759	671.38
392.984	649.38
393.208	667.38
393.433	634.38
393.658	638.38
393.882	652.38
394.107	659.38
394.331	666.38
394.556	631.38
394.78	650.38
395.005	644.38
395.229	676.38
395.454	659.38
395.678	668.38
395.903	701.38
396.127	690.38
396.352	679.38
396.576	632.38
396.801	658.38
397.025	690.38
397.249	682.38
397.474	687.38
397.698	684.38
397.922	692.38
398.147	706.38
398.371	710.38
398.595	725.38
398.82	758.38
399.044	790.38
399.268	834.38
399.492	920.38
399.717	1023.38
399.941	1017.38
400.165	957.38
400.389	916.38
400.613	816.38
400.837	790.38
401.062	784.38
401.286	794.38
401.51	764.38
401.734	774.38
401.958	790.38
402.182	796.38
402.406	781.38
402.63	778.38
402.854	760.38
403.078	810.38
403.302	802.38
403.526	800.38
403.75	827.38
403.974	867.38
404.198	837.38
404.422	840.38
404.645	843.38
404.869	823.38
405.093	808.38
405.317	811.38
405.541	828.38
405.765	831.38
405.988	823.38
406.212	840.38
406.436	826.38
406.66	878.38
406.883	840.38
407.107	915.38
407.331	933.38
407.555	972.38
407.778	980.38
408.002	922.38
408.226	918.38
408.449	904.38
408.673	887.38
408.896	848.38
409.12	845.38
409.344	864.38
409.567	867.38
409.791	858.38
410.014	860.38
410.238	854.38
410.461	846.38
410.685	838.38
410.908	808.38
411.132	807.38
411.355	784.38
411.578	803.38
411.802	796.38
412.025	810.38
412.249	816.38
412.472	826.38
412.695	770.38
412.919	776.38
413.142	796.38
413.365	788.38
413.589	785.38
413.812	754.38
414.035	776.38
414.258	771.38
414.482	776.38
414.705	806.38
414.928	789.38
415.151	809.38
415.374	815.38
415.597	784.38
415.821	767.38
416.044	782.38
416.267	756.38
416.49	757.38
416.713	737.38
416.936	766.38
417.159	752.38
417.382	768.38
417.605	763.38
417.828	774.38
418.051	765.38
418.274	768.38
418.497	767.38
418.72	787.38
418.943	796.38
419.166	853.38
419.389	855.38
419.611	834.38
419.834	808.38
420.057	808.38
420.28	805.38
420.503	775.38
420.726	779.38
420.948	779.38
421.171	772.38
421.394	799.38
421.617	790.38
421.839	782.38
422.062	798.38
422.285	750.38
422.507	785.38
422.73	762.38
422.953	767.38
423.175	770.38
423.398	824.38
423.621	787.38
423.843	790.38
424.066	786.38
424.288	785.38
424.511	821.38
424.733	824.38
424.956	795.38
425.178	756.38
425.401	787.38
425.623	778.38
425.846	763.38
426.068	748.38
426.291	774.38
426.513	746.38
426.735	752.38
426.958	760.38
427.18	730.38
427.402	722.38
427.625	743.38
427.847	715.38
428.069	705.38
428.292	731.38
428.514	731.38
428.736	709.38
428.958	718.38
429.181	715.38
429.403	707.38
429.625	708.38
429.847	710.38
430.069	716.38
430.292	726.38
430.514	701.38
430.736	709.38
430.958	707.38
431.18	725.38
431.402	716.38
431.624	735.38
431.846	711.38
432.068	747.38
432.29	734.38
432.512	723.38
432.734	730.38
432.956	720.38
433.178	758.38
433.4	716.38
433.622	738.38
433.844	744.38
434.066	727.38
434.287	718.38
434.509	748.38
434.731	783.38
434.953	807.38
435.175	794.38
435.397	810.38
435.618	783.38
435.84	741.38
436.062	742.38
436.284	742.38
436.505	741.38
436.727	733.38
436.949	755.38
437.17	708.38
437.392	714.38
437.614	714.38
437.835	704.38
438.057	725.38
438.278	696.38
438.5	686.38
438.721	696.38
438.943	702.38
439.165	714.38
439.386	708.38
439.608	766.38
439.829	732.38
440.05	721.38
440.272	734.38
440.493	711.38
440.715	742.38
440.936	754.38
441.158	731.38
441.379	770.38
441.6	804.38
441.822	798.38
442.043	789.38
442.264	778.38
442.486	810.38
442.707	798.38
442.928	795.38
443.149	800.38
443.371	822.38
443.592	822.38
443.813	824.38
444.034	822.38
444.255	842.38
444.476	882.38
444.698	878.38
444.919	908.38
445.14	983.38
445.361	882.38
445.582	854.38
445.803	766.38
446.024	773.38
446.245	782.38
446.466	764.38
446.687	724.38
446.908	762.38
447.129	714.38
447.35	727.38
447.571	729.38
447.792	709.38
448.013	738.38
448.234	699.38
448.455	685.38
448.675	715.38
448.896	678.38
449.117	700.38
449.338	699.38
449.559	665.38
449.779	680.38
450	645.38
450.221	693.38
450.442	684.38
450.662	670.38
450.883	672.38
451.104	716.38
451.324	692.38
451.545	692.38
451.766	685.38
451.986	679.38
452.207	704.38
452.428	664.38
452.648	667.38
452.869	670.38
453.089	652.38
453.31	687.38
453.53	631.38
453.751	666.38
453.971	666.38
454.192	637.38
454.412	645.38
454.633	656.38
454.853	635.38
455.073	655.38
455.294	641.38
455.514	645.38
455.734	661.38
455.955	642.38
456.175	630.38
456.395	650.38
456.616	640.38
456.836	630.38
457.056	622.38
457.276	617.38
457.497	633.38
457.717	652.38
457.937	631.38
458.157	651.38
458.377	657.38
458.598	672.38
458.818	698.38
459.038	701.38
459.258	718.38
459.478	748.38
459.698	740.38
459.918	773.38
460.138	780.38
460.358	834.38
460.578	830.38
460.798	859.38
461.018	876.38
461.238	844.38
461.458	846.38
461.678	815.38
461.898	854.38
462.118	875.38
462.338	895.38
462.558	927.38
462.777	956.38
462.997	1001.38
463.217	1026.38
463.437	1072.38
463.657	998.38
463.876	973.38
464.096	964.38
464.316	974.38
464.536	948.38
464.755	935.38
464.975	892.38
465.195	867.38
465.414	844.38
465.634	807.38
465.854	752.38
466.073	772.38
466.293	780.38
466.512	728.38
466.732	764.38
466.951	727.38
467.171	730.38
467.391	741.38
467.61	735.38
467.829	728.38
468.049	715.38
468.268	698.38
468.488	708.38
468.707	692.38
468.927	714.38
469.146	700.38
469.365	738.38
469.585	709.38
469.804	729.38
470.023	743.38
470.243	744.38
470.462	736.38
470.681	746.38
470.901	742.38
471.12	755.38
471.339	716.38
471.558	746.38
471.777	715.38
471.997	712.38
472.216	704.38
472.435	690.38
472.654	701.38
472.873	697.38
473.092	692.38
473.311	698.38
473.53	688.38
473.749	693.38
473.968	679.38
474.187	679.38
474.406	676.38
474.625	694.38
474.844	698.38
475.063	696.38
475.282	688.38
475.501	704.38
475.72	692.38
475.939	710.38
476.158	708.38
476.377	725.38
476.596	725.38
476.814	758.38
477.033	733.38
477.252	745.38
477.471	767.38
477.69	790.38
477.908	813.38
478.127	806.38
478.346	822.38
478.564	798.38
478.783	836.38
479.002	838.38
479.22	858.38
479.439	845.38
479.658	866.38
479.876	846.38
480.095	851.38
480.313	871.38
480.532	886.38
480.751	882.38
480.969	850.38
481.188	849.38
481.406	824.38
481.624	818.38
481.843	819.38
482.061	810.38
482.28	830.38
482.498	801.38
482.717	807.38
482.935	800.38
483.153	804.38
483.372	814.38
483.59	811.38
483.808	795.38
484.027	814.38
484.245	813.38
484.463	803.38
484.681	847.38
484.9	827.38
485.118	837.38
485.336	825.38
485.554	838.38
485.772	823.38
485.99	861.38
486.209	847.38
486.427	856.38
486.645	833.38
486.863	840.38
487.081	839.38
487.299	830.38
487.517	861.38
487.735	864.38
487.953	862.38
488.171	851.38
488.389	877.38
488.607	849.38
488.825	828.38
489.043	807.38
489.261	814.38
489.479	820.38
489.696	808.38
489.914	853.38
490.132	824.38
490.35	859.38
490.568	860.38
490.786	837.38
491.003	842.38
491.221	859.38
491.439	866.38
491.657	879.38
491.874	851.38
492.092	876.38
492.31	900.38
492.527	900.38
492.745	889.38
492.963	874.38
493.18	904.38
493.398	916.38
493.615	878.38
493.833	926.38
494.05	912.38
494.268	891.38
494.485	906.38
494.703	910.38
494.92	917.38
495.138	858.38
495.355	916.38
495.573	902.38
495.79	933.38
496.008	937.38
496.225	900.38
496.442	913.38
496.66	946.38
496.877	943.38
497.094	958.38
497.312	955.38
497.529	995.38
497.746	995.38
497.963	1011.38
498.181	1079.38
498.398	1128.38
498.615	1182.38
498.832	1194.38
499.049	1261.38
499.267	1352.38
499.484	1483.38
499.701	1612.38
499.918	1724.38
500.135	1931.38
500.352	2072.38
500.569	2174.38
500.786	2141.38
501.003	1991.38
501.22	1843.38
501.437	1688.38
