Data from NiCl2@0.25M.TitratingCurve.Agarose3%dH2O.NegLispCup.LampEnergy10.LIBS07252019_HRD10591_18-23-06-573.txt Node
Date: Thu Jul 25 18:23:06 EDT 2019
User: cochatt
Spectrometer: HR+D1059
Trigger mode: 1
Integration Time (sec): 1.000000E-1
Scans to average: 1
Electric dark correction enabled: true
Nonlinearity correction enabled: false
Boxcar width: 0
XAxis mode: Wavelengths
Number of Pixels in Spectrum: 2048
>>>>>Begin Spectral Data<<<<<
223.165	-15.5
223.4	-15.5
223.635	-15.5
223.869	-17.5
224.104	-10.5
224.338	-11.5
224.573	-5.5
224.808	-15.5
225.042	-5.5
225.277	6.5
225.511	-6.5
225.746	2.5
225.98	-3.5
226.215	9.5
226.449	9.5
226.683	24.5
226.918	12.5
227.152	26.5
227.387	42.5
227.621	40.5
227.856	35.5
228.09	48.5
228.324	52.5
228.559	56.5
228.793	60.5
229.027	83.5
229.262	92.5
229.496	100.5
229.73	107.5
229.964	111.5
230.199	98.5
230.433	109.5
230.667	118.5
230.901	112.5
231.136	131.5
231.37	121.5
231.604	131.5
231.838	122.5
232.072	123.5
232.306	132.5
232.541	132.5
232.775	128.5
233.009	119.5
233.243	126.5
233.477	131.5
233.711	126.5
233.945	126.5
234.179	128.5
234.413	117.5
234.647	136.5
234.881	130.5
235.115	124.5
235.349	135.5
235.583	141.5
235.817	117.5
236.051	123.5
236.285	137.5
236.519	131.5
236.753	141.5
236.987	138.5
237.221	124.5
237.455	130.5
237.689	140.5
237.922	143.5
238.156	137.5
238.39	134.5
238.624	143.5
238.858	141.5
239.091	136.5
239.325	130.5
239.559	144.5
239.793	147.5
240.027	141.5
240.26	136.5
240.494	153.5
240.728	145.5
240.961	143.5
241.195	158.5
241.429	146.5
241.662	146.5
241.896	158.5
242.13	157.5
242.363	148.5
242.597	150.5
242.83	172.5
243.064	171.5
243.298	162.5
243.531	174.5
243.765	164.5
243.998	174.5
244.232	182.5
244.465	164.5
244.699	167.5
244.932	170.5
245.166	180.5
245.399	190.5
245.633	171.5
245.866	179.5
246.099	192.5
246.333	177.5
246.566	175.5
246.8	167.5
247.033	182.5
247.266	171.5
247.5	176.5
247.733	188.5
247.966	204.5
248.2	193.5
248.433	183.5
248.666	187.5
248.899	181.5
249.133	176.5
249.366	176.5
249.599	193.5
249.832	184.5
250.066	196.5
250.299	208.5
250.532	208.5
250.765	197.5
250.998	211.5
251.231	218.5
251.465	215.5
251.698	208.5
251.931	226.5
252.164	210.5
252.397	211.5
252.63	208.5
252.863	206.5
253.096	209.5
253.329	199.5
253.562	227.5
253.795	209.5
254.028	224.5
254.261	210.5
254.494	192.5
254.727	215.5
254.96	206.5
255.193	235.5
255.426	243.5
255.659	245.5
255.892	240.5
256.124	242.5
256.357	234.5
256.59	236.5
256.823	247.5
257.056	215.5
257.289	228.5
257.521	221.5
257.754	234.5
257.987	249.5
258.22	244.5
258.452	236.5
258.685	234.5
258.918	231.5
259.151	233.5
259.383	240.5
259.616	238.5
259.849	245.5
260.081	254.5
260.314	242.5
260.547	232.5
260.779	243.5
261.012	240.5
261.244	234.5
261.477	245.5
261.71	259.5
261.942	226.5
262.175	254.5
262.407	254.5
262.64	270.5
262.872	266.5
263.105	251.5
263.337	267.5
263.57	259.5
263.802	260.5
264.035	264.5
264.267	264.5
264.499	272.5
264.732	276.5
264.964	276.5
265.197	276.5
265.429	271.5
265.661	268.5
265.894	286.5
266.126	283.5
266.358	292.5
266.591	260.5
266.823	279.5
267.055	270.5
267.287	272.5
267.52	287.5
267.752	289.5
267.984	284.5
268.216	290.5
268.448	297.5
268.681	266.5
268.913	273.5
269.145	281.5
269.377	300.5
269.609	292.5
269.841	283.5
270.073	293.5
270.306	294.5
270.538	296.5
270.77	284.5
271.002	331.5
271.234	302.5
271.466	291.5
271.698	287.5
271.93	306.5
272.162	303.5
272.394	304.5
272.626	301.5
272.858	303.5
273.09	323.5
273.322	304.5
273.553	316.5
273.785	297.5
274.017	296.5
274.249	314.5
274.481	316.5
274.713	313.5
274.945	315.5
275.176	324.5
275.408	319.5
275.64	313.5
275.872	302.5
276.104	333.5
276.335	319.5
276.567	315.5
276.799	325.5
277.031	322.5
277.262	328.5
277.494	338.5
277.726	333.5
277.957	324.5
278.189	338.5
278.421	340.5
278.652	342.5
278.884	346.5
279.115	364.5
279.347	337.5
279.579	324.5
279.81	349.5
280.042	326.5
280.273	348.5
280.505	353.5
280.736	369.5
280.968	358.5
281.199	353.5
281.431	343.5
281.662	356.5
281.894	348.5
282.125	352.5
282.356	339.5
282.588	354.5
282.819	341.5
283.051	350.5
283.282	367.5
283.513	346.5
283.745	348.5
283.976	371.5
284.207	377.5
284.439	376.5
284.67	370.5
284.901	374.5
285.132	383.5
285.364	393.5
285.595	387.5
285.826	385.5
286.057	393.5
286.288	370.5
286.52	391.5
286.751	382.5
286.982	378.5
287.213	392.5
287.444	412.5
287.675	401.5
287.906	387.5
288.138	390.5
288.369	388.5
288.6	400.5
288.831	394.5
289.062	401.5
289.293	411.5
289.524	399.5
289.755	392.5
289.986	390.5
290.217	406.5
290.448	383.5
290.679	396.5
290.91	430.5
291.141	402.5
291.371	427.5
291.602	402.5
291.833	404.5
292.064	408.5
292.295	392.5
292.526	421.5
292.757	403.5
292.987	392.5
293.218	399.5
293.449	414.5
293.68	419.5
293.91	421.5
294.141	400.5
294.372	406.5
294.603	404.5
294.833	417.5
295.064	403.5
295.295	403.5
295.525	427.5
295.756	440.5
295.987	428.5
296.217	408.5
296.448	436.5
296.679	398.5
296.909	425.5
297.14	446.5
297.37	420.5
297.601	422.5
297.831	427.5
298.062	445.5
298.292	441.5
298.523	428.5
298.753	446.5
298.984	442.5
299.214	439.5
299.445	432.5
299.675	464.5
299.905	407.5
300.136	446.5
300.366	423.5
300.597	440.5
300.827	455.5
301.057	464.5
301.288	452.5
301.518	467.5
301.748	477.5
301.979	464.5
302.209	436.5
302.439	455.5
302.669	475.5
302.9	450.5
303.13	451.5
303.36	462.5
303.59	473.5
303.82	479.5
304.051	473.5
304.281	468.5
304.511	452.5
304.741	471.5
304.971	471.5
305.201	464.5
305.431	478.5
305.661	481.5
305.891	460.5
306.121	474.5
306.352	462.5
306.582	454.5
306.812	436.5
307.042	468.5
307.272	479.5
307.502	451.5
307.731	457.5
307.961	459.5
308.191	460.5
308.421	454.5
308.651	453.5
308.881	460.5
309.111	451.5
309.341	463.5
309.571	449.5
309.8	464.5
310.03	465.5
310.26	478.5
310.49	466.5
310.72	452.5
310.949	452.5
311.179	457.5
311.409	483.5
311.639	496.5
311.868	468.5
312.098	468.5
312.328	481.5
312.557	470.5
312.787	466.5
313.017	495.5
313.246	506.5
313.476	490.5
313.706	484.5
313.935	489.5
314.165	482.5
314.394	491.5
314.624	499.5
314.853	502.5
315.083	494.5
315.312	502.5
315.542	498.5
315.771	483.5
316.001	495.5
316.23	497.5
316.46	511.5
316.689	510.5
316.919	468.5
317.148	509.5
317.377	491.5
317.607	484.5
317.836	479.5
318.065	507.5
318.295	480.5
318.524	498.5
318.753	494.5
318.983	479.5
319.212	494.5
319.441	459.5
319.67	502.5
319.9	486.5
320.129	491.5
320.358	492.5
320.587	500.5
320.816	496.5
321.046	496.5
321.275	487.5
321.504	496.5
321.733	492.5
321.962	506.5
322.191	506.5
322.42	492.5
322.649	476.5
322.878	498.5
323.108	513.5
323.337	487.5
323.566	523.5
323.795	503.5
324.024	511.5
324.253	497.5
324.482	491.5
324.71	528.5
324.939	510.5
325.168	535.5
325.397	524.5
325.626	537.5
325.855	544.5
326.084	536.5
326.313	534.5
326.542	537.5
326.77	555.5
326.999	533.5
327.228	538.5
327.457	534.5
327.686	543.5
327.914	511.5
328.143	549.5
328.372	568.5
328.6	534.5
328.829	526.5
329.058	533.5
329.287	534.5
329.515	547.5
329.744	540.5
329.972	542.5
330.201	548.5
330.43	530.5
330.658	540.5
330.887	533.5
331.115	544.5
331.344	570.5
331.572	586.5
331.801	579.5
332.03	597.5
332.258	606.5
332.486	611.5
332.715	611.5
332.943	654.5
333.172	688.5
333.4	678.5
333.629	702.5
333.857	700.5
334.085	702.5
334.314	712.5
334.542	677.5
334.771	692.5
334.999	652.5
335.227	683.5
335.455	687.5
335.684	634.5
335.912	662.5
336.14	653.5
336.369	650.5
336.597	641.5
336.825	651.5
337.053	668.5
337.281	652.5
337.51	638.5
337.738	626.5
337.966	604.5
338.194	625.5
338.422	624.5
338.65	594.5
338.878	619.5
339.106	575.5
339.334	603.5
339.562	587.5
339.79	590.5
340.018	584.5
340.246	558.5
340.474	547.5
340.702	531.5
340.93	553.5
341.158	582.5
341.386	572.5
341.614	578.5
341.842	588.5
342.07	572.5
342.298	558.5
342.526	540.5
342.754	566.5
342.981	582.5
343.209	559.5
343.437	597.5
343.665	630.5
343.893	659.5
344.12	666.5
344.348	644.5
344.576	625.5
344.804	613.5
345.031	604.5
345.259	582.5
345.487	580.5
345.714	569.5
345.942	565.5
346.17	587.5
346.397	552.5
346.625	534.5
346.853	542.5
347.08	556.5
347.308	552.5
347.535	574.5
347.763	564.5
347.99	530.5
348.218	568.5
348.445	547.5
348.673	554.5
348.9	552.5
349.128	552.5
349.355	560.5
349.583	544.5
349.81	530.5
350.037	534.5
350.265	528.5
350.492	540.5
350.72	524.5
350.947	532.5
351.174	554.5
351.402	535.5
351.629	555.5
351.856	531.5
352.083	525.5
352.311	540.5
352.538	549.5
352.765	564.5
352.992	507.5
353.22	510.5
353.447	528.5
353.674	529.5
353.901	524.5
354.128	528.5
354.355	514.5
354.583	533.5
354.81	534.5
355.037	521.5
355.264	530.5
355.491	523.5
355.718	522.5
355.945	530.5
356.172	531.5
356.399	544.5
356.626	538.5
356.853	547.5
357.08	542.5
357.307	515.5
357.534	519.5
357.761	544.5
357.988	554.5
358.215	523.5
358.441	523.5
358.668	531.5
358.895	500.5
359.122	512.5
359.349	529.5
359.576	542.5
359.802	530.5
360.029	530.5
360.256	541.5
360.483	537.5
360.709	530.5
360.936	559.5
361.163	532.5
361.39	547.5
361.616	530.5
361.843	536.5
362.07	550.5
362.296	540.5
362.523	522.5
362.749	516.5
362.976	547.5
363.203	522.5
363.429	538.5
363.656	529.5
363.882	522.5
364.109	539.5
364.335	537.5
364.562	536.5
364.788	543.5
365.015	532.5
365.241	534.5
365.468	536.5
365.694	519.5
365.92	539.5
366.147	516.5
366.373	525.5
366.599	532.5
366.826	534.5
367.052	540.5
367.278	548.5
367.505	537.5
367.731	548.5
367.957	549.5
368.184	546.5
368.41	545.5
368.636	547.5
368.862	542.5
369.089	550.5
369.315	505.5
369.541	567.5
369.767	543.5
369.993	548.5
370.219	550.5
370.445	570.5
370.672	584.5
370.898	581.5
371.124	550.5
371.35	575.5
371.576	588.5
371.802	554.5
372.028	577.5
372.254	587.5
372.48	580.5
372.706	563.5
372.932	622.5
373.158	594.5
373.384	567.5
373.61	580.5
373.835	580.5
374.061	591.5
374.287	591.5
374.513	583.5
374.739	603.5
374.965	600.5
375.191	631.5
375.416	625.5
375.642	626.5
375.868	587.5
376.094	613.5
376.319	600.5
376.545	588.5
376.771	602.5
376.997	584.5
377.222	594.5
377.448	562.5
377.674	566.5
377.899	567.5
378.125	587.5
378.35	578.5
378.576	571.5
378.802	577.5
379.027	572.5
379.253	575.5
379.478	548.5
379.704	589.5
379.929	589.5
380.155	573.5
380.38	559.5
380.606	575.5
380.831	564.5
381.057	584.5
381.282	584.5
381.507	554.5
381.733	576.5
381.958	599.5
382.184	596.5
382.409	608.5
382.634	608.5
382.86	603.5
383.085	593.5
383.31	596.5
383.535	629.5
383.761	644.5
383.986	634.5
384.211	663.5
384.436	669.5
384.662	668.5
384.887	666.5
385.112	651.5
385.337	680.5
385.562	686.5
385.787	695.5
386.013	722.5
386.238	706.5
386.463	667.5
386.688	706.5
386.913	678.5
387.138	688.5
387.363	678.5
387.588	660.5
387.813	685.5
388.038	665.5
388.263	686.5
388.488	676.5
388.713	679.5
388.938	658.5
389.163	667.5
389.387	650.5
389.612	643.5
389.837	638.5
390.062	663.5
390.287	678.5
390.512	677.5
390.736	710.5
390.961	674.5
391.186	676.5
391.411	704.5
391.636	753.5
391.86	745.5
392.085	758.5
392.31	772.5
392.534	732.5
392.759	744.5
392.984	723.5
393.208	702.5
393.433	707.5
393.658	723.5
393.882	719.5
394.107	722.5
394.331	732.5
394.556	721.5
394.78	744.5
395.005	717.5
395.229	732.5
395.454	741.5
395.678	767.5
395.903	739.5
396.127	743.5
396.352	735.5
396.576	714.5
396.801	739.5
397.025	743.5
397.249	741.5
397.474	764.5
397.698	772.5
397.922	788.5
398.147	790.5
398.371	793.5
398.595	801.5
398.82	841.5
399.044	902.5
399.268	968.5
399.492	1119.5
399.717	1240.5
399.941	1245.5
400.165	1102.5
400.389	1001.5
400.613	928.5
400.837	907.5
401.062	851.5
401.286	859.5
401.51	852.5
401.734	838.5
401.958	863.5
402.182	857.5
402.406	865.5
402.63	880.5
402.854	880.5
403.078	904.5
403.302	904.5
403.526	960.5
403.75	962.5
403.974	975.5
404.198	936.5
404.422	984.5
404.645	960.5
404.869	950.5
405.093	934.5
405.317	935.5
405.541	927.5
405.765	949.5
405.988	934.5
406.212	900.5
406.436	908.5
406.66	963.5
406.883	965.5
407.107	1030.5
407.331	1054.5
407.555	1089.5
407.778	1061.5
408.002	1030.5
408.226	1050.5
408.449	1035.5
408.673	934.5
408.896	958.5
409.12	939.5
409.344	934.5
409.567	922.5
409.791	961.5
410.014	935.5
410.238	917.5
410.461	928.5
410.685	944.5
410.908	915.5
411.132	902.5
411.355	866.5
411.578	878.5
411.802	865.5
412.025	902.5
412.249	894.5
412.472	875.5
412.695	890.5
412.919	872.5
413.142	840.5
413.365	832.5
413.589	846.5
413.812	844.5
414.035	878.5
414.258	867.5
414.482	847.5
414.705	865.5
414.928	874.5
415.151	873.5
415.374	856.5
415.597	847.5
415.821	833.5
416.044	840.5
416.267	821.5
416.49	847.5
416.713	844.5
416.936	854.5
417.159	831.5
417.382	841.5
417.605	838.5
417.828	834.5
418.051	831.5
418.274	864.5
418.497	831.5
418.72	855.5
418.943	857.5
419.166	933.5
419.389	948.5
419.611	913.5
419.834	890.5
420.057	887.5
420.28	857.5
420.503	826.5
420.726	835.5
420.948	835.5
421.171	841.5
421.394	831.5
421.617	834.5
421.839	844.5
422.062	835.5
422.285	820.5
422.507	850.5
422.73	839.5
422.953	867.5
423.175	842.5
423.398	860.5
423.621	862.5
423.843	882.5
424.066	889.5
424.288	875.5
424.511	862.5
424.733	861.5
424.956	866.5
425.178	848.5
425.401	821.5
425.623	831.5
425.846	810.5
426.068	798.5
426.291	774.5
426.513	805.5
426.735	789.5
426.958	775.5
427.18	748.5
427.402	779.5
427.625	771.5
427.847	757.5
428.069	754.5
428.292	773.5
428.514	741.5
428.736	764.5
428.958	765.5
429.181	720.5
429.403	725.5
429.625	739.5
429.847	719.5
430.069	715.5
430.292	752.5
430.514	727.5
430.736	720.5
430.958	756.5
431.18	708.5
431.402	738.5
431.624	743.5
431.846	770.5
432.068	744.5
432.29	768.5
432.512	735.5
432.734	741.5
432.956	735.5
433.178	709.5
433.4	734.5
433.622	739.5
433.844	770.5
434.066	762.5
434.287	751.5
434.509	794.5
434.731	836.5
434.953	827.5
435.175	847.5
435.397	836.5
435.618	795.5
435.84	786.5
436.062	755.5
436.284	741.5
436.505	717.5
436.727	734.5
436.949	720.5
437.17	732.5
437.392	725.5
437.614	741.5
437.835	714.5
438.057	722.5
438.278	719.5
438.5	729.5
438.721	712.5
438.943	747.5
439.165	701.5
439.386	714.5
439.608	737.5
439.829	730.5
440.05	743.5
440.272	750.5
440.493	740.5
440.715	766.5
440.936	756.5
441.158	761.5
441.379	798.5
441.6	830.5
441.822	832.5
442.043	852.5
442.264	823.5
442.486	804.5
442.707	816.5
442.928	822.5
443.149	811.5
443.371	810.5
443.592	829.5
443.813	830.5
444.034	836.5
444.255	872.5
444.476	895.5
444.698	970.5
444.919	963.5
445.14	1087.5
445.361	936.5
445.582	851.5
445.803	801.5
446.024	786.5
446.245	751.5
446.466	786.5
446.687	733.5
446.908	740.5
447.129	729.5
447.35	720.5
447.571	706.5
447.792	688.5
448.013	700.5
448.234	686.5
448.455	685.5
448.675	706.5
448.896	669.5
449.117	686.5
449.338	672.5
449.559	664.5
449.779	666.5
450	692.5
450.221	655.5
450.442	702.5
450.662	682.5
450.883	683.5
451.104	704.5
451.324	689.5
451.545	699.5
451.766	672.5
451.986	661.5
452.207	666.5
452.428	684.5
452.648	665.5
452.869	664.5
453.089	672.5
453.31	675.5
453.53	658.5
453.751	668.5
453.971	646.5
454.192	677.5
454.412	635.5
454.633	619.5
454.853	645.5
455.073	634.5
455.294	646.5
455.514	652.5
455.734	636.5
455.955	636.5
456.175	638.5
456.395	612.5
456.616	634.5
456.836	650.5
457.056	642.5
457.276	611.5
457.497	640.5
457.717	628.5
457.937	637.5
458.157	666.5
458.377	664.5
458.598	666.5
458.818	686.5
459.038	700.5
459.258	702.5
459.478	739.5
459.698	771.5
459.918	790.5
460.138	804.5
460.358	850.5
460.578	876.5
460.798	881.5
461.018	868.5
461.238	866.5
461.458	843.5
461.678	859.5
461.898	875.5
462.118	879.5
462.338	914.5
462.558	939.5
462.777	958.5
462.997	1031.5
463.217	1154.5
463.437	1150.5
463.657	1057.5
463.876	1014.5
464.096	998.5
464.316	982.5
464.536	1029.5
464.755	963.5
464.975	923.5
465.195	899.5
465.414	854.5
465.634	818.5
465.854	767.5
466.073	750.5
466.293	767.5
466.512	727.5
466.732	708.5
466.951	709.5
467.171	686.5
467.391	735.5
467.61	693.5
467.829	702.5
468.049	678.5
468.268	682.5
468.488	670.5
468.707	694.5
468.927	684.5
469.146	681.5
469.365	710.5
469.585	669.5
469.804	684.5
470.023	727.5
470.243	716.5
470.462	735.5
470.681	729.5
470.901	726.5
471.12	751.5
471.339	723.5
471.558	690.5
471.777	723.5
471.997	675.5
472.216	667.5
472.435	683.5
472.654	683.5
472.873	662.5
473.092	672.5
473.311	679.5
473.53	667.5
473.749	662.5
473.968	691.5
474.187	631.5
474.406	669.5
474.625	664.5
474.844	662.5
475.063	676.5
475.282	686.5
475.501	665.5
475.72	683.5
475.939	699.5
476.158	686.5
476.377	715.5
476.596	702.5
476.814	705.5
477.033	715.5
477.252	728.5
477.471	766.5
477.69	755.5
477.908	768.5
478.127	785.5
478.346	788.5
478.564	818.5
478.783	826.5
479.002	825.5
479.22	825.5
479.439	809.5
479.658	847.5
479.876	794.5
480.095	826.5
480.313	856.5
480.532	899.5
480.751	890.5
480.969	853.5
481.188	827.5
481.406	827.5
481.624	808.5
481.843	766.5
482.061	790.5
482.28	772.5
482.498	748.5
482.717	774.5
482.935	788.5
483.153	781.5
483.372	779.5
483.59	766.5
483.808	748.5
484.027	786.5
484.245	777.5
484.463	790.5
484.681	811.5
484.9	813.5
485.118	818.5
485.336	794.5
485.554	795.5
485.772	802.5
485.99	794.5
486.209	817.5
486.427	809.5
486.645	812.5
486.863	799.5
487.081	773.5
487.299	786.5
487.517	798.5
487.735	846.5
487.953	821.5
488.171	828.5
488.389	799.5
488.607	802.5
488.825	813.5
489.043	785.5
489.261	802.5
489.479	815.5
489.696	793.5
489.914	792.5
490.132	829.5
490.35	814.5
490.568	811.5
490.786	804.5
491.003	824.5
491.221	789.5
491.439	836.5
491.657	827.5
491.874	842.5
492.092	836.5
492.31	847.5
492.527	870.5
492.745	860.5
492.963	836.5
493.18	860.5
493.398	859.5
493.615	852.5
493.833	849.5
494.05	845.5
494.268	851.5
494.485	871.5
494.703	882.5
494.92	871.5
495.138	871.5
495.355	870.5
495.573	880.5
495.79	860.5
496.008	902.5
496.225	856.5
496.442	890.5
496.66	922.5
496.877	901.5
497.094	930.5
497.312	926.5
497.529	946.5
497.746	1000.5
497.963	991.5
498.181	1058.5
498.398	1084.5
498.615	1150.5
498.832	1199.5
499.049	1314.5
499.267	1354.5
499.484	1552.5
499.701	1648.5
499.918	1870.5
500.135	2004.5
500.352	2310.5
500.569	2382.5
500.786	2386.5
501.003	2240.5
501.22	1945.5
501.437	1767.5
501.654	1575.5
501.871	1464.5
502.088	1322.5
502.305	1259.5
502.522	1209.5
502.739	1181.5
502.956	1114.5
503.172	1058.5
503.389	1049.5
503.606	974.5
503.823	991.5
504.04	998.5
504.256	979.5
504.473	993.5
504.69	1006.5
504.907	995.5
505.123	922.5
505.34	891.5
505.557	849.5
505.773	839.5
505.99	825.5
506.207	806.5
506.423	778.5
506.64	755.5
506.856	769.5
507.073	757.5
507.289	742.5
507.506	744.5
507.722	769.5
507.939	749.5
508.155	746.5
508.372	747.5
508.588	741.5
508.805	731.5
509.021	731.5
509.238	730.5
509.454	693.5
509.67	726.5
509.887	694.5
510.103	693.5
510.319	686.5
510.536	711.5
510.752	702.5
510.968	705.5
511.184	679.5
511.401	688.5
511.617	696.5
511.833	676.5
512.049	676.5
512.265	695.5
512.481	675.5
512.698	668.5
512.914	710.5
513.13	691.5
513.346	710.5
513.562	679.5
513.778	698.5
513.994	686.5
514.21	710.5
514.426	723.5
514.642	705.5
514.858	712.5
515.074	703.5
515.29	743.5
515.506	721.5
515.721	753.5
515.937	745.5
516.153	761.5
516.369	792.5
516.585	783.5
516.801	831.5
517.016	850.5
517.232	896.5
517.448	891.5
517.664	930.5
517.879	929.5
518.095	936.5
518.311	926.5
518.527	892.5
518.742	838.5
518.958	831.5
