Data from NiCl2@0.25M.TitratingCurve.Agarose3%dH2O.NegLispCup.LampEnergy10.LIBS07252019_HRD10591_18-24-15-573.txt Node
Date: Thu Jul 25 18:24:15 EDT 2019
User: cochatt
Spectrometer: HR+D1059
Trigger mode: 1
Integration Time (sec): 1.000000E-1
Scans to average: 1
Electric dark correction enabled: true
Nonlinearity correction enabled: false
Boxcar width: 0
XAxis mode: Wavelengths
Number of Pixels in Spectrum: 2048
>>>>>Begin Spectral Data<<<<<
223.165	-18
223.4	-18
223.635	-18
223.869	-20
224.104	-42
224.338	-15
224.573	-9
224.808	-5
225.042	-8
225.277	-8
225.511	12
225.746	10
225.98	4
226.215	16
226.449	19
226.683	20
226.918	21
227.152	23
227.387	20
227.621	37
227.856	49
228.09	40
228.324	45
228.559	67
228.793	81
229.027	124
229.262	119
229.496	127
229.73	138
229.964	134
230.199	136
230.433	140
230.667	134
230.901	140
231.136	139
231.37	137
231.604	155
231.838	150
232.072	155
232.306	165
232.541	168
232.775	167
233.009	157
233.243	156
233.477	162
233.711	154
233.945	156
234.179	172
234.413	165
234.647	168
234.881	170
235.115	177
235.349	162
235.583	166
235.817	169
236.051	172
236.285	173
236.519	158
236.753	168
236.987	179
237.221	176
237.455	180
237.689	189
237.922	198
238.156	194
238.39	192
238.624	187
238.858	184
239.091	182
239.325	189
239.559	198
239.793	189
240.027	208
240.26	210
240.494	199
240.728	196
240.961	216
241.195	211
241.429	203
241.662	216
241.896	221
242.13	220
242.363	212
242.597	213
242.83	214
243.064	228
243.298	224
243.531	231
243.765	225
243.998	221
244.232	239
244.465	233
244.699	238
244.932	232
245.166	248
245.399	240
245.633	251
245.866	235
246.099	245
246.333	240
246.566	248
246.8	249
247.033	254
247.266	254
247.5	262
247.733	259
247.966	262
248.2	257
248.433	266
248.666	267
248.899	275
249.133	274
249.366	266
249.599	282
249.832	282
250.066	264
250.299	293
250.532	296
250.765	281
250.998	308
251.231	284
251.465	289
251.698	291
251.931	287
252.164	296
252.397	291
252.63	294
252.863	298
253.096	313
253.329	306
253.562	295
253.795	310
254.028	321
254.261	304
254.494	300
254.727	323
254.96	308
255.193	328
255.426	324
255.659	338
255.892	328
256.124	316
256.357	321
256.59	319
256.823	332
257.056	327
257.289	333
257.521	345
257.754	334
257.987	325
258.22	343
258.452	332
258.685	338
258.918	341
259.151	337
259.383	343
259.616	350
259.849	355
260.081	359
260.314	358
260.547	373
260.779	366
261.012	372
261.244	370
261.477	355
261.71	358
261.942	369
262.175	364
262.407	372
262.64	384
262.872	377
263.105	359
263.337	382
263.57	375
263.802	395
264.035	380
264.267	385
264.499	380
264.732	367
264.964	394
265.197	396
265.429	417
265.661	398
265.894	399
266.126	398
266.358	407
266.591	395
266.823	402
267.055	406
267.287	412
267.52	400
267.752	424
267.984	432
268.216	398
268.448	416
268.681	426
268.913	426
269.145	411
269.377	422
269.609	444
269.841	443
270.073	422
270.306	432
270.538	412
270.77	414
271.002	427
271.234	423
271.466	451
271.698	434
271.93	451
272.162	458
272.394	462
272.626	444
272.858	466
273.09	451
273.322	447
273.553	466
273.785	477
274.017	482
274.249	467
274.481	482
274.713	445
274.945	464
275.176	476
275.408	481
275.64	468
275.872	478
276.104	482
276.335	470
276.567	486
276.799	492
277.031	500
277.262	490
277.494	474
277.726	484
277.957	477
278.189	496
278.421	488
278.652	498
278.884	475
279.115	501
279.347	494
279.579	494
279.81	494
280.042	525
280.273	511
280.505	524
280.736	510
280.968	511
281.199	526
281.431	538
281.662	537
281.894	554
282.125	538
282.356	531
282.588	537
282.819	534
283.051	554
283.282	528
283.513	573
283.745	550
283.976	563
284.207	561
284.439	554
284.67	570
284.901	578
285.132	572
285.364	564
285.595	570
285.826	558
286.057	560
286.288	575
286.52	578
286.751	604
286.982	569
287.213	566
287.444	578
287.675	583
287.906	593
288.138	600
288.369	581
288.6	589
288.831	584
289.062	593
289.293	578
289.524	596
289.755	593
289.986	588
290.217	601
290.448	609
290.679	597
290.91	605
291.141	596
291.371	622
291.602	604
291.833	600
292.064	588
292.295	604
292.526	626
292.757	599
292.987	596
293.218	595
293.449	630
293.68	651
293.91	644
294.141	611
294.372	617
294.603	641
294.833	601
295.064	600
295.295	593
295.525	604
295.756	607
295.987	614
296.217	652
296.448	635
296.679	630
296.909	613
297.14	640
297.37	672
297.601	647
297.831	635
298.062	637
298.292	674
298.523	666
298.753	692
298.984	674
299.214	664
299.445	661
299.675	650
299.905	652
300.136	655
300.366	674
300.597	681
300.827	691
301.057	688
301.288	686
301.518	698
301.748	688
301.979	690
302.209	715
302.439	706
302.669	696
302.9	697
303.13	695
303.36	677
303.59	705
303.82	681
304.051	697
304.281	683
304.511	674
304.741	682
304.971	712
305.201	687
305.431	691
305.661	690
305.891	681
306.121	673
306.352	704
306.582	670
306.812	666
307.042	670
307.272	666
307.502	646
307.731	660
307.961	669
308.191	676
308.421	682
308.651	662
308.881	664
309.111	657
309.341	665
309.571	634
309.8	645
310.03	682
310.26	666
310.49	667
310.72	693
310.949	671
311.179	674
311.409	686
311.639	685
311.868	710
312.098	720
312.328	693
312.557	715
312.787	713
313.017	724
313.246	696
313.476	708
313.706	731
313.935	718
314.165	721
314.394	730
314.624	720
314.853	718
315.083	736
315.312	723
315.542	719
315.771	723
316.001	722
316.23	708
316.46	718
316.689	710
316.919	691
317.148	714
317.377	713
317.607	703
317.836	701
318.065	681
318.295	686
318.524	697
318.753	714
318.983	698
319.212	716
319.441	699
319.67	710
319.9	710
320.129	698
320.358	696
320.587	715
320.816	722
321.046	716
321.275	711
321.504	726
321.733	701
321.962	697
322.191	724
322.42	737
322.649	717
322.878	737
323.108	704
323.337	752
323.566	738
323.795	739
324.024	746
324.253	710
324.482	722
324.71	735
324.939	732
325.168	729
325.397	768
325.626	756
325.855	762
326.084	773
326.313	807
326.542	770
326.77	791
326.999	746
327.228	778
327.457	760
327.686	780
327.914	752
328.143	788
328.372	796
328.6	790
328.829	784
329.058	788
329.287	811
329.515	782
329.744	779
329.972	786
330.201	788
330.43	815
330.658	798
330.887	823
331.115	828
331.344	807
331.572	816
331.801	836
332.03	866
332.258	845
332.486	857
332.715	938
332.943	966
333.172	982
333.4	1012
333.629	1034
333.857	1073
334.085	1050
334.314	1053
334.542	1013
334.771	1035
334.999	983
335.227	996
335.455	1029
335.684	986
335.912	964
336.14	966
336.369	933
336.597	972
336.825	966
337.053	950
337.281	923
337.51	895
337.738	902
337.966	869
338.194	876
338.422	865
338.65	855
338.878	853
339.106	840
339.334	878
339.562	835
339.79	821
340.018	804
340.246	828
340.474	812
340.702	828
340.93	819
341.158	826
341.386	850
341.614	836
341.842	812
342.07	814
342.298	807
342.526	821
342.754	818
342.981	840
343.209	866
343.437	872
343.665	940
343.893	974
344.12	1019
344.348	985
344.576	940
344.804	869
345.031	870
345.259	857
345.487	818
345.714	830
345.942	820
346.17	818
346.397	795
346.625	774
346.853	770
347.08	780
347.308	786
347.535	786
347.763	795
347.99	788
348.218	774
348.445	786
348.673	776
348.9	806
349.128	784
349.355	775
349.583	801
349.81	793
350.037	790
350.265	768
350.492	746
350.72	738
350.947	770
351.174	757
351.402	753
351.629	771
351.856	765
352.083	753
352.311	768
352.538	741
352.765	793
352.992	776
353.22	732
353.447	728
353.674	736
353.901	739
354.128	760
354.355	734
354.583	741
354.81	749
355.037	752
355.264	743
355.491	772
355.718	780
355.945	749
356.172	747
356.399	764
356.626	769
356.853	780
357.08	740
357.307	755
357.534	752
357.761	750
357.988	792
358.215	753
358.441	756
358.668	747
358.895	789
359.122	756
359.349	749
359.576	772
359.802	778
360.029	745
360.256	749
360.483	771
360.709	760
360.936	743
361.163	772
361.39	761
361.616	764
361.843	757
362.07	783
362.296	770
362.523	729
362.749	770
362.976	784
363.203	768
363.429	718
363.656	760
363.882	758
364.109	761
364.335	744
364.562	738
364.788	752
365.015	757
365.241	741
365.468	731
365.694	738
365.92	763
366.147	737
366.373	749
366.599	745
366.826	771
367.052	746
367.278	750
367.505	781
367.731	765
367.957	749
368.184	745
368.41	775
368.636	743
368.862	757
369.089	773
369.315	784
369.541	775
369.767	793
369.993	779
370.219	786
370.445	802
370.672	798
370.898	790
371.124	808
371.35	827
371.576	826
371.802	826
372.028	812
372.254	832
372.48	835
372.706	835
372.932	868
373.158	841
373.384	840
373.61	813
373.835	842
374.061	798
374.287	836
374.513	848
374.739	874
374.965	892
375.191	921
375.416	914
375.642	883
375.868	891
376.094	847
376.319	843
376.545	846
376.771	842
376.997	829
377.222	850
377.448	836
377.674	798
377.899	818
378.125	826
378.35	815
378.576	829
378.802	800
379.027	804
379.253	825
379.478	780
379.704	792
379.929	832
380.155	819
380.38	819
380.606	820
380.831	800
381.057	806
381.282	801
381.507	857
381.733	836
381.958	829
382.184	842
382.409	841
382.634	842
382.86	865
383.085	882
383.31	891
383.535	930
383.761	921
383.986	896
384.211	915
384.436	917
384.662	961
384.887	954
385.112	989
385.337	995
385.562	986
385.787	1029
386.013	1006
386.238	1030
386.463	989
386.688	1012
386.913	969
387.138	985
387.363	999
387.588	978
387.813	990
388.038	978
388.263	1012
388.488	1013
388.713	991
388.938	986
389.163	950
389.387	957
389.612	946
389.837	983
390.062	983
390.287	994
390.512	980
390.736	986
390.961	1062
391.186	1045
391.411	1062
391.636	1093
391.86	1098
392.085	1123
392.31	1140
392.534	1115
392.759	1063
392.984	1066
393.208	1054
393.433	1061
393.658	1062
393.882	1054
394.107	1066
394.331	1067
394.556	1036
394.78	1073
395.005	1070
395.229	1074
395.454	1102
395.678	1108
395.903	1139
396.127	1090
396.352	1079
396.576	1057
396.801	1079
397.025	1095
397.249	1083
397.474	1096
397.698	1140
397.922	1122
398.147	1120
398.371	1194
398.595	1192
398.82	1243
399.044	1342
399.268	1465
399.492	1668
399.717	1883
399.941	1860
400.165	1674
400.389	1556
400.613	1428
400.837	1322
401.062	1349
401.286	1258
401.51	1268
401.734	1274
401.958	1300
402.182	1269
402.406	1285
402.63	1288
402.854	1328
403.078	1346
403.302	1395
403.526	1424
403.75	1403
403.974	1463
404.198	1453
404.422	1436
404.645	1420
404.869	1415
405.093	1417
405.317	1395
405.541	1403
405.765	1387
405.988	1376
406.212	1402
406.436	1398
406.66	1403
406.883	1398
407.107	1508
407.331	1614
407.555	1601
407.778	1626
408.002	1620
408.226	1562
408.449	1513
408.673	1451
408.896	1421
409.12	1387
409.344	1438
409.567	1382
409.791	1398
410.014	1396
410.238	1405
410.461	1350
410.685	1392
410.908	1353
411.132	1342
411.355	1291
411.578	1292
411.802	1275
412.025	1286
412.249	1309
412.472	1344
412.695	1258
412.919	1241
413.142	1235
413.365	1254
413.589	1264
413.812	1224
414.035	1249
414.258	1256
414.482	1240
414.705	1280
414.928	1259
415.151	1270
415.374	1252
415.597	1217
415.821	1208
416.044	1241
416.267	1218
416.49	1211
416.713	1245
416.936	1229
417.159	1218
417.382	1234
417.605	1213
417.828	1211
418.051	1257
418.274	1253
418.497	1240
418.72	1282
418.943	1257
419.166	1320
419.389	1403
419.611	1408
419.834	1352
420.057	1305
420.28	1243
420.503	1200
420.726	1207
420.948	1231
421.171	1241
421.394	1236
421.617	1204
421.839	1253
422.062	1251
422.285	1219
422.507	1274
422.73	1241
422.953	1252
423.175	1273
423.398	1299
423.621	1274
423.843	1282
424.066	1277
424.288	1265
424.511	1275
424.733	1291
424.956	1273
425.178	1234
425.401	1251
425.623	1270
425.846	1194
426.068	1206
426.291	1178
426.513	1216
426.735	1121
426.958	1181
427.18	1111
427.402	1134
427.625	1118
427.847	1084
428.069	1114
428.292	1140
428.514	1086
428.736	1087
428.958	1119
429.181	1062
429.403	1070
429.625	1096
429.847	1058
430.069	1083
430.292	1083
430.514	1058
430.736	1068
430.958	1103
431.18	1038
431.402	1083
431.624	1089
431.846	1067
432.068	1107
432.29	1101
432.512	1060
432.734	1116
432.956	1097
433.178	1116
433.4	1088
433.622	1111
433.844	1124
434.066	1099
434.287	1132
434.509	1130
434.731	1158
434.953	1225
435.175	1233
435.397	1190
435.618	1152
435.84	1136
436.062	1106
436.284	1082
436.505	1064
436.727	1130
436.949	1064
437.17	1053
437.392	1112
437.614	1042
437.835	1022
438.057	1052
438.278	1029
438.5	1029
438.721	1037
438.943	1056
439.165	1072
439.386	1027
439.608	1100
439.829	1062
440.05	1081
440.272	1112
440.493	1083
440.715	1093
440.936	1107
441.158	1160
441.379	1225
441.6	1217
441.822	1239
442.043	1238
442.264	1176
442.486	1193
442.707	1212
442.928	1167
443.149	1187
443.371	1198
443.592	1192
443.813	1196
444.034	1224
444.255	1286
444.476	1341
444.698	1409
444.919	1416
445.14	1528
445.361	1360
445.582	1284
445.803	1238
446.024	1152
446.245	1123
446.466	1076
446.687	1104
446.908	1099
447.129	1062
447.35	1076
447.571	1073
447.792	1030
448.013	1061
448.234	1033
448.455	1010
448.675	994
448.896	971
449.117	961
449.338	981
449.559	996
449.779	985
450	938
450.221	977
450.442	997
450.662	993
450.883	986
451.104	1010
451.324	1011
451.545	992
451.766	1023
451.986	970
452.207	998
452.428	990
452.648	969
452.869	969
453.089	930
453.31	988
453.53	955
453.751	961
453.971	948
454.192	942
454.412	937
454.633	972
454.853	947
455.073	926
455.294	928
455.514	940
455.734	950
455.955	918
456.175	908
456.395	917
456.616	912
456.836	926
457.056	906
457.276	880
457.497	946
457.717	961
457.937	939
458.157	963
458.377	948
458.598	979
458.818	985
459.038	995
459.258	1042
459.478	1082
459.698	1121
459.918	1142
460.138	1210
460.358	1260
460.578	1297
460.798	1257
461.018	1284
461.238	1290
461.458	1290
461.678	1283
461.898	1341
462.118	1305
462.338	1368
462.558	1428
462.777	1464
462.997	1592
463.217	1687
463.437	1710
463.657	1594
463.876	1516
464.096	1524
464.316	1523
464.536	1522
464.755	1428
464.975	1405
465.195	1297
465.414	1252
465.634	1178
465.854	1146
466.073	1096
466.293	1087
466.512	1064
466.732	1042
466.951	1065
467.171	1042
467.391	1047
467.61	1033
467.829	1030
468.049	1003
468.268	992
468.488	962
468.707	973
468.927	1006
469.146	1003
469.365	1022
469.585	1004
469.804	1056
470.023	1052
470.243	1064
470.462	1076
470.681	1066
470.901	1056
471.12	1081
471.339	1052
471.558	1028
471.777	1006
471.997	1020
472.216	1017
472.435	976
472.654	979
472.873	988
473.092	978
473.311	981
473.53	965
473.749	956
473.968	974
474.187	951
474.406	955
474.625	976
474.844	985
475.063	972
475.282	1014
475.501	981
475.72	1015
475.939	978
476.158	1013
476.377	1020
476.596	1015
476.814	1021
477.033	1061
477.252	1070
477.471	1072
477.69	1114
477.908	1123
478.127	1157
478.346	1171
478.564	1190
478.783	1216
479.002	1204
479.22	1212
479.439	1217
479.658	1260
479.876	1216
480.095	1214
480.313	1280
480.532	1315
480.751	1294
480.969	1232
481.188	1232
481.406	1195
481.624	1163
481.843	1138
482.061	1133
482.28	1124
482.498	1130
482.717	1096
482.935	1125
483.153	1114
483.372	1120
483.59	1137
483.808	1106
484.027	1110
484.245	1118
484.463	1117
484.681	1118
484.9	1128
485.118	1173
485.336	1172
485.554	1165
485.772	1197
485.99	1184
486.209	1180
486.427	1144
486.645	1182
486.863	1165
487.081	1182
487.299	1163
487.517	1157
487.735	1131
487.953	1160
488.171	1174
488.389	1170
488.607	1162
488.825	1123
489.043	1146
489.261	1164
489.479	1160
489.696	1142
489.914	1191
490.132	1176
490.35	1161
490.568	1160
490.786	1172
491.003	1157
491.221	1180
491.439	1200
491.657	1184
491.874	1190
492.092	1187
492.31	1196
492.527	1182
492.745	1200
492.963	1172
493.18	1242
493.398	1245
493.615	1197
493.833	1228
494.05	1220
494.268	1250
494.485	1258
494.703	1264
494.92	1289
495.138	1281
495.355	1264
495.573	1271
495.79	1267
496.008	1269
496.225	1296
496.442	1289
496.66	1321
496.877	1325
497.094	1338
497.312	1422
497.529	1414
497.746	1461
497.963	1496
498.181	1554
498.398	1664
498.615	1729
498.832	1874
499.049	2010
499.267	2174
499.484	2362
499.701	2593
499.918	2890
500.135	3272
500.352	3602
500.569	3797
500.786	3749
501.003	3480
501.22	3211
501.437	2865
501.654	2550
501.871	2296
502.088	2131
502.305	1994
502.522	1865
502.739	1816
502.956	1711
503.172	1675
503.389	1556
503.606	1486
503.823	1509
504.04	1477
504.256	1489
504.473	1484
504.69	1547
504.907	1483
505.123	1420
505.34	1305
505.557	1268
505.773	1236
505.99	1194
506.207	1202
506.423	1178
506.64	1134
506.856	1113
507.073	1129
507.289	1115
507.506	1097
507.722	1086
507.939	1075
508.155	1062
508.372	1088
508.588	1068
508.805	1054
509.021	1055
509.238	1049
509.454	1027
509.67	1041
509.887	1028
510.103	1013
510.319	1047
510.536	1004
510.752	958
510.968	1016
511.184	990
511.401	1008
511.617	1012
511.833	1006
512.049	994
512.265	1012
512.481	1016
512.698	954
512.914	1020
513.13	1013
513.346	992
513.562	990
513.778	997
513.994	999
514.21	1004
514.426	1008
514.642	1026
514.858	1039
515.074	1058
515.29	1059
515.506	1048
515.721	1045
515.937	1088
516.153	1117
516.369	1117
516.585	1181
516.801	1177
517.016	1252
517.232	1306
517.448	1352
517.664	1418
517.879	1422
518.095	1419
518.311	1394
518.527	1323
518.742	1316
518.958	1245
519.173	1173
519.389	1145
519.605	1133
519.82	1106
520.036	1076
520.251	1070
520.467	1056
520.682	1062
520.898	1030
521.113	1019
521.329	954
521.544	961
521.76	997
521.975	980
522.19	962
522.406	946
522.621	937
522.836	941
523.052	898
523.267	904
523.482	926
523.698	932
523.913	928
524.128	905
524.343	911
524.559	925
524.774	925
524.989	909
525.204	896
525.419	913
525.634	912
525.849	909
526.064	914
526.28	902
526.495	901
526.71	887
526.925	912
527.14	887
527.355	926
527.57	905
527.785	869
527.999	896
528.214	904
528.429	933
528.644	902
528.859	876
529.074	879
529.289	884
529.503	894
529.718	889
529.933	867
530.148	880
530.363	899
530.577	869
530.792	856
531.007	882
531.221	902
531.436	895
531.651	889
531.865	891
532.08	910
532.295	900
532.509	901
532.724	875
532.938	885
533.153	882
533.367	899
533.582	896
533.796	886
534.011	892
534.225	897
534.44	888
534.654	861
534.868	872
535.083	856
535.297	873
535.511	845
535.726	851
535.94	854
536.154	857
536.369	844
536.583	810
536.797	852
537.011	825
537.225	828
537.44	808
537.654	822
537.868	817
538.082	812
538.296	804
538.51	800
538.724	806
538.938	828
539.153	809
539.367	804
539.581	820
539.795	802
540.009	803
540.222	792
540.436	813
540.65	781
540.864	790
541.078	811
541.292	802
541.506	811
541.72	791
541.934	803
542.147	825
542.361	797
542.575	797
542.789	796
543.002	774
543.216	775
543.43	807
543.644	783
543.857	782
544.071	820
544.285	798
544.498	807
544.712	795
544.925	809
545.139	841
545.352	834
545.566	821
545.779	819
545.993	821
546.206	836
546.42	815
546.633	823
546.847	836
547.06	838
547.274	813
547.487	828
547.7	812
547.914	854
548.127	859
548.34	830
548.554	826
548.767	826
548.98	807
549.193	849
549.407	821
549.62	872
549.833	839
550.046	837
550.259	845
550.473	813
550.686	842
550.899	812
551.112	826
551.325	800
551.538	800
551.751	794
551.964	816
552.177	810
552.39	821
552.603	830
552.816	862
553.029	895
553.242	896
553.455	886
553.667	882
553.88	890
554.093	894
554.306	859
554.519	821
