Data from NiCl2@0.5M.TitratingCurve.Agarose3%dH2O.NegLispCup.LampEnergy10.LIBS07252019_HRD10591_18-18-40-570.txt Node
Date: Thu Jul 25 18:18:40 EDT 2019
User: cochatt
Spectrometer: HR+D1059
Trigger mode: 1
Integration Time (sec): 1.000000E-1
Scans to average: 1
Electric dark correction enabled: true
Nonlinearity correction enabled: false
Boxcar width: 0
XAxis mode: Wavelengths
Number of Pixels in Spectrum: 2048
>>>>>Begin Spectral Data<<<<<
223.165	-31.12
223.4	-31.12
223.635	-31.12
223.869	-8.12
224.104	-5.12
224.338	3.88
224.573	-11.12
224.808	-14.12
225.042	3.88
225.277	-3.12
225.511	-12.12
225.746	-0.12
225.98	-2.12
226.215	-2.12
226.449	11.88
226.683	13.88
226.918	21.88
227.152	33.88
227.387	42.88
227.621	33.88
227.856	53.88
228.09	61.88
228.324	52.88
228.559	37.88
228.793	80.88
229.027	166.88
229.262	191.88
229.496	200.88
229.73	200.88
229.964	249.88
230.199	272.88
230.433	249.88
230.667	236.88
230.901	242.88
231.136	222.88
231.37	211.88
231.604	228.88
231.838	256.88
232.072	246.88
232.306	279.88
232.541	248.88
232.775	240.88
233.009	260.88
233.243	235.88
233.477	231.88
233.711	244.88
233.945	254.88
234.179	248.88
234.413	247.88
234.647	253.88
234.881	236.88
235.115	257.88
235.349	242.88
235.583	245.88
235.817	246.88
236.051	268.88
236.285	252.88
236.519	267.88
236.753	260.88
236.987	263.88
237.221	262.88
237.455	282.88
237.689	277.88
237.922	268.88
238.156	286.88
238.39	282.88
238.624	289.88
238.858	295.88
239.091	313.88
239.325	304.88
239.559	330.88
239.793	356.88
240.027	339.88
240.26	307.88
240.494	301.88
240.728	320.88
240.961	307.88
241.195	319.88
241.429	332.88
241.662	344.88
241.896	369.88
242.13	378.88
242.363	357.88
242.597	354.88
242.83	382.88
243.064	349.88
243.298	354.88
243.531	371.88
243.765	368.88
243.998	388.88
244.232	402.88
244.465	394.88
244.699	385.88
244.932	378.88
245.166	397.88
245.399	391.88
245.633	386.88
245.866	390.88
246.099	403.88
246.333	384.88
246.566	417.88
246.8	405.88
247.033	418.88
247.266	414.88
247.5	429.88
247.733	424.88
247.966	426.88
248.2	431.88
248.433	434.88
248.666	453.88
248.899	450.88
249.133	446.88
249.366	455.88
249.599	449.88
249.832	474.88
250.066	454.88
250.299	472.88
250.532	448.88
250.765	488.88
250.998	494.88
251.231	511.88
251.465	535.88
251.698	512.88
251.931	498.88
252.164	506.88
252.397	503.88
252.63	507.88
252.863	491.88
253.096	504.88
253.329	499.88
253.562	516.88
253.795	525.88
254.028	521.88
254.261	510.88
254.494	522.88
254.727	508.88
254.96	538.88
255.193	548.88
255.426	546.88
255.659	547.88
255.892	560.88
256.124	557.88
256.357	566.88
256.59	560.88
256.823	568.88
257.056	579.88
257.289	568.88
257.521	574.88
257.754	588.88
257.987	586.88
258.22	590.88
258.452	582.88
258.685	597.88
258.918	592.88
259.151	608.88
259.383	596.88
259.616	581.88
259.849	599.88
260.081	644.88
260.314	608.88
260.547	645.88
260.779	608.88
261.012	626.88
261.244	647.88
261.477	617.88
261.71	625.88
261.942	616.88
262.175	679.88
262.407	661.88
262.64	644.88
262.872	658.88
263.105	660.88
263.337	662.88
263.57	675.88
263.802	689.88
264.035	665.88
264.267	695.88
264.499	681.88
264.732	681.88
264.964	696.88
265.197	691.88
265.429	686.88
265.661	699.88
265.894	707.88
266.126	695.88
266.358	729.88
266.591	711.88
266.823	719.88
267.055	711.88
267.287	733.88
267.52	710.88
267.752	729.88
267.984	741.88
268.216	739.88
268.448	761.88
268.681	728.88
268.913	720.88
269.145	741.88
269.377	737.88
269.609	736.88
269.841	744.88
270.073	764.88
270.306	756.88
270.538	759.88
270.77	759.88
271.002	781.88
271.234	770.88
271.466	780.88
271.698	778.88
271.93	783.88
272.162	809.88
272.394	782.88
272.626	790.88
272.858	785.88
273.09	817.88
273.322	820.88
273.553	824.88
273.785	813.88
274.017	797.88
274.249	818.88
274.481	841.88
274.713	796.88
274.945	838.88
275.176	856.88
275.408	850.88
275.64	845.88
275.872	853.88
276.104	864.88
276.335	854.88
276.567	868.88
276.799	874.88
277.031	887.88
277.262	888.88
277.494	864.88
277.726	882.88
277.957	910.88
278.189	876.88
278.421	892.88
278.652	874.88
278.884	912.88
279.115	906.88
279.347	906.88
279.579	914.88
279.81	918.88
280.042	904.88
280.273	930.88
280.505	954.88
280.736	951.88
280.968	948.88
281.199	939.88
281.431	959.88
281.662	993.88
281.894	1008.88
282.125	953.88
282.356	994.88
282.588	956.88
282.819	961.88
283.051	989.88
283.282	948.88
283.513	985.88
283.745	984.88
283.976	977.88
284.207	979.88
284.439	996.88
284.67	981.88
284.901	1007.88
285.132	1002.88
285.364	1010.88
285.595	1033.88
285.826	1030.88
286.057	1015.88
286.288	976.88
286.52	1016.88
286.751	1037.88
286.982	1047.88
287.213	1026.88
287.444	1035.88
287.675	1029.88
287.906	1009.88
288.138	1022.88
288.369	1076.88
288.6	1044.88
288.831	1042.88
289.062	1074.88
289.293	1062.88
289.524	1069.88
289.755	1057.88
289.986	1060.88
290.217	1059.88
290.448	1099.88
290.679	1091.88
290.91	1109.88
291.141	1069.88
291.371	1086.88
291.602	1067.88
291.833	1071.88
292.064	1048.88
292.295	1072.88
292.526	1085.88
292.757	1065.88
292.987	1056.88
293.218	1066.88
293.449	1051.88
293.68	1092.88
293.91	1097.88
294.141	1101.88
294.372	1107.88
294.603	1104.88
294.833	1116.88
295.064	1072.88
295.295	1085.88
295.525	1106.88
295.756	1097.88
295.987	1096.88
296.217	1093.88
296.448	1128.88
296.679	1122.88
296.909	1119.88
297.14	1150.88
297.37	1136.88
297.601	1151.88
297.831	1174.88
298.062	1180.88
298.292	1174.88
298.523	1193.88
298.753	1166.88
298.984	1212.88
299.214	1170.88
299.445	1163.88
299.675	1198.88
299.905	1207.88
300.136	1186.88
300.366	1227.88
300.597	1231.88
300.827	1212.88
301.057	1253.88
301.288	1262.88
301.518	1265.88
301.748	1228.88
301.979	1237.88
302.209	1286.88
302.439	1257.88
302.669	1240.88
302.9	1236.88
303.13	1245.88
303.36	1260.88
303.59	1254.88
303.82	1250.88
304.051	1267.88
304.281	1269.88
304.511	1234.88
304.741	1270.88
304.971	1294.88
305.201	1320.88
305.431	1300.88
305.661	1278.88
305.891	1285.88
306.121	1286.88
306.352	1258.88
306.582	1247.88
306.812	1233.88
307.042	1248.88
307.272	1237.88
307.502	1216.88
307.731	1228.88
307.961	1256.88
308.191	1282.88
308.421	1251.88
308.651	1268.88
308.881	1204.88
309.111	1250.88
309.341	1241.88
309.571	1245.88
309.8	1276.88
310.03	1267.88
310.26	1334.88
310.49	1329.88
310.72	1286.88
310.949	1257.88
311.179	1264.88
311.409	1244.88
311.639	1301.88
311.868	1283.88
312.098	1272.88
312.328	1304.88
312.557	1320.88
312.787	1299.88
313.017	1284.88
313.246	1308.88
313.476	1344.88
313.706	1366.88
313.935	1356.88
314.165	1348.88
314.394	1346.88
314.624	1377.88
314.853	1357.88
315.083	1345.88
315.312	1360.88
315.542	1351.88
315.771	1353.88
316.001	1337.88
316.23	1332.88
316.46	1332.88
316.689	1352.88
316.919	1327.88
317.148	1357.88
317.377	1353.88
317.607	1315.88
317.836	1342.88
318.065	1335.88
318.295	1355.88
318.524	1345.88
318.753	1337.88
318.983	1384.88
319.212	1349.88
319.441	1355.88
319.67	1368.88
319.9	1348.88
320.129	1373.88
320.358	1358.88
320.587	1353.88
320.816	1340.88
321.046	1381.88
321.275	1376.88
321.504	1385.88
321.733	1384.88
321.962	1392.88
322.191	1398.88
322.42	1428.88
322.649	1373.88
322.878	1408.88
323.108	1389.88
323.337	1423.88
323.566	1426.88
323.795	1428.88
324.024	1443.88
324.253	1434.88
324.482	1424.88
324.71	1437.88
324.939	1428.88
325.168	1454.88
325.397	1416.88
325.626	1428.88
325.855	1462.88
326.084	1442.88
326.313	1441.88
326.542	1469.88
326.77	1502.88
326.999	1435.88
327.228	1432.88
327.457	1482.88
327.686	1444.88
327.914	1439.88
328.143	1485.88
328.372	1465.88
328.6	1473.88
328.829	1479.88
329.058	1469.88
329.287	1445.88
329.515	1483.88
329.744	1471.88
329.972	1488.88
330.201	1504.88
330.43	1531.88
330.658	1564.88
330.887	1532.88
331.115	1529.88
331.344	1570.88
331.572	1581.88
331.801	1592.88
332.03	1611.88
332.258	1600.88
332.486	1666.88
332.715	1674.88
332.943	1690.88
333.172	1664.88
333.4	1748.88
333.629	1750.88
333.857	1804.88
334.085	1818.88
334.314	1808.88
334.542	1832.88
334.771	1816.88
334.999	1797.88
335.227	1800.88
335.455	1805.88
335.684	1812.88
335.912	1800.88
336.14	1802.88
336.369	1760.88
336.597	1783.88
336.825	1780.88
337.053	1797.88
337.281	1817.88
337.51	1740.88
337.738	1718.88
337.966	1706.88
338.194	1730.88
338.422	1733.88
338.65	1652.88
338.878	1658.88
339.106	1623.88
339.334	1681.88
339.562	1645.88
339.79	1629.88
340.018	1590.88
340.246	1585.88
340.474	1581.88
340.702	1556.88
340.93	1546.88
341.158	1579.88
341.386	1621.88
341.614	1659.88
341.842	1616.88
342.07	1560.88
342.298	1603.88
342.526	1591.88
342.754	1581.88
342.981	1554.88
343.209	1571.88
343.437	1670.88
343.665	1704.88
343.893	1715.88
344.12	1767.88
344.348	1778.88
344.576	1749.88
344.804	1725.88
345.031	1688.88
345.259	1626.88
345.487	1584.88
345.714	1599.88
345.942	1632.88
346.17	1646.88
346.397	1608.88
346.625	1524.88
346.853	1499.88
347.08	1511.88
347.308	1500.88
347.535	1537.88
347.763	1520.88
347.99	1472.88
348.218	1482.88
348.445	1447.88
348.673	1478.88
348.9	1501.88
349.128	1498.88
349.355	1524.88
349.583	1522.88
349.81	1457.88
350.037	1447.88
350.265	1452.88
350.492	1461.88
350.72	1443.88
350.947	1451.88
351.174	1464.88
351.402	1536.88
351.629	1498.88
351.856	1520.88
352.083	1448.88
352.311	1487.88
352.538	1510.88
352.765	1544.88
352.992	1393.88
353.22	1412.88
353.447	1401.88
353.674	1364.88
353.901	1392.88
354.128	1389.88
354.355	1406.88
354.583	1404.88
354.81	1428.88
355.037	1451.88
355.264	1431.88
355.491	1411.88
355.718	1379.88
355.945	1363.88
356.172	1426.88
356.399	1430.88
356.626	1458.88
356.853	1485.88
357.08	1435.88
357.307	1422.88
357.534	1413.88
357.761	1414.88
357.988	1409.88
358.215	1428.88
358.441	1408.88
358.668	1391.88
358.895	1423.88
359.122	1357.88
359.349	1432.88
359.576	1398.88
359.802	1420.88
360.029	1401.88
360.256	1433.88
360.483	1419.88
360.709	1433.88
360.936	1418.88
361.163	1421.88
361.39	1432.88
361.616	1440.88
361.843	1443.88
362.07	1502.88
362.296	1509.88
362.523	1427.88
362.749	1418.88
362.976	1454.88
363.203	1374.88
363.429	1396.88
363.656	1406.88
363.882	1413.88
364.109	1381.88
364.335	1380.88
364.562	1389.88
364.788	1393.88
365.015	1422.88
365.241	1379.88
365.468	1387.88
365.694	1380.88
365.92	1417.88
366.147	1364.88
366.373	1368.88
366.599	1421.88
366.826	1398.88
367.052	1407.88
367.278	1380.88
367.505	1418.88
367.731	1422.88
367.957	1420.88
368.184	1403.88
368.41	1429.88
368.636	1428.88
368.862	1432.88
369.089	1431.88
369.315	1433.88
369.541	1432.88
369.767	1452.88
369.993	1447.88
370.219	1452.88
370.445	1469.88
370.672	1460.88
370.898	1457.88
371.124	1439.88
371.35	1465.88
371.576	1494.88
371.802	1488.88
372.028	1483.88
372.254	1470.88
372.48	1520.88
372.706	1498.88
372.932	1522.88
373.158	1513.88
373.384	1511.88
373.61	1502.88
373.835	1490.88
374.061	1489.88
374.287	1518.88
374.513	1520.88
374.739	1568.88
374.965	1605.88
375.191	1597.88
375.416	1581.88
375.642	1561.88
375.868	1509.88
376.094	1493.88
376.319	1475.88
376.545	1478.88
376.771	1496.88
376.997	1449.88
377.222	1474.88
377.448	1460.88
377.674	1507.88
377.899	1505.88
378.125	1450.88
378.35	1477.88
378.576	1460.88
378.802	1493.88
379.027	1464.88
379.253	1464.88
379.478	1468.88
379.704	1444.88
379.929	1448.88
380.155	1448.88
380.38	1465.88
380.606	1507.88
380.831	1498.88
381.057	1486.88
381.282	1478.88
381.507	1471.88
381.733	1468.88
381.958	1462.88
382.184	1496.88
382.409	1518.88
382.634	1491.88
382.86	1497.88
383.085	1534.88
383.31	1552.88
383.535	1539.88
383.761	1562.88
383.986	1592.88
384.211	1597.88
384.436	1636.88
384.662	1627.88
384.887	1704.88
385.112	1694.88
385.337	1684.88
385.562	1675.88
385.787	1697.88
386.013	1758.88
386.238	1731.88
386.463	1724.88
386.688	1737.88
386.913	1707.88
387.138	1710.88
387.363	1729.88
387.588	1681.88
387.813	1703.88
388.038	1707.88
388.263	1704.88
388.488	1753.88
388.713	1720.88
388.938	1704.88
389.163	1729.88
389.387	1729.88
389.612	1701.88
389.837	1722.88
390.062	1684.88
390.287	1739.88
390.512	1730.88
390.736	1726.88
390.961	1818.88
391.186	1799.88
391.411	1800.88
391.636	1847.88
391.86	1862.88
392.085	1870.88
392.31	1847.88
392.534	1847.88
392.759	1850.88
392.984	1843.88
393.208	1808.88
393.433	1805.88
393.658	1853.88
393.882	1792.88
394.107	1808.88
394.331	1832.88
394.556	1842.88
394.78	1816.88
395.005	1800.88
395.229	1817.88
395.454	1886.88
395.678	1906.88
395.903	1894.88
396.127	1918.88
396.352	1865.88
396.576	1877.88
396.801	1824.88
397.025	1924.88
397.249	1957.88
397.474	1949.88
397.698	1897.88
397.922	1977.88
398.147	1962.88
398.371	2038.88
398.595	2066.88
398.82	2103.88
399.044	2232.88
399.268	2355.88
399.492	2476.88
399.717	2647.88
399.941	2700.88
400.165	2619.88
400.389	2480.88
400.613	2412.88
400.837	2312.88
401.062	2240.88
401.286	2186.88
401.51	2197.88
401.734	2140.88
401.958	2159.88
402.182	2189.88
402.406	2119.88
402.63	2200.88
402.854	2203.88
403.078	2180.88
403.302	2218.88
403.526	2233.88
403.75	2224.88
403.974	2259.88
404.198	2244.88
404.422	2238.88
404.645	2247.88
404.869	2238.88
405.093	2255.88
405.317	2264.88
405.541	2251.88
405.765	2250.88
405.988	2248.88
406.212	2305.88
406.436	2310.88
406.66	2317.88
406.883	2334.88
407.107	2452.88
407.331	2486.88
407.555	2566.88
407.778	2584.88
408.002	2515.88
408.226	2503.88
408.449	2448.88
408.673	2409.88
408.896	2356.88
409.12	2309.88
409.344	2378.88
409.567	2371.88
409.791	2333.88
410.014	2316.88
410.238	2277.88
410.461	2288.88
410.685	2331.88
410.908	2256.88
411.132	2245.88
411.355	2166.88
411.578	2200.88
411.802	2182.88
412.025	2239.88
412.249	2242.88
412.472	2282.88
412.695	2166.88
412.919	2144.88
413.142	2176.88
413.365	2158.88
413.589	2169.88
413.812	2144.88
414.035	2133.88
414.258	2103.88
414.482	2128.88
414.705	2126.88
414.928	2148.88
415.151	2141.88
415.374	2139.88
415.597	2104.88
415.821	2073.88
416.044	2080.88
416.267	2106.88
416.49	2091.88
416.713	2071.88
416.936	2030.88
417.159	2058.88
417.382	2026.88
417.605	1997.88
417.828	2031.88
418.051	2101.88
418.274	2082.88
418.497	2039.88
418.72	2067.88
418.943	2037.88
419.166	2174.88
419.389	2352.88
419.611	2284.88
419.834	2223.88
420.057	2191.88
420.28	2107.88
420.503	2018.88
420.726	2035.88
420.948	2034.88
421.171	2053.88
421.394	2050.88
421.617	2036.88
421.839	2044.88
422.062	2085.88
422.285	2060.88
422.507	2124.88
422.73	2046.88
422.953	2074.88
423.175	2058.88
423.398	2097.88
423.621	2116.88
423.843	2138.88
424.066	2104.88
424.288	2085.88
424.511	2066.88
424.733	2054.88
424.956	2051.88
425.178	2100.88
425.401	2093.88
425.623	2071.88
425.846	1998.88
426.068	2023.88
426.291	2019.88
426.513	2056.88
426.735	1987.88
426.958	1995.88
427.18	1981.88
427.402	1976.88
427.625	1985.88
427.847	1970.88
428.069	1948.88
428.292	1981.88
428.514	1957.88
428.736	1949.88
428.958	1982.88
429.181	1925.88
429.403	1908.88
429.625	1947.88
429.847	1914.88
430.069	1877.88
430.292	1926.88
430.514	1906.88
430.736	1918.88
430.958	1918.88
431.18	1922.88
431.402	1914.88
431.624	1918.88
431.846	1938.88
432.068	1978.88
432.29	1973.88
432.512	1979.88
432.734	2023.88
432.956	1956.88
433.178	2023.88
433.4	2008.88
433.622	2021.88
433.844	1970.88
434.066	2024.88
434.287	1988.88
434.509	2066.88
434.731	2072.88
434.953	2063.88
435.175	2092.88
435.397	2108.88
435.618	2051.88
435.84	2009.88
436.062	1970.88
436.284	1924.88
436.505	1920.88
436.727	1926.88
436.949	1929.88
437.17	1923.88
437.392	1947.88
437.614	1932.88
437.835	1883.88
438.057	1905.88
438.278	1872.88
438.5	1887.88
438.721	1864.88
438.943	1963.88
439.165	1892.88
439.386	1885.88
439.608	1919.88
439.829	1929.88
440.05	1929.88
440.272	1957.88
440.493	1961.88
440.715	2008.88
440.936	1964.88
441.158	1985.88
441.379	2053.88
441.6	2144.88
441.822	2058.88
442.043	2106.88
442.264	2115.88
442.486	2008.88
442.707	2077.88
442.928	2042.88
443.149	2087.88
443.371	2079.88
443.592	2154.88
443.813	2144.88
444.034	2137.88
444.255	2167.88
444.476	2194.88
444.698	2238.88
444.919	2372.88
445.14	2393.88
445.361	2288.88
445.582	2181.88
445.803	2128.88
446.024	2053.88
446.245	2008.88
446.466	2059.88
446.687	1941.88
446.908	1954.88
447.129	1902.88
447.35	1907.88
447.571	1852.88
447.792	1865.88
448.013	1851.88
448.234	1820.88
448.455	1822.88
448.675	1818.88
448.896	1802.88
449.117	1755.88
449.338	1789.88
449.559	1814.88
449.779	1786.88
450	1773.88
450.221	1786.88
450.442	1780.88
450.662	1782.88
450.883	1772.88
451.104	1858.88
451.324	1752.88
451.545	1796.88
451.766	1780.88
451.986	1749.88
452.207	1785.88
452.428	1728.88
452.648	1757.88
452.869	1716.88
453.089	1692.88
453.31	1755.88
453.53	1690.88
453.751	1744.88
453.971	1720.88
454.192	1804.88
454.412	1754.88
454.633	1759.88
454.853	1729.88
455.073	1680.88
455.294	1704.88
455.514	1677.88
455.734	1702.88
455.955	1739.88
456.175	1732.88
456.395	1688.88
456.616	1651.88
456.836	1700.88
457.056	1705.88
457.276	1669.88
457.497	1739.88
457.717	1750.88
457.937	1750.88
458.157	1740.88
458.377	1748.88
458.598	1794.88
458.818	1836.88
459.038	1883.88
459.258	1940.88
459.478	2008.88
459.698	2131.88
459.918	2129.88
460.138	2111.88
460.358	2173.88
460.578	2173.88
460.798	2257.88
461.018	2277.88
461.238	2208.88
461.458	2252.88
461.678	2183.88
461.898	2248.88
462.118	2253.88
462.338	2354.88
462.558	2340.88
462.777	2481.88
462.997	2573.88
463.217	2613.88
463.437	2744.88
463.657	2657.88
463.876	2489.88
464.096	2490.88
464.316	2446.88
464.536	2404.88
464.755	2356.88
464.975	2309.88
465.195	2268.88
465.414	2211.88
465.634	2101.88
465.854	2043.88
466.073	2021.88
466.293	1941.88
466.512	1940.88
466.732	1948.88
466.951	1931.88
467.171	1880.88
467.391	1899.88
467.61	1918.88
467.829	1897.88
468.049	1870.88
468.268	1808.88
468.488	1842.88
468.707	1804.88
468.927	1842.88
469.146	1855.88
469.365	1892.88
469.585	1899.88
469.804	1876.88
470.023	1898.88
470.243	1882.88
470.462	1902.88
470.681	1916.88
470.901	1906.88
471.12	1914.88
471.339	1898.88
471.558	1906.88
471.777	1904.88
471.997	1923.88
472.216	1887.88
472.435	1846.88
472.654	1812.88
472.873	1793.88
473.092	1801.88
473.311	1807.88
473.53	1866.88
473.749	1844.88
473.968	1842.88
474.187	1878.88
474.406	1826.88
474.625	1874.88
474.844	1869.88
475.063	1890.88
475.282	1916.88
475.501	1885.88
475.72	1876.88
475.939	1928.88
476.158	1924.88
476.377	1941.88
476.596	1936.88
476.814	1960.88
477.033	1997.88
477.252	1946.88
477.471	2003.88
477.69	2039.88
477.908	2081.88
478.127	2117.88
478.346	2137.88
478.564	2188.88
478.783	2217.88
479.002	2269.88
479.22	2342.88
479.439	2328.88
479.658	2257.88
479.876	2263.88
480.095	2294.88
480.313	2334.88
480.532	2321.88
480.751	2356.88
480.969	2281.88
481.188	2247.88
481.406	2250.88
481.624	2237.88
481.843	2190.88
482.061	2188.88
482.28	2194.88
482.498	2214.88
482.717	2166.88
482.935	2201.88
483.153	2215.88
483.372	2274.88
483.59	2253.88
483.808	2228.88
484.027	2237.88
484.245	2229.88
484.463	2274.88
484.681	2237.88
484.9	2274.88
485.118	2286.88
485.336	2268.88
485.554	2292.88
485.772	2356.88
485.99	2299.88
486.209	2250.88
486.427	2257.88
486.645	2304.88
486.863	2310.88
487.081	2308.88
487.299	2301.88
487.517	2274.88
487.735	2271.88
487.953	2341.88
488.171	2302.88
488.389	2315.88
488.607	2256.88
488.825	2264.88
489.043	2259.88
489.261	2255.88
