Data from NiCl2@0.25M.TitratingCurve.Agarose3%dH2O.NegLispCup.LampEnergy10.LIBS07252019_HRD10591_18-23-19-573.txt Node
Date: Thu Jul 25 18:23:19 EDT 2019
User: cochatt
Spectrometer: HR+D1059
Trigger mode: 1
Integration Time (sec): 1.000000E-1
Scans to average: 1
Electric dark correction enabled: true
Nonlinearity correction enabled: false
Boxcar width: 0
XAxis mode: Wavelengths
Number of Pixels in Spectrum: 2048
>>>>>Begin Spectral Data<<<<<
223.165	-17.19
223.4	-17.19
223.635	-17.19
223.869	-21.19
224.104	-6.19
224.338	-19.19
224.573	-9.19
224.808	-24.19
225.042	6.81
225.277	-10.19
225.511	8.81
225.746	-18.19
225.98	5.81
226.215	12.81
226.449	21.81
226.683	12.81
226.918	22.81
227.152	33.81
227.387	35.81
227.621	30.81
227.856	38.81
228.09	47.81
228.324	43.81
228.559	50.81
228.793	68.81
229.027	96.81
229.262	119.81
229.496	115.81
229.73	136.81
229.964	129.81
230.199	115.81
230.433	122.81
230.667	141.81
230.901	125.81
231.136	121.81
231.37	130.81
231.604	138.81
231.838	142.81
232.072	126.81
232.306	139.81
232.541	122.81
232.775	119.81
233.009	125.81
233.243	127.81
233.477	133.81
233.711	136.81
233.945	132.81
234.179	146.81
234.413	160.81
234.647	142.81
234.881	145.81
235.115	135.81
235.349	157.81
235.583	148.81
235.817	159.81
236.051	139.81
236.285	158.81
236.519	164.81
236.753	159.81
236.987	154.81
237.221	140.81
237.455	137.81
237.689	149.81
237.922	141.81
238.156	140.81
238.39	157.81
238.624	145.81
238.858	161.81
239.091	174.81
239.325	159.81
239.559	170.81
239.793	173.81
240.027	164.81
240.26	176.81
240.494	163.81
240.728	177.81
240.961	144.81
241.195	173.81
241.429	188.81
241.662	185.81
241.896	179.81
242.13	168.81
242.363	169.81
242.597	178.81
242.83	187.81
243.064	178.81
243.298	181.81
243.531	161.81
243.765	184.81
243.998	180.81
244.232	191.81
244.465	202.81
244.699	193.81
244.932	199.81
245.166	195.81
245.399	200.81
245.633	195.81
245.866	206.81
246.099	197.81
246.333	193.81
246.566	214.81
246.8	217.81
247.033	199.81
247.266	197.81
247.5	197.81
247.733	200.81
247.966	215.81
248.2	209.81
248.433	233.81
248.666	211.81
248.899	216.81
249.133	237.81
249.366	224.81
249.599	234.81
249.832	218.81
250.066	220.81
250.299	235.81
250.532	223.81
250.765	222.81
250.998	242.81
251.231	237.81
251.465	243.81
251.698	239.81
251.931	214.81
252.164	222.81
252.397	248.81
252.63	257.81
252.863	245.81
253.096	249.81
253.329	242.81
253.562	231.81
253.795	240.81
254.028	242.81
254.261	254.81
254.494	261.81
254.727	257.81
254.96	245.81
255.193	253.81
255.426	253.81
255.659	262.81
255.892	254.81
256.124	262.81
256.357	260.81
256.59	280.81
256.823	272.81
257.056	257.81
257.289	267.81
257.521	285.81
257.754	267.81
257.987	282.81
258.22	259.81
258.452	276.81
258.685	281.81
258.918	277.81
259.151	276.81
259.383	256.81
259.616	255.81
259.849	280.81
260.081	283.81
260.314	296.81
260.547	305.81
260.779	287.81
261.012	302.81
261.244	277.81
261.477	301.81
261.71	296.81
261.942	289.81
262.175	296.81
262.407	313.81
262.64	308.81
262.872	286.81
263.105	319.81
263.337	311.81
263.57	297.81
263.802	316.81
264.035	298.81
264.267	339.81
264.499	304.81
264.732	305.81
264.964	307.81
265.197	315.81
265.429	326.81
265.661	303.81
265.894	304.81
266.126	320.81
266.358	297.81
266.591	311.81
266.823	318.81
267.055	308.81
267.287	333.81
267.52	334.81
267.752	328.81
267.984	341.81
268.216	332.81
268.448	351.81
268.681	350.81
268.913	347.81
269.145	355.81
269.377	355.81
269.609	360.81
269.841	347.81
270.073	344.81
270.306	352.81
270.538	342.81
270.77	336.81
271.002	351.81
271.234	362.81
271.466	363.81
271.698	363.81
271.93	361.81
272.162	355.81
272.394	359.81
272.626	361.81
272.858	359.81
273.09	365.81
273.322	365.81
273.553	349.81
273.785	372.81
274.017	340.81
274.249	372.81
274.481	367.81
274.713	370.81
274.945	389.81
275.176	385.81
275.408	373.81
275.64	401.81
275.872	381.81
276.104	384.81
276.335	387.81
276.567	385.81
276.799	378.81
277.031	393.81
277.262	381.81
277.494	381.81
277.726	404.81
277.957	384.81
278.189	403.81
278.421	390.81
278.652	410.81
278.884	397.81
279.115	380.81
279.347	396.81
279.579	406.81
279.81	413.81
280.042	421.81
280.273	399.81
280.505	406.81
280.736	422.81
280.968	437.81
281.199	415.81
281.431	417.81
281.662	434.81
281.894	409.81
282.125	407.81
282.356	421.81
282.588	434.81
282.819	441.81
283.051	426.81
283.282	435.81
283.513	437.81
283.745	424.81
283.976	437.81
284.207	441.81
284.439	439.81
284.67	431.81
284.901	429.81
285.132	449.81
285.364	441.81
285.595	463.81
285.826	453.81
286.057	465.81
286.288	471.81
286.52	457.81
286.751	463.81
286.982	471.81
287.213	442.81
287.444	450.81
287.675	469.81
287.906	461.81
288.138	473.81
288.369	468.81
288.6	464.81
288.831	469.81
289.062	493.81
289.293	475.81
289.524	471.81
289.755	465.81
289.986	477.81
290.217	471.81
290.448	462.81
290.679	483.81
290.91	479.81
291.141	461.81
291.371	489.81
291.602	469.81
291.833	486.81
292.064	477.81
292.295	478.81
292.526	473.81
292.757	469.81
292.987	469.81
293.218	471.81
293.449	503.81
293.68	500.81
293.91	496.81
294.141	503.81
294.372	497.81
294.603	475.81
294.833	492.81
295.064	499.81
295.295	493.81
295.525	488.81
295.756	524.81
295.987	483.81
296.217	513.81
296.448	505.81
296.679	520.81
296.909	507.81
297.14	519.81
297.37	520.81
297.601	550.81
297.831	527.81
298.062	523.81
298.292	529.81
298.523	516.81
298.753	537.81
298.984	511.81
299.214	527.81
299.445	514.81
299.675	521.81
299.905	526.81
300.136	535.81
300.366	519.81
300.597	556.81
300.827	536.81
301.057	539.81
301.288	552.81
301.518	544.81
301.748	552.81
301.979	562.81
302.209	573.81
302.439	557.81
302.669	549.81
302.9	563.81
303.13	537.81
303.36	564.81
303.59	569.81
303.82	557.81
304.051	550.81
304.281	558.81
304.511	556.81
304.741	549.81
304.971	546.81
305.201	553.81
305.431	545.81
305.661	553.81
305.891	540.81
306.121	544.81
306.352	554.81
306.582	531.81
306.812	546.81
307.042	557.81
307.272	549.81
307.502	537.81
307.731	549.81
307.961	551.81
308.191	557.81
308.421	541.81
308.651	546.81
308.881	558.81
309.111	537.81
309.341	544.81
309.571	537.81
309.8	544.81
310.03	546.81
310.26	551.81
310.49	559.81
310.72	547.81
310.949	553.81
311.179	558.81
311.409	573.81
311.639	567.81
311.868	544.81
312.098	574.81
312.328	574.81
312.557	563.81
312.787	580.81
313.017	559.81
313.246	584.81
313.476	597.81
313.706	597.81
313.935	608.81
314.165	594.81
314.394	595.81
314.624	591.81
314.853	610.81
315.083	582.81
315.312	572.81
315.542	605.81
315.771	577.81
316.001	585.81
316.23	596.81
316.46	575.81
316.689	579.81
316.919	567.81
317.148	595.81
317.377	574.81
317.607	576.81
317.836	568.81
318.065	571.81
318.295	581.81
318.524	606.81
318.753	590.81
318.983	584.81
319.212	567.81
319.441	584.81
319.67	571.81
319.9	584.81
320.129	601.81
320.358	577.81
320.587	565.81
320.816	593.81
321.046	576.81
321.275	584.81
321.504	585.81
321.733	591.81
321.962	599.81
322.191	575.81
322.42	607.81
322.649	599.81
322.878	595.81
323.108	606.81
323.337	618.81
323.566	619.81
323.795	609.81
324.024	618.81
324.253	595.81
324.482	597.81
324.71	612.81
324.939	594.81
325.168	613.81
325.397	606.81
325.626	623.81
325.855	615.81
326.084	645.81
326.313	623.81
326.542	646.81
326.77	631.81
326.999	626.81
327.228	624.81
327.457	641.81
327.686	627.81
327.914	687.81
328.143	649.81
328.372	648.81
328.6	661.81
328.829	653.81
329.058	635.81
329.287	648.81
329.515	653.81
329.744	661.81
329.972	636.81
330.201	651.81
330.43	661.81
330.658	643.81
330.887	657.81
331.115	690.81
331.344	686.81
331.572	683.81
331.801	706.81
332.03	723.81
332.258	726.81
332.486	758.81
332.715	764.81
332.943	797.81
333.172	816.81
333.4	837.81
333.629	887.81
333.857	882.81
334.085	861.81
334.314	857.81
334.542	823.81
334.771	799.81
334.999	810.81
335.227	804.81
335.455	803.81
335.684	795.81
335.912	794.81
336.14	788.81
336.369	736.81
336.597	797.81
336.825	788.81
337.053	791.81
337.281	747.81
337.51	733.81
337.738	722.81
337.966	741.81
338.194	721.81
338.422	714.81
338.65	715.81
338.878	692.81
339.106	704.81
339.334	701.81
339.562	701.81
339.79	699.81
340.018	682.81
340.246	661.81
340.474	657.81
340.702	665.81
340.93	685.81
341.158	708.81
341.386	696.81
341.614	677.81
341.842	680.81
342.07	669.81
342.298	663.81
342.526	678.81
342.754	645.81
342.981	685.81
343.209	696.81
343.437	704.81
343.665	779.81
343.893	854.81
344.12	828.81
344.348	820.81
344.576	768.81
344.804	735.81
345.031	702.81
345.259	685.81
345.487	672.81
345.714	673.81
345.942	655.81
346.17	673.81
346.397	651.81
346.625	663.81
346.853	659.81
347.08	621.81
347.308	614.81
347.535	653.81
347.763	663.81
347.99	659.81
348.218	651.81
348.445	643.81
348.673	667.81
348.9	632.81
349.128	659.81
349.355	641.81
349.583	634.81
349.81	653.81
350.037	628.81
350.265	603.81
350.492	633.81
350.72	643.81
350.947	629.81
351.174	632.81
351.402	632.81
351.629	638.81
351.856	633.81
352.083	613.81
352.311	633.81
352.538	637.81
352.765	636.81
352.992	636.81
353.22	641.81
353.447	653.81
353.674	614.81
353.901	629.81
354.128	601.81
354.355	623.81
354.583	627.81
354.81	640.81
355.037	634.81
355.264	630.81
355.491	631.81
355.718	637.81
355.945	654.81
356.172	647.81
356.399	649.81
356.626	644.81
356.853	643.81
357.08	618.81
357.307	630.81
357.534	640.81
357.761	652.81
357.988	637.81
358.215	659.81
358.441	646.81
358.668	631.81
358.895	643.81
359.122	622.81
359.349	640.81
359.576	637.81
359.802	618.81
360.029	650.81
360.256	623.81
360.483	650.81
360.709	613.81
360.936	653.81
361.163	629.81
361.39	660.81
361.616	642.81
361.843	645.81
362.07	617.81
362.296	637.81
362.523	646.81
362.749	654.81
362.976	625.81
363.203	623.81
363.429	631.81
363.656	646.81
363.882	627.81
364.109	634.81
364.335	644.81
364.562	633.81
364.788	628.81
365.015	647.81
365.241	649.81
365.468	629.81
365.694	613.81
365.92	639.81
366.147	637.81
366.373	621.81
366.599	633.81
366.826	626.81
367.052	643.81
367.278	610.81
367.505	629.81
367.731	639.81
367.957	639.81
368.184	669.81
368.41	647.81
368.636	643.81
368.862	652.81
369.089	647.81
369.315	645.81
369.541	656.81
369.767	677.81
369.993	666.81
370.219	647.81
370.445	671.81
370.672	641.81
370.898	675.81
371.124	697.81
371.35	687.81
371.576	677.81
371.802	687.81
372.028	685.81
372.254	666.81
372.48	687.81
372.706	698.81
372.932	718.81
373.158	717.81
373.384	683.81
373.61	700.81
373.835	691.81
374.061	691.81
374.287	709.81
374.513	736.81
374.739	717.81
374.965	759.81
375.191	749.81
375.416	734.81
375.642	735.81
375.868	728.81
376.094	711.81
376.319	706.81
376.545	701.81
376.771	689.81
376.997	671.81
377.222	674.81
377.448	678.81
377.674	674.81
377.899	690.81
378.125	683.81
378.35	679.81
378.576	690.81
378.802	679.81
379.027	674.81
379.253	696.81
379.478	689.81
379.704	670.81
379.929	693.81
380.155	688.81
380.38	671.81
380.606	702.81
380.831	696.81
381.057	701.81
381.282	669.81
381.507	664.81
381.733	686.81
381.958	695.81
382.184	736.81
382.409	741.81
382.634	725.81
382.86	708.81
383.085	723.81
383.31	760.81
383.535	764.81
383.761	754.81
383.986	767.81
384.211	806.81
384.436	799.81
384.662	814.81
384.887	816.81
385.112	810.81
385.337	807.81
385.562	836.81
385.787	845.81
386.013	819.81
386.238	816.81
386.463	830.81
386.688	821.81
386.913	832.81
387.138	813.81
387.363	801.81
387.588	809.81
387.813	813.81
388.038	783.81
388.263	836.81
388.488	850.81
388.713	840.81
388.938	813.81
389.163	819.81
389.387	786.81
389.612	824.81
389.837	830.81
390.062	810.81
390.287	805.81
390.512	803.81
390.736	827.81
390.961	831.81
391.186	858.81
391.411	867.81
391.636	885.81
391.86	933.81
392.085	918.81
392.31	939.81
392.534	889.81
392.759	891.81
392.984	864.81
393.208	855.81
393.433	869.81
393.658	861.81
393.882	874.81
394.107	870.81
394.331	888.81
394.556	895.81
394.78	905.81
395.005	906.81
395.229	887.81
395.454	928.81
395.678	955.81
395.903	915.81
396.127	929.81
396.352	886.81
396.576	896.81
396.801	885.81
397.025	909.81
397.249	901.81
397.474	941.81
397.698	934.81
397.922	927.81
398.147	908.81
398.371	969.81
398.595	965.81
398.82	1013.81
399.044	1072.81
399.268	1220.81
399.492	1399.81
399.717	1583.81
399.941	1550.81
400.165	1377.81
400.389	1235.81
400.613	1147.81
400.837	1105.81
401.062	1089.81
401.286	1041.81
401.51	1051.81
401.734	1026.81
401.958	1077.81
402.182	1075.81
402.406	1056.81
402.63	1081.81
402.854	1120.81
403.078	1139.81
403.302	1150.81
403.526	1180.81
403.75	1183.81
403.974	1211.81
404.198	1199.81
404.422	1186.81
404.645	1218.81
404.869	1169.81
405.093	1163.81
405.317	1134.81
405.541	1122.81
405.765	1124.81
405.988	1104.81
406.212	1155.81
406.436	1153.81
406.66	1163.81
406.883	1171.81
407.107	1250.81
407.331	1285.81
407.555	1309.81
407.778	1344.81
408.002	1290.81
408.226	1249.81
408.449	1240.81
408.673	1207.81
408.896	1143.81
409.12	1143.81
409.344	1172.81
409.567	1166.81
409.791	1153.81
410.014	1166.81
410.238	1117.81
410.461	1116.81
410.685	1130.81
410.908	1089.81
411.132	1087.81
411.355	1081.81
411.578	1074.81
411.802	1073.81
412.025	1067.81
412.249	1107.81
412.472	1063.81
412.695	1041.81
412.919	1029.81
413.142	1018.81
413.365	1025.81
413.589	1033.81
413.812	1051.81
414.035	1025.81
414.258	1034.81
414.482	1019.81
414.705	1034.81
414.928	1026.81
415.151	1048.81
415.374	1027.81
415.597	1014.81
415.821	1039.81
416.044	997.81
416.267	1014.81
416.49	1021.81
416.713	990.81
416.936	1027.81
417.159	1003.81
417.382	1034.81
417.605	1003.81
417.828	1043.81
418.051	1027.81
418.274	1041.81
418.497	1022.81
418.72	1020.81
418.943	1049.81
419.166	1109.81
419.389	1179.81
419.611	1153.81
419.834	1086.81
420.057	1083.81
420.28	1025.81
420.503	1014.81
420.726	990.81
420.948	1021.81
421.171	1033.81
421.394	1012.81
421.617	1027.81
421.839	1028.81
422.062	1006.81
422.285	1032.81
422.507	1033.81
422.73	1013.81
422.953	1035.81
423.175	1047.81
423.398	1085.81
423.621	1069.81
423.843	1084.81
424.066	1092.81
424.288	1084.81
424.511	1047.81
424.733	1037.81
424.956	1039.81
425.178	1010.81
425.401	1031.81
425.623	1016.81
425.846	960.81
426.068	957.81
426.291	976.81
426.513	941.81
426.735	958.81
426.958	937.81
427.18	919.81
427.402	911.81
427.625	913.81
427.847	921.81
428.069	910.81
428.292	919.81
428.514	907.81
428.736	895.81
428.958	916.81
429.181	897.81
429.403	855.81
429.625	882.81
429.847	884.81
430.069	882.81
430.292	872.81
430.514	873.81
430.736	858.81
430.958	881.81
431.18	874.81
431.402	893.81
431.624	870.81
431.846	906.81
432.068	898.81
432.29	912.81
432.512	890.81
432.734	907.81
432.956	897.81
433.178	917.81
433.4	895.81
433.622	919.81
433.844	930.81
434.066	902.81
434.287	905.81
434.509	942.81
434.731	1007.81
434.953	1029.81
435.175	1000.81
435.397	959.81
435.618	966.81
435.84	944.81
436.062	889.81
436.284	899.81
436.505	884.81
436.727	899.81
436.949	926.81
437.17	898.81
437.392	890.81
437.614	893.81
437.835	829.81
438.057	864.81
438.278	864.81
438.5	893.81
438.721	867.81
438.943	861.81
439.165	857.81
439.386	842.81
439.608	905.81
439.829	901.81
440.05	908.81
440.272	917.81
440.493	944.81
440.715	905.81
440.936	911.81
441.158	950.81
441.379	964.81
441.6	1002.81
441.822	1012.81
442.043	1011.81
442.264	974.81
442.486	993.81
442.707	986.81
442.928	973.81
443.149	997.81
443.371	994.81
443.592	975.81
443.813	1028.81
444.034	1023.81
444.255	1048.81
444.476	1114.81
444.698	1145.81
444.919	1209.81
445.14	1258.81
445.361	1144.81
445.582	1051.81
445.803	968.81
446.024	959.81
446.245	953.81
446.466	936.81
446.687	887.81
446.908	921.81
447.129	889.81
447.35	882.81
447.571	851.81
447.792	822.81
448.013	827.81
448.234	840.81
448.455	821.81
448.675	834.81
448.896	829.81
449.117	809.81
449.338	781.81
449.559	792.81
449.779	798.81
450	800.81
450.221	838.81
450.442	804.81
450.662	819.81
450.883	829.81
451.104	847.81
451.324	843.81
451.545	833.81
451.766	818.81
451.986	827.81
452.207	808.81
452.428	781.81
452.648	807.81
452.869	817.81
453.089	785.81
453.31	807.81
453.53	794.81
453.751	789.81
453.971	803.81
454.192	760.81
454.412	744.81
454.633	769.81
454.853	746.81
455.073	761.81
455.294	775.81
455.514	736.81
455.734	751.81
455.955	745.81
456.175	749.81
456.395	754.81
456.616	778.81
456.836	765.81
457.056	776.81
457.276	778.81
457.497	782.81
457.717	783.81
457.937	802.81
458.157	791.81
458.377	789.81
458.598	817.81
458.818	823.81
459.038	859.81
459.258	872.81
459.478	895.81
459.698	911.81
459.918	936.81
460.138	996.81
460.358	1060.81
460.578	1053.81
460.798	1077.81
461.018	1062.81
461.238	1073.81
461.458	1042.81
461.678	1034.81
461.898	1062.81
462.118	1080.81
462.338	1122.81
462.558	1130.81
462.777	1204.81
462.997	1309.81
463.217	1429.81
463.437	1451.81
463.657	1305.81
463.876	1239.81
464.096	1228.81
464.316	1220.81
464.536	1223.81
464.755	1189.81
464.975	1145.81
465.195	1089.81
465.414	1041.81
465.634	970.81
465.854	955.81
466.073	912.81
466.293	922.81
466.512	910.81
466.732	875.81
466.951	901.81
467.171	870.81
467.391	851.81
467.61	854.81
467.829	866.81
468.049	879.81
468.268	839.81
468.488	819.81
468.707	809.81
468.927	837.81
469.146	843.81
469.365	871.81
469.585	825.81
469.804	877.81
470.023	883.81
470.243	860.81
470.462	878.81
470.681	903.81
470.901	903.81
471.12	867.81
471.339	877.81
471.558	850.81
471.777	849.81
471.997	838.81
472.216	836.81
472.435	838.81
472.654	817.81
472.873	806.81
473.092	817.81
473.311	837.81
473.53	799.81
473.749	817.81
473.968	789.81
474.187	807.81
474.406	806.81
474.625	817.81
474.844	799.81
475.063	823.81
475.282	831.81
475.501	840.81
475.72	829.81
475.939	822.81
476.158	835.81
476.377	830.81
476.596	843.81
476.814	874.81
477.033	873.81
477.252	898.81
477.471	878.81
477.69	920.81
477.908	956.81
478.127	963.81
478.346	970.81
478.564	986.81
478.783	1008.81
479.002	1053.81
479.22	1017.81
479.439	1046.81
479.658	999.81
479.876	1025.81
480.095	1055.81
480.313	1093.81
480.532	1106.81
480.751	1097.81
480.969	1073.81
481.188	1026.81
481.406	971.81
481.624	956.81
481.843	941.81
482.061	946.81
482.28	940.81
482.498	933.81
482.717	955.81
482.935	950.81
483.153	963.81
483.372	947.81
483.59	952.81
483.808	962.81
484.027	947.81
484.245	942.81
484.463	933.81
484.681	971.81
484.9	948.81
485.118	983.81
485.336	965.81
485.554	986.81
485.772	972.81
485.99	993.81
486.209	978.81
486.427	990.81
486.645	979.81
486.863	991.81
487.081	984.81
487.299	971.81
487.517	991.81
487.735	988.81
487.953	989.81
488.171	990.81
488.389	965.81
488.607	966.81
488.825	999.81
489.043	976.81
489.261	981.81
489.479	973.81
489.696	1000.81
489.914	946.81
490.132	974.81
490.35	1015.81
490.568	979.81
490.786	994.81
491.003	1001.81
491.221	982.81
491.439	989.81
491.657	990.81
491.874	1006.81
492.092	1003.81
492.31	1041.81
492.527	1041.81
492.745	1030.81
492.963	1016.81
493.18	994.81
493.398	1048.81
493.615	1032.81
493.833	1038.81
494.05	1010.81
494.268	1070.81
494.485	1056.81
494.703	1035.81
494.92	1079.81
495.138	1055.81
495.355	1033.81
495.573	1059.81
495.79	1059.81
496.008	1115.81
496.225	1079.81
496.442	1069.81
496.66	1122.81
496.877	1103.81
497.094	1102.81
497.312	1155.81
497.529	1177.81
497.746	1177.81
497.963	1199.81
498.181	1287.81
498.398	1314.81
498.615	1391.81
498.832	1507.81
