Data from NiCl2@0.0625M.TitratingCurve.Agarose3%dH2O.NegLispCup.LampEnergy10.LIBS07252019_HRD10591_18-32-29-576.txt Node
Date: Thu Jul 25 18:32:29 EDT 2019
User: cochatt
Spectrometer: HR+D1059
Trigger mode: 1
Integration Time (sec): 1.000000E-1
Scans to average: 1
Electric dark correction enabled: true
Nonlinearity correction enabled: false
Boxcar width: 0
XAxis mode: Wavelengths
Number of Pixels in Spectrum: 2048
>>>>>Begin Spectral Data<<<<<
223.165	-17.81
223.4	-17.81
223.635	-17.81
223.869	-34.81
224.104	-18.81
224.338	-14.81
224.573	-24.81
224.808	-3.81
225.042	-20.81
225.277	2.19
225.511	-8.81
225.746	7.19
225.98	9.19
226.215	12.19
226.449	27.19
226.683	23.19
226.918	22.19
227.152	41.19
227.387	46.19
227.621	42.19
227.856	52.19
228.09	35.19
228.324	39.19
228.559	63.19
228.793	83.19
229.027	170.19
229.262	146.19
229.496	153.19
229.73	191.19
229.964	193.19
230.199	209.19
230.433	187.19
230.667	186.19
230.901	193.19
231.136	185.19
231.37	195.19
231.604	184.19
231.838	210.19
232.072	208.19
232.306	219.19
232.541	216.19
232.775	215.19
233.009	225.19
233.243	222.19
233.477	208.19
233.711	242.19
233.945	223.19
234.179	214.19
234.413	230.19
234.647	241.19
234.881	219.19
235.115	230.19
235.349	234.19
235.583	243.19
235.817	240.19
236.051	237.19
236.285	259.19
236.519	227.19
236.753	252.19
236.987	239.19
237.221	243.19
237.455	228.19
237.689	243.19
237.922	251.19
238.156	271.19
238.39	262.19
238.624	242.19
238.858	263.19
239.091	262.19
239.325	250.19
239.559	275.19
239.793	294.19
240.027	259.19
240.26	310.19
240.494	302.19
240.728	290.19
240.961	307.19
241.195	293.19
241.429	307.19
241.662	310.19
241.896	315.19
242.13	330.19
242.363	317.19
242.597	313.19
242.83	330.19
243.064	317.19
243.298	326.19
243.531	334.19
243.765	342.19
243.998	335.19
244.232	343.19
244.465	351.19
244.699	360.19
244.932	358.19
245.166	356.19
245.399	351.19
245.633	372.19
245.866	349.19
246.099	373.19
246.333	360.19
246.566	385.19
246.8	378.19
247.033	379.19
247.266	368.19
247.5	377.19
247.733	396.19
247.966	389.19
248.2	415.19
248.433	400.19
248.666	402.19
248.899	421.19
249.133	405.19
249.366	418.19
249.599	418.19
249.832	423.19
250.066	419.19
250.299	430.19
250.532	414.19
250.765	424.19
250.998	466.19
251.231	442.19
251.465	454.19
251.698	447.19
251.931	452.19
252.164	463.19
252.397	465.19
252.63	468.19
252.863	454.19
253.096	476.19
253.329	472.19
253.562	477.19
253.795	462.19
254.028	481.19
254.261	481.19
254.494	471.19
254.727	463.19
254.96	483.19
255.193	491.19
255.426	498.19
255.659	493.19
255.892	506.19
256.124	505.19
256.357	486.19
256.59	507.19
256.823	510.19
257.056	503.19
257.289	497.19
257.521	513.19
257.754	527.19
257.987	530.19
258.22	543.19
258.452	518.19
258.685	536.19
258.918	528.19
259.151	530.19
259.383	537.19
259.616	549.19
259.849	569.19
260.081	552.19
260.314	553.19
260.547	580.19
260.779	562.19
261.012	563.19
261.244	577.19
261.477	562.19
261.71	551.19
261.942	557.19
262.175	568.19
262.407	577.19
262.64	554.19
262.872	586.19
263.105	589.19
263.337	586.19
263.57	593.19
263.802	623.19
264.035	602.19
264.267	614.19
264.499	603.19
264.732	605.19
264.964	621.19
265.197	619.19
265.429	635.19
265.661	609.19
265.894	610.19
266.126	631.19
266.358	629.19
266.591	615.19
266.823	640.19
267.055	611.19
267.287	641.19
267.52	644.19
267.752	661.19
267.984	646.19
268.216	645.19
268.448	637.19
268.681	658.19
268.913	651.19
269.145	663.19
269.377	680.19
269.609	659.19
269.841	661.19
270.073	667.19
270.306	666.19
270.538	698.19
270.77	692.19
271.002	682.19
271.234	687.19
271.466	681.19
271.698	687.19
271.93	695.19
272.162	712.19
272.394	698.19
272.626	713.19
272.858	699.19
273.09	718.19
273.322	728.19
273.553	719.19
273.785	729.19
274.017	712.19
274.249	701.19
274.481	741.19
274.713	748.19
274.945	735.19
275.176	734.19
275.408	745.19
275.64	760.19
275.872	769.19
276.104	733.19
276.335	763.19
276.567	763.19
276.799	778.19
277.031	775.19
277.262	762.19
277.494	773.19
277.726	789.19
277.957	791.19
278.189	774.19
278.421	779.19
278.652	783.19
278.884	788.19
279.115	797.19
279.347	819.19
279.579	831.19
279.81	845.19
280.042	832.19
280.273	820.19
280.505	817.19
280.736	845.19
280.968	834.19
281.199	818.19
281.431	843.19
281.662	877.19
281.894	827.19
282.125	864.19
282.356	861.19
282.588	867.19
282.819	839.19
283.051	859.19
283.282	855.19
283.513	854.19
283.745	862.19
283.976	882.19
284.207	873.19
284.439	889.19
284.67	868.19
284.901	877.19
285.132	899.19
285.364	902.19
285.595	905.19
285.826	873.19
286.057	909.19
286.288	901.19
286.52	910.19
286.751	896.19
286.982	920.19
287.213	946.19
287.444	911.19
287.675	947.19
287.906	933.19
288.138	933.19
288.369	916.19
288.6	941.19
288.831	929.19
289.062	912.19
289.293	927.19
289.524	916.19
289.755	962.19
289.986	931.19
290.217	916.19
290.448	915.19
290.679	953.19
290.91	947.19
291.141	946.19
291.371	952.19
291.602	958.19
291.833	945.19
292.064	944.19
292.295	971.19
292.526	975.19
292.757	945.19
292.987	961.19
293.218	935.19
293.449	925.19
293.68	958.19
293.91	962.19
294.141	970.19
294.372	952.19
294.603	919.19
294.833	980.19
295.064	932.19
295.295	963.19
295.525	945.19
295.756	969.19
295.987	984.19
296.217	969.19
296.448	1002.19
296.679	954.19
296.909	943.19
297.14	980.19
297.37	994.19
297.601	992.19
297.831	1002.19
298.062	997.19
298.292	1022.19
298.523	1054.19
298.753	1070.19
298.984	1026.19
299.214	1029.19
299.445	997.19
299.675	1007.19
299.905	1033.19
300.136	1047.19
300.366	1045.19
300.597	1074.19
300.827	1049.19
301.057	1054.19
301.288	1069.19
301.518	1074.19
301.748	1065.19
301.979	1086.19
302.209	1107.19
302.439	1108.19
302.669	1073.19
302.9	1098.19
303.13	1067.19
303.36	1107.19
303.59	1085.19
303.82	1072.19
304.051	1079.19
304.281	1103.19
304.511	1086.19
304.741	1085.19
304.971	1058.19
305.201	1071.19
305.431	1078.19
305.661	1094.19
305.891	1090.19
306.121	1063.19
306.352	1087.19
306.582	1087.19
306.812	1065.19
307.042	1090.19
307.272	1076.19
307.502	1056.19
307.731	1105.19
307.961	1085.19
308.191	1076.19
308.421	1081.19
308.651	1077.19
308.881	1084.19
309.111	1088.19
309.341	1075.19
309.571	1090.19
309.8	1098.19
310.03	1092.19
310.26	1117.19
310.49	1087.19
310.72	1124.19
310.949	1081.19
311.179	1075.19
311.409	1113.19
311.639	1113.19
311.868	1087.19
312.098	1116.19
312.328	1105.19
312.557	1130.19
312.787	1118.19
313.017	1126.19
313.246	1141.19
313.476	1140.19
313.706	1186.19
313.935	1148.19
314.165	1147.19
314.394	1150.19
314.624	1157.19
314.853	1171.19
315.083	1142.19
315.312	1166.19
315.542	1149.19
315.771	1184.19
316.001	1149.19
316.23	1127.19
316.46	1171.19
316.689	1163.19
316.919	1145.19
317.148	1155.19
317.377	1151.19
317.607	1151.19
317.836	1141.19
318.065	1125.19
318.295	1140.19
318.524	1155.19
318.753	1139.19
318.983	1150.19
319.212	1145.19
319.441	1147.19
319.67	1167.19
319.9	1157.19
320.129	1123.19
320.358	1134.19
320.587	1146.19
320.816	1185.19
321.046	1167.19
321.275	1147.19
321.504	1143.19
321.733	1159.19
321.962	1175.19
322.191	1117.19
322.42	1174.19
322.649	1188.19
322.878	1177.19
323.108	1146.19
323.337	1194.19
323.566	1190.19
323.795	1175.19
324.024	1147.19
324.253	1202.19
324.482	1179.19
324.71	1221.19
324.939	1187.19
325.168	1231.19
325.397	1244.19
325.626	1212.19
325.855	1219.19
326.084	1297.19
326.313	1243.19
326.542	1262.19
326.77	1250.19
326.999	1231.19
327.228	1225.19
327.457	1234.19
327.686	1232.19
327.914	1259.19
328.143	1207.19
328.372	1237.19
328.6	1270.19
328.829	1273.19
329.058	1281.19
329.287	1247.19
329.515	1286.19
329.744	1255.19
329.972	1289.19
330.201	1311.19
330.43	1293.19
330.658	1295.19
330.887	1312.19
331.115	1279.19
331.344	1343.19
331.572	1316.19
331.801	1354.19
332.03	1352.19
332.258	1419.19
332.486	1413.19
332.715	1436.19
332.943	1466.19
333.172	1545.19
333.4	1554.19
333.629	1569.19
333.857	1614.19
334.085	1610.19
334.314	1599.19
334.542	1610.19
334.771	1602.19
334.999	1548.19
335.227	1506.19
335.455	1509.19
335.684	1552.19
335.912	1541.19
336.14	1553.19
336.369	1554.19
336.597	1527.19
336.825	1495.19
337.053	1515.19
337.281	1486.19
337.51	1449.19
337.738	1468.19
337.966	1455.19
338.194	1431.19
338.422	1391.19
338.65	1381.19
338.878	1370.19
339.106	1364.19
339.334	1393.19
339.562	1343.19
339.79	1329.19
340.018	1357.19
340.246	1316.19
340.474	1311.19
340.702	1310.19
340.93	1333.19
341.158	1311.19
341.386	1338.19
341.614	1372.19
341.842	1354.19
342.07	1343.19
342.298	1296.19
342.526	1327.19
342.754	1303.19
342.981	1335.19
343.209	1334.19
343.437	1433.19
343.665	1432.19
343.893	1527.19
344.12	1594.19
344.348	1535.19
344.576	1502.19
344.804	1455.19
345.031	1429.19
345.259	1379.19
345.487	1360.19
345.714	1331.19
345.942	1353.19
346.17	1327.19
346.397	1311.19
346.625	1284.19
346.853	1304.19
347.08	1275.19
347.308	1265.19
347.535	1287.19
347.763	1279.19
347.99	1225.19
348.218	1283.19
348.445	1273.19
348.673	1231.19
348.9	1233.19
349.128	1264.19
349.355	1247.19
349.583	1281.19
349.81	1258.19
350.037	1227.19
350.265	1234.19
350.492	1229.19
350.72	1218.19
350.947	1226.19
351.174	1245.19
351.402	1263.19
351.629	1257.19
351.856	1234.19
352.083	1192.19
352.311	1226.19
352.538	1236.19
352.765	1239.19
352.992	1222.19
353.22	1214.19
353.447	1185.19
353.674	1142.19
353.901	1205.19
354.128	1216.19
354.355	1199.19
354.583	1184.19
354.81	1192.19
355.037	1222.19
355.264	1193.19
355.491	1213.19
355.718	1215.19
355.945	1235.19
356.172	1234.19
356.399	1236.19
356.626	1227.19
356.853	1242.19
357.08	1236.19
357.307	1227.19
357.534	1235.19
357.761	1246.19
357.988	1234.19
358.215	1225.19
358.441	1215.19
358.668	1256.19
358.895	1211.19
359.122	1218.19
359.349	1214.19
359.576	1209.19
359.802	1228.19
360.029	1215.19
360.256	1233.19
360.483	1200.19
360.709	1210.19
360.936	1255.19
361.163	1258.19
361.39	1239.19
361.616	1243.19
361.843	1280.19
362.07	1251.19
362.296	1254.19
362.523	1223.19
362.749	1225.19
362.976	1223.19
363.203	1209.19
363.429	1209.19
363.656	1233.19
363.882	1233.19
364.109	1218.19
364.335	1213.19
364.562	1193.19
364.788	1191.19
365.015	1211.19
365.241	1226.19
365.468	1226.19
365.694	1258.19
365.92	1231.19
366.147	1238.19
366.373	1237.19
366.599	1235.19
366.826	1223.19
367.052	1240.19
367.278	1237.19
367.505	1226.19
367.731	1241.19
367.957	1227.19
368.184	1273.19
368.41	1265.19
368.636	1262.19
368.862	1256.19
369.089	1269.19
369.315	1261.19
369.541	1264.19
369.767	1270.19
369.993	1293.19
370.219	1255.19
370.445	1288.19
370.672	1294.19
370.898	1289.19
371.124	1301.19
371.35	1346.19
371.576	1313.19
371.802	1355.19
372.028	1374.19
372.254	1360.19
372.48	1355.19
372.706	1308.19
372.932	1393.19
373.158	1353.19
373.384	1355.19
373.61	1350.19
373.835	1389.19
374.061	1335.19
374.287	1346.19
374.513	1364.19
374.739	1400.19
374.965	1455.19
375.191	1436.19
375.416	1408.19
375.642	1401.19
375.868	1409.19
376.094	1383.19
376.319	1369.19
376.545	1337.19
376.771	1318.19
376.997	1289.19
377.222	1306.19
377.448	1292.19
377.674	1290.19
377.899	1354.19
378.125	1292.19
378.35	1341.19
378.576	1311.19
378.802	1300.19
379.027	1350.19
379.253	1314.19
379.478	1293.19
379.704	1333.19
379.929	1305.19
380.155	1282.19
380.38	1297.19
380.606	1281.19
380.831	1310.19
381.057	1339.19
381.282	1304.19
381.507	1309.19
381.733	1323.19
381.958	1344.19
382.184	1376.19
382.409	1364.19
382.634	1386.19
382.86	1394.19
383.085	1365.19
383.31	1393.19
383.535	1407.19
383.761	1472.19
383.986	1454.19
384.211	1468.19
384.436	1491.19
384.662	1513.19
384.887	1506.19
385.112	1538.19
385.337	1539.19
385.562	1583.19
385.787	1588.19
386.013	1602.19
386.238	1589.19
386.463	1575.19
386.688	1606.19
386.913	1557.19
387.138	1571.19
387.363	1611.19
387.588	1554.19
387.813	1611.19
388.038	1588.19
388.263	1557.19
388.488	1587.19
388.713	1549.19
388.938	1591.19
389.163	1571.19
389.387	1532.19
389.612	1544.19
389.837	1576.19
390.062	1548.19
390.287	1587.19
390.512	1526.19
390.736	1573.19
390.961	1623.19
391.186	1597.19
391.411	1667.19
391.636	1681.19
391.86	1721.19
392.085	1750.19
392.31	1732.19
392.534	1713.19
392.759	1733.19
392.984	1631.19
393.208	1685.19
393.433	1756.19
393.658	1797.19
393.882	1661.19
394.107	1621.19
394.331	1670.19
394.556	1692.19
394.78	1686.19
395.005	1718.19
395.229	1704.19
395.454	1729.19
395.678	1756.19
395.903	1753.19
396.127	1744.19
396.352	1748.19
396.576	1693.19
396.801	1708.19
397.025	1794.19
397.249	1752.19
397.474	1779.19
397.698	1765.19
397.922	1794.19
398.147	1796.19
398.371	1800.19
398.595	1860.19
398.82	1978.19
399.044	2067.19
399.268	2197.19
399.492	2515.19
399.717	2675.19
399.941	2733.19
400.165	2533.19
400.389	2315.19
400.613	2184.19
400.837	2045.19
401.062	2033.19
401.286	2006.19
401.51	1986.19
401.734	1939.19
401.958	1981.19
402.182	1981.19
402.406	1976.19
402.63	2020.19
402.854	2033.19
403.078	2012.19
403.302	2049.19
403.526	2083.19
403.75	2124.19
403.974	2120.19
404.198	2105.19
404.422	2137.19
404.645	2173.19
404.869	2071.19
405.093	2129.19
405.317	2085.19
405.541	2120.19
405.765	2126.19
405.988	2069.19
406.212	2141.19
406.436	2129.19
406.66	2152.19
406.883	2206.19
407.107	2327.19
407.331	2351.19
407.555	2433.19
407.778	2437.19
408.002	2398.19
408.226	2306.19
408.449	2321.19
408.673	2246.19
408.896	2173.19
409.12	2173.19
409.344	2148.19
409.567	2159.19
409.791	2187.19
410.014	2144.19
410.238	2132.19
410.461	2131.19
410.685	2161.19
410.908	2095.19
411.132	2045.19
411.355	2047.19
411.578	2059.19
411.802	2021.19
412.025	1998.19
412.249	2057.19
412.472	2099.19
412.695	1992.19
412.919	1973.19
413.142	1985.19
413.365	2000.19
413.589	1978.19
413.812	1938.19
414.035	1949.19
414.258	1936.19
414.482	1955.19
414.705	1947.19
414.928	1955.19
415.151	1941.19
415.374	1919.19
415.597	1901.19
415.821	1887.19
416.044	1885.19
416.267	1867.19
416.49	1898.19
416.713	1866.19
416.936	1897.19
417.159	1913.19
417.382	1863.19
417.605	1857.19
417.828	1873.19
418.051	1902.19
418.274	1855.19
418.497	1886.19
418.72	1898.19
418.943	1919.19
419.166	1998.19
419.389	2153.19
419.611	2107.19
419.834	2059.19
420.057	1976.19
420.28	1905.19
420.503	1872.19
420.726	1836.19
420.948	1839.19
421.171	1833.19
421.394	1894.19
421.617	1876.19
421.839	1851.19
422.062	1858.19
422.285	1876.19
422.507	1906.19
422.73	1904.19
422.953	1926.19
423.175	1895.19
423.398	1935.19
423.621	1910.19
423.843	1924.19
424.066	1962.19
424.288	1950.19
424.511	1913.19
424.733	1953.19
424.956	1939.19
425.178	1857.19
425.401	1870.19
425.623	1888.19
425.846	1893.19
426.068	1846.19
426.291	1824.19
426.513	1798.19
426.735	1807.19
426.958	1804.19
427.18	1738.19
427.402	1753.19
427.625	1745.19
427.847	1710.19
428.069	1659.19
428.292	1750.19
428.514	1687.19
428.736	1694.19
428.958	1748.19
429.181	1667.19
429.403	1702.19
429.625	1706.19
429.847	1682.19
430.069	1659.19
430.292	1732.19
430.514	1678.19
430.736	1678.19
430.958	1683.19
431.18	1706.19
431.402	1729.19
431.624	1698.19
431.846	1718.19
432.068	1721.19
432.29	1745.19
432.512	1699.19
432.734	1727.19
432.956	1705.19
433.178	1709.19
433.4	1766.19
433.622	1712.19
433.844	1773.19
434.066	1801.19
434.287	1776.19
434.509	1790.19
434.731	1859.19
434.953	1878.19
435.175	1878.19
435.397	1868.19
435.618	1819.19
435.84	1801.19
436.062	1756.19
436.284	1706.19
436.505	1729.19
436.727	1700.19
436.949	1711.19
437.17	1729.19
437.392	1674.19
437.614	1659.19
437.835	1645.19
438.057	1664.19
438.278	1605.19
438.5	1665.19
438.721	1637.19
438.943	1659.19
439.165	1615.19
439.386	1646.19
439.608	1652.19
439.829	1670.19
440.05	1664.19
440.272	1686.19
440.493	1705.19
440.715	1734.19
440.936	1737.19
441.158	1775.19
441.379	1775.19
441.6	1858.19
441.822	1872.19
442.043	1885.19
442.264	1820.19
442.486	1829.19
442.707	1831.19
442.928	1826.19
443.149	1828.19
443.371	1842.19
443.592	1857.19
443.813	1870.19
444.034	1854.19
444.255	1904.19
444.476	1957.19
444.698	2047.19
444.919	2109.19
445.14	2209.19
445.361	2005.19
445.582	1922.19
445.803	1827.19
446.024	1817.19
446.245	1749.19
446.466	1711.19
446.687	1704.19
446.908	1702.19
447.129	1650.19
447.35	1605.19
447.571	1587.19
447.792	1599.19
448.013	1585.19
448.234	1589.19
448.455	1550.19
448.675	1551.19
448.896	1520.19
449.117	1529.19
449.338	1523.19
449.559	1522.19
449.779	1513.19
450	1501.19
450.221	1521.19
450.442	1546.19
450.662	1521.19
450.883	1523.19
451.104	1540.19
451.324	1557.19
451.545	1541.19
451.766	1559.19
451.986	1542.19
452.207	1505.19
452.428	1532.19
452.648	1483.19
452.869	1458.19
453.089	1462.19
453.31	1504.19
453.53	1500.19
453.751	1502.19
453.971	1460.19
454.192	1491.19
454.412	1489.19
454.633	1446.19
454.853	1430.19
455.073	1446.19
455.294	1439.19
455.514	1423.19
455.734	1432.19
455.955	1417.19
456.175	1429.19
456.395	1432.19
456.616	1417.19
456.836	1483.19
457.056	1456.19
457.276	1458.19
457.497	1453.19
457.717	1429.19
457.937	1439.19
458.157	1481.19
458.377	1491.19
458.598	1523.19
458.818	1595.19
459.038	1671.19
459.258	1664.19
459.478	1716.19
459.698	1752.19
459.918	1752.19
460.138	1795.19
460.358	1917.19
460.578	1917.19
460.798	1946.19
461.018	1971.19
461.238	1922.19
461.458	1903.19
461.678	1960.19
461.898	1961.19
462.118	1975.19
462.338	2057.19
462.558	2078.19
462.777	2159.19
462.997	2299.19
463.217	2423.19
463.437	2432.19
463.657	2308.19
463.876	2230.19
464.096	2200.19
464.316	2212.19
464.536	2181.19
464.755	2158.19
464.975	2074.19
465.195	1974.19
465.414	1874.19
465.634	1813.19
465.854	1791.19
466.073	1753.19
466.293	1685.19
466.512	1653.19
466.732	1610.19
466.951	1596.19
467.171	1637.19
467.391	1620.19
467.61	1575.19
467.829	1616.19
468.049	1594.19
468.268	1554.19
468.488	1562.19
468.707	1534.19
468.927	1574.19
469.146	1577.19
469.365	1603.19
469.585	1560.19
469.804	1606.19
470.023	1628.19
470.243	1635.19
470.462	1627.19
470.681	1630.19
470.901	1661.19
471.12	1637.19
471.339	1592.19
471.558	1608.19
471.777	1567.19
471.997	1587.19
472.216	1615.19
472.435	1587.19
472.654	1552.19
472.873	1549.19
473.092	1541.19
473.311	1548.19
473.53	1512.19
473.749	1513.19
473.968	1501.19
474.187	1532.19
474.406	1511.19
474.625	1520.19
474.844	1542.19
475.063	1533.19
475.282	1567.19
475.501	1589.19
475.72	1591.19
475.939	1592.19
476.158	1598.19
476.377	1626.19
476.596	1616.19
476.814	1648.19
477.033	1655.19
477.252	1716.19
477.471	1705.19
477.69	1740.19
477.908	1766.19
478.127	1807.19
478.346	1809.19
478.564	1864.19
478.783	1858.19
479.002	1968.19
479.22	1936.19
479.439	1927.19
479.658	1928.19
479.876	1977.19
480.095	1951.19
480.313	2063.19
480.532	2095.19
480.751	2012.19
480.969	2000.19
481.188	1966.19
481.406	1868.19
481.624	1909.19
481.843	1880.19
482.061	1896.19
482.28	1853.19
482.498	1839.19
482.717	1860.19
482.935	1856.19
483.153	1861.19
483.372	1867.19
483.59	1907.19
483.808	1860.19
484.027	1875.19
484.245	1934.19
484.463	1930.19
484.681	1929.19
484.9	1939.19
485.118	1963.19
485.336	1959.19
485.554	1976.19
485.772	1960.19
485.99	1976.19
486.209	1961.19
486.427	2010.19
486.645	1999.19
486.863	1981.19
487.081	1965.19
487.299	1942.19
487.517	1947.19
487.735	1943.19
487.953	1951.19
488.171	2017.19
488.389	1945.19
488.607	1942.19
488.825	1936.19
489.043	1920.19
489.261	1905.19
489.479	1940.19
489.696	1915.19
489.914	1939.19
