Data from NiCl2@0.125M.TitratingCurve.Agarose3%dH2O.NegLispCup.LampEnergy10.LIBS07252019_HRD10591_18-28-25-576.txt Node
Date: Thu Jul 25 18:28:25 EDT 2019
User: cochatt
Spectrometer: HR+D1059
Trigger mode: 1
Integration Time (sec): 1.000000E-1
Scans to average: 1
Electric dark correction enabled: true
Nonlinearity correction enabled: false
Boxcar width: 0
XAxis mode: Wavelengths
Number of Pixels in Spectrum: 2048
>>>>>Begin Spectral Data<<<<<
223.165	-14.06
223.4	-14.06
223.635	-14.06
223.869	-19.06
224.104	-34.06
224.338	-11.06
224.573	-3.06
224.808	0.94
225.042	0.94
225.277	-11.06
225.511	4.94
225.746	5.94
225.98	8.94
226.215	-3.06
226.449	7.94
226.683	22.94
226.918	25.94
227.152	16.94
227.387	29.94
227.621	22.94
227.856	41.94
228.09	41.94
228.324	31.94
228.559	48.94
228.793	72.94
229.027	97.94
229.262	117.94
229.496	119.94
229.73	118.94
229.964	122.94
230.199	127.94
230.433	130.94
230.667	137.94
230.901	142.94
231.136	134.94
231.37	134.94
231.604	140.94
231.838	137.94
232.072	152.94
232.306	156.94
232.541	158.94
232.775	154.94
233.009	162.94
233.243	157.94
233.477	164.94
233.711	165.94
233.945	162.94
234.179	181.94
234.413	155.94
234.647	162.94
234.881	154.94
235.115	161.94
235.349	161.94
235.583	164.94
235.817	156.94
236.051	148.94
236.285	160.94
236.519	146.94
236.753	156.94
236.987	158.94
237.221	173.94
237.455	159.94
237.689	176.94
237.922	183.94
238.156	177.94
238.39	185.94
238.624	182.94
238.858	184.94
239.091	176.94
239.325	183.94
239.559	190.94
239.793	185.94
240.027	206.94
240.26	211.94
240.494	194.94
240.728	202.94
240.961	190.94
241.195	197.94
241.429	227.94
241.662	226.94
241.896	218.94
242.13	208.94
242.363	205.94
242.597	206.94
242.83	242.94
243.064	208.94
243.298	210.94
243.531	223.94
243.765	223.94
243.998	226.94
244.232	226.94
244.465	223.94
244.699	236.94
244.932	245.94
245.166	251.94
245.399	250.94
245.633	250.94
245.866	233.94
246.099	230.94
246.333	247.94
246.566	260.94
246.8	265.94
247.033	261.94
247.266	255.94
247.5	259.94
247.733	257.94
247.966	248.94
248.2	259.94
248.433	255.94
248.666	268.94
248.899	278.94
249.133	273.94
249.366	263.94
249.599	270.94
249.832	281.94
250.066	275.94
250.299	266.94
250.532	285.94
250.765	295.94
250.998	302.94
251.231	298.94
251.465	300.94
251.698	300.94
251.931	292.94
252.164	295.94
252.397	293.94
252.63	321.94
252.863	309.94
253.096	308.94
253.329	303.94
253.562	326.94
253.795	328.94
254.028	330.94
254.261	303.94
254.494	326.94
254.727	325.94
254.96	325.94
255.193	324.94
255.426	341.94
255.659	334.94
255.892	337.94
256.124	352.94
256.357	340.94
256.59	354.94
256.823	325.94
257.056	325.94
257.289	342.94
257.521	341.94
257.754	340.94
257.987	356.94
258.22	334.94
258.452	343.94
258.685	348.94
258.918	329.94
259.151	352.94
259.383	349.94
259.616	364.94
259.849	364.94
260.081	361.94
260.314	350.94
260.547	376.94
260.779	369.94
261.012	383.94
261.244	372.94
261.477	392.94
261.71	383.94
261.942	370.94
262.175	363.94
262.407	373.94
262.64	372.94
262.872	388.94
263.105	387.94
263.337	376.94
263.57	373.94
263.802	403.94
264.035	378.94
264.267	396.94
264.499	410.94
264.732	402.94
264.964	405.94
265.197	421.94
265.429	408.94
265.661	416.94
265.894	387.94
266.126	409.94
266.358	409.94
266.591	422.94
266.823	420.94
267.055	417.94
267.287	407.94
267.52	410.94
267.752	411.94
267.984	422.94
268.216	423.94
268.448	421.94
268.681	418.94
268.913	423.94
269.145	412.94
269.377	416.94
269.609	428.94
269.841	437.94
270.073	426.94
270.306	430.94
270.538	420.94
270.77	402.94
271.002	419.94
271.234	444.94
271.466	448.94
271.698	458.94
271.93	450.94
272.162	440.94
272.394	450.94
272.626	440.94
272.858	458.94
273.09	488.94
273.322	457.94
273.553	453.94
273.785	472.94
274.017	470.94
274.249	476.94
274.481	469.94
274.713	468.94
274.945	476.94
275.176	503.94
275.408	464.94
275.64	489.94
275.872	478.94
276.104	500.94
276.335	473.94
276.567	488.94
276.799	456.94
277.031	504.94
277.262	502.94
277.494	493.94
277.726	498.94
277.957	486.94
278.189	503.94
278.421	505.94
278.652	500.94
278.884	486.94
279.115	504.94
279.347	521.94
279.579	526.94
279.81	523.94
280.042	532.94
280.273	516.94
280.505	543.94
280.736	512.94
280.968	511.94
281.199	541.94
281.431	551.94
281.662	532.94
281.894	540.94
282.125	542.94
282.356	546.94
282.588	562.94
282.819	524.94
283.051	528.94
283.282	549.94
283.513	532.94
283.745	560.94
283.976	552.94
284.207	552.94
284.439	557.94
284.67	568.94
284.901	579.94
285.132	560.94
285.364	566.94
285.595	590.94
285.826	568.94
286.057	553.94
286.288	582.94
286.52	586.94
286.751	569.94
286.982	595.94
287.213	582.94
287.444	597.94
287.675	581.94
287.906	601.94
288.138	586.94
288.369	616.94
288.6	602.94
288.831	586.94
289.062	602.94
289.293	595.94
289.524	591.94
289.755	608.94
289.986	619.94
290.217	606.94
290.448	596.94
290.679	605.94
290.91	611.94
291.141	611.94
291.371	601.94
291.602	605.94
291.833	602.94
292.064	615.94
292.295	616.94
292.526	597.94
292.757	613.94
292.987	626.94
293.218	596.94
293.449	623.94
293.68	625.94
293.91	609.94
294.141	611.94
294.372	607.94
294.603	634.94
294.833	626.94
295.064	624.94
295.295	621.94
295.525	617.94
295.756	654.94
295.987	634.94
296.217	635.94
296.448	639.94
296.679	647.94
296.909	641.94
297.14	632.94
297.37	654.94
297.601	654.94
297.831	665.94
298.062	665.94
298.292	668.94
298.523	700.94
298.753	696.94
298.984	674.94
299.214	700.94
299.445	673.94
299.675	644.94
299.905	681.94
300.136	652.94
300.366	661.94
300.597	670.94
300.827	701.94
301.057	686.94
301.288	701.94
301.518	722.94
301.748	705.94
301.979	729.94
302.209	700.94
302.439	699.94
302.669	719.94
302.9	676.94
303.13	683.94
303.36	678.94
303.59	681.94
303.82	680.94
304.051	683.94
304.281	718.94
304.511	684.94
304.741	680.94
304.971	694.94
305.201	684.94
305.431	680.94
305.661	679.94
305.891	688.94
306.121	673.94
306.352	692.94
306.582	688.94
306.812	686.94
307.042	695.94
307.272	697.94
307.502	658.94
307.731	671.94
307.961	709.94
308.191	674.94
308.421	688.94
308.651	688.94
308.881	661.94
309.111	668.94
309.341	669.94
309.571	674.94
309.8	673.94
310.03	648.94
310.26	639.94
310.49	659.94
310.72	681.94
310.949	688.94
311.179	670.94
311.409	690.94
311.639	690.94
311.868	695.94
312.098	724.94
312.328	687.94
312.557	710.94
312.787	680.94
313.017	702.94
313.246	714.94
313.476	712.94
313.706	719.94
313.935	722.94
314.165	735.94
314.394	736.94
314.624	712.94
314.853	723.94
315.083	718.94
315.312	721.94
315.542	730.94
315.771	715.94
316.001	712.94
316.23	697.94
316.46	698.94
316.689	702.94
316.919	713.94
317.148	738.94
317.377	718.94
317.607	719.94
317.836	713.94
318.065	701.94
318.295	702.94
318.524	730.94
318.753	714.94
318.983	716.94
319.212	709.94
319.441	708.94
319.67	715.94
319.9	694.94
320.129	692.94
320.358	688.94
320.587	699.94
320.816	730.94
321.046	716.94
321.275	714.94
321.504	694.94
321.733	708.94
321.962	697.94
322.191	712.94
322.42	717.94
322.649	697.94
322.878	713.94
323.108	709.94
323.337	734.94
323.566	729.94
323.795	721.94
324.024	722.94
324.253	717.94
324.482	713.94
324.71	737.94
324.939	741.94
325.168	752.94
325.397	724.94
325.626	753.94
325.855	782.94
326.084	789.94
326.313	770.94
326.542	790.94
326.77	802.94
326.999	768.94
327.228	753.94
327.457	754.94
327.686	772.94
327.914	794.94
328.143	771.94
328.372	766.94
328.6	772.94
328.829	789.94
329.058	790.94
329.287	769.94
329.515	789.94
329.744	790.94
329.972	779.94
330.201	794.94
330.43	801.94
330.658	807.94
330.887	820.94
331.115	836.94
331.344	837.94
331.572	852.94
331.801	852.94
332.03	836.94
332.258	864.94
332.486	900.94
332.715	916.94
332.943	979.94
333.172	1005.94
333.4	1007.94
333.629	1048.94
333.857	1076.94
334.085	1044.94
334.314	1045.94
334.542	1035.94
334.771	1040.94
334.999	981.94
335.227	972.94
335.455	958.94
335.684	946.94
335.912	974.94
336.14	966.94
336.369	922.94
336.597	964.94
336.825	921.94
337.053	939.94
337.281	922.94
337.51	898.94
337.738	903.94
337.966	861.94
338.194	880.94
338.422	852.94
338.65	840.94
338.878	854.94
339.106	851.94
339.334	869.94
339.562	864.94
339.79	817.94
340.018	826.94
340.246	810.94
340.474	825.94
340.702	795.94
340.93	842.94
341.158	845.94
341.386	838.94
341.614	838.94
341.842	812.94
342.07	808.94
342.298	791.94
342.526	788.94
342.754	800.94
342.981	837.94
343.209	804.94
343.437	870.94
343.665	909.94
343.893	994.94
344.12	1026.94
344.348	954.94
344.576	910.94
344.804	897.94
345.031	869.94
345.259	847.94
345.487	826.94
345.714	822.94
345.942	816.94
346.17	810.94
346.397	816.94
346.625	809.94
346.853	804.94
347.08	798.94
347.308	830.94
347.535	808.94
347.763	820.94
347.99	824.94
348.218	805.94
348.445	796.94
348.673	784.94
348.9	806.94
349.128	777.94
349.355	770.94
349.583	804.94
349.81	818.94
350.037	764.94
350.265	790.94
350.492	761.94
350.72	758.94
350.947	750.94
351.174	757.94
351.402	748.94
351.629	763.94
351.856	781.94
352.083	771.94
352.311	759.94
352.538	762.94
352.765	784.94
352.992	773.94
353.22	743.94
353.447	760.94
353.674	742.94
353.901	759.94
354.128	749.94
354.355	710.94
354.583	752.94
354.81	782.94
355.037	784.94
355.264	748.94
355.491	777.94
355.718	752.94
355.945	750.94
356.172	781.94
356.399	788.94
356.626	771.94
356.853	769.94
357.08	738.94
357.307	762.94
357.534	754.94
357.761	745.94
357.988	768.94
358.215	759.94
358.441	751.94
358.668	745.94
358.895	764.94
359.122	790.94
359.349	768.94
359.576	754.94
359.802	763.94
360.029	731.94
360.256	751.94
360.483	757.94
360.709	756.94
360.936	746.94
361.163	768.94
361.39	737.94
361.616	762.94
361.843	752.94
362.07	773.94
362.296	764.94
362.523	757.94
362.749	760.94
362.976	742.94
363.203	756.94
363.429	764.94
363.656	776.94
363.882	760.94
364.109	742.94
364.335	764.94
364.562	753.94
364.788	764.94
365.015	764.94
365.241	755.94
365.468	748.94
365.694	745.94
365.92	745.94
366.147	726.94
366.373	774.94
366.599	759.94
366.826	771.94
367.052	746.94
367.278	780.94
367.505	772.94
367.731	781.94
367.957	751.94
368.184	766.94
368.41	763.94
368.636	733.94
368.862	792.94
369.089	792.94
369.315	800.94
369.541	783.94
369.767	792.94
369.993	813.94
370.219	774.94
370.445	777.94
370.672	806.94
370.898	814.94
371.124	812.94
371.35	820.94
371.576	823.94
371.802	831.94
372.028	824.94
372.254	806.94
372.48	825.94
372.706	847.94
372.932	869.94
373.158	887.94
373.384	846.94
373.61	843.94
373.835	839.94
374.061	815.94
374.287	845.94
374.513	837.94
374.739	852.94
374.965	908.94
375.191	912.94
375.416	920.94
375.642	894.94
375.868	888.94
376.094	889.94
376.319	860.94
376.545	837.94
376.771	822.94
376.997	841.94
377.222	828.94
377.448	847.94
377.674	836.94
377.899	818.94
378.125	804.94
378.35	831.94
378.576	834.94
378.802	820.94
379.027	837.94
379.253	825.94
379.478	809.94
379.704	807.94
379.929	824.94
380.155	815.94
380.38	799.94
380.606	824.94
380.831	836.94
381.057	828.94
381.282	822.94
381.507	833.94
381.733	812.94
381.958	818.94
382.184	827.94
382.409	849.94
382.634	869.94
382.86	878.94
383.085	862.94
383.31	890.94
383.535	919.94
383.761	905.94
383.986	943.94
384.211	958.94
384.436	985.94
384.662	984.94
384.887	1022.94
385.112	1009.94
385.337	1006.94
385.562	1013.94
385.787	1000.94
386.013	1026.94
386.238	1017.94
386.463	1010.94
386.688	1024.94
386.913	996.94
387.138	972.94
387.363	998.94
387.588	978.94
387.813	975.94
388.038	992.94
388.263	1025.94
388.488	1004.94
388.713	1000.94
388.938	975.94
389.163	1001.94
389.387	961.94
389.612	943.94
389.837	1004.94
390.062	978.94
390.287	945.94
390.512	973.94
390.736	1020.94
390.961	1000.94
391.186	1023.94
391.411	1056.94
391.636	1072.94
391.86	1123.94
392.085	1128.94
392.31	1115.94
392.534	1097.94
392.759	1097.94
392.984	1056.94
393.208	1046.94
393.433	1032.94
393.658	1055.94
393.882	1032.94
394.107	1088.94
394.331	1076.94
394.556	1070.94
394.78	1093.94
395.005	1093.94
395.229	1070.94
395.454	1104.94
395.678	1138.94
395.903	1120.94
396.127	1140.94
396.352	1086.94
396.576	1077.94
396.801	1039.94
397.025	1051.94
397.249	1094.94
397.474	1122.94
397.698	1109.94
397.922	1117.94
398.147	1108.94
398.371	1122.94
398.595	1132.94
398.82	1244.94
399.044	1305.94
399.268	1460.94
399.492	1692.94
399.717	1900.94
399.941	1948.94
400.165	1757.94
400.389	1536.94
400.613	1404.94
400.837	1312.94
401.062	1271.94
401.286	1281.94
401.51	1234.94
401.734	1256.94
401.958	1263.94
402.182	1289.94
402.406	1308.94
402.63	1330.94
402.854	1349.94
403.078	1363.94
403.302	1392.94
403.526	1418.94
403.75	1436.94
403.974	1475.94
404.198	1471.94
404.422	1485.94
404.645	1462.94
404.869	1428.94
405.093	1454.94
405.317	1407.94
405.541	1414.94
405.765	1366.94
405.988	1364.94
406.212	1361.94
406.436	1358.94
406.66	1417.94
406.883	1392.94
407.107	1508.94
407.331	1559.94
407.555	1597.94
407.778	1619.94
408.002	1606.94
408.226	1523.94
408.449	1521.94
408.673	1428.94
408.896	1424.94
409.12	1371.94
409.344	1431.94
409.567	1416.94
409.791	1431.94
410.014	1437.94
410.238	1410.94
410.461	1408.94
410.685	1402.94
410.908	1352.94
411.132	1324.94
411.355	1313.94
411.578	1302.94
411.802	1320.94
412.025	1336.94
412.249	1320.94
412.472	1328.94
412.695	1284.94
412.919	1267.94
413.142	1237.94
413.365	1229.94
413.589	1258.94
413.812	1257.94
414.035	1215.94
414.258	1251.94
414.482	1260.94
414.705	1268.94
414.928	1263.94
415.151	1284.94
415.374	1234.94
415.597	1263.94
415.821	1223.94
416.044	1213.94
416.267	1214.94
416.49	1212.94
416.713	1223.94
416.936	1232.94
417.159	1193.94
417.382	1218.94
417.605	1232.94
417.828	1212.94
418.051	1273.94
418.274	1272.94
418.497	1247.94
418.72	1276.94
418.943	1282.94
419.166	1349.94
419.389	1435.94
419.611	1430.94
419.834	1337.94
420.057	1311.94
420.28	1272.94
420.503	1224.94
420.726	1221.94
420.948	1226.94
421.171	1228.94
421.394	1212.94
421.617	1242.94
421.839	1224.94
422.062	1247.94
422.285	1229.94
422.507	1247.94
422.73	1252.94
422.953	1281.94
423.175	1277.94
423.398	1294.94
423.621	1324.94
423.843	1351.94
424.066	1320.94
424.288	1298.94
424.511	1312.94
424.733	1286.94
424.956	1272.94
425.178	1269.94
425.401	1265.94
425.623	1261.94
425.846	1187.94
426.068	1180.94
426.291	1193.94
426.513	1192.94
426.735	1168.94
426.958	1151.94
427.18	1129.94
427.402	1132.94
427.625	1133.94
427.847	1106.94
428.069	1102.94
428.292	1126.94
428.514	1113.94
428.736	1125.94
428.958	1110.94
429.181	1084.94
429.403	1087.94
429.625	1043.94
429.847	1062.94
430.069	1067.94
430.292	1088.94
430.514	1067.94
430.736	1073.94
430.958	1093.94
431.18	1094.94
431.402	1068.94
431.624	1074.94
431.846	1107.94
432.068	1101.94
432.29	1130.94
432.512	1100.94
432.734	1115.94
432.956	1094.94
433.178	1135.94
433.4	1096.94
433.622	1109.94
433.844	1136.94
434.066	1112.94
434.287	1135.94
434.509	1170.94
434.731	1199.94
434.953	1268.94
435.175	1280.94
435.397	1279.94
435.618	1184.94
435.84	1144.94
436.062	1113.94
436.284	1109.94
436.505	1118.94
436.727	1117.94
436.949	1128.94
437.17	1112.94
437.392	1083.94
437.614	1082.94
437.835	1049.94
438.057	1044.94
438.278	1058.94
438.5	1039.94
438.721	1058.94
438.943	1068.94
439.165	1076.94
439.386	1065.94
439.608	1107.94
439.829	1117.94
440.05	1089.94
440.272	1126.94
440.493	1113.94
440.715	1141.94
440.936	1153.94
441.158	1178.94
441.379	1212.94
441.6	1256.94
441.822	1274.94
442.043	1276.94
442.264	1258.94
442.486	1222.94
442.707	1224.94
442.928	1229.94
443.149	1257.94
443.371	1220.94
443.592	1230.94
443.813	1235.94
444.034	1238.94
444.255	1292.94
444.476	1363.94
444.698	1437.94
444.919	1533.94
445.14	1609.94
445.361	1416.94
445.582	1296.94
445.803	1232.94
446.024	1182.94
446.245	1155.94
446.466	1143.94
446.687	1122.94
446.908	1114.94
447.129	1119.94
447.35	1079.94
447.571	1072.94
447.792	1072.94
448.013	1071.94
448.234	1035.94
448.455	1027.94
448.675	1019.94
448.896	1034.94
449.117	1017.94
449.338	1006.94
449.559	1019.94
449.779	1012.94
450	1004.94
450.221	1006.94
450.442	1011.94
450.662	1020.94
450.883	1046.94
451.104	1055.94
451.324	1043.94
451.545	1028.94
451.766	1063.94
451.986	1048.94
452.207	1022.94
452.428	1029.94
452.648	997.94
452.869	1007.94
453.089	988.94
453.31	1014.94
453.53	1007.94
453.751	1012.94
453.971	965.94
454.192	960.94
454.412	968.94
454.633	979.94
454.853	953.94
455.073	969.94
455.294	982.94
455.514	947.94
455.734	973.94
455.955	946.94
456.175	937.94
456.395	948.94
456.616	933.94
456.836	944.94
457.056	956.94
457.276	936.94
457.497	1004.94
457.717	973.94
457.937	984.94
458.157	961.94
458.377	968.94
458.598	1004.94
458.818	1000.94
459.038	1058.94
459.258	1092.94
459.478	1127.94
459.698	1124.94
459.918	1184.94
460.138	1251.94
460.358	1305.94
460.578	1295.94
460.798	1317.94
461.018	1348.94
461.238	1280.94
461.458	1300.94
461.678	1281.94
461.898	1316.94
462.118	1323.94
462.338	1369.94
462.558	1436.94
462.777	1506.94
462.997	1611.94
463.217	1800.94
463.437	1860.94
463.657	1644.94
463.876	1564.94
464.096	1568.94
464.316	1512.94
464.536	1573.94
464.755	1545.94
464.975	1482.94
465.195	1357.94
465.414	1313.94
465.634	1192.94
465.854	1160.94
466.073	1138.94
466.293	1169.94
466.512	1112.94
466.732	1072.94
466.951	1080.94
467.171	1066.94
467.391	1060.94
467.61	1088.94
467.829	1078.94
468.049	1063.94
468.268	1005.94
468.488	1004.94
468.707	991.94
468.927	1024.94
469.146	1009.94
469.365	1032.94
469.585	1037.94
469.804	1092.94
470.023	1092.94
470.243	1109.94
470.462	1116.94
470.681	1095.94
470.901	1117.94
471.12	1085.94
471.339	1061.94
471.558	1072.94
471.777	1034.94
471.997	1028.94
472.216	1032.94
472.435	1000.94
472.654	998.94
472.873	972.94
473.092	981.94
473.311	1020.94
473.53	985.94
473.749	1001.94
473.968	992.94
474.187	986.94
474.406	970.94
474.625	1029.94
474.844	982.94
475.063	1018.94
475.282	991.94
475.501	1033.94
475.72	1044.94
475.939	997.94
476.158	1013.94
476.377	1041.94
476.596	1027.94
476.814	1056.94
477.033	1052.94
477.252	1073.94
477.471	1099.94
477.69	1123.94
477.908	1114.94
478.127	1167.94
478.346	1216.94
478.564	1174.94
478.783	1199.94
479.002	1247.94
479.22	1255.94
479.439	1237.94
479.658	1224.94
479.876	1243.94
480.095	1291.94
480.313	1328.94
480.532	1353.94
480.751	1388.94
480.969	1322.94
481.188	1234.94
481.406	1228.94
481.624	1188.94
481.843	1146.94
482.061	1173.94
482.28	1112.94
482.498	1136.94
482.717	1151.94
482.935	1126.94
483.153	1132.94
483.372	1134.94
483.59	1150.94
483.808	1140.94
484.027	1120.94
484.245	1127.94
484.463	1147.94
484.681	1182.94
484.9	1168.94
485.118	1178.94
485.336	1173.94
485.554	1223.94
485.772	1198.94
485.99	1198.94
486.209	1253.94
486.427	1228.94
486.645	1216.94
486.863	1192.94
487.081	1221.94
487.299	1236.94
487.517	1187.94
487.735	1210.94
487.953	1160.94
488.171	1202.94
488.389	1190.94
488.607	1180.94
488.825	1198.94
489.043	1163.94
489.261	1183.94
489.479	1186.94
489.696	1183.94
489.914	1196.94
490.132	1216.94
490.35	1205.94
490.568	1185.94
490.786	1206.94
491.003	1209.94
491.221	1244.94
491.439	1191.94
491.657	1181.94
491.874	1206.94
492.092	1212.94
492.31	1239.94
492.527	1241.94
492.745	1253.94
492.963	1213.94
493.18	1236.94
493.398	1256.94
493.615	1223.94
493.833	1255.94
494.05	1264.94
494.268	1262.94
494.485	1238.94
494.703	1260.94
494.92	1286.94
495.138	1240.94
495.355	1261.94
