Data from NiCl2@0.25M.TitratingCurve.Agarose3%dH2O.NegLispCup.LampEnergy10.LIBS07252019_HRD10591_18-23-54-572.txt Node
Date: Thu Jul 25 18:23:54 EDT 2019
User: cochatt
Spectrometer: HR+D1059
Trigger mode: 1
Integration Time (sec): 1.000000E-1
Scans to average: 1
Electric dark correction enabled: true
Nonlinearity correction enabled: false
Boxcar width: 0
XAxis mode: Wavelengths
Number of Pixels in Spectrum: 2048
>>>>>Begin Spectral Data<<<<<
223.165	-25.81
223.4	-25.81
223.635	-25.81
223.869	-18.81
224.104	-39.81
224.338	-7.81
224.573	-9.81
224.808	7.19
225.042	4.19
225.277	-7.81
225.511	-3.81
225.746	1.19
225.98	6.19
226.215	7.19
226.449	2.19
226.683	21.19
226.918	30.19
227.152	34.19
227.387	26.19
227.621	41.19
227.856	37.19
228.09	43.19
228.324	62.19
228.559	65.19
228.793	79.19
229.027	109.19
229.262	124.19
229.496	127.19
229.73	132.19
229.964	143.19
230.199	130.19
230.433	152.19
230.667	152.19
230.901	145.19
231.136	158.19
231.37	151.19
231.604	152.19
231.838	161.19
232.072	161.19
232.306	164.19
232.541	167.19
232.775	183.19
233.009	164.19
233.243	185.19
233.477	174.19
233.711	159.19
233.945	191.19
234.179	184.19
234.413	196.19
234.647	164.19
234.881	177.19
235.115	176.19
235.349	182.19
235.583	174.19
235.817	198.19
236.051	164.19
236.285	183.19
236.519	186.19
236.753	177.19
236.987	178.19
237.221	167.19
237.455	190.19
237.689	198.19
237.922	198.19
238.156	198.19
238.39	193.19
238.624	193.19
238.858	198.19
239.091	185.19
239.325	192.19
239.559	206.19
239.793	207.19
240.027	192.19
240.26	209.19
240.494	201.19
240.728	217.19
240.961	217.19
241.195	224.19
241.429	238.19
241.662	222.19
241.896	236.19
242.13	233.19
242.363	233.19
242.597	234.19
242.83	229.19
243.064	235.19
243.298	240.19
243.531	249.19
243.765	254.19
243.998	257.19
244.232	252.19
244.465	245.19
244.699	249.19
244.932	259.19
245.166	271.19
245.399	279.19
245.633	241.19
245.866	270.19
246.099	291.19
246.333	250.19
246.566	275.19
246.8	266.19
247.033	270.19
247.266	282.19
247.5	266.19
247.733	289.19
247.966	284.19
248.2	284.19
248.433	293.19
248.666	271.19
248.899	293.19
249.133	285.19
249.366	291.19
249.599	301.19
249.832	307.19
250.066	302.19
250.299	309.19
250.532	312.19
250.765	305.19
250.998	315.19
251.231	331.19
251.465	318.19
251.698	325.19
251.931	322.19
252.164	316.19
252.397	332.19
252.63	337.19
252.863	326.19
253.096	330.19
253.329	345.19
253.562	317.19
253.795	322.19
254.028	349.19
254.261	341.19
254.494	343.19
254.727	324.19
254.96	333.19
255.193	357.19
255.426	350.19
255.659	346.19
255.892	366.19
256.124	369.19
256.357	369.19
256.59	349.19
256.823	360.19
257.056	378.19
257.289	359.19
257.521	358.19
257.754	365.19
257.987	363.19
258.22	363.19
258.452	357.19
258.685	376.19
258.918	375.19
259.151	385.19
259.383	368.19
259.616	377.19
259.849	388.19
260.081	374.19
260.314	397.19
260.547	381.19
260.779	377.19
261.012	392.19
261.244	388.19
261.477	404.19
261.71	390.19
261.942	396.19
262.175	391.19
262.407	410.19
262.64	408.19
262.872	415.19
263.105	408.19
263.337	398.19
263.57	414.19
263.802	412.19
264.035	438.19
264.267	420.19
264.499	409.19
264.732	422.19
264.964	415.19
265.197	407.19
265.429	440.19
265.661	440.19
265.894	435.19
266.126	428.19
266.358	441.19
266.591	413.19
266.823	436.19
267.055	424.19
267.287	443.19
267.52	438.19
267.752	427.19
267.984	454.19
268.216	441.19
268.448	461.19
268.681	441.19
268.913	464.19
269.145	472.19
269.377	461.19
269.609	468.19
269.841	466.19
270.073	460.19
270.306	451.19
270.538	451.19
270.77	457.19
271.002	457.19
271.234	446.19
271.466	470.19
271.698	495.19
271.93	478.19
272.162	496.19
272.394	477.19
272.626	468.19
272.858	490.19
273.09	498.19
273.322	491.19
273.553	490.19
273.785	488.19
274.017	494.19
274.249	511.19
274.481	500.19
274.713	501.19
274.945	492.19
275.176	478.19
275.408	525.19
275.64	516.19
275.872	500.19
276.104	510.19
276.335	514.19
276.567	526.19
276.799	513.19
277.031	513.19
277.262	549.19
277.494	524.19
277.726	503.19
277.957	553.19
278.189	528.19
278.421	544.19
278.652	563.19
278.884	561.19
279.115	536.19
279.347	530.19
279.579	564.19
279.81	548.19
280.042	541.19
280.273	560.19
280.505	566.19
280.736	537.19
280.968	572.19
281.199	583.19
281.431	567.19
281.662	594.19
281.894	572.19
282.125	578.19
282.356	595.19
282.588	604.19
282.819	571.19
283.051	584.19
283.282	607.19
283.513	582.19
283.745	610.19
283.976	605.19
284.207	613.19
284.439	618.19
284.67	610.19
284.901	611.19
285.132	617.19
285.364	625.19
285.595	607.19
285.826	601.19
286.057	613.19
286.288	613.19
286.52	618.19
286.751	620.19
286.982	632.19
287.213	635.19
287.444	613.19
287.675	632.19
287.906	631.19
288.138	628.19
288.369	636.19
288.6	637.19
288.831	638.19
289.062	662.19
289.293	644.19
289.524	636.19
289.755	643.19
289.986	628.19
290.217	637.19
290.448	650.19
290.679	646.19
290.91	636.19
291.141	653.19
291.371	660.19
291.602	650.19
291.833	634.19
292.064	661.19
292.295	651.19
292.526	675.19
292.757	630.19
292.987	632.19
293.218	645.19
293.449	655.19
293.68	656.19
293.91	660.19
294.141	666.19
294.372	655.19
294.603	650.19
294.833	667.19
295.064	665.19
295.295	686.19
295.525	670.19
295.756	682.19
295.987	666.19
296.217	672.19
296.448	685.19
296.679	701.19
296.909	697.19
297.14	694.19
297.37	703.19
297.601	694.19
297.831	694.19
298.062	715.19
298.292	714.19
298.523	724.19
298.753	733.19
298.984	696.19
299.214	697.19
299.445	706.19
299.675	705.19
299.905	693.19
300.136	728.19
300.366	746.19
300.597	773.19
300.827	729.19
301.057	764.19
301.288	754.19
301.518	741.19
301.748	762.19
301.979	772.19
302.209	762.19
302.439	761.19
302.669	776.19
302.9	732.19
303.13	770.19
303.36	766.19
303.59	738.19
303.82	747.19
304.051	734.19
304.281	754.19
304.511	719.19
304.741	740.19
304.971	746.19
305.201	739.19
305.431	759.19
305.661	764.19
305.891	765.19
306.121	733.19
306.352	739.19
306.582	718.19
306.812	726.19
307.042	741.19
307.272	736.19
307.502	733.19
307.731	726.19
307.961	727.19
308.191	733.19
308.421	725.19
308.651	705.19
308.881	705.19
309.111	726.19
309.341	715.19
309.571	724.19
309.8	741.19
310.03	735.19
310.26	723.19
310.49	713.19
310.72	740.19
310.949	743.19
311.179	751.19
311.409	759.19
311.639	750.19
311.868	767.19
312.098	756.19
312.328	761.19
312.557	792.19
312.787	768.19
313.017	749.19
313.246	775.19
313.476	767.19
313.706	797.19
313.935	798.19
314.165	779.19
314.394	800.19
314.624	794.19
314.853	762.19
315.083	793.19
315.312	779.19
315.542	791.19
315.771	770.19
316.001	786.19
316.23	772.19
316.46	754.19
316.689	781.19
316.919	757.19
317.148	778.19
317.377	770.19
317.607	770.19
317.836	753.19
318.065	757.19
318.295	756.19
318.524	761.19
318.753	752.19
318.983	746.19
319.212	750.19
319.441	747.19
319.67	774.19
319.9	772.19
320.129	774.19
320.358	771.19
320.587	758.19
320.816	769.19
321.046	753.19
321.275	772.19
321.504	773.19
321.733	772.19
321.962	786.19
322.191	781.19
322.42	802.19
322.649	760.19
322.878	785.19
323.108	768.19
323.337	820.19
323.566	779.19
323.795	802.19
324.024	799.19
324.253	820.19
324.482	800.19
324.71	810.19
324.939	817.19
325.168	824.19
325.397	806.19
325.626	820.19
325.855	823.19
326.084	837.19
326.313	851.19
326.542	825.19
326.77	831.19
326.999	845.19
327.228	814.19
327.457	820.19
327.686	811.19
327.914	846.19
328.143	842.19
328.372	859.19
328.6	840.19
328.829	852.19
329.058	870.19
329.287	850.19
329.515	843.19
329.744	854.19
329.972	854.19
330.201	876.19
330.43	880.19
330.658	876.19
330.887	892.19
331.115	890.19
331.344	883.19
331.572	892.19
331.801	909.19
332.03	930.19
332.258	965.19
332.486	1001.19
332.715	1015.19
332.943	1064.19
333.172	1075.19
333.4	1130.19
333.629	1154.19
333.857	1178.19
334.085	1183.19
334.314	1131.19
334.542	1110.19
334.771	1126.19
334.999	1080.19
335.227	1076.19
335.455	1056.19
335.684	1043.19
335.912	1035.19
336.14	1047.19
336.369	1028.19
336.597	1043.19
336.825	1029.19
337.053	1037.19
337.281	1010.19
337.51	989.19
337.738	996.19
337.966	954.19
338.194	969.19
338.422	931.19
338.65	972.19
338.878	954.19
339.106	914.19
339.334	939.19
339.562	947.19
339.79	896.19
340.018	905.19
340.246	883.19
340.474	889.19
340.702	890.19
340.93	901.19
341.158	850.19
341.386	900.19
341.614	900.19
341.842	891.19
342.07	882.19
342.298	889.19
342.526	887.19
342.754	852.19
342.981	873.19
343.209	892.19
343.437	957.19
343.665	988.19
343.893	1047.19
344.12	1102.19
344.348	1085.19
344.576	1034.19
344.804	982.19
345.031	945.19
345.259	930.19
345.487	909.19
345.714	872.19
345.942	853.19
346.17	893.19
346.397	848.19
346.625	853.19
346.853	833.19
347.08	837.19
347.308	859.19
347.535	854.19
347.763	860.19
347.99	869.19
348.218	869.19
348.445	850.19
348.673	834.19
348.9	847.19
349.128	885.19
349.355	852.19
349.583	864.19
349.81	851.19
350.037	820.19
350.265	835.19
350.492	802.19
350.72	834.19
350.947	827.19
351.174	843.19
351.402	836.19
351.629	843.19
351.856	829.19
352.083	795.19
352.311	829.19
352.538	799.19
352.765	801.19
352.992	825.19
353.22	807.19
353.447	805.19
353.674	809.19
353.901	795.19
354.128	800.19
354.355	805.19
354.583	809.19
354.81	826.19
355.037	799.19
355.264	804.19
355.491	833.19
355.718	817.19
355.945	800.19
356.172	843.19
356.399	808.19
356.626	826.19
356.853	824.19
357.08	821.19
357.307	811.19
357.534	816.19
357.761	811.19
357.988	808.19
358.215	812.19
358.441	833.19
358.668	810.19
358.895	809.19
359.122	828.19
359.349	830.19
359.576	814.19
359.802	793.19
360.029	837.19
360.256	818.19
360.483	814.19
360.709	834.19
360.936	822.19
361.163	840.19
361.39	826.19
361.616	802.19
361.843	846.19
362.07	822.19
362.296	823.19
362.523	807.19
362.749	841.19
362.976	790.19
363.203	813.19
363.429	797.19
363.656	798.19
363.882	822.19
364.109	802.19
364.335	824.19
364.562	814.19
364.788	818.19
365.015	816.19
365.241	802.19
365.468	826.19
365.694	806.19
365.92	825.19
366.147	796.19
366.373	828.19
366.599	795.19
366.826	821.19
367.052	804.19
367.278	819.19
367.505	804.19
367.731	840.19
367.957	807.19
368.184	846.19
368.41	807.19
368.636	836.19
368.862	841.19
369.089	833.19
369.315	837.19
369.541	840.19
369.767	855.19
369.993	831.19
370.219	838.19
370.445	865.19
370.672	825.19
370.898	880.19
371.124	870.19
371.35	895.19
371.576	858.19
371.802	888.19
372.028	888.19
372.254	893.19
372.48	888.19
372.706	926.19
372.932	926.19
373.158	925.19
373.384	916.19
373.61	868.19
373.835	876.19
374.061	868.19
374.287	890.19
374.513	920.19
374.739	946.19
374.965	978.19
375.191	991.19
375.416	981.19
375.642	974.19
375.868	964.19
376.094	933.19
376.319	909.19
376.545	912.19
376.771	914.19
376.997	891.19
377.222	888.19
377.448	862.19
377.674	893.19
377.899	896.19
378.125	877.19
378.35	869.19
378.576	867.19
378.802	877.19
379.027	906.19
379.253	896.19
379.478	862.19
379.704	884.19
379.929	880.19
380.155	864.19
380.38	880.19
380.606	889.19
380.831	884.19
381.057	882.19
381.282	873.19
381.507	880.19
381.733	881.19
381.958	897.19
382.184	934.19
382.409	904.19
382.634	926.19
382.86	936.19
383.085	951.19
383.31	948.19
383.535	976.19
383.761	982.19
383.986	982.19
384.211	1012.19
384.436	1046.19
384.662	1045.19
384.887	1077.19
385.112	1083.19
385.337	1093.19
385.562	1061.19
385.787	1069.19
386.013	1106.19
386.238	1102.19
386.463	1111.19
386.688	1081.19
386.913	1056.19
387.138	1076.19
387.363	1072.19
387.588	1063.19
387.813	1048.19
388.038	1055.19
388.263	1068.19
388.488	1054.19
388.713	1094.19
388.938	1069.19
389.163	1037.19
389.387	1067.19
389.612	1035.19
389.837	1065.19
390.062	1061.19
390.287	1041.19
390.512	1031.19
390.736	1099.19
390.961	1066.19
391.186	1119.19
391.411	1159.19
391.636	1168.19
391.86	1203.19
392.085	1225.19
392.31	1231.19
392.534	1182.19
392.759	1150.19
392.984	1126.19
393.208	1102.19
393.433	1138.19
393.658	1137.19
393.882	1150.19
394.107	1155.19
394.331	1127.19
394.556	1149.19
394.78	1158.19
395.005	1169.19
395.229	1152.19
395.454	1214.19
395.678	1232.19
395.903	1184.19
396.127	1203.19
396.352	1192.19
396.576	1138.19
396.801	1128.19
397.025	1154.19
397.249	1200.19
397.474	1208.19
397.698	1227.19
397.922	1202.19
398.147	1215.19
398.371	1236.19
398.595	1265.19
398.82	1340.19
399.044	1426.19
399.268	1609.19
399.492	1866.19
399.717	2072.19
399.941	2096.19
400.165	1868.19
400.389	1686.19
400.613	1548.19
400.837	1449.19
401.062	1451.19
401.286	1409.19
401.51	1396.19
401.734	1355.19
401.958	1402.19
402.182	1420.19
402.406	1421.19
402.63	1437.19
402.854	1449.19
403.078	1451.19
403.302	1464.19
403.526	1511.19
403.75	1524.19
403.974	1598.19
404.198	1576.19
404.422	1588.19
404.645	1566.19
404.869	1552.19
405.093	1525.19
405.317	1539.19
405.541	1513.19
405.765	1515.19
405.988	1491.19
406.212	1514.19
406.436	1517.19
406.66	1543.19
406.883	1546.19
407.107	1676.19
407.331	1717.19
407.555	1778.19
407.778	1760.19
408.002	1752.19
408.226	1687.19
408.449	1635.19
408.673	1594.19
408.896	1546.19
409.12	1512.19
409.344	1562.19
409.567	1531.19
409.791	1523.19
410.014	1516.19
410.238	1494.19
410.461	1503.19
410.685	1471.19
410.908	1463.19
411.132	1465.19
411.355	1389.19
411.578	1402.19
411.802	1377.19
412.025	1416.19
412.249	1466.19
412.472	1437.19
412.695	1376.19
412.919	1362.19
413.142	1347.19
413.365	1347.19
413.589	1366.19
413.812	1325.19
414.035	1343.19
414.258	1363.19
414.482	1326.19
414.705	1361.19
414.928	1392.19
415.151	1386.19
415.374	1341.19
415.597	1314.19
415.821	1330.19
416.044	1315.19
416.267	1322.19
416.49	1318.19
416.713	1312.19
416.936	1317.19
417.159	1347.19
417.382	1342.19
417.605	1331.19
417.828	1323.19
418.051	1332.19
418.274	1373.19
418.497	1348.19
418.72	1396.19
418.943	1418.19
419.166	1493.19
419.389	1569.19
419.611	1540.19
419.834	1469.19
420.057	1433.19
420.28	1366.19
420.503	1346.19
420.726	1348.19
420.948	1344.19
421.171	1317.19
421.394	1356.19
421.617	1330.19
421.839	1369.19
422.062	1339.19
422.285	1336.19
422.507	1394.19
422.73	1366.19
422.953	1401.19
423.175	1400.19
423.398	1420.19
423.621	1407.19
423.843	1378.19
424.066	1420.19
424.288	1422.19
424.511	1372.19
424.733	1412.19
424.956	1397.19
425.178	1351.19
425.401	1369.19
425.623	1346.19
425.846	1267.19
426.068	1241.19
426.291	1284.19
426.513	1260.19
426.735	1259.19
426.958	1241.19
427.18	1238.19
427.402	1244.19
427.625	1276.19
427.847	1192.19
428.069	1207.19
428.292	1195.19
428.514	1177.19
428.736	1186.19
428.958	1182.19
429.181	1160.19
429.403	1169.19
429.625	1141.19
429.847	1166.19
430.069	1149.19
430.292	1154.19
430.514	1116.19
430.736	1146.19
430.958	1174.19
431.18	1159.19
431.402	1177.19
431.624	1156.19
431.846	1174.19
432.068	1204.19
432.29	1206.19
432.512	1180.19
432.734	1180.19
432.956	1196.19
433.178	1156.19
433.4	1152.19
433.622	1189.19
433.844	1196.19
434.066	1179.19
434.287	1211.19
434.509	1240.19
434.731	1260.19
434.953	1308.19
435.175	1352.19
435.397	1284.19
435.618	1253.19
435.84	1198.19
436.062	1164.19
436.284	1182.19
436.505	1166.19
436.727	1177.19
436.949	1212.19
437.17	1181.19
437.392	1164.19
437.614	1158.19
437.835	1147.19
438.057	1128.19
438.278	1108.19
438.5	1143.19
438.721	1146.19
438.943	1136.19
439.165	1120.19
439.386	1144.19
439.608	1161.19
439.829	1186.19
440.05	1196.19
440.272	1147.19
440.493	1176.19
440.715	1210.19
440.936	1206.19
441.158	1186.19
441.379	1264.19
441.6	1317.19
441.822	1329.19
442.043	1339.19
442.264	1305.19
442.486	1298.19
442.707	1299.19
442.928	1298.19
443.149	1315.19
443.371	1283.19
443.592	1288.19
443.813	1308.19
444.034	1325.19
444.255	1402.19
444.476	1439.19
444.698	1538.19
444.919	1634.19
445.14	1700.19
445.361	1546.19
445.582	1378.19
445.803	1288.19
446.024	1266.19
446.245	1194.19
446.466	1212.19
446.687	1208.19
446.908	1186.19
447.129	1143.19
447.35	1142.19
447.571	1092.19
447.792	1088.19
448.013	1101.19
448.234	1091.19
448.455	1080.19
448.675	1067.19
448.896	1088.19
449.117	1046.19
449.338	1056.19
449.559	1066.19
449.779	1066.19
450	1070.19
450.221	1043.19
450.442	1051.19
450.662	1073.19
450.883	1099.19
451.104	1116.19
451.324	1090.19
451.545	1090.19
451.766	1084.19
451.986	1085.19
452.207	1072.19
452.428	1057.19
452.648	1066.19
452.869	1031.19
453.089	1045.19
453.31	1053.19
453.53	1061.19
453.751	1036.19
453.971	1038.19
454.192	1056.19
454.412	1009.19
454.633	995.19
454.853	1026.19
455.073	1024.19
455.294	1019.19
455.514	980.19
455.734	996.19
455.955	984.19
456.175	1010.19
456.395	1015.19
456.616	987.19
456.836	983.19
457.056	998.19
457.276	975.19
457.497	1014.19
457.717	1008.19
457.937	999.19
458.157	1026.19
458.377	1051.19
458.598	1087.19
458.818	1097.19
459.038	1107.19
459.258	1148.19
459.478	1177.19
459.698	1221.19
459.918	1248.19
460.138	1322.19
460.358	1380.19
460.578	1446.19
460.798	1408.19
461.018	1414.19
461.238	1426.19
461.458	1421.19
461.678	1355.19
461.898	1392.19
462.118	1425.19
462.338	1513.19
462.558	1545.19
462.777	1603.19
462.997	1724.19
463.217	1884.19
463.437	1936.19
463.657	1778.19
463.876	1636.19
464.096	1636.19
464.316	1637.19
464.536	1645.19
464.755	1610.19
464.975	1531.19
465.195	1495.19
465.414	1376.19
465.634	1290.19
465.854	1256.19
466.073	1238.19
466.293	1202.19
466.512	1173.19
466.732	1134.19
466.951	1153.19
467.171	1129.19
467.391	1137.19
467.61	1128.19
467.829	1144.19
468.049	1093.19
468.268	1085.19
468.488	1085.19
468.707	1087.19
468.927	1055.19
469.146	1094.19
469.365	1124.19
469.585	1089.19
469.804	1129.19
470.023	1165.19
470.243	1152.19
470.462	1161.19
470.681	1172.19
470.901	1180.19
471.12	1107.19
471.339	1124.19
471.558	1096.19
471.777	1101.19
471.997	1124.19
472.216	1092.19
472.435	1092.19
472.654	1061.19
472.873	1044.19
473.092	1043.19
473.311	1052.19
473.53	1045.19
473.749	1028.19
473.968	1066.19
474.187	1048.19
474.406	1031.19
474.625	1029.19
474.844	1020.19
475.063	1074.19
475.282	1053.19
475.501	1067.19
475.72	1107.19
475.939	1078.19
476.158	1104.19
476.377	1102.19
476.596	1103.19
476.814	1114.19
477.033	1130.19
477.252	1122.19
477.471	1148.19
477.69	1177.19
477.908	1227.19
478.127	1228.19
478.346	1280.19
478.564	1299.19
478.783	1307.19
479.002	1334.19
479.22	1371.19
479.439	1327.19
479.658	1321.19
479.876	1300.19
480.095	1336.19
480.313	1372.19
480.532	1426.19
480.751	1412.19
480.969	1375.19
481.188	1336.19
481.406	1275.19
481.624	1271.19
481.843	1188.19
482.061	1222.19
482.28	1191.19
482.498	1185.19
482.717	1174.19
482.935	1199.19
483.153	1224.19
483.372	1186.19
483.59	1231.19
483.808	1210.19
484.027	1216.19
484.245	1193.19
484.463	1231.19
484.681	1225.19
484.9	1197.19
485.118	1229.19
485.336	1264.19
485.554	1230.19
485.772	1255.19
485.99	1250.19
486.209	1274.19
486.427	1238.19
486.645	1302.19
486.863	1243.19
487.081	1265.19
487.299	1260.19
487.517	1260.19
487.735	1234.19
487.953	1242.19
488.171	1227.19
488.389	1274.19
488.607	1242.19
488.825	1241.19
489.043	1239.19
489.261	1253.19
489.479	1218.19
489.696	1272.19
489.914	1240.19
490.132	1259.19
490.35	1242.19
490.568	1286.19
490.786	1282.19
491.003	1272.19
491.221	1310.19
491.439	1256.19
491.657	1278.19
491.874	1247.19
492.092	1255.19
492.31	1253.19
492.527	1303.19
492.745	1286.19
492.963	1297.19
493.18	1302.19
493.398	1338.19
493.615	1341.19
493.833	1321.19
494.05	1345.19
494.268	1348.19
494.485	1355.19
494.703	1358.19
