Data from NiCl2@0.125M.TitratingCurve.Agarose3%dH2O.NegLispCup.LampEnergy10.LIBS07252019_HRD10591_18-29-15-575.txt Node
Date: Thu Jul 25 18:29:15 EDT 2019
User: cochatt
Spectrometer: HR+D1059
Trigger mode: 1
Integration Time (sec): 1.000000E-1
Scans to average: 1
Electric dark correction enabled: true
Nonlinearity correction enabled: false
Boxcar width: 0
XAxis mode: Wavelengths
Number of Pixels in Spectrum: 2048
>>>>>Begin Spectral Data<<<<<
223.165	-15.19
223.4	-15.19
223.635	-15.19
223.869	-15.19
224.104	-11.19
224.338	-12.19
224.573	-12.19
224.808	2.81
225.042	-23.19
225.277	-16.19
225.511	2.81
225.746	1.81
225.98	0.81
226.215	-1.19
226.449	26.81
226.683	16.81
226.918	20.81
227.152	33.81
227.387	36.81
227.621	36.81
227.856	30.81
228.09	44.81
228.324	40.81
228.559	56.81
228.793	77.81
229.027	106.81
229.262	106.81
229.496	110.81
229.73	112.81
229.964	121.81
230.199	121.81
230.433	123.81
230.667	133.81
230.901	127.81
231.136	140.81
231.37	145.81
231.604	140.81
231.838	137.81
232.072	143.81
232.306	139.81
232.541	137.81
232.775	150.81
233.009	166.81
233.243	148.81
233.477	144.81
233.711	152.81
233.945	151.81
234.179	141.81
234.413	162.81
234.647	153.81
234.881	161.81
235.115	151.81
235.349	159.81
235.583	150.81
235.817	147.81
236.051	152.81
236.285	162.81
236.519	159.81
236.753	178.81
236.987	161.81
237.221	176.81
237.455	164.81
237.689	170.81
237.922	176.81
238.156	168.81
238.39	181.81
238.624	175.81
238.858	161.81
239.091	171.81
239.325	167.81
239.559	175.81
239.793	162.81
240.027	178.81
240.26	172.81
240.494	180.81
240.728	187.81
240.961	193.81
241.195	195.81
241.429	194.81
241.662	187.81
241.896	181.81
242.13	192.81
242.363	194.81
242.597	203.81
242.83	204.81
243.064	190.81
243.298	197.81
243.531	211.81
243.765	206.81
243.998	210.81
244.232	200.81
244.465	212.81
244.699	215.81
244.932	243.81
245.166	224.81
245.399	230.81
245.633	215.81
245.866	213.81
246.099	226.81
246.333	216.81
246.566	236.81
246.8	240.81
247.033	221.81
247.266	232.81
247.5	252.81
247.733	250.81
247.966	228.81
248.2	258.81
248.433	236.81
248.666	254.81
248.899	282.81
249.133	259.81
249.366	240.81
249.599	259.81
249.832	258.81
250.066	259.81
250.299	257.81
250.532	239.81
250.765	242.81
250.998	281.81
251.231	266.81
251.465	269.81
251.698	279.81
251.931	280.81
252.164	285.81
252.397	290.81
252.63	273.81
252.863	290.81
253.096	284.81
253.329	288.81
253.562	293.81
253.795	304.81
254.028	290.81
254.261	303.81
254.494	297.81
254.727	291.81
254.96	290.81
255.193	284.81
255.426	306.81
255.659	286.81
255.892	293.81
256.124	310.81
256.357	284.81
256.59	329.81
256.823	309.81
257.056	286.81
257.289	293.81
257.521	316.81
257.754	327.81
257.987	319.81
258.22	299.81
258.452	312.81
258.685	318.81
258.918	299.81
259.151	315.81
259.383	318.81
259.616	321.81
259.849	300.81
260.081	332.81
260.314	313.81
260.547	334.81
260.779	336.81
261.012	338.81
261.244	327.81
261.477	321.81
261.71	324.81
261.942	329.81
262.175	347.81
262.407	334.81
262.64	344.81
262.872	339.81
263.105	345.81
263.337	346.81
263.57	360.81
263.802	339.81
264.035	340.81
264.267	340.81
264.499	361.81
264.732	377.81
264.964	380.81
265.197	363.81
265.429	356.81
265.661	363.81
265.894	389.81
266.126	378.81
266.358	372.81
266.591	386.81
266.823	383.81
267.055	388.81
267.287	372.81
267.52	367.81
267.752	360.81
267.984	372.81
268.216	385.81
268.448	376.81
268.681	392.81
268.913	390.81
269.145	387.81
269.377	390.81
269.609	395.81
269.841	394.81
270.073	376.81
270.306	401.81
270.538	397.81
270.77	373.81
271.002	379.81
271.234	385.81
271.466	404.81
271.698	407.81
271.93	401.81
272.162	401.81
272.394	395.81
272.626	424.81
272.858	395.81
273.09	420.81
273.322	406.81
273.553	412.81
273.785	409.81
274.017	430.81
274.249	409.81
274.481	410.81
274.713	399.81
274.945	420.81
275.176	426.81
275.408	435.81
275.64	432.81
275.872	414.81
276.104	446.81
276.335	428.81
276.567	436.81
276.799	450.81
277.031	454.81
277.262	421.81
277.494	422.81
277.726	446.81
277.957	465.81
278.189	448.81
278.421	430.81
278.652	439.81
278.884	454.81
279.115	473.81
279.347	473.81
279.579	451.81
279.81	468.81
280.042	460.81
280.273	459.81
280.505	459.81
280.736	478.81
280.968	443.81
281.199	466.81
281.431	486.81
281.662	467.81
281.894	479.81
282.125	467.81
282.356	489.81
282.588	482.81
282.819	489.81
283.051	489.81
283.282	511.81
283.513	505.81
283.745	492.81
283.976	483.81
284.207	475.81
284.439	495.81
284.67	496.81
284.901	497.81
285.132	482.81
285.364	501.81
285.595	506.81
285.826	520.81
286.057	497.81
286.288	500.81
286.52	549.81
286.751	538.81
286.982	501.81
287.213	528.81
287.444	491.81
287.675	520.81
287.906	540.81
288.138	528.81
288.369	538.81
288.6	515.81
288.831	547.81
289.062	535.81
289.293	523.81
289.524	531.81
289.755	529.81
289.986	554.81
290.217	524.81
290.448	549.81
290.679	543.81
290.91	548.81
291.141	552.81
291.371	538.81
291.602	539.81
291.833	538.81
292.064	540.81
292.295	531.81
292.526	534.81
292.757	544.81
292.987	572.81
293.218	562.81
293.449	550.81
293.68	541.81
293.91	555.81
294.141	540.81
294.372	570.81
294.603	552.81
294.833	571.81
295.064	565.81
295.295	567.81
295.525	561.81
295.756	566.81
295.987	561.81
296.217	555.81
296.448	577.81
296.679	564.81
296.909	572.81
297.14	594.81
297.37	588.81
297.601	588.81
297.831	575.81
298.062	601.81
298.292	624.81
298.523	626.81
298.753	618.81
298.984	574.81
299.214	591.81
299.445	610.81
299.675	597.81
299.905	601.81
300.136	602.81
300.366	599.81
300.597	622.81
300.827	625.81
301.057	632.81
301.288	646.81
301.518	627.81
301.748	632.81
301.979	642.81
302.209	639.81
302.439	626.81
302.669	634.81
302.9	614.81
303.13	623.81
303.36	617.81
303.59	592.81
303.82	611.81
304.051	610.81
304.281	620.81
304.511	615.81
304.741	615.81
304.971	611.81
305.201	609.81
305.431	594.81
305.661	607.81
305.891	611.81
306.121	612.81
306.352	613.81
306.582	581.81
306.812	594.81
307.042	583.81
307.272	605.81
307.502	595.81
307.731	586.81
307.961	598.81
308.191	602.81
308.421	577.81
308.651	590.81
308.881	590.81
309.111	604.81
309.341	584.81
309.571	563.81
309.8	579.81
310.03	587.81
310.26	574.81
310.49	590.81
310.72	598.81
310.949	600.81
311.179	606.81
311.409	594.81
311.639	606.81
311.868	610.81
312.098	627.81
312.328	618.81
312.557	618.81
312.787	619.81
313.017	636.81
313.246	627.81
313.476	619.81
313.706	650.81
313.935	638.81
314.165	656.81
314.394	647.81
314.624	662.81
314.853	623.81
315.083	634.81
315.312	636.81
315.542	628.81
315.771	626.81
316.001	618.81
316.23	638.81
316.46	617.81
316.689	617.81
316.919	609.81
317.148	631.81
317.377	617.81
317.607	610.81
317.836	599.81
318.065	598.81
318.295	615.81
318.524	605.81
318.753	623.81
318.983	599.81
319.212	609.81
319.441	626.81
319.67	619.81
319.9	616.81
320.129	619.81
320.358	609.81
320.587	632.81
320.816	626.81
321.046	622.81
321.275	631.81
321.504	646.81
321.733	624.81
321.962	628.81
322.191	635.81
322.42	624.81
322.649	640.81
322.878	610.81
323.108	646.81
323.337	633.81
323.566	630.81
323.795	638.81
324.024	632.81
324.253	644.81
324.482	643.81
324.71	638.81
324.939	652.81
325.168	647.81
325.397	656.81
325.626	658.81
325.855	666.81
326.084	685.81
326.313	679.81
326.542	668.81
326.77	691.81
326.999	675.81
327.228	697.81
327.457	671.81
327.686	671.81
327.914	684.81
328.143	681.81
328.372	676.81
328.6	676.81
328.829	682.81
329.058	690.81
329.287	662.81
329.515	662.81
329.744	664.81
329.972	697.81
330.201	701.81
330.43	686.81
330.658	695.81
330.887	691.81
331.115	695.81
331.344	711.81
331.572	736.81
331.801	734.81
332.03	716.81
332.258	790.81
332.486	811.81
332.715	808.81
332.943	844.81
333.172	882.81
333.4	916.81
333.629	956.81
333.857	982.81
334.085	939.81
334.314	916.81
334.542	873.81
334.771	870.81
334.999	864.81
335.227	868.81
335.455	855.81
335.684	841.81
335.912	839.81
336.14	843.81
336.369	823.81
336.597	816.81
336.825	856.81
337.053	824.81
337.281	836.81
337.51	807.81
337.738	778.81
337.966	793.81
338.194	747.81
338.422	742.81
338.65	729.81
338.878	731.81
339.106	725.81
339.334	762.81
339.562	736.81
339.79	731.81
340.018	698.81
340.246	710.81
340.474	694.81
340.702	694.81
340.93	718.81
341.158	723.81
341.386	694.81
341.614	704.81
341.842	697.81
342.07	684.81
342.298	710.81
342.526	710.81
342.754	686.81
342.981	705.81
343.209	704.81
343.437	759.81
343.665	797.81
343.893	860.81
344.12	892.81
344.348	879.81
344.576	821.81
344.804	772.81
345.031	744.81
345.259	702.81
345.487	707.81
345.714	703.81
345.942	703.81
346.17	688.81
346.397	712.81
346.625	702.81
346.853	683.81
347.08	679.81
347.308	687.81
347.535	707.81
347.763	717.81
347.99	715.81
348.218	702.81
348.445	709.81
348.673	712.81
348.9	691.81
349.128	696.81
349.355	680.81
349.583	681.81
349.81	664.81
350.037	648.81
350.265	660.81
350.492	684.81
350.72	654.81
350.947	652.81
351.174	642.81
351.402	655.81
351.629	658.81
351.856	659.81
352.083	632.81
352.311	660.81
352.538	655.81
352.765	644.81
352.992	662.81
353.22	654.81
353.447	631.81
353.674	636.81
353.901	674.81
354.128	628.81
354.355	630.81
354.583	627.81
354.81	667.81
355.037	658.81
355.264	675.81
355.491	636.81
355.718	667.81
355.945	656.81
356.172	651.81
356.399	666.81
356.626	645.81
356.853	651.81
357.08	649.81
357.307	651.81
357.534	657.81
357.761	660.81
357.988	643.81
358.215	648.81
358.441	658.81
358.668	646.81
358.895	679.81
359.122	692.81
359.349	664.81
359.576	665.81
359.802	676.81
360.029	664.81
360.256	643.81
360.483	629.81
360.709	652.81
360.936	676.81
361.163	672.81
361.39	663.81
361.616	671.81
361.843	658.81
362.07	658.81
362.296	635.81
362.523	630.81
362.749	651.81
362.976	650.81
363.203	668.81
363.429	615.81
363.656	640.81
363.882	649.81
364.109	672.81
364.335	647.81
364.562	622.81
364.788	637.81
365.015	675.81
365.241	628.81
365.468	646.81
365.694	651.81
365.92	661.81
366.147	660.81
366.373	628.81
366.599	662.81
366.826	652.81
367.052	640.81
367.278	659.81
367.505	651.81
367.731	661.81
367.957	684.81
368.184	661.81
368.41	668.81
368.636	676.81
368.862	666.81
369.089	656.81
369.315	682.81
369.541	679.81
369.767	674.81
369.993	684.81
370.219	666.81
370.445	691.81
370.672	691.81
370.898	715.81
371.124	704.81
371.35	711.81
371.576	721.81
371.802	720.81
372.028	715.81
372.254	709.81
372.48	701.81
372.706	723.81
372.932	730.81
373.158	758.81
373.384	748.81
373.61	696.81
373.835	729.81
374.061	705.81
374.287	730.81
374.513	748.81
374.739	763.81
374.965	780.81
375.191	822.81
375.416	820.81
375.642	791.81
375.868	776.81
376.094	745.81
376.319	720.81
376.545	733.81
376.771	729.81
376.997	722.81
377.222	723.81
377.448	710.81
377.674	712.81
377.899	719.81
378.125	699.81
378.35	672.81
378.576	693.81
378.802	716.81
379.027	707.81
379.253	700.81
379.478	693.81
379.704	711.81
379.929	700.81
380.155	695.81
380.38	710.81
380.606	715.81
380.831	727.81
381.057	726.81
381.282	725.81
381.507	731.81
381.733	745.81
381.958	712.81
382.184	727.81
382.409	754.81
382.634	746.81
382.86	746.81
383.085	780.81
383.31	780.81
383.535	801.81
383.761	779.81
383.986	848.81
384.211	818.81
384.436	836.81
384.662	847.81
384.887	848.81
385.112	869.81
385.337	863.81
385.562	875.81
385.787	873.81
386.013	900.81
386.238	858.81
386.463	889.81
386.688	896.81
386.913	858.81
387.138	823.81
387.363	880.81
387.588	858.81
387.813	854.81
388.038	851.81
388.263	849.81
388.488	858.81
388.713	858.81
388.938	859.81
389.163	842.81
389.387	839.81
389.612	828.81
389.837	854.81
390.062	826.81
390.287	856.81
390.512	849.81
390.736	877.81
390.961	861.81
391.186	880.81
391.411	914.81
391.636	926.81
391.86	967.81
392.085	994.81
392.31	982.81
392.534	946.81
392.759	938.81
392.984	935.81
393.208	922.81
393.433	914.81
393.658	946.81
393.882	953.81
394.107	946.81
394.331	959.81
394.556	939.81
394.78	945.81
395.005	907.81
395.229	935.81
395.454	950.81
395.678	1019.81
395.903	983.81
396.127	981.81
396.352	928.81
396.576	930.81
396.801	872.81
397.025	889.81
397.249	920.81
397.474	946.81
397.698	954.81
397.922	960.81
398.147	958.81
398.371	986.81
398.595	1008.81
398.82	1041.81
399.044	1107.81
399.268	1251.81
399.492	1468.81
399.717	1711.81
399.941	1745.81
400.165	1522.81
400.389	1334.81
400.613	1228.81
400.837	1140.81
401.062	1119.81
401.286	1078.81
401.51	1095.81
401.734	1085.81
401.958	1085.81
402.182	1105.81
402.406	1134.81
402.63	1111.81
402.854	1198.81
403.078	1202.81
403.302	1232.81
403.526	1250.81
403.75	1287.81
403.974	1319.81
404.198	1323.81
404.422	1328.81
404.645	1290.81
404.869	1273.81
405.093	1281.81
405.317	1194.81
405.541	1235.81
405.765	1228.81
405.988	1210.81
406.212	1220.81
406.436	1191.81
406.66	1232.81
406.883	1239.81
407.107	1331.81
407.331	1403.81
407.555	1444.81
407.778	1450.81
408.002	1411.81
408.226	1359.81
408.449	1319.81
408.673	1297.81
408.896	1281.81
409.12	1261.81
409.344	1270.81
409.567	1261.81
409.791	1288.81
410.014	1251.81
410.238	1258.81
410.461	1260.81
410.685	1222.81
410.908	1180.81
411.132	1179.81
411.355	1120.81
411.578	1154.81
411.802	1110.81
412.025	1141.81
412.249	1131.81
412.472	1131.81
412.695	1103.81
412.919	1112.81
413.142	1102.81
413.365	1089.81
413.589	1122.81
413.812	1082.81
414.035	1073.81
414.258	1097.81
414.482	1113.81
414.705	1132.81
414.928	1125.81
415.151	1081.81
415.374	1106.81
415.597	1099.81
415.821	1065.81
416.044	1072.81
416.267	1062.81
416.49	1053.81
416.713	1067.81
416.936	1116.81
417.159	1084.81
417.382	1099.81
417.605	1076.81
417.828	1089.81
418.051	1102.81
418.274	1104.81
418.497	1071.81
418.72	1145.81
418.943	1143.81
419.166	1203.81
419.389	1313.81
419.611	1270.81
419.834	1170.81
420.057	1123.81
420.28	1101.81
420.503	1110.81
420.726	1054.81
420.948	1061.81
421.171	1086.81
421.394	1082.81
421.617	1095.81
421.839	1076.81
422.062	1118.81
422.285	1095.81
422.507	1110.81
422.73	1121.81
422.953	1139.81
423.175	1152.81
423.398	1192.81
423.621	1143.81
423.843	1170.81
424.066	1203.81
424.288	1176.81
424.511	1148.81
424.733	1147.81
424.956	1131.81
425.178	1115.81
425.401	1138.81
425.623	1082.81
425.846	1107.81
426.068	1054.81
426.291	1073.81
426.513	1030.81
426.735	1026.81
426.958	1042.81
427.18	997.81
427.402	992.81
427.625	966.81
427.847	975.81
428.069	970.81
428.292	984.81
428.514	929.81
428.736	966.81
428.958	1002.81
429.181	946.81
429.403	926.81
429.625	944.81
429.847	961.81
430.069	951.81
430.292	936.81
430.514	942.81
430.736	950.81
430.958	930.81
431.18	954.81
431.402	974.81
431.624	970.81
431.846	951.81
432.068	994.81
432.29	1004.81
432.512	958.81
432.734	980.81
432.956	956.81
433.178	970.81
433.4	986.81
433.622	955.81
433.844	970.81
434.066	985.81
434.287	989.81
434.509	990.81
434.731	1054.81
434.953	1126.81
435.175	1119.81
435.397	1112.81
435.618	1021.81
435.84	1018.81
436.062	979.81
436.284	957.81
436.505	971.81
436.727	975.81
436.949	981.81
437.17	954.81
437.392	980.81
437.614	948.81
437.835	922.81
438.057	953.81
438.278	931.81
438.5	930.81
438.721	944.81
438.943	931.81
439.165	909.81
439.386	952.81
439.608	979.81
439.829	966.81
440.05	985.81
440.272	989.81
440.493	1000.81
440.715	963.81
440.936	1018.81
441.158	1048.81
441.379	1050.81
441.6	1128.81
441.822	1164.81
442.043	1144.81
442.264	1095.81
442.486	1094.81
442.707	1086.81
442.928	1103.81
443.149	1063.81
443.371	1074.81
443.592	1098.81
443.813	1102.81
444.034	1099.81
444.255	1146.81
444.476	1266.81
444.698	1326.81
444.919	1366.81
445.14	1464.81
445.361	1286.81
445.582	1166.81
445.803	1063.81
446.024	1034.81
446.245	1019.81
446.466	1014.81
446.687	990.81
446.908	995.81
447.129	999.81
447.35	962.81
447.571	958.81
447.792	907.81
448.013	908.81
448.234	908.81
448.455	925.81
448.675	918.81
448.896	902.81
449.117	897.81
449.338	876.81
449.559	894.81
449.779	906.81
450	860.81
450.221	889.81
450.442	904.81
450.662	916.81
450.883	922.81
451.104	961.81
451.324	956.81
451.545	950.81
451.766	933.81
451.986	907.81
452.207	914.81
452.428	930.81
452.648	926.81
452.869	899.81
453.089	861.81
453.31	905.81
453.53	879.81
453.751	878.81
453.971	843.81
454.192	863.81
454.412	850.81
454.633	870.81
454.853	859.81
455.073	865.81
455.294	859.81
455.514	862.81
455.734	844.81
455.955	809.81
456.175	847.81
456.395	838.81
456.616	812.81
456.836	862.81
457.056	850.81
457.276	826.81
457.497	823.81
457.717	839.81
457.937	837.81
458.157	866.81
458.377	879.81
458.598	878.81
458.818	921.81
459.038	922.81
459.258	995.81
459.478	982.81
459.698	1018.81
459.918	1080.81
460.138	1068.81
460.358	1146.81
460.578	1195.81
460.798	1177.81
461.018	1192.81
461.238	1173.81
461.458	1180.81
461.678	1158.81
461.898	1165.81
462.118	1162.81
462.338	1236.81
462.558	1252.81
462.777	1341.81
462.997	1461.81
463.217	1603.81
463.437	1643.81
463.657	1464.81
463.876	1445.81
464.096	1402.81
464.316	1406.81
464.536	1400.81
464.755	1371.81
464.975	1315.81
465.195	1246.81
465.414	1143.81
465.634	1068.81
465.854	1024.81
466.073	1013.81
466.293	982.81
466.512	986.81
466.732	935.81
466.951	992.81
467.171	939.81
467.391	947.81
467.61	946.81
467.829	914.81
468.049	928.81
468.268	902.81
468.488	896.81
468.707	884.81
468.927	920.81
469.146	906.81
469.365	931.81
469.585	919.81
469.804	937.81
470.023	966.81
470.243	970.81
470.462	977.81
470.681	971.81
470.901	993.81
471.12	989.81
471.339	932.81
471.558	939.81
471.777	920.81
471.997	898.81
472.216	905.81
472.435	882.81
472.654	886.81
472.873	866.81
473.092	879.81
473.311	863.81
473.53	871.81
473.749	880.81
473.968	869.81
474.187	846.81
474.406	816.81
474.625	859.81
474.844	866.81
475.063	884.81
475.282	866.81
475.501	882.81
475.72	886.81
475.939	904.81
476.158	893.81
476.377	880.81
476.596	926.81
476.814	916.81
477.033	920.81
477.252	948.81
477.471	908.81
477.69	982.81
477.908	996.81
478.127	1052.81
478.346	1068.81
478.564	1060.81
478.783	1068.81
479.002	1115.81
479.22	1104.81
479.439	1106.81
479.658	1096.81
479.876	1061.81
480.095	1119.81
480.313	1188.81
480.532	1195.81
480.751	1182.81
480.969	1140.81
481.188	1081.81
481.406	1043.81
481.624	1010.81
481.843	1010.81
482.061	977.81
482.28	982.81
482.498	1024.81
482.717	967.81
482.935	976.81
483.153	975.81
483.372	984.81
483.59	982.81
483.808	999.81
484.027	974.81
484.245	1016.81
484.463	986.81
484.681	987.81
484.9	987.81
485.118	1024.81
485.336	1042.81
485.554	1067.81
485.772	1083.81
485.99	1047.81
486.209	1087.81
486.427	1050.81
486.645	1059.81
486.863	1074.81
487.081	1056.81
487.299	1077.81
487.517	1036.81
487.735	1015.81
487.953	1031.81
488.171	1031.81
488.389	1033.81
488.607	1000.81
488.825	1010.81
489.043	1014.81
489.261	1024.81
489.479	1004.81
489.696	1035.81
489.914	1054.81
490.132	1000.81
490.35	1022.81
490.568	1022.81
490.786	1048.81
491.003	1029.81
491.221	1054.81
491.439	1028.81
491.657	1055.81
491.874	1053.81
492.092	1044.81
492.31	1060.81
492.527	1034.81
492.745	1089.81
492.963	1082.81
493.18	1065.81
493.398	1099.81
493.615	1067.81
493.833	1083.81
494.05	1112.81
494.268	1089.81
494.485	1105.81
494.703	1085.81
494.92	1094.81
495.138	1107.81
495.355	1106.81
495.573	1087.81
495.79	1092.81
496.008	1144.81
496.225	1106.81
496.442	1113.81
496.66	1148.81
496.877	1166.81
497.094	1162.81
497.312	1185.81
497.529	1193.81
497.746	1238.81
497.963	1292.81
