Data from NiCl2@0.5M.TitratingCurve.Agarose3%dH2O.NegLispCup.LampEnergy10.LIBS07252019_HRD10591_18-18-43-576.txt Node
Date: Thu Jul 25 18:18:43 EDT 2019
User: cochatt
Spectrometer: HR+D1059
Trigger mode: 1
Integration Time (sec): 1.000000E-1
Scans to average: 1
Electric dark correction enabled: true
Nonlinearity correction enabled: false
Boxcar width: 0
XAxis mode: Wavelengths
Number of Pixels in Spectrum: 2048
>>>>>Begin Spectral Data<<<<<
223.165	-7.88
223.4	-7.88
223.635	-7.88
223.869	-15.88
224.104	-23.88
224.338	-7.88
224.573	-17.88
224.808	-22.88
225.042	-10.88
225.277	-4.88
225.511	-1.88
225.746	7.12
225.98	11.12
226.215	21.12
226.449	7.12
226.683	8.12
226.918	29.12
227.152	30.12
227.387	26.12
227.621	33.12
227.856	43.12
228.09	38.12
228.324	66.12
228.559	58.12
228.793	68.12
229.027	136.12
229.262	172.12
229.496	159.12
229.73	159.12
229.964	161.12
230.199	201.12
230.433	186.12
230.667	183.12
230.901	185.12
231.136	188.12
231.37	186.12
231.604	202.12
231.838	212.12
232.072	210.12
232.306	213.12
232.541	207.12
232.775	208.12
233.009	187.12
233.243	190.12
233.477	221.12
233.711	208.12
233.945	205.12
234.179	205.12
234.413	191.12
234.647	201.12
234.881	229.12
235.115	195.12
235.349	199.12
235.583	198.12
235.817	197.12
236.051	208.12
236.285	207.12
236.519	212.12
236.753	235.12
236.987	199.12
237.221	224.12
237.455	218.12
237.689	235.12
237.922	230.12
238.156	235.12
238.39	220.12
238.624	224.12
238.858	237.12
239.091	236.12
239.325	240.12
239.559	246.12
239.793	261.12
240.027	255.12
240.26	256.12
240.494	251.12
240.728	240.12
240.961	254.12
241.195	258.12
241.429	267.12
241.662	282.12
241.896	301.12
242.13	292.12
242.363	292.12
242.597	284.12
242.83	278.12
243.064	272.12
243.298	292.12
243.531	281.12
243.765	285.12
243.998	295.12
244.232	307.12
244.465	296.12
244.699	303.12
244.932	296.12
245.166	301.12
245.399	303.12
245.633	293.12
245.866	312.12
246.099	312.12
246.333	300.12
246.566	310.12
246.8	317.12
247.033	313.12
247.266	334.12
247.5	327.12
247.733	335.12
247.966	345.12
248.2	335.12
248.433	335.12
248.666	351.12
248.899	338.12
249.133	348.12
249.366	341.12
249.599	363.12
249.832	359.12
250.066	362.12
250.299	368.12
250.532	350.12
250.765	376.12
250.998	368.12
251.231	380.12
251.465	394.12
251.698	394.12
251.931	389.12
252.164	392.12
252.397	392.12
252.63	396.12
252.863	381.12
253.096	414.12
253.329	408.12
253.562	388.12
253.795	396.12
254.028	403.12
254.261	401.12
254.494	411.12
254.727	416.12
254.96	410.12
255.193	431.12
255.426	408.12
255.659	420.12
255.892	432.12
256.124	415.12
256.357	419.12
256.59	430.12
256.823	430.12
257.056	467.12
257.289	451.12
257.521	434.12
257.754	434.12
257.987	446.12
258.22	456.12
258.452	457.12
258.685	462.12
258.918	455.12
259.151	464.12
259.383	467.12
259.616	472.12
259.849	471.12
260.081	486.12
260.314	487.12
260.547	484.12
260.779	483.12
261.012	476.12
261.244	473.12
261.477	488.12
261.71	480.12
261.942	487.12
262.175	484.12
262.407	499.12
262.64	502.12
262.872	510.12
263.105	511.12
263.337	500.12
263.57	531.12
263.802	500.12
264.035	525.12
264.267	509.12
264.499	509.12
264.732	533.12
264.964	528.12
265.197	528.12
265.429	537.12
265.661	515.12
265.894	543.12
266.126	539.12
266.358	550.12
266.591	527.12
266.823	546.12
267.055	543.12
267.287	538.12
267.52	564.12
267.752	540.12
267.984	563.12
268.216	555.12
268.448	564.12
268.681	562.12
268.913	570.12
269.145	590.12
269.377	586.12
269.609	590.12
269.841	567.12
270.073	586.12
270.306	596.12
270.538	572.12
270.77	590.12
271.002	570.12
271.234	593.12
271.466	613.12
271.698	609.12
271.93	598.12
272.162	603.12
272.394	605.12
272.626	593.12
272.858	629.12
273.09	627.12
273.322	619.12
273.553	623.12
273.785	627.12
274.017	646.12
274.249	628.12
274.481	651.12
274.713	642.12
274.945	641.12
275.176	654.12
275.408	634.12
275.64	638.12
275.872	647.12
276.104	657.12
276.335	668.12
276.567	631.12
276.799	656.12
277.031	673.12
277.262	655.12
277.494	674.12
277.726	678.12
277.957	674.12
278.189	663.12
278.421	687.12
278.652	674.12
278.884	674.12
279.115	683.12
279.347	675.12
279.579	703.12
279.81	692.12
280.042	682.12
280.273	691.12
280.505	702.12
280.736	719.12
280.968	725.12
281.199	731.12
281.431	720.12
281.662	733.12
281.894	744.12
282.125	688.12
282.356	720.12
282.588	751.12
282.819	750.12
283.051	747.12
283.282	723.12
283.513	772.12
283.745	751.12
283.976	748.12
284.207	722.12
284.439	719.12
284.67	740.12
284.901	747.12
285.132	779.12
285.364	756.12
285.595	780.12
285.826	767.12
286.057	785.12
286.288	775.12
286.52	790.12
286.751	790.12
286.982	787.12
287.213	783.12
287.444	777.12
287.675	764.12
287.906	789.12
288.138	805.12
288.369	802.12
288.6	786.12
288.831	797.12
289.062	788.12
289.293	822.12
289.524	813.12
289.755	806.12
289.986	807.12
290.217	803.12
290.448	807.12
290.679	844.12
290.91	811.12
291.141	839.12
291.371	835.12
291.602	831.12
291.833	826.12
292.064	815.12
292.295	800.12
292.526	850.12
292.757	823.12
292.987	824.12
293.218	797.12
293.449	799.12
293.68	819.12
293.91	837.12
294.141	798.12
294.372	810.12
294.603	826.12
294.833	847.12
295.064	835.12
295.295	826.12
295.525	828.12
295.756	847.12
295.987	836.12
296.217	852.12
296.448	827.12
296.679	843.12
296.909	888.12
297.14	847.12
297.37	896.12
297.601	890.12
297.831	892.12
298.062	860.12
298.292	927.12
298.523	907.12
298.753	895.12
298.984	914.12
299.214	890.12
299.445	895.12
299.675	898.12
299.905	919.12
300.136	903.12
300.366	928.12
300.597	952.12
300.827	947.12
301.057	950.12
301.288	949.12
301.518	978.12
301.748	939.12
301.979	941.12
302.209	968.12
302.439	934.12
302.669	918.12
302.9	924.12
303.13	918.12
303.36	963.12
303.59	954.12
303.82	979.12
304.051	1001.12
304.281	982.12
304.511	933.12
304.741	939.12
304.971	998.12
305.201	1001.12
305.431	985.12
305.661	983.12
305.891	991.12
306.121	985.12
306.352	950.12
306.582	948.12
306.812	917.12
307.042	927.12
307.272	932.12
307.502	954.12
307.731	936.12
307.961	946.12
308.191	933.12
308.421	957.12
308.651	963.12
308.881	950.12
309.111	937.12
309.341	921.12
309.571	958.12
309.8	992.12
310.03	1004.12
310.26	1030.12
310.49	1010.12
310.72	987.12
310.949	959.12
311.179	974.12
311.409	954.12
311.639	979.12
311.868	986.12
312.098	975.12
312.328	988.12
312.557	1012.12
312.787	999.12
313.017	1006.12
313.246	1044.12
313.476	1036.12
313.706	1041.12
313.935	1012.12
314.165	1045.12
314.394	1029.12
314.624	1030.12
314.853	1007.12
315.083	1014.12
315.312	1025.12
315.542	1032.12
315.771	1031.12
316.001	1024.12
316.23	993.12
316.46	1010.12
316.689	1014.12
316.919	1013.12
317.148	1030.12
317.377	1004.12
317.607	986.12
317.836	983.12
318.065	1030.12
318.295	1028.12
318.524	1020.12
318.753	1044.12
318.983	1009.12
319.212	1010.12
319.441	1030.12
319.67	1011.12
319.9	1014.12
320.129	1015.12
320.358	1037.12
320.587	1006.12
320.816	1022.12
321.046	1028.12
321.275	1023.12
321.504	1034.12
321.733	1046.12
321.962	1038.12
322.191	1035.12
322.42	1040.12
322.649	1044.12
322.878	1076.12
323.108	1062.12
323.337	1087.12
323.566	1058.12
323.795	1070.12
324.024	1104.12
324.253	1072.12
324.482	1086.12
324.71	1097.12
324.939	1102.12
325.168	1098.12
325.397	1106.12
325.626	1112.12
325.855	1077.12
326.084	1103.12
326.313	1098.12
326.542	1090.12
326.77	1146.12
326.999	1144.12
327.228	1121.12
327.457	1111.12
327.686	1107.12
327.914	1116.12
328.143	1111.12
328.372	1114.12
328.6	1099.12
328.829	1113.12
329.058	1082.12
329.287	1128.12
329.515	1120.12
329.744	1136.12
329.972	1164.12
330.201	1170.12
330.43	1144.12
330.658	1186.12
330.887	1128.12
331.115	1161.12
331.344	1172.12
331.572	1190.12
331.801	1228.12
332.03	1211.12
332.258	1272.12
332.486	1248.12
332.715	1261.12
332.943	1269.12
333.172	1292.12
333.4	1359.12
333.629	1350.12
333.857	1388.12
334.085	1370.12
334.314	1385.12
334.542	1385.12
334.771	1365.12
334.999	1351.12
335.227	1325.12
335.455	1404.12
335.684	1338.12
335.912	1371.12
336.14	1332.12
336.369	1397.12
336.597	1374.12
336.825	1409.12
337.053	1359.12
337.281	1357.12
337.51	1320.12
337.738	1314.12
337.966	1301.12
338.194	1338.12
338.422	1290.12
338.65	1241.12
338.878	1247.12
339.106	1255.12
339.334	1324.12
339.562	1286.12
339.79	1218.12
340.018	1220.12
340.246	1191.12
340.474	1197.12
340.702	1180.12
340.93	1187.12
341.158	1226.12
341.386	1239.12
341.614	1327.12
341.842	1301.12
342.07	1182.12
342.298	1205.12
342.526	1230.12
342.754	1204.12
342.981	1168.12
343.209	1199.12
343.437	1299.12
343.665	1322.12
343.893	1366.12
344.12	1367.12
344.348	1334.12
344.576	1333.12
344.804	1367.12
345.031	1268.12
345.259	1203.12
345.487	1220.12
345.714	1224.12
345.942	1282.12
346.17	1301.12
346.397	1283.12
346.625	1182.12
346.853	1151.12
347.08	1155.12
347.308	1167.12
347.535	1170.12
347.763	1147.12
347.99	1168.12
348.218	1151.12
348.445	1125.12
348.673	1108.12
348.9	1160.12
349.128	1141.12
349.355	1202.12
349.583	1223.12
349.81	1136.12
350.037	1118.12
350.265	1111.12
350.492	1114.12
350.72	1116.12
350.947	1135.12
351.174	1167.12
351.402	1150.12
351.629	1222.12
351.856	1192.12
352.083	1140.12
352.311	1133.12
352.538	1208.12
352.765	1238.12
352.992	1107.12
353.22	1091.12
353.447	1097.12
353.674	1051.12
353.901	1075.12
354.128	1094.12
354.355	1077.12
354.583	1063.12
354.81	1072.12
355.037	1102.12
355.264	1086.12
355.491	1079.12
355.718	1111.12
355.945	1070.12
356.172	1044.12
356.399	1100.12
356.626	1150.12
356.853	1190.12
357.08	1113.12
357.307	1133.12
357.534	1125.12
357.761	1101.12
357.988	1096.12
358.215	1085.12
358.441	1061.12
358.668	1093.12
358.895	1052.12
359.122	1070.12
359.349	1082.12
359.576	1086.12
359.802	1094.12
360.029	1116.12
360.256	1102.12
360.483	1093.12
360.709	1102.12
360.936	1086.12
361.163	1147.12
361.39	1127.12
361.616	1122.12
361.843	1149.12
362.07	1189.12
362.296	1195.12
362.523	1097.12
362.749	1106.12
362.976	1066.12
363.203	1069.12
363.429	1053.12
363.656	1087.12
363.882	1067.12
364.109	1084.12
364.335	1076.12
364.562	1055.12
364.788	1079.12
365.015	1052.12
365.241	1051.12
365.468	1076.12
365.694	1088.12
365.92	1077.12
366.147	1048.12
366.373	1068.12
366.599	1097.12
366.826	1057.12
367.052	1058.12
367.278	1082.12
367.505	1086.12
367.731	1101.12
367.957	1085.12
368.184	1069.12
368.41	1057.12
368.636	1110.12
368.862	1100.12
369.089	1058.12
369.315	1086.12
369.541	1074.12
369.767	1076.12
369.993	1102.12
370.219	1085.12
370.445	1109.12
370.672	1098.12
370.898	1133.12
371.124	1164.12
371.35	1148.12
371.576	1153.12
371.802	1128.12
372.028	1131.12
372.254	1167.12
372.48	1130.12
372.706	1144.12
372.932	1160.12
373.158	1159.12
373.384	1147.12
373.61	1136.12
373.835	1140.12
374.061	1123.12
374.287	1156.12
374.513	1165.12
374.739	1181.12
374.965	1214.12
375.191	1229.12
375.416	1239.12
375.642	1194.12
375.868	1194.12
376.094	1162.12
376.319	1146.12
376.545	1140.12
376.771	1157.12
376.997	1127.12
377.222	1141.12
377.448	1133.12
377.674	1180.12
377.899	1160.12
378.125	1127.12
378.35	1143.12
378.576	1114.12
378.802	1119.12
379.027	1132.12
379.253	1117.12
379.478	1112.12
379.704	1099.12
379.929	1123.12
380.155	1104.12
380.38	1097.12
380.606	1130.12
380.831	1156.12
381.057	1154.12
381.282	1143.12
381.507	1131.12
381.733	1163.12
381.958	1154.12
382.184	1155.12
382.409	1156.12
382.634	1150.12
382.86	1150.12
383.085	1183.12
383.31	1190.12
383.535	1163.12
383.761	1190.12
383.986	1223.12
384.211	1231.12
384.436	1240.12
384.662	1227.12
384.887	1304.12
385.112	1303.12
385.337	1298.12
385.562	1299.12
385.787	1314.12
386.013	1403.12
386.238	1342.12
386.463	1354.12
386.688	1340.12
386.913	1334.12
387.138	1339.12
387.363	1337.12
387.588	1318.12
387.813	1350.12
388.038	1309.12
388.263	1330.12
388.488	1332.12
388.713	1316.12
388.938	1306.12
389.163	1344.12
389.387	1325.12
389.612	1322.12
389.837	1283.12
390.062	1325.12
390.287	1338.12
390.512	1344.12
390.736	1364.12
390.961	1361.12
391.186	1376.12
391.411	1384.12
391.636	1384.12
391.86	1451.12
392.085	1480.12
392.31	1454.12
392.534	1426.12
392.759	1417.12
392.984	1412.12
393.208	1421.12
393.433	1397.12
393.658	1428.12
393.882	1369.12
394.107	1414.12
394.331	1397.12
394.556	1403.12
394.78	1407.12
395.005	1416.12
395.229	1422.12
395.454	1441.12
395.678	1475.12
395.903	1492.12
396.127	1476.12
396.352	1424.12
396.576	1458.12
396.801	1412.12
397.025	1452.12
397.249	1493.12
397.474	1499.12
397.698	1493.12
397.922	1508.12
398.147	1500.12
398.371	1572.12
398.595	1601.12
398.82	1647.12
399.044	1672.12
399.268	1848.12
399.492	1960.12
399.717	2104.12
399.941	2138.12
400.165	2032.12
400.389	1940.12
400.613	1814.12
400.837	1775.12
401.062	1713.12
401.286	1717.12
401.51	1678.12
401.734	1659.12
401.958	1693.12
402.182	1662.12
402.406	1673.12
402.63	1674.12
402.854	1683.12
403.078	1667.12
403.302	1700.12
403.526	1730.12
403.75	1749.12
403.974	1761.12
404.198	1711.12
404.422	1711.12
404.645	1732.12
404.869	1726.12
405.093	1735.12
405.317	1737.12
405.541	1720.12
405.765	1723.12
405.988	1730.12
406.212	1753.12
406.436	1785.12
406.66	1800.12
406.883	1807.12
407.107	1864.12
407.331	1963.12
407.555	1973.12
407.778	1986.12
408.002	1977.12
408.226	1926.12
408.449	1902.12
408.673	1889.12
408.896	1846.12
409.12	1844.12
409.344	1837.12
409.567	1796.12
409.791	1837.12
410.014	1825.12
410.238	1791.12
410.461	1811.12
410.685	1784.12
410.908	1757.12
411.132	1742.12
411.355	1679.12
411.578	1752.12
411.802	1715.12
412.025	1744.12
412.249	1698.12
412.472	1722.12
412.695	1714.12
412.919	1694.12
413.142	1679.12
413.365	1612.12
413.589	1694.12
413.812	1692.12
414.035	1667.12
414.258	1628.12
414.482	1678.12
414.705	1647.12
414.928	1638.12
415.151	1665.12
415.374	1645.12
415.597	1666.12
415.821	1598.12
416.044	1587.12
416.267	1607.12
416.49	1621.12
416.713	1577.12
416.936	1652.12
417.159	1562.12
417.382	1582.12
417.605	1543.12
417.828	1570.12
418.051	1578.12
418.274	1606.12
418.497	1577.12
418.72	1602.12
418.943	1587.12
419.166	1746.12
419.389	1813.12
419.611	1769.12
419.834	1730.12
420.057	1687.12
420.28	1627.12
420.503	1613.12
420.726	1588.12
420.948	1596.12
421.171	1560.12
421.394	1592.12
421.617	1603.12
421.839	1607.12
422.062	1654.12
422.285	1604.12
422.507	1641.12
422.73	1620.12
422.953	1650.12
423.175	1625.12
423.398	1622.12
423.621	1656.12
423.843	1650.12
424.066	1647.12
424.288	1629.12
424.511	1614.12
424.733	1613.12
424.956	1630.12
425.178	1618.12
425.401	1624.12
425.623	1629.12
425.846	1567.12
426.068	1582.12
426.291	1567.12
426.513	1557.12
426.735	1562.12
426.958	1574.12
427.18	1561.12
427.402	1571.12
427.625	1567.12
427.847	1524.12
428.069	1511.12
428.292	1509.12
428.514	1508.12
428.736	1540.12
428.958	1548.12
429.181	1486.12
429.403	1481.12
429.625	1493.12
429.847	1509.12
430.069	1502.12
430.292	1461.12
430.514	1475.12
430.736	1476.12
430.958	1503.12
431.18	1489.12
431.402	1478.12
431.624	1481.12
431.846	1550.12
432.068	1498.12
432.29	1544.12
432.512	1481.12
432.734	1514.12
432.956	1509.12
433.178	1527.12
433.4	1584.12
433.622	1558.12
433.844	1562.12
434.066	1546.12
434.287	1567.12
434.509	1579.12
434.731	1574.12
434.953	1610.12
435.175	1662.12
435.397	1662.12
435.618	1608.12
435.84	1593.12
436.062	1529.12
436.284	1563.12
436.505	1554.12
436.727	1540.12
436.949	1515.12
437.17	1519.12
437.392	1511.12
437.614	1542.12
437.835	1486.12
438.057	1506.12
438.278	1467.12
438.5	1465.12
438.721	1447.12
438.943	1503.12
439.165	1500.12
439.386	1482.12
439.608	1478.12
439.829	1490.12
440.05	1475.12
440.272	1516.12
440.493	1510.12
440.715	1534.12
440.936	1596.12
441.158	1561.12
441.379	1609.12
441.6	1654.12
441.822	1674.12
442.043	1654.12
442.264	1586.12
442.486	1623.12
442.707	1632.12
442.928	1609.12
443.149	1602.12
443.371	1592.12
443.592	1701.12
443.813	1658.12
444.034	1682.12
444.255	1716.12
444.476	1746.12
444.698	1815.12
444.919	1885.12
445.14	1890.12
445.361	1808.12
445.582	1734.12
445.803	1678.12
446.024	1602.12
446.245	1582.12
446.466	1546.12
446.687	1534.12
446.908	1557.12
447.129	1499.12
447.35	1511.12
447.571	1496.12
447.792	1425.12
448.013	1486.12
448.234	1404.12
448.455	1504.12
448.675	1455.12
448.896	1463.12
449.117	1399.12
449.338	1430.12
449.559	1378.12
449.779	1363.12
450	1386.12
450.221	1347.12
450.442	1384.12
450.662	1394.12
450.883	1407.12
451.104	1444.12
451.324	1416.12
451.545	1429.12
451.766	1394.12
451.986	1366.12
452.207	1370.12
452.428	1404.12
452.648	1373.12
452.869	1321.12
453.089	1356.12
453.31	1410.12
453.53	1351.12
453.751	1391.12
453.971	1339.12
454.192	1364.12
454.412	1341.12
454.633	1336.12
454.853	1342.12
455.073	1341.12
455.294	1310.12
455.514	1326.12
455.734	1357.12
455.955	1357.12
456.175	1342.12
456.395	1306.12
456.616	1335.12
456.836	1332.12
457.056	1332.12
457.276	1351.12
457.497	1359.12
457.717	1379.12
457.937	1368.12
458.157	1351.12
458.377	1415.12
458.598	1404.12
458.818	1406.12
459.038	1454.12
459.258	1492.12
459.478	1580.12
459.698	1616.12
459.918	1639.12
460.138	1645.12
460.358	1719.12
460.578	1730.12
460.798	1755.12
461.018	1838.12
461.238	1764.12
461.458	1738.12
461.678	1757.12
461.898	1795.12
462.118	1767.12
462.338	1846.12
462.558	1885.12
462.777	1959.12
462.997	2084.12
463.217	2149.12
463.437	2166.12
463.657	2095.12
463.876	2026.12
464.096	2004.12
464.316	1979.12
464.536	1996.12
464.755	1929.12
464.975	1843.12
465.195	1816.12
465.414	1771.12
465.634	1658.12
465.854	1609.12
466.073	1588.12
466.293	1555.12
466.512	1553.12
466.732	1533.12
466.951	1523.12
467.171	1538.12
467.391	1506.12
467.61	1486.12
467.829	1496.12
468.049	1453.12
468.268	1446.12
468.488	1479.12
468.707	1447.12
468.927	1478.12
469.146	1470.12
469.365	1466.12
469.585	1474.12
469.804	1463.12
470.023	1523.12
470.243	1486.12
470.462	1524.12
470.681	1493.12
470.901	1532.12
471.12	1512.12
471.339	1498.12
471.558	1501.12
471.777	1509.12
471.997	1476.12
472.216	1422.12
472.435	1434.12
472.654	1416.12
472.873	1421.12
473.092	1462.12
473.311	1416.12
473.53	1444.12
473.749	1440.12
473.968	1417.12
474.187	1442.12
474.406	1452.12
474.625	1475.12
474.844	1464.12
475.063	1448.12
475.282	1443.12
475.501	1480.12
475.72	1508.12
475.939	1503.12
476.158	1522.12
476.377	1530.12
476.596	1481.12
476.814	1550.12
477.033	1563.12
477.252	1550.12
477.471	1538.12
477.69	1658.12
477.908	1654.12
478.127	1658.12
478.346	1717.12
478.564	1730.12
478.783	1709.12
479.002	1752.12
479.22	1805.12
479.439	1780.12
479.658	1769.12
479.876	1754.12
480.095	1779.12
480.313	1804.12
480.532	1824.12
480.751	1827.12
480.969	1779.12
481.188	1768.12
481.406	1788.12
481.624	1754.12
481.843	1707.12
482.061	1693.12
482.28	1683.12
482.498	1682.12
482.717	1682.12
482.935	1723.12
483.153	1742.12
483.372	1742.12
483.59	1745.12
483.808	1731.12
484.027	1679.12
484.245	1762.12
484.463	1752.12
484.681	1768.12
484.9	1775.12
485.118	1771.12
485.336	1767.12
485.554	1791.12
485.772	1821.12
485.99	1818.12
486.209	1783.12
486.427	1772.12
486.645	1830.12
486.863	1815.12
487.081	1727.12
487.299	1788.12
487.517	1762.12
487.735	1823.12
487.953	1808.12
488.171	1812.12
488.389	1766.12
488.607	1792.12
488.825	1756.12
489.043	1734.12
489.261	1747.12
489.479	1774.12
489.696	1774.12
489.914	1777.12
490.132	1778.12
490.35	1776.12
490.568	1795.12
490.786	1785.12
