Data from NiCl2@0.0625M.TitratingCurve.Agarose3%dH2O.NegLispCup.LampEnergy10.LIBS07252019_HRD10591_18-33-00-576.txt Node
Date: Thu Jul 25 18:33:00 EDT 2019
User: cochatt
Spectrometer: HR+D1059
Trigger mode: 1
Integration Time (sec): 1.000000E-1
Scans to average: 1
Electric dark correction enabled: true
Nonlinearity correction enabled: false
Boxcar width: 0
XAxis mode: Wavelengths
Number of Pixels in Spectrum: 2048
>>>>>Begin Spectral Data<<<<<
223.165	-22.44
223.4	-22.44
223.635	-22.44
223.869	-10.44
224.104	-19.44
224.338	-15.44
224.573	-25.44
224.808	-5.44
225.042	-19.44
225.277	8.56
225.511	2.56
225.746	15.56
225.98	5.56
226.215	10.56
226.449	15.56
226.683	5.56
226.918	30.56
227.152	23.56
227.387	32.56
227.621	42.56
227.856	33.56
228.09	35.56
228.324	56.56
228.559	46.56
228.793	92.56
229.027	153.56
229.262	139.56
229.496	164.56
229.73	180.56
229.964	195.56
230.199	172.56
230.433	190.56
230.667	177.56
230.901	211.56
231.136	185.56
231.37	174.56
231.604	210.56
231.838	202.56
232.072	205.56
232.306	205.56
232.541	211.56
232.775	212.56
233.009	226.56
233.243	217.56
233.477	211.56
233.711	197.56
233.945	229.56
234.179	226.56
234.413	200.56
234.647	222.56
234.881	227.56
235.115	215.56
235.349	205.56
235.583	234.56
235.817	247.56
236.051	227.56
236.285	243.56
236.519	254.56
236.753	264.56
236.987	247.56
237.221	259.56
237.455	259.56
237.689	265.56
237.922	244.56
238.156	262.56
238.39	279.56
238.624	254.56
238.858	269.56
239.091	278.56
239.325	263.56
239.559	268.56
239.793	290.56
240.027	295.56
240.26	307.56
240.494	277.56
240.728	297.56
240.961	301.56
241.195	301.56
241.429	310.56
241.662	313.56
241.896	318.56
242.13	301.56
242.363	312.56
242.597	329.56
242.83	326.56
243.064	325.56
243.298	329.56
243.531	330.56
243.765	323.56
243.998	340.56
244.232	331.56
244.465	340.56
244.699	345.56
244.932	354.56
245.166	350.56
245.399	350.56
245.633	358.56
245.866	358.56
246.099	363.56
246.333	362.56
246.566	370.56
246.8	369.56
247.033	371.56
247.266	385.56
247.5	355.56
247.733	388.56
247.966	410.56
248.2	415.56
248.433	413.56
248.666	415.56
248.899	393.56
249.133	398.56
249.366	387.56
249.599	410.56
249.832	392.56
250.066	398.56
250.299	397.56
250.532	419.56
250.765	425.56
250.998	427.56
251.231	427.56
251.465	440.56
251.698	458.56
251.931	430.56
252.164	430.56
252.397	443.56
252.63	446.56
252.863	455.56
253.096	470.56
253.329	463.56
253.562	444.56
253.795	452.56
254.028	469.56
254.261	473.56
254.494	465.56
254.727	468.56
254.96	473.56
255.193	462.56
255.426	500.56
255.659	501.56
255.892	489.56
256.124	499.56
256.357	497.56
256.59	498.56
256.823	520.56
257.056	525.56
257.289	494.56
257.521	514.56
257.754	494.56
257.987	528.56
258.22	518.56
258.452	509.56
258.685	541.56
258.918	533.56
259.151	524.56
259.383	531.56
259.616	525.56
259.849	544.56
260.081	554.56
260.314	557.56
260.547	543.56
260.779	540.56
261.012	542.56
261.244	569.56
261.477	567.56
261.71	554.56
261.942	544.56
262.175	564.56
262.407	555.56
262.64	577.56
262.872	594.56
263.105	579.56
263.337	573.56
263.57	586.56
263.802	601.56
264.035	581.56
264.267	579.56
264.499	577.56
264.732	589.56
264.964	611.56
265.197	613.56
265.429	620.56
265.661	592.56
265.894	599.56
266.126	596.56
266.358	640.56
266.591	614.56
266.823	636.56
267.055	628.56
267.287	619.56
267.52	629.56
267.752	639.56
267.984	647.56
268.216	638.56
268.448	655.56
268.681	653.56
268.913	658.56
269.145	673.56
269.377	646.56
269.609	650.56
269.841	657.56
270.073	643.56
270.306	666.56
270.538	670.56
270.77	651.56
271.002	679.56
271.234	661.56
271.466	667.56
271.698	667.56
271.93	679.56
272.162	682.56
272.394	712.56
272.626	679.56
272.858	713.56
273.09	707.56
273.322	710.56
273.553	702.56
273.785	719.56
274.017	711.56
274.249	724.56
274.481	743.56
274.713	724.56
274.945	737.56
275.176	739.56
275.408	751.56
275.64	744.56
275.872	735.56
276.104	778.56
276.335	741.56
276.567	750.56
276.799	744.56
277.031	769.56
277.262	749.56
277.494	752.56
277.726	751.56
277.957	776.56
278.189	760.56
278.421	776.56
278.652	755.56
278.884	793.56
279.115	761.56
279.347	801.56
279.579	805.56
279.81	786.56
280.042	802.56
280.273	819.56
280.505	798.56
280.736	798.56
280.968	806.56
281.199	791.56
281.431	834.56
281.662	821.56
281.894	837.56
282.125	837.56
282.356	845.56
282.588	825.56
282.819	837.56
283.051	850.56
283.282	861.56
283.513	840.56
283.745	843.56
283.976	840.56
284.207	839.56
284.439	858.56
284.67	861.56
284.901	859.56
285.132	855.56
285.364	862.56
285.595	858.56
285.826	870.56
286.057	906.56
286.288	889.56
286.52	882.56
286.751	896.56
286.982	890.56
287.213	871.56
287.444	901.56
287.675	891.56
287.906	911.56
288.138	889.56
288.369	897.56
288.6	927.56
288.831	914.56
289.062	939.56
289.293	922.56
289.524	910.56
289.755	938.56
289.986	916.56
290.217	921.56
290.448	920.56
290.679	923.56
290.91	948.56
291.141	927.56
291.371	923.56
291.602	920.56
291.833	914.56
292.064	931.56
292.295	926.56
292.526	913.56
292.757	947.56
292.987	951.56
293.218	945.56
293.449	950.56
293.68	931.56
293.91	928.56
294.141	949.56
294.372	940.56
294.603	939.56
294.833	932.56
295.064	978.56
295.295	966.56
295.525	948.56
295.756	945.56
295.987	979.56
296.217	999.56
296.448	953.56
296.679	960.56
296.909	947.56
297.14	998.56
297.37	991.56
297.601	1009.56
297.831	986.56
298.062	1025.56
298.292	1027.56
298.523	1037.56
298.753	1034.56
298.984	999.56
299.214	1010.56
299.445	1007.56
299.675	964.56
299.905	1009.56
300.136	1027.56
300.366	1014.56
300.597	1040.56
300.827	1013.56
301.057	1046.56
301.288	1063.56
301.518	1043.56
301.748	1074.56
301.979	1067.56
302.209	1084.56
302.439	1093.56
302.669	1052.56
302.9	1059.56
303.13	1062.56
303.36	1081.56
303.59	1060.56
303.82	1064.56
304.051	1098.56
304.281	1057.56
304.511	1056.56
304.741	1076.56
304.971	1050.56
305.201	1057.56
305.431	1051.56
305.661	1056.56
305.891	1053.56
306.121	1077.56
306.352	1062.56
306.582	1035.56
306.812	1057.56
307.042	1067.56
307.272	1042.56
307.502	1071.56
307.731	1073.56
307.961	1075.56
308.191	1073.56
308.421	1055.56
308.651	1077.56
308.881	1037.56
309.111	1059.56
309.341	1057.56
309.571	1065.56
309.8	1073.56
310.03	1064.56
310.26	1052.56
310.49	1079.56
310.72	1067.56
310.949	1078.56
311.179	1075.56
311.409	1070.56
311.639	1081.56
311.868	1072.56
312.098	1089.56
312.328	1090.56
312.557	1087.56
312.787	1100.56
313.017	1103.56
313.246	1105.56
313.476	1133.56
313.706	1118.56
313.935	1161.56
314.165	1114.56
314.394	1180.56
314.624	1128.56
314.853	1126.56
315.083	1137.56
315.312	1160.56
315.542	1155.56
315.771	1118.56
316.001	1128.56
316.23	1124.56
316.46	1131.56
316.689	1132.56
316.919	1147.56
317.148	1118.56
317.377	1117.56
317.607	1101.56
317.836	1125.56
318.065	1099.56
318.295	1151.56
318.524	1159.56
318.753	1129.56
318.983	1113.56
319.212	1111.56
319.441	1147.56
319.67	1145.56
319.9	1127.56
320.129	1159.56
320.358	1117.56
320.587	1141.56
320.816	1130.56
321.046	1134.56
321.275	1139.56
321.504	1153.56
321.733	1139.56
321.962	1150.56
322.191	1153.56
322.42	1145.56
322.649	1137.56
322.878	1160.56
323.108	1158.56
323.337	1187.56
323.566	1174.56
323.795	1181.56
324.024	1171.56
324.253	1188.56
324.482	1180.56
324.71	1171.56
324.939	1183.56
325.168	1189.56
325.397	1202.56
325.626	1238.56
325.855	1217.56
326.084	1233.56
326.313	1216.56
326.542	1218.56
326.77	1257.56
326.999	1224.56
327.228	1240.56
327.457	1218.56
327.686	1245.56
327.914	1240.56
328.143	1243.56
328.372	1211.56
328.6	1222.56
328.829	1229.56
329.058	1231.56
329.287	1238.56
329.515	1255.56
329.744	1242.56
329.972	1291.56
330.201	1273.56
330.43	1271.56
330.658	1259.56
330.887	1272.56
331.115	1265.56
331.344	1307.56
331.572	1294.56
331.801	1313.56
332.03	1368.56
332.258	1349.56
332.486	1387.56
332.715	1408.56
332.943	1469.56
333.172	1507.56
333.4	1526.56
333.629	1565.56
333.857	1575.56
334.085	1583.56
334.314	1606.56
334.542	1539.56
334.771	1541.56
334.999	1518.56
335.227	1533.56
335.455	1500.56
335.684	1491.56
335.912	1516.56
336.14	1523.56
336.369	1465.56
336.597	1488.56
336.825	1462.56
337.053	1450.56
337.281	1439.56
337.51	1436.56
337.738	1445.56
337.966	1398.56
338.194	1370.56
338.422	1394.56
338.65	1395.56
338.878	1361.56
339.106	1363.56
339.334	1370.56
339.562	1363.56
339.79	1308.56
340.018	1333.56
340.246	1321.56
340.474	1298.56
340.702	1296.56
340.93	1310.56
341.158	1342.56
341.386	1354.56
341.614	1322.56
341.842	1289.56
342.07	1293.56
342.298	1291.56
342.526	1294.56
342.754	1289.56
342.981	1281.56
343.209	1324.56
343.437	1364.56
343.665	1404.56
343.893	1479.56
344.12	1522.56
344.348	1491.56
344.576	1442.56
344.804	1426.56
345.031	1386.56
345.259	1321.56
345.487	1294.56
345.714	1315.56
345.942	1285.56
346.17	1294.56
346.397	1256.56
346.625	1245.56
346.853	1258.56
347.08	1238.56
347.308	1246.56
347.535	1282.56
347.763	1246.56
347.99	1253.56
348.218	1253.56
348.445	1253.56
348.673	1258.56
348.9	1244.56
349.128	1239.56
349.355	1235.56
349.583	1275.56
349.81	1245.56
350.037	1266.56
350.265	1182.56
350.492	1242.56
350.72	1182.56
350.947	1222.56
351.174	1196.56
351.402	1205.56
351.629	1183.56
351.856	1211.56
352.083	1205.56
352.311	1232.56
352.538	1192.56
352.765	1189.56
352.992	1173.56
353.22	1195.56
353.447	1201.56
353.674	1199.56
353.901	1207.56
354.128	1183.56
354.355	1192.56
354.583	1169.56
354.81	1185.56
355.037	1212.56
355.264	1208.56
355.491	1193.56
355.718	1191.56
355.945	1207.56
356.172	1229.56
356.399	1207.56
356.626	1225.56
356.853	1206.56
357.08	1202.56
357.307	1256.56
357.534	1219.56
357.761	1260.56
357.988	1212.56
358.215	1202.56
358.441	1209.56
358.668	1202.56
358.895	1197.56
359.122	1213.56
359.349	1208.56
359.576	1231.56
359.802	1211.56
360.029	1205.56
360.256	1237.56
360.483	1211.56
360.709	1174.56
360.936	1212.56
361.163	1210.56
361.39	1196.56
361.616	1191.56
361.843	1219.56
362.07	1165.56
362.296	1215.56
362.523	1167.56
362.749	1217.56
362.976	1213.56
363.203	1195.56
363.429	1177.56
363.656	1189.56
363.882	1249.56
364.109	1194.56
364.335	1186.56
364.562	1210.56
364.788	1234.56
365.015	1242.56
365.241	1229.56
365.468	1190.56
365.694	1185.56
365.92	1209.56
366.147	1203.56
366.373	1190.56
366.599	1233.56
366.826	1201.56
367.052	1186.56
367.278	1224.56
367.505	1226.56
367.731	1227.56
367.957	1210.56
368.184	1244.56
368.41	1219.56
368.636	1236.56
368.862	1245.56
369.089	1260.56
369.315	1261.56
369.541	1251.56
369.767	1227.56
369.993	1243.56
370.219	1286.56
370.445	1253.56
370.672	1229.56
370.898	1306.56
371.124	1303.56
371.35	1324.56
371.576	1297.56
371.802	1303.56
372.028	1322.56
372.254	1350.56
372.48	1315.56
372.706	1371.56
372.932	1353.56
373.158	1354.56
373.384	1341.56
373.61	1334.56
373.835	1316.56
374.061	1317.56
374.287	1367.56
374.513	1358.56
374.739	1361.56
374.965	1391.56
375.191	1429.56
375.416	1437.56
375.642	1388.56
375.868	1385.56
376.094	1367.56
376.319	1313.56
376.545	1352.56
376.771	1305.56
376.997	1333.56
377.222	1294.56
377.448	1319.56
377.674	1327.56
377.899	1326.56
378.125	1330.56
378.35	1292.56
378.576	1294.56
378.802	1286.56
379.027	1285.56
379.253	1306.56
379.478	1285.56
379.704	1294.56
379.929	1283.56
380.155	1310.56
380.38	1301.56
380.606	1290.56
380.831	1287.56
381.057	1299.56
381.282	1291.56
381.507	1311.56
381.733	1337.56
381.958	1307.56
382.184	1331.56
382.409	1369.56
382.634	1345.56
382.86	1380.56
383.085	1370.56
383.31	1393.56
383.535	1412.56
383.761	1423.56
383.986	1413.56
384.211	1470.56
384.436	1477.56
384.662	1472.56
384.887	1523.56
385.112	1498.56
385.337	1517.56
385.562	1540.56
385.787	1531.56
386.013	1541.56
386.238	1599.56
386.463	1575.56
386.688	1609.56
386.913	1567.56
387.138	1575.56
387.363	1567.56
387.588	1580.56
387.813	1523.56
388.038	1533.56
388.263	1569.56
388.488	1562.56
388.713	1563.56
388.938	1565.56
389.163	1564.56
389.387	1542.56
389.612	1538.56
389.837	1524.56
390.062	1551.56
390.287	1551.56
390.512	1557.56
390.736	1522.56
390.961	1578.56
391.186	1614.56
391.411	1630.56
391.636	1686.56
391.86	1673.56
392.085	1723.56
392.31	1683.56
392.534	1681.56
392.759	1685.56
392.984	1678.56
393.208	1631.56
393.433	1663.56
393.658	1722.56
393.882	1679.56
394.107	1621.56
394.331	1614.56
394.556	1643.56
394.78	1695.56
395.005	1694.56
395.229	1669.56
395.454	1705.56
395.678	1695.56
395.903	1700.56
396.127	1687.56
396.352	1681.56
396.576	1674.56
396.801	1656.56
397.025	1715.56
397.249	1700.56
397.474	1754.56
397.698	1745.56
397.922	1754.56
398.147	1749.56
398.371	1770.56
398.595	1859.56
398.82	1893.56
399.044	2015.56
399.268	2111.56
399.492	2390.56
399.717	2642.56
399.941	2599.56
400.165	2467.56
400.389	2289.56
400.613	2158.56
400.837	2045.56
401.062	1961.56
401.286	1954.56
401.51	1934.56
401.734	1914.56
401.958	1901.56
402.182	1910.56
402.406	1930.56
402.63	1969.56
402.854	2014.56
403.078	1995.56
403.302	2033.56
403.526	2028.56
403.75	2027.56
403.974	2087.56
404.198	2085.56
404.422	2131.56
404.645	2062.56
404.869	2091.56
405.093	2110.56
405.317	2035.56
405.541	2047.56
405.765	2057.56
405.988	2039.56
406.212	2134.56
406.436	2058.56
406.66	2160.56
406.883	2138.56
407.107	2278.56
407.331	2361.56
407.555	2369.56
407.778	2410.56
408.002	2407.56
408.226	2327.56
408.449	2252.56
408.673	2225.56
408.896	2144.56
409.12	2155.56
409.344	2146.56
409.567	2125.56
409.791	2155.56
410.014	2095.56
410.238	2111.56
410.461	2091.56
410.685	2054.56
410.908	2054.56
411.132	2050.56
411.355	1986.56
411.578	2004.56
411.802	1977.56
412.025	2013.56
412.249	2000.56
412.472	1993.56
412.695	1964.56
412.919	1911.56
413.142	1981.56
413.365	1926.56
413.589	1943.56
413.812	1909.56
414.035	1902.56
414.258	1911.56
414.482	1934.56
414.705	1911.56
414.928	1918.56
415.151	1928.56
415.374	1907.56
415.597	1875.56
415.821	1865.56
416.044	1875.56
416.267	1841.56
416.49	1853.56
416.713	1812.56
416.936	1862.56
417.159	1843.56
417.382	1835.56
417.605	1805.56
417.828	1833.56
418.051	1878.56
418.274	1859.56
418.497	1861.56
418.72	1913.56
418.943	1871.56
419.166	2027.56
419.389	2102.56
419.611	2094.56
419.834	1953.56
420.057	1922.56
420.28	1892.56
420.503	1805.56
420.726	1836.56
420.948	1860.56
421.171	1867.56
421.394	1855.56
421.617	1836.56
421.839	1838.56
422.062	1858.56
422.285	1831.56
422.507	1871.56
422.73	1907.56
422.953	1875.56
423.175	1891.56
423.398	1879.56
423.621	1878.56
423.843	1893.56
424.066	1905.56
424.288	1881.56
424.511	1914.56
424.733	1896.56
424.956	1836.56
425.178	1857.56
425.401	1893.56
425.623	1839.56
425.846	1815.56
426.068	1814.56
426.291	1785.56
426.513	1777.56
426.735	1749.56
426.958	1786.56
427.18	1750.56
427.402	1726.56
427.625	1755.56
427.847	1688.56
428.069	1697.56
428.292	1706.56
428.514	1663.56
428.736	1640.56
428.958	1669.56
429.181	1673.56
429.403	1658.56
429.625	1657.56
429.847	1691.56
430.069	1671.56
430.292	1659.56
430.514	1655.56
430.736	1650.56
430.958	1702.56
431.18	1646.56
431.402	1661.56
431.624	1671.56
431.846	1707.56
432.068	1711.56
432.29	1716.56
432.512	1675.56
432.734	1677.56
432.956	1697.56
433.178	1675.56
433.4	1743.56
433.622	1702.56
433.844	1737.56
434.066	1710.56
434.287	1806.56
434.509	1832.56
434.731	1785.56
434.953	1855.56
435.175	1902.56
435.397	1819.56
435.618	1799.56
435.84	1732.56
436.062	1737.56
436.284	1702.56
436.505	1723.56
436.727	1702.56
436.949	1705.56
437.17	1711.56
437.392	1628.56
437.614	1662.56
437.835	1620.56
438.057	1594.56
438.278	1578.56
438.5	1603.56
438.721	1621.56
438.943	1635.56
439.165	1582.56
439.386	1606.56
439.608	1651.56
439.829	1653.56
440.05	1630.56
440.272	1665.56
440.493	1651.56
440.715	1725.56
440.936	1697.56
441.158	1724.56
441.379	1723.56
441.6	1822.56
441.822	1838.56
442.043	1833.56
442.264	1822.56
442.486	1779.56
442.707	1797.56
442.928	1786.56
443.149	1782.56
443.371	1773.56
443.592	1782.56
443.813	1793.56
444.034	1841.56
444.255	1854.56
444.476	2006.56
444.698	2021.56
444.919	2108.56
445.14	2148.56
445.361	1995.56
445.582	1890.56
445.803	1805.56
446.024	1757.56
446.245	1741.56
446.466	1687.56
446.687	1667.56
446.908	1684.56
447.129	1621.56
447.35	1593.56
447.571	1570.56
447.792	1573.56
448.013	1548.56
448.234	1567.56
448.455	1546.56
448.675	1552.56
448.896	1539.56
449.117	1542.56
449.338	1526.56
449.559	1480.56
449.779	1481.56
450	1488.56
450.221	1508.56
450.442	1496.56
450.662	1526.56
450.883	1517.56
451.104	1511.56
451.324	1524.56
451.545	1501.56
451.766	1498.56
451.986	1490.56
452.207	1500.56
452.428	1415.56
452.648	1493.56
452.869	1478.56
453.089	1445.56
453.31	1445.56
453.53	1438.56
453.751	1447.56
453.971	1423.56
454.192	1463.56
454.412	1389.56
454.633	1437.56
454.853	1463.56
455.073	1413.56
455.294	1397.56
455.514	1411.56
455.734	1408.56
455.955	1397.56
456.175	1395.56
456.395	1399.56
456.616	1389.56
456.836	1441.56
457.056	1406.56
457.276	1379.56
457.497	1487.56
457.717	1431.56
457.937	1442.56
458.157	1448.56
458.377	1458.56
458.598	1539.56
458.818	1536.56
459.038	1603.56
459.258	1586.56
459.478	1640.56
459.698	1718.56
459.918	1720.56
460.138	1778.56
460.358	1850.56
460.578	1839.56
460.798	1886.56
461.018	1862.56
461.238	1893.56
461.458	1854.56
461.678	1865.56
461.898	1927.56
462.118	1937.56
462.338	2009.56
462.558	2042.56
462.777	2147.56
462.997	2265.56
463.217	2363.56
463.437	2384.56
463.657	2253.56
463.876	2214.56
464.096	2160.56
464.316	2156.56
464.536	2102.56
464.755	2116.56
464.975	2007.56
465.195	1947.56
465.414	1857.56
465.634	1759.56
465.854	1746.56
466.073	1691.56
466.293	1659.56
466.512	1610.56
466.732	1615.56
466.951	1607.56
467.171	1618.56
467.391	1596.56
467.61	1557.56
467.829	1585.56
468.049	1582.56
468.268	1549.56
468.488	1519.56
468.707	1566.56
468.927	1520.56
469.146	1547.56
469.365	1544.56
469.585	1557.56
469.804	1601.56
470.023	1589.56
470.243	1601.56
470.462	1607.56
470.681	1575.56
470.901	1646.56
471.12	1594.56
471.339	1603.56
471.558	1587.56
471.777	1578.56
471.997	1574.56
472.216	1531.56
472.435	1541.56
472.654	1469.56
472.873	1518.56
473.092	1501.56
473.311	1525.56
473.53	1539.56
473.749	1510.56
473.968	1508.56
474.187	1494.56
474.406	1521.56
474.625	1520.56
474.844	1534.56
475.063	1545.56
475.282	1575.56
475.501	1549.56
475.72	1557.56
475.939	1572.56
476.158	1558.56
476.377	1607.56
476.596	1601.56
476.814	1620.56
477.033	1665.56
477.252	1657.56
477.471	1657.56
477.69	1748.56
477.908	1747.56
478.127	1787.56
478.346	1807.56
478.564	1826.56
478.783	1857.56
479.002	1881.56
479.22	1885.56
479.439	1930.56
479.658	1925.56
479.876	1877.56
480.095	1906.56
480.313	1995.56
480.532	2015.56
480.751	1989.56
480.969	1963.56
481.188	1932.56
481.406	1894.56
481.624	1899.56
481.843	1875.56
482.061	1844.56
482.28	1825.56
482.498	1843.56
482.717	1842.56
482.935	1845.56
483.153	1858.56
483.372	1873.56
483.59	1886.56
483.808	1875.56
484.027	1905.56
484.245	1925.56
484.463	1891.56
484.681	1997.56
484.9	1965.56
485.118	1963.56
485.336	1979.56
485.554	1998.56
485.772	1998.56
485.99	2018.56
486.209	1977.56
486.427	1979.56
486.645	1977.56
486.863	1976.56
487.081	1965.56
487.299	1966.56
487.517	1956.56
487.735	1957.56
487.953	1989.56
488.171	1962.56
488.389	1970.56
488.607	1909.56
488.825	1916.56
489.043	1915.56
489.261	1920.56
489.479	1941.56
489.696	1933.56
489.914	1908.56
