Data from NiCl2@0.0625M.TitratingCurve.Agarose3%dH2O.NegLispCup.LampEnergy10.LIBS07252019_HRD10591_18-33-07-576.txt Node
Date: Thu Jul 25 18:33:07 EDT 2019
User: cochatt
Spectrometer: HR+D1059
Trigger mode: 1
Integration Time (sec): 1.000000E-1
Scans to average: 1
Electric dark correction enabled: true
Nonlinearity correction enabled: false
Boxcar width: 0
XAxis mode: Wavelengths
Number of Pixels in Spectrum: 2048
>>>>>Begin Spectral Data<<<<<
223.165	-30.62
223.4	-30.62
223.635	-30.62
223.869	-25.62
224.104	-18.62
224.338	-29.62
224.573	-16.62
224.808	-10.62
225.042	-5.62
225.277	9.38
225.511	-15.62
225.746	10.38
225.98	5.38
226.215	4.38
226.449	26.38
226.683	24.38
226.918	22.38
227.152	50.38
227.387	47.38
227.621	47.38
227.856	50.38
228.09	54.38
228.324	51.38
228.559	51.38
228.793	83.38
229.027	137.38
229.262	156.38
229.496	162.38
229.73	172.38
229.964	197.38
230.199	184.38
230.433	190.38
230.667	189.38
230.901	204.38
231.136	204.38
231.37	187.38
231.604	197.38
231.838	213.38
232.072	209.38
232.306	209.38
232.541	221.38
232.775	239.38
233.009	224.38
233.243	207.38
233.477	216.38
233.711	227.38
233.945	227.38
234.179	215.38
234.413	227.38
234.647	223.38
234.881	231.38
235.115	223.38
235.349	217.38
235.583	263.38
235.817	258.38
236.051	239.38
236.285	231.38
236.519	226.38
236.753	254.38
236.987	238.38
237.221	239.38
237.455	263.38
237.689	245.38
237.922	249.38
238.156	256.38
238.39	277.38
238.624	280.38
238.858	260.38
239.091	267.38
239.325	264.38
239.559	272.38
239.793	296.38
240.027	302.38
240.26	280.38
240.494	287.38
240.728	291.38
240.961	298.38
241.195	272.38
241.429	305.38
241.662	301.38
241.896	308.38
242.13	303.38
242.363	311.38
242.597	321.38
242.83	334.38
243.064	332.38
243.298	328.38
243.531	335.38
243.765	331.38
243.998	341.38
244.232	338.38
244.465	322.38
244.699	340.38
244.932	359.38
245.166	375.38
245.399	357.38
245.633	357.38
245.866	375.38
246.099	352.38
246.333	388.38
246.566	341.38
246.8	360.38
247.033	379.38
247.266	370.38
247.5	383.38
247.733	399.38
247.966	398.38
248.2	408.38
248.433	410.38
248.666	390.38
248.899	384.38
249.133	392.38
249.366	410.38
249.599	414.38
249.832	425.38
250.066	423.38
250.299	420.38
250.532	430.38
250.765	431.38
250.998	442.38
251.231	439.38
251.465	448.38
251.698	450.38
251.931	455.38
252.164	456.38
252.397	457.38
252.63	467.38
252.863	460.38
253.096	471.38
253.329	471.38
253.562	471.38
253.795	474.38
254.028	459.38
254.261	473.38
254.494	487.38
254.727	483.38
254.96	464.38
255.193	495.38
255.426	528.38
255.659	491.38
255.892	476.38
256.124	502.38
256.357	498.38
256.59	515.38
256.823	485.38
257.056	516.38
257.289	519.38
257.521	543.38
257.754	512.38
257.987	516.38
258.22	524.38
258.452	520.38
258.685	544.38
258.918	519.38
259.151	535.38
259.383	554.38
259.616	539.38
259.849	566.38
260.081	557.38
260.314	562.38
260.547	563.38
260.779	560.38
261.012	550.38
261.244	580.38
261.477	571.38
261.71	568.38
261.942	577.38
262.175	578.38
262.407	574.38
262.64	592.38
262.872	599.38
263.105	577.38
263.337	590.38
263.57	586.38
263.802	590.38
264.035	606.38
264.267	604.38
264.499	594.38
264.732	598.38
264.964	597.38
265.197	589.38
265.429	601.38
265.661	611.38
265.894	611.38
266.126	636.38
266.358	623.38
266.591	626.38
266.823	634.38
267.055	623.38
267.287	648.38
267.52	631.38
267.752	651.38
267.984	629.38
268.216	640.38
268.448	660.38
268.681	648.38
268.913	657.38
269.145	670.38
269.377	681.38
269.609	679.38
269.841	659.38
270.073	687.38
270.306	651.38
270.538	682.38
270.77	688.38
271.002	709.38
271.234	679.38
271.466	688.38
271.698	657.38
271.93	668.38
272.162	708.38
272.394	719.38
272.626	700.38
272.858	710.38
273.09	707.38
273.322	718.38
273.553	724.38
273.785	708.38
274.017	725.38
274.249	714.38
274.481	728.38
274.713	721.38
274.945	738.38
275.176	743.38
275.408	729.38
275.64	764.38
275.872	740.38
276.104	767.38
276.335	761.38
276.567	747.38
276.799	781.38
277.031	755.38
277.262	790.38
277.494	760.38
277.726	776.38
277.957	789.38
278.189	760.38
278.421	791.38
278.652	785.38
278.884	795.38
279.115	806.38
279.347	856.38
279.579	903.38
279.81	952.38
280.042	907.38
280.273	867.38
280.505	890.38
280.736	866.38
280.968	828.38
281.199	828.38
281.431	844.38
281.662	837.38
281.894	836.38
282.125	815.38
282.356	849.38
282.588	854.38
282.819	844.38
283.051	868.38
283.282	871.38
283.513	863.38
283.745	841.38
283.976	856.38
284.207	894.38
284.439	899.38
284.67	908.38
284.901	903.38
285.132	876.38
285.364	880.38
285.595	898.38
285.826	898.38
286.057	903.38
286.288	913.38
286.52	870.38
286.751	909.38
286.982	920.38
287.213	901.38
287.444	929.38
287.675	930.38
287.906	940.38
288.138	958.38
288.369	937.38
288.6	952.38
288.831	942.38
289.062	948.38
289.293	933.38
289.524	949.38
289.755	932.38
289.986	932.38
290.217	926.38
290.448	960.38
290.679	946.38
290.91	963.38
291.141	939.38
291.371	962.38
291.602	958.38
291.833	954.38
292.064	926.38
292.295	944.38
292.526	952.38
292.757	960.38
292.987	976.38
293.218	947.38
293.449	978.38
293.68	966.38
293.91	979.38
294.141	940.38
294.372	972.38
294.603	970.38
294.833	948.38
295.064	950.38
295.295	976.38
295.525	963.38
295.756	983.38
295.987	948.38
296.217	973.38
296.448	984.38
296.679	988.38
296.909	991.38
297.14	1017.38
297.37	1013.38
297.601	986.38
297.831	1005.38
298.062	1042.38
298.292	1006.38
298.523	1035.38
298.753	1047.38
298.984	1017.38
299.214	994.38
299.445	1044.38
299.675	1032.38
299.905	1056.38
300.136	1020.38
300.366	1059.38
300.597	1042.38
300.827	1075.38
301.057	1070.38
301.288	1064.38
301.518	1098.38
301.748	1092.38
301.979	1115.38
302.209	1103.38
302.439	1092.38
302.669	1091.38
302.9	1054.38
303.13	1061.38
303.36	1083.38
303.59	1078.38
303.82	1088.38
304.051	1101.38
304.281	1082.38
304.511	1091.38
304.741	1082.38
304.971	1094.38
305.201	1063.38
305.431	1110.38
305.661	1110.38
305.891	1110.38
306.121	1085.38
306.352	1069.38
306.582	1059.38
306.812	1081.38
307.042	1067.38
307.272	1033.38
307.502	1052.38
307.731	1070.38
307.961	1100.38
308.191	1035.38
308.421	1083.38
308.651	1064.38
308.881	1065.38
309.111	1092.38
309.341	1078.38
309.571	1066.38
309.8	1100.38
310.03	1076.38
310.26	1090.38
310.49	1070.38
310.72	1088.38
310.949	1074.38
311.179	1076.38
311.409	1112.38
311.639	1107.38
311.868	1115.38
312.098	1102.38
312.328	1114.38
312.557	1131.38
312.787	1122.38
313.017	1126.38
313.246	1165.38
313.476	1137.38
313.706	1141.38
313.935	1138.38
314.165	1166.38
314.394	1182.38
314.624	1169.38
314.853	1160.38
315.083	1176.38
315.312	1183.38
315.542	1166.38
315.771	1164.38
316.001	1149.38
316.23	1188.38
316.46	1174.38
316.689	1163.38
316.919	1180.38
317.148	1167.38
317.377	1151.38
317.607	1143.38
317.836	1180.38
318.065	1147.38
318.295	1153.38
318.524	1190.38
318.753	1142.38
318.983	1134.38
319.212	1174.38
319.441	1156.38
319.67	1141.38
319.9	1156.38
320.129	1166.38
320.358	1149.38
320.587	1160.38
320.816	1146.38
321.046	1187.38
321.275	1169.38
321.504	1150.38
321.733	1171.38
321.962	1173.38
322.191	1176.38
322.42	1164.38
322.649	1213.38
322.878	1170.38
323.108	1140.38
323.337	1178.38
323.566	1205.38
323.795	1203.38
324.024	1198.38
324.253	1198.38
324.482	1190.38
324.71	1203.38
324.939	1234.38
325.168	1211.38
325.397	1191.38
325.626	1243.38
325.855	1262.38
326.084	1260.38
326.313	1237.38
326.542	1278.38
326.77	1263.38
326.999	1260.38
327.228	1229.38
327.457	1260.38
327.686	1270.38
327.914	1236.38
328.143	1287.38
328.372	1262.38
328.6	1274.38
328.829	1263.38
329.058	1252.38
329.287	1236.38
329.515	1281.38
329.744	1289.38
329.972	1306.38
330.201	1316.38
330.43	1326.38
330.658	1298.38
330.887	1327.38
331.115	1323.38
331.344	1307.38
331.572	1302.38
331.801	1321.38
332.03	1356.38
332.258	1415.38
332.486	1417.38
332.715	1468.38
332.943	1469.38
333.172	1537.38
333.4	1542.38
333.629	1613.38
333.857	1636.38
334.085	1628.38
334.314	1598.38
334.542	1619.38
334.771	1598.38
334.999	1593.38
335.227	1609.38
335.455	1554.38
335.684	1578.38
335.912	1556.38
336.14	1524.38
336.369	1527.38
336.597	1511.38
336.825	1504.38
337.053	1482.38
337.281	1485.38
337.51	1472.38
337.738	1478.38
337.966	1433.38
338.194	1396.38
338.422	1432.38
338.65	1380.38
338.878	1390.38
339.106	1391.38
339.334	1386.38
339.562	1385.38
339.79	1341.38
340.018	1361.38
340.246	1357.38
340.474	1346.38
340.702	1323.38
340.93	1318.38
341.158	1334.38
341.386	1334.38
341.614	1322.38
341.842	1333.38
342.07	1334.38
342.298	1346.38
342.526	1305.38
342.754	1309.38
342.981	1323.38
343.209	1342.38
343.437	1382.38
343.665	1449.38
343.893	1524.38
344.12	1542.38
344.348	1539.38
344.576	1476.38
344.804	1424.38
345.031	1355.38
345.259	1358.38
345.487	1354.38
345.714	1336.38
345.942	1286.38
346.17	1321.38
346.397	1277.38
346.625	1283.38
346.853	1268.38
347.08	1266.38
347.308	1274.38
347.535	1243.38
347.763	1310.38
347.99	1257.38
348.218	1263.38
348.445	1266.38
348.673	1266.38
348.9	1263.38
349.128	1296.38
349.355	1218.38
349.583	1246.38
349.81	1255.38
350.037	1231.38
350.265	1217.38
350.492	1251.38
350.72	1247.38
350.947	1256.38
351.174	1235.38
351.402	1214.38
351.629	1212.38
351.856	1199.38
352.083	1230.38
352.311	1207.38
352.538	1217.38
352.765	1230.38
352.992	1206.38
353.22	1211.38
353.447	1210.38
353.674	1175.38
353.901	1227.38
354.128	1250.38
354.355	1192.38
354.583	1224.38
354.81	1221.38
355.037	1240.38
355.264	1231.38
355.491	1254.38
355.718	1250.38
355.945	1241.38
356.172	1244.38
356.399	1252.38
356.626	1246.38
356.853	1206.38
357.08	1213.38
357.307	1222.38
357.534	1197.38
357.761	1228.38
357.988	1226.38
358.215	1212.38
358.441	1208.38
358.668	1262.38
358.895	1222.38
359.122	1234.38
359.349	1226.38
359.576	1228.38
359.802	1210.38
360.029	1215.38
360.256	1214.38
360.483	1262.38
360.709	1225.38
360.936	1236.38
361.163	1219.38
361.39	1268.38
361.616	1221.38
361.843	1219.38
362.07	1235.38
362.296	1240.38
362.523	1220.38
362.749	1244.38
362.976	1232.38
363.203	1224.38
363.429	1242.38
363.656	1245.38
363.882	1224.38
364.109	1207.38
364.335	1212.38
364.562	1234.38
364.788	1214.38
365.015	1243.38
365.241	1220.38
365.468	1215.38
365.694	1236.38
365.92	1243.38
366.147	1247.38
366.373	1270.38
366.599	1223.38
366.826	1230.38
367.052	1199.38
367.278	1268.38
367.505	1246.38
367.731	1253.38
367.957	1237.38
368.184	1242.38
368.41	1250.38
368.636	1252.38
368.862	1280.38
369.089	1255.38
369.315	1274.38
369.541	1272.38
369.767	1274.38
369.993	1291.38
370.219	1270.38
370.445	1263.38
370.672	1316.38
370.898	1311.38
371.124	1343.38
371.35	1334.38
371.576	1310.38
371.802	1339.38
372.028	1346.38
372.254	1328.38
372.48	1361.38
372.706	1373.38
372.932	1372.38
373.158	1377.38
373.384	1362.38
373.61	1343.38
373.835	1345.38
374.061	1364.38
374.287	1352.38
374.513	1367.38
374.739	1407.38
374.965	1450.38
375.191	1472.38
375.416	1447.38
375.642	1425.38
375.868	1396.38
376.094	1348.38
376.319	1361.38
376.545	1381.38
376.771	1356.38
376.997	1331.38
377.222	1353.38
377.448	1320.38
377.674	1332.38
377.899	1356.38
378.125	1347.38
378.35	1310.38
378.576	1321.38
378.802	1309.38
379.027	1318.38
379.253	1297.38
379.478	1310.38
379.704	1323.38
379.929	1344.38
380.155	1312.38
380.38	1310.38
380.606	1321.38
380.831	1306.38
381.057	1314.38
381.282	1323.38
381.507	1310.38
381.733	1333.38
381.958	1346.38
382.184	1357.38
382.409	1398.38
382.634	1413.38
382.86	1410.38
383.085	1407.38
383.31	1422.38
383.535	1438.38
383.761	1471.38
383.986	1476.38
384.211	1491.38
384.436	1511.38
384.662	1491.38
384.887	1543.38
385.112	1526.38
385.337	1595.38
385.562	1592.38
385.787	1588.38
386.013	1604.38
386.238	1619.38
386.463	1619.38
386.688	1614.38
386.913	1565.38
387.138	1576.38
387.363	1615.38
387.588	1558.38
387.813	1587.38
388.038	1586.38
388.263	1563.38
388.488	1582.38
388.713	1595.38
388.938	1578.38
389.163	1581.38
389.387	1585.38
389.612	1538.38
389.837	1548.38
390.062	1526.38
390.287	1570.38
390.512	1570.38
390.736	1598.38
390.961	1634.38
391.186	1662.38
391.411	1696.38
391.636	1695.38
391.86	1769.38
392.085	1748.38
392.31	1753.38
392.534	1741.38
392.759	1722.38
392.984	1731.38
393.208	1802.38
393.433	2018.38
393.658	2088.38
393.882	1746.38
394.107	1704.38
394.331	1690.38
394.556	1706.38
394.78	1749.38
395.005	1741.38
395.229	1728.38
395.454	1744.38
395.678	1782.38
395.903	1778.38
396.127	1785.38
396.352	1761.38
396.576	1750.38
396.801	1776.38
397.025	1981.38
397.249	1886.38
397.474	1844.38
397.698	1822.38
397.922	1860.38
398.147	1798.38
398.371	1889.38
398.595	1896.38
398.82	1977.38
399.044	2095.38
399.268	2208.38
399.492	2500.38
399.717	2709.38
399.941	2754.38
400.165	2562.38
400.389	2386.38
400.613	2204.38
400.837	2093.38
401.062	2052.38
401.286	2015.38
401.51	1998.38
401.734	1971.38
401.958	1998.38
402.182	1993.38
402.406	2038.38
402.63	2043.38
402.854	2020.38
403.078	2087.38
403.302	2084.38
403.526	2114.38
403.75	2112.38
403.974	2184.38
404.198	2126.38
404.422	2151.38
404.645	2166.38
404.869	2090.38
405.093	2157.38
405.317	2141.38
405.541	2149.38
405.765	2109.38
405.988	2111.38
406.212	2127.38
406.436	2142.38
406.66	2238.38
406.883	2204.38
407.107	2330.38
407.331	2389.38
407.555	2471.38
407.778	2486.38
408.002	2435.38
408.226	2362.38
408.449	2349.38
408.673	2235.38
408.896	2257.38
409.12	2169.38
409.344	2181.38
409.567	2188.38
409.791	2182.38
410.014	2175.38
410.238	2147.38
410.461	2163.38
410.685	2124.38
410.908	2101.38
411.132	2081.38
411.355	2063.38
411.578	2071.38
411.802	2054.38
412.025	2062.38
412.249	2071.38
412.472	2068.38
412.695	2006.38
412.919	1982.38
413.142	2021.38
413.365	1990.38
413.589	2000.38
413.812	1975.38
414.035	1931.38
414.258	2004.38
414.482	1975.38
414.705	1981.38
414.928	1990.38
415.151	2002.38
415.374	1964.38
415.597	1958.38
415.821	1916.38
416.044	1918.38
416.267	1864.38
416.49	1895.38
416.713	1902.38
416.936	1930.38
417.159	1872.38
417.382	1930.38
417.605	1853.38
417.828	1854.38
418.051	1910.38
418.274	1883.38
418.497	1908.38
418.72	1958.38
418.943	1922.38
419.166	2054.38
419.389	2157.38
419.611	2165.38
419.834	2070.38
420.057	1977.38
420.28	1959.38
420.503	1864.38
420.726	1867.38
420.948	1891.38
421.171	1881.38
421.394	1883.38
421.617	1894.38
421.839	1899.38
422.062	1914.38
422.285	1879.38
422.507	1982.38
422.73	1934.38
422.953	1963.38
423.175	1958.38
423.398	1925.38
423.621	1927.38
423.843	1960.38
424.066	1965.38
424.288	1915.38
424.511	1958.38
424.733	1902.38
424.956	1876.38
425.178	1932.38
425.401	1885.38
425.623	1924.38
425.846	1848.38
426.068	1829.38
426.291	1836.38
426.513	1813.38
426.735	1816.38
426.958	1831.38
427.18	1733.38
427.402	1783.38
427.625	1780.38
427.847	1730.38
428.069	1746.38
428.292	1770.38
428.514	1719.38
428.736	1726.38
428.958	1711.38
429.181	1687.38
429.403	1708.38
429.625	1690.38
429.847	1704.38
430.069	1691.38
430.292	1716.38
430.514	1688.38
430.736	1730.38
430.958	1723.38
431.18	1725.38
431.402	1687.38
431.624	1716.38
431.846	1722.38
432.068	1768.38
432.29	1783.38
432.512	1685.38
432.734	1800.38
432.956	1725.38
433.178	1773.38
433.4	1724.38
433.622	1771.38
433.844	1794.38
434.066	1801.38
434.287	1829.38
434.509	1851.38
434.731	1890.38
434.953	1924.38
435.175	1914.38
435.397	1909.38
435.618	1843.38
435.84	1765.38
436.062	1782.38
436.284	1781.38
436.505	1726.38
436.727	1727.38
436.949	1739.38
437.17	1728.38
437.392	1722.38
437.614	1731.38
437.835	1648.38
438.057	1666.38
438.278	1635.38
438.5	1618.38
438.721	1643.38
438.943	1695.38
439.165	1648.38
439.386	1669.38
439.608	1701.38
439.829	1690.38
440.05	1672.38
440.272	1687.38
440.493	1741.38
440.715	1723.38
440.936	1741.38
441.158	1747.38
441.379	1815.38
441.6	1896.38
441.822	1888.38
442.043	1876.38
442.264	1848.38
442.486	1835.38
442.707	1869.38
442.928	1869.38
443.149	1839.38
443.371	1832.38
443.592	1871.38
443.813	1872.38
444.034	1891.38
444.255	1912.38
444.476	2022.38
444.698	2077.38
444.919	2148.38
445.14	2180.38
445.361	2030.38
445.582	1961.38
445.803	1834.38
446.024	1819.38
446.245	1760.38
446.466	1734.38
446.687	1679.38
446.908	1701.38
447.129	1716.38
447.35	1635.38
447.571	1634.38
447.792	1603.38
448.013	1624.38
448.234	1581.38
448.455	1559.38
448.675	1577.38
448.896	1584.38
449.117	1533.38
449.338	1562.38
449.559	1540.38
449.779	1516.38
450	1491.38
450.221	1522.38
450.442	1547.38
450.662	1510.38
450.883	1560.38
451.104	1551.38
451.324	1531.38
451.545	1526.38
451.766	1556.38
451.986	1545.38
452.207	1512.38
452.428	1525.38
452.648	1542.38
452.869	1490.38
453.089	1494.38
453.31	1487.38
453.53	1485.38
453.751	1457.38
453.971	1480.38
454.192	1490.38
454.412	1432.38
454.633	1446.38
454.853	1477.38
455.073	1437.38
455.294	1463.38
455.514	1459.38
455.734	1452.38
455.955	1422.38
456.175	1477.38
456.395	1418.38
456.616	1450.38
456.836	1470.38
457.056	1458.38
457.276	1408.38
457.497	1476.38
457.717	1456.38
457.937	1469.38
458.157	1503.38
458.377	1526.38
458.598	1536.38
458.818	1581.38
459.038	1580.38
459.258	1653.38
459.478	1719.38
459.698	1715.38
459.918	1755.38
460.138	1836.38
460.358	1905.38
460.578	1912.38
460.798	1944.38
461.018	1948.38
461.238	1939.38
461.458	1948.38
461.678	1925.38
461.898	1948.38
462.118	1988.38
462.338	2072.38
462.558	2100.38
462.777	2176.38
462.997	2342.38
463.217	2427.38
463.437	2494.38
463.657	2300.38
463.876	2256.38
464.096	2237.38
464.316	2214.38
464.536	2221.38
464.755	2168.38
464.975	2083.38
465.195	2024.38
465.414	1921.38
465.634	1826.38
465.854	1802.38
466.073	1718.38
466.293	1681.38
466.512	1688.38
466.732	1674.38
466.951	1657.38
467.171	1622.38
467.391	1640.38
467.61	1600.38
467.829	1599.38
468.049	1631.38
468.268	1593.38
468.488	1582.38
468.707	1569.38
468.927	1516.38
469.146	1544.38
469.365	1566.38
469.585	1555.38
469.804	1622.38
470.023	1655.38
470.243	1650.38
470.462	1677.38
470.681	1647.38
470.901	1669.38
471.12	1600.38
471.339	1599.38
471.558	1605.38
471.777	1594.38
471.997	1579.38
472.216	1556.38
472.435	1572.38
472.654	1546.38
472.873	1520.38
473.092	1548.38
473.311	1551.38
473.53	1550.38
473.749	1565.38
473.968	1557.38
474.187	1550.38
474.406	1568.38
474.625	1515.38
474.844	1560.38
475.063	1586.38
475.282	1594.38
475.501	1564.38
475.72	1591.38
475.939	1632.38
476.158	1620.38
476.377	1630.38
476.596	1610.38
476.814	1640.38
477.033	1637.38
477.252	1678.38
477.471	1717.38
477.69	1736.38
477.908	1780.38
478.127	1822.38
478.346	1830.38
478.564	1924.38
478.783	1903.38
479.002	1950.38
479.22	1947.38
479.439	1989.38
479.658	1954.38
479.876	1985.38
480.095	1925.38
480.313	2010.38
480.532	2078.38
480.751	2065.38
480.969	2007.38
481.188	1977.38
481.406	1916.38
481.624	1894.38
481.843	1916.38
482.061	1839.38
482.28	1915.38
482.498	1878.38
482.717	1884.38
482.935	1850.38
483.153	1900.38
483.372	1870.38
483.59	1926.38
483.808	1876.38
484.027	1912.38
484.245	1980.38
484.463	1948.38
484.681	1980.38
484.9	1993.38
485.118	2015.38
485.336	2008.38
485.554	2005.38
485.772	2042.38
485.99	2034.38
486.209	2034.38
486.427	2037.38
486.645	2024.38
486.863	2016.38
487.081	2006.38
487.299	1942.38
487.517	1998.38
487.735	2009.38
487.953	2054.38
488.171	2026.38
488.389	1964.38
488.607	1967.38
488.825	1940.38
489.043	1942.38
489.261	1926.38
489.479	1917.38
489.696	1954.38
489.914	1978.38
