Data from NiCl2@0.5M.TitratingCurve.Agarose3%dH2O.NegLispCup.LampEnergy10.LIBS07252019_HRD10591_18-20-34-572.txt Node
Date: Thu Jul 25 18:20:34 EDT 2019
User: cochatt
Spectrometer: HR+D1059
Trigger mode: 1
Integration Time (sec): 1.000000E-1
Scans to average: 1
Electric dark correction enabled: true
Nonlinearity correction enabled: false
Boxcar width: 0
XAxis mode: Wavelengths
Number of Pixels in Spectrum: 2048
>>>>>Begin Spectral Data<<<<<
223.165	-9.44
223.4	-9.44
223.635	-9.44
223.869	-13.44
224.104	-19.44
224.338	-18.44
224.573	-22.44
224.808	-10.44
225.042	-4.44
225.277	-13.44
225.511	12.56
225.746	2.56
225.98	-8.44
226.215	21.56
226.449	13.56
226.683	-0.44
226.918	32.56
227.152	37.56
227.387	36.56
227.621	40.56
227.856	38.56
228.09	37.56
228.324	43.56
228.559	52.56
228.793	76.56
229.027	107.56
229.262	155.56
229.496	168.56
229.73	157.56
229.964	169.56
230.199	179.56
230.433	180.56
230.667	171.56
230.901	173.56
231.136	177.56
231.37	181.56
231.604	198.56
231.838	192.56
232.072	202.56
232.306	182.56
232.541	194.56
232.775	192.56
233.009	187.56
233.243	162.56
233.477	195.56
233.711	186.56
233.945	190.56
234.179	194.56
234.413	192.56
234.647	203.56
234.881	204.56
235.115	209.56
235.349	212.56
235.583	205.56
235.817	204.56
236.051	213.56
236.285	205.56
236.519	195.56
236.753	211.56
236.987	192.56
237.221	195.56
237.455	201.56
237.689	228.56
237.922	222.56
238.156	217.56
238.39	197.56
238.624	214.56
238.858	210.56
239.091	236.56
239.325	233.56
239.559	236.56
239.793	243.56
240.027	230.56
240.26	245.56
240.494	236.56
240.728	239.56
240.961	230.56
241.195	237.56
241.429	249.56
241.662	258.56
241.896	265.56
242.13	261.56
242.363	256.56
242.597	280.56
242.83	249.56
243.064	270.56
243.298	280.56
243.531	276.56
243.765	287.56
243.998	290.56
244.232	299.56
244.465	282.56
244.699	292.56
244.932	294.56
245.166	285.56
245.399	312.56
245.633	298.56
245.866	281.56
246.099	305.56
246.333	309.56
246.566	313.56
246.8	295.56
247.033	292.56
247.266	320.56
247.5	306.56
247.733	317.56
247.966	325.56
248.2	323.56
248.433	307.56
248.666	318.56
248.899	334.56
249.133	331.56
249.366	310.56
249.599	333.56
249.832	329.56
250.066	329.56
250.299	349.56
250.532	350.56
250.765	343.56
250.998	358.56
251.231	358.56
251.465	386.56
251.698	380.56
251.931	357.56
252.164	352.56
252.397	377.56
252.63	356.56
252.863	372.56
253.096	389.56
253.329	375.56
253.562	371.56
253.795	419.56
254.028	383.56
254.261	394.56
254.494	381.56
254.727	407.56
254.96	408.56
255.193	403.56
255.426	399.56
255.659	392.56
255.892	414.56
256.124	413.56
256.357	396.56
256.59	408.56
256.823	414.56
257.056	412.56
257.289	420.56
257.521	422.56
257.754	418.56
257.987	418.56
258.22	429.56
258.452	435.56
258.685	421.56
258.918	410.56
259.151	439.56
259.383	456.56
259.616	442.56
259.849	441.56
260.081	426.56
260.314	442.56
260.547	433.56
260.779	430.56
261.012	455.56
261.244	457.56
261.477	465.56
261.71	469.56
261.942	463.56
262.175	467.56
262.407	462.56
262.64	449.56
262.872	457.56
263.105	483.56
263.337	488.56
263.57	478.56
263.802	487.56
264.035	479.56
264.267	487.56
264.499	465.56
264.732	474.56
264.964	505.56
265.197	500.56
265.429	493.56
265.661	501.56
265.894	499.56
266.126	490.56
266.358	504.56
266.591	526.56
266.823	518.56
267.055	525.56
267.287	540.56
267.52	512.56
267.752	511.56
267.984	510.56
268.216	518.56
268.448	510.56
268.681	537.56
268.913	542.56
269.145	523.56
269.377	542.56
269.609	552.56
269.841	554.56
270.073	516.56
270.306	545.56
270.538	562.56
270.77	557.56
271.002	565.56
271.234	548.56
271.466	562.56
271.698	562.56
271.93	548.56
272.162	586.56
272.394	546.56
272.626	563.56
272.858	565.56
273.09	590.56
273.322	588.56
273.553	593.56
273.785	571.56
274.017	574.56
274.249	589.56
274.481	585.56
274.713	585.56
274.945	596.56
275.176	589.56
275.408	597.56
275.64	628.56
275.872	596.56
276.104	599.56
276.335	610.56
276.567	600.56
276.799	617.56
277.031	617.56
277.262	637.56
277.494	631.56
277.726	638.56
277.957	643.56
278.189	644.56
278.421	638.56
278.652	658.56
278.884	644.56
279.115	628.56
279.347	644.56
279.579	668.56
279.81	650.56
280.042	647.56
280.273	640.56
280.505	669.56
280.736	670.56
280.968	654.56
281.199	663.56
281.431	671.56
281.662	701.56
281.894	676.56
282.125	693.56
282.356	701.56
282.588	704.56
282.819	674.56
283.051	702.56
283.282	699.56
283.513	723.56
283.745	707.56
283.976	709.56
284.207	705.56
284.439	718.56
284.67	708.56
284.901	704.56
285.132	696.56
285.364	729.56
285.595	729.56
285.826	717.56
286.057	713.56
286.288	708.56
286.52	725.56
286.751	732.56
286.982	740.56
287.213	747.56
287.444	756.56
287.675	731.56
287.906	713.56
288.138	743.56
288.369	752.56
288.6	750.56
288.831	757.56
289.062	742.56
289.293	731.56
289.524	744.56
289.755	749.56
289.986	746.56
290.217	756.56
290.448	741.56
290.679	807.56
290.91	762.56
291.141	781.56
291.371	783.56
291.602	770.56
291.833	747.56
292.064	780.56
292.295	784.56
292.526	782.56
292.757	788.56
292.987	770.56
293.218	789.56
293.449	793.56
293.68	759.56
293.91	755.56
294.141	778.56
294.372	789.56
294.603	791.56
294.833	790.56
295.064	788.56
295.295	785.56
295.525	762.56
295.756	796.56
295.987	760.56
296.217	786.56
296.448	833.56
296.679	800.56
296.909	800.56
297.14	803.56
297.37	838.56
297.601	835.56
297.831	840.56
298.062	853.56
298.292	859.56
298.523	856.56
298.753	840.56
298.984	825.56
299.214	840.56
299.445	845.56
299.675	859.56
299.905	835.56
300.136	881.56
300.366	906.56
300.597	899.56
300.827	894.56
301.057	892.56
301.288	881.56
301.518	902.56
301.748	897.56
301.979	907.56
302.209	914.56
302.439	906.56
302.669	884.56
302.9	882.56
303.13	884.56
303.36	895.56
303.59	902.56
303.82	892.56
304.051	926.56
304.281	921.56
304.511	901.56
304.741	906.56
304.971	944.56
305.201	933.56
305.431	922.56
305.661	928.56
305.891	937.56
306.121	907.56
306.352	892.56
306.582	863.56
306.812	850.56
307.042	858.56
307.272	874.56
307.502	859.56
307.731	875.56
307.961	940.56
308.191	896.56
308.421	885.56
308.651	864.56
308.881	872.56
309.111	892.56
309.341	882.56
309.571	885.56
309.8	894.56
310.03	905.56
310.26	906.56
310.49	953.56
310.72	893.56
310.949	884.56
311.179	897.56
311.409	903.56
311.639	924.56
311.868	928.56
312.098	902.56
312.328	923.56
312.557	955.56
312.787	934.56
313.017	930.56
313.246	932.56
313.476	950.56
313.706	965.56
313.935	945.56
314.165	966.56
314.394	946.56
314.624	980.56
314.853	945.56
315.083	940.56
315.312	941.56
315.542	973.56
315.771	968.56
316.001	935.56
316.23	939.56
316.46	961.56
316.689	969.56
316.919	937.56
317.148	940.56
317.377	939.56
317.607	917.56
317.836	923.56
318.065	956.56
318.295	954.56
318.524	972.56
318.753	972.56
318.983	984.56
319.212	956.56
319.441	933.56
319.67	940.56
319.9	934.56
320.129	938.56
320.358	964.56
320.587	939.56
320.816	941.56
321.046	956.56
321.275	966.56
321.504	960.56
321.733	956.56
321.962	931.56
322.191	974.56
322.42	963.56
322.649	962.56
322.878	960.56
323.108	962.56
323.337	986.56
323.566	978.56
323.795	979.56
324.024	977.56
324.253	974.56
324.482	1005.56
324.71	974.56
324.939	989.56
325.168	1004.56
325.397	1001.56
325.626	984.56
325.855	1002.56
326.084	1056.56
326.313	1022.56
326.542	1044.56
326.77	1043.56
326.999	1046.56
327.228	1027.56
327.457	1052.56
327.686	1038.56
327.914	1016.56
328.143	1082.56
328.372	1036.56
328.6	1039.56
328.829	1049.56
329.058	1052.56
329.287	1037.56
329.515	1054.56
329.744	1051.56
329.972	1050.56
330.201	1066.56
330.43	1062.56
330.658	1044.56
330.887	1054.56
331.115	1058.56
331.344	1108.56
331.572	1125.56
331.801	1117.56
332.03	1140.56
332.258	1144.56
332.486	1166.56
332.715	1140.56
332.943	1194.56
333.172	1224.56
333.4	1227.56
333.629	1263.56
333.857	1315.56
334.085	1329.56
334.314	1319.56
334.542	1306.56
334.771	1323.56
334.999	1312.56
335.227	1276.56
335.455	1263.56
335.684	1301.56
335.912	1280.56
336.14	1298.56
336.369	1295.56
336.597	1273.56
336.825	1300.56
337.053	1332.56
337.281	1286.56
337.51	1260.56
337.738	1256.56
337.966	1197.56
338.194	1221.56
338.422	1212.56
338.65	1150.56
338.878	1161.56
339.106	1163.56
339.334	1179.56
339.562	1176.56
339.79	1132.56
340.018	1122.56
340.246	1116.56
340.474	1110.56
340.702	1117.56
340.93	1121.56
341.158	1094.56
341.386	1145.56
341.614	1184.56
341.842	1152.56
342.07	1083.56
342.298	1106.56
342.526	1116.56
342.754	1116.56
342.981	1102.56
343.209	1087.56
343.437	1178.56
343.665	1218.56
343.893	1250.56
344.12	1276.56
344.348	1236.56
344.576	1200.56
344.804	1224.56
345.031	1163.56
345.259	1183.56
345.487	1116.56
345.714	1128.56
345.942	1128.56
346.17	1161.56
346.397	1138.56
346.625	1080.56
346.853	1078.56
347.08	1018.56
347.308	1053.56
347.535	1082.56
347.763	1054.56
347.99	1037.56
348.218	1053.56
348.445	1032.56
348.673	1036.56
348.9	1046.56
349.128	1043.56
349.355	1097.56
349.583	1072.56
349.81	1030.56
350.037	1018.56
350.265	1013.56
350.492	1030.56
350.72	1034.56
350.947	1031.56
351.174	1012.56
351.402	1084.56
351.629	1083.56
351.856	1070.56
352.083	1028.56
352.311	1085.56
352.538	1066.56
352.765	1086.56
352.992	994.56
353.22	969.56
353.447	968.56
353.674	968.56
353.901	993.56
354.128	987.56
354.355	989.56
354.583	990.56
354.81	1011.56
355.037	992.56
355.264	977.56
355.491	991.56
355.718	977.56
355.945	968.56
356.172	1013.56
356.399	1004.56
356.626	1038.56
356.853	1048.56
357.08	1001.56
357.307	994.56
357.534	1014.56
357.761	984.56
357.988	972.56
358.215	987.56
358.441	984.56
358.668	995.56
358.895	1008.56
359.122	1005.56
359.349	951.56
359.576	1030.56
359.802	966.56
360.029	970.56
360.256	956.56
360.483	976.56
360.709	1008.56
360.936	1014.56
361.163	1015.56
361.39	1034.56
361.616	1013.56
361.843	1024.56
362.07	1068.56
362.296	1060.56
362.523	1001.56
362.749	1019.56
362.976	996.56
363.203	980.56
363.429	974.56
363.656	981.56
363.882	969.56
364.109	978.56
364.335	968.56
364.562	986.56
364.788	964.56
365.015	1008.56
365.241	973.56
365.468	984.56
365.694	996.56
365.92	993.56
366.147	963.56
366.373	988.56
366.599	1008.56
366.826	970.56
367.052	980.56
367.278	979.56
367.505	1005.56
367.731	977.56
367.957	988.56
368.184	1005.56
368.41	992.56
368.636	993.56
368.862	984.56
369.089	1010.56
369.315	1032.56
369.541	1003.56
369.767	1032.56
369.993	1010.56
370.219	1005.56
370.445	1048.56
370.672	1013.56
370.898	1036.56
371.124	1050.56
371.35	1053.56
371.576	1048.56
371.802	1054.56
372.028	1044.56
372.254	1073.56
372.48	1101.56
372.706	1059.56
372.932	1102.56
373.158	1095.56
373.384	1080.56
373.61	1106.56
373.835	1070.56
374.061	1070.56
374.287	1082.56
374.513	1081.56
374.739	1102.56
374.965	1132.56
375.191	1095.56
375.416	1154.56
375.642	1136.56
375.868	1092.56
376.094	1085.56
376.319	1080.56
376.545	1045.56
376.771	1063.56
376.997	1049.56
377.222	1025.56
377.448	1049.56
377.674	1064.56
377.899	1028.56
378.125	1031.56
378.35	1017.56
378.576	1031.56
378.802	1030.56
379.027	1065.56
379.253	1037.56
379.478	1028.56
379.704	1032.56
379.929	1048.56
380.155	1016.56
380.38	1056.56
380.606	1029.56
380.831	1020.56
381.057	1056.56
381.282	1027.56
381.507	1030.56
381.733	1065.56
381.958	1057.56
382.184	1069.56
382.409	1104.56
382.634	1084.56
382.86	1069.56
383.085	1088.56
383.31	1114.56
383.535	1176.56
383.761	1120.56
383.986	1130.56
384.211	1149.56
384.436	1182.56
384.662	1156.56
384.887	1191.56
385.112	1222.56
385.337	1223.56
385.562	1218.56
385.787	1232.56
386.013	1238.56
386.238	1270.56
386.463	1254.56
386.688	1245.56
386.913	1283.56
387.138	1284.56
387.363	1246.56
387.588	1213.56
387.813	1240.56
388.038	1207.56
388.263	1206.56
388.488	1275.56
388.713	1268.56
388.938	1257.56
389.163	1251.56
389.387	1248.56
389.612	1233.56
389.837	1313.56
390.062	1257.56
390.287	1250.56
390.512	1210.56
390.736	1257.56
390.961	1270.56
391.186	1304.56
391.411	1325.56
391.636	1337.56
391.86	1348.56
392.085	1372.56
392.31	1347.56
392.534	1381.56
392.759	1409.56
392.984	1346.56
393.208	1345.56
393.433	1330.56
393.658	1338.56
393.882	1308.56
394.107	1320.56
394.331	1345.56
394.556	1320.56
394.78	1344.56
395.005	1335.56
395.229	1359.56
395.454	1393.56
395.678	1383.56
395.903	1370.56
396.127	1364.56
396.352	1395.56
396.576	1364.56
396.801	1355.56
397.025	1354.56
397.249	1405.56
397.474	1397.56
397.698	1430.56
397.922	1449.56
398.147	1426.56
398.371	1509.56
398.595	1518.56
398.82	1556.56
399.044	1614.56
399.268	1720.56
399.492	1899.56
399.717	1976.56
399.941	2027.56
400.165	1922.56
400.389	1833.56
400.613	1761.56
400.837	1694.56
401.062	1621.56
401.286	1590.56
401.51	1579.56
401.734	1569.56
401.958	1590.56
402.182	1587.56
402.406	1606.56
402.63	1602.56
402.854	1592.56
403.078	1612.56
403.302	1628.56
403.526	1628.56
403.75	1641.56
403.974	1661.56
404.198	1645.56
404.422	1649.56
404.645	1671.56
404.869	1666.56
405.093	1653.56
405.317	1646.56
405.541	1656.56
405.765	1684.56
405.988	1688.56
406.212	1709.56
406.436	1701.56
406.66	1728.56
406.883	1746.56
407.107	1811.56
407.331	1845.56
407.555	1925.56
407.778	1942.56
408.002	1889.56
408.226	1900.56
408.449	1862.56
408.673	1780.56
408.896	1796.56
409.12	1750.56
409.344	1792.56
409.567	1714.56
409.791	1759.56
410.014	1731.56
410.238	1717.56
410.461	1687.56
410.685	1704.56
410.908	1700.56
411.132	1682.56
411.355	1634.56
411.578	1643.56
411.802	1668.56
412.025	1640.56
412.249	1651.56
412.472	1652.56
412.695	1629.56
412.919	1582.56
413.142	1610.56
413.365	1594.56
413.589	1624.56
413.812	1604.56
414.035	1569.56
414.258	1564.56
414.482	1597.56
414.705	1611.56
414.928	1573.56
415.151	1590.56
415.374	1581.56
415.597	1563.56
415.821	1545.56
416.044	1523.56
416.267	1513.56
416.49	1513.56
416.713	1528.56
416.936	1498.56
417.159	1516.56
417.382	1509.56
417.605	1482.56
417.828	1502.56
418.051	1533.56
418.274	1501.56
418.497	1538.56
418.72	1536.56
418.943	1548.56
419.166	1651.56
419.389	1724.56
419.611	1719.56
419.834	1638.56
420.057	1588.56
420.28	1572.56
420.503	1511.56
420.726	1532.56
420.948	1547.56
421.171	1545.56
421.394	1491.56
421.617	1501.56
421.839	1558.56
422.062	1582.56
422.285	1510.56
422.507	1532.56
422.73	1540.56
422.953	1523.56
423.175	1549.56
423.398	1587.56
423.621	1540.56
423.843	1551.56
424.066	1556.56
424.288	1571.56
424.511	1535.56
424.733	1550.56
424.956	1514.56
425.178	1532.56
425.401	1544.56
425.623	1522.56
425.846	1487.56
426.068	1482.56
426.291	1453.56
426.513	1493.56
426.735	1460.56
426.958	1479.56
427.18	1428.56
427.402	1458.56
427.625	1450.56
427.847	1421.56
428.069	1413.56
428.292	1432.56
428.514	1421.56
428.736	1409.56
428.958	1447.56
429.181	1409.56
429.403	1398.56
429.625	1448.56
429.847	1381.56
430.069	1440.56
430.292	1385.56
430.514	1379.56
430.736	1388.56
430.958	1443.56
431.18	1419.56
431.402	1435.56
431.624	1412.56
431.846	1419.56
432.068	1416.56
432.29	1442.56
432.512	1434.56
432.734	1438.56
432.956	1420.56
433.178	1405.56
433.4	1452.56
433.622	1464.56
433.844	1470.56
434.066	1465.56
434.287	1505.56
434.509	1495.56
434.731	1485.56
434.953	1572.56
435.175	1566.56
435.397	1565.56
435.618	1520.56
435.84	1486.56
436.062	1463.56
436.284	1448.56
436.505	1423.56
436.727	1448.56
436.949	1444.56
437.17	1417.56
437.392	1403.56
437.614	1411.56
437.835	1352.56
438.057	1388.56
438.278	1329.56
438.5	1396.56
438.721	1348.56
438.943	1378.56
439.165	1384.56
439.386	1376.56
439.608	1400.56
439.829	1396.56
440.05	1403.56
440.272	1409.56
440.493	1429.56
440.715	1460.56
440.936	1476.56
441.158	1480.56
441.379	1524.56
441.6	1537.56
441.822	1562.56
442.043	1555.56
442.264	1526.56
442.486	1520.56
442.707	1550.56
442.928	1529.56
443.149	1521.56
443.371	1528.56
443.592	1541.56
443.813	1586.56
444.034	1572.56
444.255	1584.56
444.476	1583.56
444.698	1692.56
444.919	1716.56
445.14	1792.56
445.361	1731.56
445.582	1618.56
445.803	1594.56
446.024	1515.56
446.245	1514.56
446.466	1498.56
446.687	1446.56
446.908	1437.56
447.129	1402.56
447.35	1380.56
447.571	1390.56
447.792	1350.56
448.013	1415.56
448.234	1317.56
448.455	1314.56
448.675	1309.56
448.896	1297.56
449.117	1308.56
449.338	1305.56
449.559	1315.56
449.779	1286.56
450	1301.56
450.221	1301.56
450.442	1292.56
450.662	1332.56
450.883	1343.56
451.104	1347.56
451.324	1343.56
451.545	1281.56
451.766	1306.56
451.986	1314.56
452.207	1296.56
452.428	1298.56
452.648	1273.56
452.869	1282.56
453.089	1264.56
453.31	1298.56
453.53	1245.56
453.751	1273.56
453.971	1257.56
454.192	1295.56
454.412	1243.56
454.633	1239.56
454.853	1278.56
455.073	1218.56
455.294	1248.56
455.514	1245.56
455.734	1241.56
455.955	1229.56
456.175	1243.56
456.395	1236.56
456.616	1222.56
456.836	1215.56
457.056	1230.56
457.276	1251.56
457.497	1292.56
457.717	1269.56
457.937	1274.56
458.157	1270.56
458.377	1273.56
458.598	1288.56
458.818	1341.56
459.038	1385.56
459.258	1368.56
459.478	1426.56
459.698	1526.56
459.918	1524.56
460.138	1562.56
460.358	1597.56
460.578	1609.56
460.798	1657.56
461.018	1653.56
461.238	1670.56
461.458	1662.56
461.678	1636.56
461.898	1676.56
462.118	1705.56
462.338	1730.56
462.558	1755.56
462.777	1862.56
462.997	1971.56
463.217	1966.56
463.437	2032.56
463.657	1928.56
463.876	1868.56
464.096	1896.56
464.316	1886.56
464.536	1858.56
464.755	1792.56
464.975	1737.56
465.195	1666.56
465.414	1652.56
465.634	1579.56
465.854	1513.56
466.073	1490.56
466.293	1456.56
466.512	1397.56
466.732	1399.56
466.951	1414.56
467.171	1424.56
467.391	1396.56
467.61	1392.56
467.829	1408.56
468.049	1370.56
468.268	1329.56
468.488	1353.56
468.707	1338.56
468.927	1360.56
469.146	1366.56
469.365	1385.56
469.585	1382.56
469.804	1368.56
470.023	1427.56
470.243	1408.56
470.462	1387.56
470.681	1420.56
470.901	1410.56
471.12	1390.56
471.339	1348.56
471.558	1354.56
471.777	1398.56
471.997	1388.56
472.216	1341.56
472.435	1348.56
472.654	1338.56
472.873	1333.56
473.092	1324.56
473.311	1318.56
473.53	1345.56
473.749	1352.56
473.968	1322.56
474.187	1290.56
474.406	1343.56
474.625	1343.56
474.844	1358.56
475.063	1331.56
475.282	1334.56
475.501	1357.56
475.72	1397.56
475.939	1382.56
476.158	1364.56
476.377	1371.56
476.596	1362.56
476.814	1422.56
477.033	1404.56
477.252	1441.56
477.471	1488.56
477.69	1485.56
477.908	1523.56
478.127	1553.56
478.346	1548.56
478.564	1602.56
478.783	1595.56
479.002	1669.56
479.22	1666.56
479.439	1668.56
479.658	1637.56
479.876	1653.56
480.095	1680.56
480.313	1692.56
480.532	1697.56
480.751	1726.56
480.969	1666.56
481.188	1621.56
481.406	1619.56
481.624	1593.56
481.843	1619.56
482.061	1593.56
482.28	1602.56
482.498	1580.56
482.717	1551.56
482.935	1573.56
483.153	1607.56
483.372	1619.56
483.59	1619.56
483.808	1626.56
484.027	1576.56
484.245	1610.56
484.463	1578.56
484.681	1659.56
484.9	1620.56
485.118	1625.56
485.336	1635.56
485.554	1614.56
485.772	1658.56
485.99	1616.56
486.209	1637.56
486.427	1673.56
486.645	1664.56
486.863	1658.56
487.081	1639.56
487.299	1672.56
487.517	1672.56
487.735	1653.56
487.953	1678.56
488.171	1627.56
488.389	1657.56
488.607	1632.56
488.825	1624.56
489.043	1630.56
489.261	1605.56
489.479	1633.56
489.696	1628.56
489.914	1643.56
490.132	1626.56
490.35	1649.56
490.568	1660.56
490.786	1629.56
491.003	1650.56
491.221	1638.56
491.439	1669.56
491.657	1656.56
491.874	1663.56
492.092	1692.56
