Data from NiCl2@0.25M.TitratingCurve.Agarose3%dH2O.NegLispCup.LampEnergy10.LIBS07252019_HRD10591_18-26-09-573.txt Node
Date: Thu Jul 25 18:26:09 EDT 2019
User: cochatt
Spectrometer: HR+D1059
Trigger mode: 1
Integration Time (sec): 1.000000E-1
Scans to average: 1
Electric dark correction enabled: true
Nonlinearity correction enabled: false
Boxcar width: 0
XAxis mode: Wavelengths
Number of Pixels in Spectrum: 2048
>>>>>Begin Spectral Data<<<<<
223.165	-15.5
223.4	-15.5
223.635	-15.5
223.869	-10.5
224.104	-7.5
224.338	-17.5
224.573	-15.5
224.808	-15.5
225.042	-5.5
225.277	1.5
225.511	-14.5
225.746	3.5
225.98	6.5
226.215	14.5
226.449	8.5
226.683	13.5
226.918	20.5
227.152	33.5
227.387	33.5
227.621	45.5
227.856	57.5
228.09	41.5
228.324	50.5
228.559	53.5
228.793	73.5
229.027	110.5
229.262	127.5
229.496	135.5
229.73	140.5
229.964	137.5
230.199	139.5
230.433	142.5
230.667	161.5
230.901	158.5
231.136	148.5
231.37	151.5
231.604	152.5
231.838	160.5
232.072	168.5
232.306	165.5
232.541	159.5
232.775	172.5
233.009	172.5
233.243	182.5
233.477	182.5
233.711	185.5
233.945	166.5
234.179	159.5
234.413	177.5
234.647	157.5
234.881	172.5
235.115	176.5
235.349	181.5
235.583	191.5
235.817	194.5
236.051	161.5
236.285	182.5
236.519	181.5
236.753	185.5
236.987	180.5
237.221	186.5
237.455	186.5
237.689	196.5
237.922	197.5
238.156	197.5
238.39	186.5
238.624	206.5
238.858	190.5
239.091	217.5
239.325	211.5
239.559	198.5
239.793	200.5
240.027	208.5
240.26	209.5
240.494	215.5
240.728	213.5
240.961	231.5
241.195	210.5
241.429	225.5
241.662	230.5
241.896	232.5
242.13	228.5
242.363	224.5
242.597	233.5
242.83	240.5
243.064	218.5
243.298	230.5
243.531	252.5
243.765	253.5
243.998	246.5
244.232	246.5
244.465	242.5
244.699	266.5
244.932	253.5
245.166	249.5
245.399	253.5
245.633	267.5
245.866	278.5
246.099	264.5
246.333	256.5
246.566	262.5
246.8	257.5
247.033	289.5
247.266	270.5
247.5	291.5
247.733	280.5
247.966	275.5
248.2	294.5
248.433	281.5
248.666	277.5
248.899	288.5
249.133	293.5
249.366	296.5
249.599	299.5
249.832	305.5
250.066	293.5
250.299	294.5
250.532	311.5
250.765	309.5
250.998	313.5
251.231	319.5
251.465	318.5
251.698	308.5
251.931	330.5
252.164	308.5
252.397	339.5
252.63	337.5
252.863	332.5
253.096	340.5
253.329	327.5
253.562	325.5
253.795	351.5
254.028	341.5
254.261	336.5
254.494	344.5
254.727	348.5
254.96	355.5
255.193	359.5
255.426	347.5
255.659	353.5
255.892	349.5
256.124	343.5
256.357	348.5
256.59	362.5
256.823	345.5
257.056	349.5
257.289	358.5
257.521	370.5
257.754	362.5
257.987	334.5
258.22	363.5
258.452	373.5
258.685	372.5
258.918	385.5
259.151	370.5
259.383	369.5
259.616	385.5
259.849	385.5
260.081	376.5
260.314	413.5
260.547	401.5
260.779	380.5
261.012	387.5
261.244	399.5
261.477	406.5
261.71	395.5
261.942	378.5
262.175	396.5
262.407	411.5
262.64	409.5
262.872	412.5
263.105	425.5
263.337	405.5
263.57	427.5
263.802	420.5
264.035	415.5
264.267	424.5
264.499	395.5
264.732	415.5
264.964	416.5
265.197	426.5
265.429	438.5
265.661	432.5
265.894	417.5
266.126	431.5
266.358	440.5
266.591	431.5
266.823	435.5
267.055	435.5
267.287	465.5
267.52	437.5
267.752	445.5
267.984	445.5
268.216	447.5
268.448	464.5
268.681	455.5
268.913	461.5
269.145	470.5
269.377	475.5
269.609	460.5
269.841	448.5
270.073	453.5
270.306	468.5
270.538	450.5
270.77	467.5
271.002	467.5
271.234	484.5
271.466	476.5
271.698	465.5
271.93	473.5
272.162	492.5
272.394	506.5
272.626	489.5
272.858	503.5
273.09	488.5
273.322	493.5
273.553	488.5
273.785	480.5
274.017	499.5
274.249	523.5
274.481	517.5
274.713	489.5
274.945	510.5
275.176	533.5
275.408	501.5
275.64	540.5
275.872	542.5
276.104	530.5
276.335	512.5
276.567	506.5
276.799	519.5
277.031	521.5
277.262	536.5
277.494	543.5
277.726	529.5
277.957	535.5
278.189	537.5
278.421	533.5
278.652	543.5
278.884	523.5
279.115	551.5
279.347	559.5
279.579	535.5
279.81	555.5
280.042	546.5
280.273	546.5
280.505	549.5
280.736	539.5
280.968	554.5
281.199	552.5
281.431	560.5
281.662	580.5
281.894	581.5
282.125	566.5
282.356	577.5
282.588	601.5
282.819	589.5
283.051	571.5
283.282	564.5
283.513	581.5
283.745	575.5
283.976	575.5
284.207	600.5
284.439	613.5
284.67	616.5
284.901	587.5
285.132	615.5
285.364	595.5
285.595	605.5
285.826	605.5
286.057	625.5
286.288	607.5
286.52	620.5
286.751	629.5
286.982	641.5
287.213	624.5
287.444	623.5
287.675	640.5
287.906	655.5
288.138	622.5
288.369	641.5
288.6	637.5
288.831	646.5
289.062	645.5
289.293	667.5
289.524	639.5
289.755	647.5
289.986	620.5
290.217	648.5
290.448	655.5
290.679	645.5
290.91	645.5
291.141	664.5
291.371	635.5
291.602	645.5
291.833	653.5
292.064	656.5
292.295	642.5
292.526	669.5
292.757	651.5
292.987	642.5
293.218	644.5
293.449	654.5
293.68	659.5
293.91	665.5
294.141	652.5
294.372	653.5
294.603	666.5
294.833	683.5
295.064	642.5
295.295	666.5
295.525	675.5
295.756	655.5
295.987	684.5
296.217	683.5
296.448	688.5
296.679	708.5
296.909	681.5
297.14	692.5
297.37	701.5
297.601	691.5
297.831	715.5
298.062	685.5
298.292	719.5
298.523	731.5
298.753	724.5
298.984	720.5
299.214	712.5
299.445	716.5
299.675	683.5
299.905	703.5
300.136	698.5
300.366	730.5
300.597	736.5
300.827	750.5
301.057	757.5
301.288	747.5
301.518	743.5
301.748	767.5
301.979	759.5
302.209	786.5
302.439	742.5
302.669	737.5
302.9	761.5
303.13	747.5
303.36	755.5
303.59	710.5
303.82	729.5
304.051	750.5
304.281	731.5
304.511	743.5
304.741	740.5
304.971	737.5
305.201	752.5
305.431	724.5
305.661	745.5
305.891	712.5
306.121	746.5
306.352	716.5
306.582	745.5
306.812	718.5
307.042	712.5
307.272	705.5
307.502	702.5
307.731	722.5
307.961	736.5
308.191	720.5
308.421	707.5
308.651	714.5
308.881	720.5
309.111	714.5
309.341	727.5
309.571	730.5
309.8	714.5
310.03	748.5
310.26	737.5
310.49	722.5
310.72	718.5
310.949	732.5
311.179	728.5
311.409	738.5
311.639	732.5
311.868	745.5
312.098	755.5
312.328	770.5
312.557	775.5
312.787	751.5
313.017	760.5
313.246	765.5
313.476	771.5
313.706	765.5
313.935	800.5
314.165	785.5
314.394	794.5
314.624	778.5
314.853	790.5
315.083	777.5
315.312	757.5
315.542	788.5
315.771	793.5
316.001	785.5
316.23	766.5
316.46	755.5
316.689	761.5
316.919	779.5
317.148	796.5
317.377	769.5
317.607	756.5
317.836	770.5
318.065	751.5
318.295	775.5
318.524	774.5
318.753	791.5
318.983	769.5
319.212	750.5
319.441	752.5
319.67	746.5
319.9	734.5
320.129	763.5
320.358	784.5
320.587	778.5
320.816	759.5
321.046	772.5
321.275	783.5
321.504	776.5
321.733	781.5
321.962	767.5
322.191	778.5
322.42	776.5
322.649	796.5
322.878	793.5
323.108	764.5
323.337	785.5
323.566	794.5
323.795	794.5
324.024	779.5
324.253	783.5
324.482	794.5
324.71	779.5
324.939	805.5
325.168	811.5
325.397	796.5
325.626	803.5
325.855	804.5
326.084	848.5
326.313	821.5
326.542	866.5
326.77	847.5
326.999	851.5
327.228	828.5
327.457	793.5
327.686	844.5
327.914	883.5
328.143	843.5
328.372	834.5
328.6	832.5
328.829	853.5
329.058	863.5
329.287	827.5
329.515	846.5
329.744	844.5
329.972	857.5
330.201	845.5
330.43	865.5
330.658	857.5
330.887	867.5
331.115	873.5
331.344	895.5
331.572	905.5
331.801	906.5
332.03	911.5
332.258	938.5
332.486	993.5
332.715	1008.5
332.943	1039.5
333.172	1083.5
333.4	1130.5
333.629	1165.5
333.857	1158.5
334.085	1155.5
334.314	1157.5
334.542	1114.5
334.771	1068.5
334.999	1065.5
335.227	1076.5
335.455	1073.5
335.684	1031.5
335.912	1038.5
336.14	1014.5
336.369	1014.5
336.597	1026.5
336.825	1042.5
337.053	1023.5
337.281	987.5
337.51	986.5
337.738	957.5
337.966	973.5
338.194	924.5
338.422	941.5
338.65	895.5
338.878	913.5
339.106	908.5
339.334	903.5
339.562	926.5
339.79	895.5
340.018	866.5
340.246	865.5
340.474	906.5
340.702	877.5
340.93	878.5
341.158	884.5
341.386	877.5
341.614	878.5
341.842	846.5
342.07	847.5
342.298	855.5
342.526	869.5
342.754	858.5
342.981	863.5
343.209	912.5
343.437	916.5
343.665	1018.5
343.893	1058.5
344.12	1108.5
344.348	1081.5
344.576	1001.5
344.804	976.5
345.031	909.5
345.259	905.5
345.487	863.5
345.714	879.5
345.942	875.5
346.17	846.5
346.397	837.5
346.625	852.5
346.853	831.5
347.08	856.5
347.308	845.5
347.535	862.5
347.763	851.5
347.99	834.5
348.218	846.5
348.445	844.5
348.673	863.5
348.9	847.5
349.128	842.5
349.355	821.5
349.583	825.5
349.81	842.5
350.037	821.5
350.265	830.5
350.492	802.5
350.72	807.5
350.947	804.5
351.174	840.5
351.402	805.5
351.629	792.5
351.856	805.5
352.083	823.5
352.311	801.5
352.538	831.5
352.765	829.5
352.992	795.5
353.22	792.5
353.447	813.5
353.674	763.5
353.901	793.5
354.128	772.5
354.355	787.5
354.583	797.5
354.81	807.5
355.037	805.5
355.264	806.5
355.491	797.5
355.718	809.5
355.945	811.5
356.172	804.5
356.399	834.5
356.626	841.5
356.853	832.5
357.08	816.5
357.307	811.5
357.534	837.5
357.761	807.5
357.988	813.5
358.215	800.5
358.441	810.5
358.668	795.5
358.895	834.5
359.122	800.5
359.349	801.5
359.576	796.5
359.802	809.5
360.029	797.5
360.256	825.5
360.483	806.5
360.709	803.5
360.936	810.5
361.163	800.5
361.39	794.5
361.616	812.5
361.843	839.5
362.07	821.5
362.296	817.5
362.523	819.5
362.749	790.5
362.976	798.5
363.203	800.5
363.429	786.5
363.656	805.5
363.882	801.5
364.109	805.5
364.335	816.5
364.562	827.5
364.788	805.5
365.015	805.5
365.241	807.5
365.468	788.5
365.694	782.5
365.92	793.5
366.147	779.5
366.373	808.5
366.599	797.5
366.826	793.5
367.052	803.5
367.278	789.5
367.505	816.5
367.731	807.5
367.957	817.5
368.184	812.5
368.41	803.5
368.636	816.5
368.862	820.5
369.089	829.5
369.315	840.5
369.541	820.5
369.767	841.5
369.993	839.5
370.219	837.5
370.445	855.5
370.672	854.5
370.898	863.5
371.124	884.5
371.35	888.5
371.576	897.5
371.802	869.5
372.028	917.5
372.254	879.5
372.48	914.5
372.706	899.5
372.932	919.5
373.158	931.5
373.384	898.5
373.61	925.5
373.835	899.5
374.061	889.5
374.287	889.5
374.513	926.5
374.739	918.5
374.965	981.5
375.191	996.5
375.416	992.5
375.642	936.5
375.868	928.5
376.094	911.5
376.319	887.5
376.545	885.5
376.771	888.5
376.997	888.5
377.222	878.5
377.448	894.5
377.674	888.5
377.899	872.5
378.125	877.5
378.35	867.5
378.576	893.5
378.802	851.5
379.027	864.5
379.253	853.5
379.478	874.5
379.704	853.5
379.929	900.5
380.155	849.5
380.38	872.5
380.606	884.5
380.831	874.5
381.057	899.5
381.282	852.5
381.507	869.5
381.733	894.5
381.958	921.5
382.184	876.5
382.409	881.5
382.634	924.5
382.86	931.5
383.085	944.5
383.31	959.5
383.535	961.5
383.761	1001.5
383.986	1013.5
384.211	995.5
384.436	1040.5
384.662	1046.5
384.887	1057.5
385.112	1068.5
385.337	1067.5
385.562	1084.5
385.787	1094.5
386.013	1095.5
386.238	1070.5
386.463	1102.5
386.688	1090.5
386.913	1060.5
387.138	1061.5
387.363	1072.5
387.588	1055.5
387.813	1047.5
388.038	1054.5
388.263	1070.5
388.488	1087.5
388.713	1065.5
388.938	1058.5
389.163	1013.5
389.387	1017.5
389.612	1027.5
389.837	1029.5
390.062	1036.5
390.287	1027.5
390.512	1045.5
390.736	1075.5
390.961	1099.5
391.186	1087.5
391.411	1128.5
391.636	1188.5
391.86	1212.5
392.085	1181.5
392.31	1229.5
392.534	1188.5
392.759	1145.5
392.984	1123.5
393.208	1109.5
393.433	1111.5
393.658	1128.5
393.882	1151.5
394.107	1135.5
394.331	1148.5
394.556	1143.5
394.78	1148.5
395.005	1153.5
395.229	1126.5
395.454	1173.5
395.678	1215.5
395.903	1195.5
396.127	1193.5
396.352	1185.5
396.576	1132.5
396.801	1153.5
397.025	1121.5
397.249	1163.5
397.474	1214.5
397.698	1212.5
397.922	1208.5
398.147	1192.5
398.371	1229.5
398.595	1264.5
398.82	1328.5
399.044	1465.5
399.268	1617.5
399.492	1815.5
399.717	2089.5
399.941	2119.5
400.165	1884.5
400.389	1712.5
400.613	1553.5
400.837	1463.5
401.062	1384.5
401.286	1357.5
401.51	1355.5
401.734	1335.5
401.958	1384.5
402.182	1375.5
402.406	1381.5
402.63	1416.5
402.854	1465.5
403.078	1483.5
403.302	1489.5
403.526	1557.5
403.75	1550.5
403.974	1596.5
404.198	1567.5
404.422	1572.5
404.645	1552.5
404.869	1560.5
405.093	1535.5
405.317	1491.5
405.541	1519.5
405.765	1500.5
405.988	1512.5
406.212	1504.5
406.436	1490.5
406.66	1547.5
406.883	1555.5
407.107	1633.5
407.331	1713.5
407.555	1778.5
407.778	1799.5
408.002	1743.5
408.226	1667.5
408.449	1658.5
408.673	1560.5
408.896	1570.5
409.12	1509.5
409.344	1529.5
409.567	1496.5
409.791	1554.5
410.014	1508.5
410.238	1499.5
410.461	1486.5
410.685	1470.5
410.908	1454.5
411.132	1438.5
411.355	1403.5
411.578	1392.5
411.802	1392.5
412.025	1403.5
412.249	1435.5
412.472	1468.5
412.695	1398.5
412.919	1366.5
413.142	1397.5
413.365	1353.5
413.589	1360.5
413.812	1327.5
414.035	1341.5
414.258	1331.5
414.482	1333.5
414.705	1367.5
414.928	1359.5
415.151	1345.5
415.374	1352.5
415.597	1360.5
415.821	1302.5
416.044	1311.5
416.267	1292.5
416.49	1291.5
416.713	1306.5
416.936	1323.5
417.159	1316.5
417.382	1321.5
417.605	1286.5
417.828	1345.5
418.051	1308.5
418.274	1337.5
418.497	1355.5
418.72	1375.5
418.943	1377.5
419.166	1457.5
419.389	1596.5
419.611	1508.5
419.834	1427.5
420.057	1428.5
420.28	1360.5
420.503	1331.5
420.726	1326.5
420.948	1318.5
421.171	1373.5
421.394	1338.5
421.617	1326.5
421.839	1291.5
422.062	1351.5
422.285	1316.5
422.507	1335.5
422.73	1367.5
422.953	1372.5
423.175	1372.5
423.398	1370.5
423.621	1409.5
423.843	1417.5
424.066	1413.5
424.288	1423.5
424.511	1415.5
424.733	1381.5
424.956	1351.5
425.178	1342.5
425.401	1324.5
425.623	1279.5
425.846	1316.5
426.068	1287.5
426.291	1285.5
426.513	1256.5
426.735	1235.5
426.958	1227.5
427.18	1205.5
427.402	1206.5
427.625	1207.5
427.847	1168.5
428.069	1150.5
428.292	1209.5
428.514	1166.5
428.736	1159.5
428.958	1192.5
429.181	1147.5
429.403	1141.5
429.625	1133.5
429.847	1132.5
430.069	1113.5
430.292	1150.5
430.514	1145.5
430.736	1132.5
430.958	1153.5
431.18	1159.5
431.402	1144.5
431.624	1127.5
431.846	1139.5
432.068	1197.5
432.29	1212.5
432.512	1173.5
432.734	1172.5
432.956	1142.5
433.178	1180.5
433.4	1163.5
433.622	1181.5
433.844	1195.5
434.066	1193.5
434.287	1200.5
434.509	1229.5
434.731	1293.5
434.953	1335.5
435.175	1335.5
435.397	1292.5
435.618	1205.5
435.84	1187.5
436.062	1193.5
436.284	1173.5
436.505	1161.5
436.727	1156.5
436.949	1165.5
437.17	1165.5
437.392	1148.5
437.614	1128.5
437.835	1111.5
438.057	1120.5
438.278	1105.5
438.5	1130.5
438.721	1118.5
438.943	1129.5
439.165	1139.5
439.386	1130.5
439.608	1139.5
439.829	1137.5
440.05	1157.5
440.272	1177.5
440.493	1181.5
440.715	1212.5
440.936	1241.5
441.158	1228.5
441.379	1271.5
441.6	1325.5
441.822	1327.5
442.043	1296.5
442.264	1269.5
442.486	1261.5
442.707	1281.5
442.928	1295.5
443.149	1289.5
443.371	1274.5
443.592	1321.5
443.813	1341.5
444.034	1314.5
444.255	1349.5
444.476	1451.5
444.698	1549.5
444.919	1564.5
445.14	1617.5
445.361	1509.5
445.582	1402.5
445.803	1326.5
446.024	1219.5
446.245	1247.5
446.466	1228.5
446.687	1143.5
446.908	1199.5
447.129	1140.5
447.35	1100.5
447.571	1113.5
447.792	1101.5
448.013	1093.5
448.234	1052.5
448.455	1045.5
448.675	1039.5
448.896	1111.5
449.117	1067.5
449.338	1065.5
449.559	1067.5
449.779	1041.5
450	1038.5
450.221	1055.5
450.442	1072.5
450.662	1055.5
450.883	1081.5
451.104	1082.5
451.324	1071.5
451.545	1090.5
451.766	1091.5
451.986	1037.5
452.207	1074.5
452.428	1072.5
452.648	1059.5
452.869	1047.5
453.089	1026.5
453.31	1061.5
453.53	1049.5
453.751	1031.5
453.971	1040.5
454.192	1019.5
454.412	1023.5
454.633	1017.5
454.853	1006.5
455.073	997.5
455.294	1006.5
455.514	1005.5
455.734	1011.5
455.955	956.5
456.175	987.5
456.395	967.5
456.616	976.5
456.836	980.5
457.056	983.5
457.276	998.5
457.497	997.5
457.717	1018.5
457.937	999.5
458.157	1021.5
458.377	1039.5
458.598	1045.5
458.818	1100.5
459.038	1110.5
459.258	1140.5
459.478	1186.5
459.698	1220.5
459.918	1248.5
460.138	1292.5
460.358	1384.5
460.578	1378.5
460.798	1436.5
461.018	1407.5
461.238	1367.5
461.458	1410.5
461.678	1386.5
461.898	1372.5
462.118	1413.5
462.338	1478.5
462.558	1563.5
462.777	1613.5
462.997	1757.5
463.217	1863.5
463.437	1870.5
463.657	1762.5
463.876	1671.5
464.096	1637.5
464.316	1642.5
464.536	1644.5
464.755	1572.5
464.975	1513.5
465.195	1448.5
465.414	1365.5
465.634	1283.5
465.854	1213.5
466.073	1188.5
466.293	1169.5
466.512	1148.5
466.732	1107.5
466.951	1146.5
467.171	1113.5
467.391	1107.5
467.61	1094.5
467.829	1095.5
468.049	1104.5
468.268	1062.5
468.488	1080.5
468.707	1057.5
468.927	1070.5
469.146	1043.5
469.365	1084.5
469.585	1108.5
469.804	1092.5
470.023	1153.5
470.243	1176.5
470.462	1181.5
470.681	1186.5
470.901	1146.5
471.12	1130.5
471.339	1126.5
471.558	1115.5
471.777	1109.5
471.997	1106.5
472.216	1053.5
472.435	1064.5
472.654	1054.5
472.873	1071.5
473.092	1037.5
473.311	1007.5
473.53	1046.5
473.749	1051.5
473.968	1044.5
474.187	1031.5
474.406	1045.5
474.625	1013.5
474.844	1065.5
475.063	1027.5
475.282	1059.5
475.501	1033.5
475.72	1063.5
475.939	1073.5
476.158	1091.5
476.377	1103.5
476.596	1082.5
476.814	1118.5
477.033	1118.5
477.252	1115.5
477.471	1144.5
477.69	1179.5
477.908	1224.5
478.127	1215.5
478.346	1257.5
478.564	1264.5
478.783	1316.5
479.002	1331.5
479.22	1307.5
479.439	1297.5
479.658	1290.5
479.876	1312.5
480.095	1312.5
480.313	1365.5
480.532	1367.5
480.751	1433.5
480.969	1331.5
481.188	1324.5
481.406	1253.5
481.624	1253.5
481.843	1222.5
482.061	1210.5
482.28	1181.5
482.498	1199.5
482.717	1175.5
482.935	1171.5
483.153	1184.5
483.372	1189.5
483.59	1219.5
483.808	1203.5
484.027	1183.5
484.245	1191.5
484.463	1216.5
484.681	1249.5
484.9	1228.5
485.118	1255.5
485.336	1243.5
485.554	1233.5
485.772	1267.5
485.99	1243.5
486.209	1270.5
486.427	1260.5
486.645	1253.5
486.863	1288.5
487.081	1285.5
487.299	1252.5
487.517	1239.5
487.735	1236.5
487.953	1268.5
488.171	1268.5
488.389	1234.5
488.607	1237.5
488.825	1223.5
489.043	1208.5
489.261	1188.5
489.479	1225.5
489.696	1257.5
489.914	1252.5
490.132	1245.5
490.35	1245.5
490.568	1242.5
490.786	1250.5
491.003	1297.5
491.221	1250.5
491.439	1290.5
491.657	1277.5
491.874	1264.5
492.092	1286.5
492.31	1283.5
492.527	1307.5
492.745	1293.5
492.963	1285.5
493.18	1307.5
493.398	1294.5
493.615	1272.5
493.833	1293.5
494.05	1321.5
494.268	1319.5
494.485	1320.5
494.703	1367.5
494.92	1367.5
495.138	1312.5
495.355	1356.5
495.573	1362.5
495.79	1344.5
496.008	1372.5
496.225	1400.5
496.442	1371.5
496.66	1393.5
496.877	1403.5
497.094	1457.5
497.312	1472.5
497.529	1498.5
497.746	1516.5
497.963	1579.5
498.181	1675.5
498.398	1715.5
498.615	1812.5
498.832	1953.5
499.049	2124.5
499.267	2330.5
499.484	2526.5
499.701	2841.5
499.918	3155.5
500.135	3604.5
500.352	4063.5
500.569	4213.5
500.786	4199.5
501.003	3908.5
501.22	3514.5
501.437	3123.5
501.654	2715.5
501.871	2508.5
502.088	2247.5
502.305	2115.5
502.522	1978.5
502.739	1940.5
502.956	1796.5
503.172	1694.5
503.389	1659.5
503.606	1626.5
503.823	1600.5
504.04	1559.5
504.256	1580.5
504.473	1616.5
504.69	1641.5
504.907	1599.5
505.123	1518.5
505.34	1429.5
505.557	1330.5
505.773	1340.5
505.99	1320.5
506.207	1274.5
506.423	1227.5
506.64	1223.5
506.856	1192.5
507.073	1217.5
507.289	1157.5
507.506	1197.5
507.722	1208.5
507.939	1163.5
508.155	1159.5
508.372	1121.5
508.588	1104.5
508.805	1141.5
509.021	1127.5
509.238	1087.5
509.454	1133.5
509.67	1104.5
509.887	1096.5
510.103	1091.5
510.319	1069.5
510.536	1102.5
510.752	1050.5
510.968	1098.5
