Data from NiCl2@0.5M.TitratingCurve.Agarose3%dH2O.NegLispCup.LampEnergy10.LIBS07252019_HRD10591_18-21-00-571.txt Node
Date: Thu Jul 25 18:21:00 EDT 2019
User: cochatt
Spectrometer: HR+D1059
Trigger mode: 1
Integration Time (sec): 1.000000E-1
Scans to average: 1
Electric dark correction enabled: true
Nonlinearity correction enabled: false
Boxcar width: 0
XAxis mode: Wavelengths
Number of Pixels in Spectrum: 2048
>>>>>Begin Spectral Data<<<<<
223.165	-25.44
223.4	-25.44
223.635	-25.44
223.869	-6.44
224.104	-25.44
224.338	-9.44
224.573	-19.44
224.808	-17.44
225.042	-23.44
225.277	3.56
225.511	-4.44
225.746	0.56
225.98	20.56
226.215	17.56
226.449	21.56
226.683	29.56
226.918	24.56
227.152	13.56
227.387	34.56
227.621	56.56
227.856	44.56
228.09	44.56
228.324	44.56
228.559	66.56
228.793	74.56
229.027	91.56
229.262	98.56
229.496	97.56
229.73	98.56
229.964	126.56
230.199	115.56
230.433	109.56
230.667	113.56
230.901	120.56
231.136	94.56
231.37	121.56
231.604	116.56
231.838	118.56
232.072	120.56
232.306	114.56
232.541	110.56
232.775	122.56
233.009	127.56
233.243	137.56
233.477	119.56
233.711	124.56
233.945	112.56
234.179	130.56
234.413	117.56
234.647	142.56
234.881	132.56
235.115	133.56
235.349	106.56
235.583	123.56
235.817	123.56
236.051	132.56
236.285	125.56
236.519	137.56
236.753	139.56
236.987	139.56
237.221	130.56
237.455	127.56
237.689	123.56
237.922	129.56
238.156	113.56
238.39	124.56
238.624	122.56
238.858	130.56
239.091	142.56
239.325	130.56
239.559	148.56
239.793	142.56
240.027	156.56
240.26	137.56
240.494	137.56
240.728	153.56
240.961	152.56
241.195	153.56
241.429	151.56
241.662	148.56
241.896	151.56
242.13	151.56
242.363	156.56
242.597	142.56
242.83	150.56
243.064	165.56
243.298	153.56
243.531	154.56
243.765	148.56
243.998	158.56
244.232	161.56
244.465	157.56
244.699	150.56
244.932	165.56
245.166	163.56
245.399	169.56
245.633	160.56
245.866	163.56
246.099	151.56
246.333	168.56
246.566	169.56
246.8	170.56
247.033	185.56
247.266	179.56
247.5	166.56
247.733	175.56
247.966	190.56
248.2	183.56
248.433	179.56
248.666	190.56
248.899	181.56
249.133	205.56
249.366	194.56
249.599	181.56
249.832	197.56
250.066	186.56
250.299	168.56
250.532	188.56
250.765	185.56
250.998	183.56
251.231	190.56
251.465	196.56
251.698	175.56
251.931	193.56
252.164	203.56
252.397	206.56
252.63	198.56
252.863	205.56
253.096	209.56
253.329	203.56
253.562	216.56
253.795	202.56
254.028	206.56
254.261	218.56
254.494	198.56
254.727	215.56
254.96	219.56
255.193	214.56
255.426	216.56
255.659	202.56
255.892	203.56
256.124	218.56
256.357	220.56
256.59	220.56
256.823	223.56
257.056	217.56
257.289	214.56
257.521	207.56
257.754	229.56
257.987	216.56
258.22	239.56
258.452	236.56
258.685	218.56
258.918	223.56
259.151	216.56
259.383	220.56
259.616	238.56
259.849	237.56
260.081	229.56
260.314	242.56
260.547	226.56
260.779	248.56
261.012	241.56
261.244	249.56
261.477	231.56
261.71	226.56
261.942	239.56
262.175	231.56
262.407	261.56
262.64	253.56
262.872	236.56
263.105	244.56
263.337	249.56
263.57	252.56
263.802	253.56
264.035	257.56
264.267	243.56
264.499	242.56
264.732	265.56
264.964	237.56
265.197	257.56
265.429	265.56
265.661	238.56
265.894	271.56
266.126	275.56
266.358	276.56
266.591	257.56
266.823	257.56
267.055	255.56
267.287	272.56
267.52	272.56
267.752	247.56
267.984	271.56
268.216	293.56
268.448	292.56
268.681	271.56
268.913	280.56
269.145	251.56
269.377	284.56
269.609	283.56
269.841	275.56
270.073	287.56
270.306	277.56
270.538	272.56
270.77	281.56
271.002	273.56
271.234	266.56
271.466	253.56
271.698	281.56
271.93	279.56
272.162	291.56
272.394	275.56
272.626	289.56
272.858	278.56
273.09	306.56
273.322	306.56
273.553	297.56
273.785	301.56
274.017	309.56
274.249	306.56
274.481	297.56
274.713	285.56
274.945	290.56
275.176	301.56
275.408	295.56
275.64	309.56
275.872	308.56
276.104	311.56
276.335	311.56
276.567	300.56
276.799	297.56
277.031	306.56
277.262	307.56
277.494	324.56
277.726	329.56
277.957	324.56
278.189	315.56
278.421	305.56
278.652	308.56
278.884	315.56
279.115	318.56
279.347	332.56
279.579	332.56
279.81	340.56
280.042	319.56
280.273	310.56
280.505	324.56
280.736	317.56
280.968	315.56
281.199	346.56
281.431	350.56
281.662	357.56
281.894	332.56
282.125	339.56
282.356	343.56
282.588	323.56
282.819	327.56
283.051	325.56
283.282	325.56
283.513	358.56
283.745	326.56
283.976	365.56
284.207	348.56
284.439	362.56
284.67	364.56
284.901	362.56
285.132	350.56
285.364	350.56
285.595	361.56
285.826	360.56
286.057	356.56
286.288	353.56
286.52	338.56
286.751	356.56
286.982	366.56
287.213	384.56
287.444	363.56
287.675	364.56
287.906	389.56
288.138	386.56
288.369	384.56
288.6	372.56
288.831	376.56
289.062	386.56
289.293	383.56
289.524	403.56
289.755	370.56
289.986	378.56
290.217	377.56
290.448	369.56
290.679	377.56
290.91	385.56
291.141	382.56
291.371	390.56
291.602	385.56
291.833	377.56
292.064	388.56
292.295	379.56
292.526	361.56
292.757	391.56
292.987	378.56
293.218	370.56
293.449	390.56
293.68	387.56
293.91	385.56
294.141	399.56
294.372	383.56
294.603	409.56
294.833	400.56
295.064	404.56
295.295	382.56
295.525	417.56
295.756	386.56
295.987	399.56
296.217	394.56
296.448	398.56
296.679	383.56
296.909	396.56
297.14	409.56
297.37	394.56
297.601	393.56
297.831	411.56
298.062	402.56
298.292	408.56
298.523	428.56
298.753	434.56
298.984	401.56
299.214	419.56
299.445	412.56
299.675	419.56
299.905	421.56
300.136	412.56
300.366	435.56
300.597	444.56
300.827	430.56
301.057	429.56
301.288	452.56
301.518	433.56
301.748	431.56
301.979	439.56
302.209	455.56
302.439	420.56
302.669	439.56
302.9	419.56
303.13	423.56
303.36	427.56
303.59	443.56
303.82	446.56
304.051	439.56
304.281	449.56
304.511	426.56
304.741	428.56
304.971	440.56
305.201	422.56
305.431	442.56
305.661	481.56
305.891	445.56
306.121	424.56
306.352	435.56
306.582	419.56
306.812	443.56
307.042	438.56
307.272	457.56
307.502	421.56
307.731	443.56
307.961	426.56
308.191	419.56
308.421	443.56
308.651	417.56
308.881	437.56
309.111	442.56
309.341	434.56
309.571	428.56
309.8	422.56
310.03	438.56
310.26	437.56
310.49	452.56
310.72	425.56
310.949	426.56
311.179	441.56
311.409	431.56
311.639	459.56
311.868	429.56
312.098	449.56
312.328	473.56
312.557	467.56
312.787	457.56
313.017	472.56
313.246	449.56
313.476	441.56
313.706	463.56
313.935	464.56
314.165	466.56
314.394	488.56
314.624	464.56
314.853	445.56
315.083	445.56
315.312	474.56
315.542	451.56
315.771	460.56
316.001	485.56
316.23	478.56
316.46	479.56
316.689	463.56
316.919	445.56
317.148	476.56
317.377	465.56
317.607	455.56
317.836	458.56
318.065	435.56
318.295	435.56
318.524	452.56
318.753	471.56
318.983	461.56
319.212	435.56
319.441	455.56
319.67	450.56
319.9	475.56
320.129	463.56
320.358	477.56
320.587	465.56
320.816	486.56
321.046	451.56
321.275	457.56
321.504	445.56
321.733	456.56
321.962	470.56
322.191	451.56
322.42	445.56
322.649	465.56
322.878	475.56
323.108	456.56
323.337	473.56
323.566	481.56
323.795	475.56
324.024	466.56
324.253	492.56
324.482	470.56
324.71	472.56
324.939	482.56
325.168	478.56
325.397	472.56
325.626	486.56
325.855	494.56
326.084	513.56
326.313	505.56
326.542	503.56
326.77	514.56
326.999	498.56
327.228	488.56
327.457	507.56
327.686	523.56
327.914	489.56
328.143	514.56
328.372	505.56
328.6	491.56
328.829	513.56
329.058	517.56
329.287	492.56
329.515	513.56
329.744	513.56
329.972	510.56
330.201	524.56
330.43	503.56
330.658	495.56
330.887	543.56
331.115	528.56
331.344	534.56
331.572	522.56
331.801	550.56
332.03	549.56
332.258	572.56
332.486	565.56
332.715	600.56
332.943	599.56
333.172	604.56
333.4	650.56
333.629	675.56
333.857	661.56
334.085	647.56
334.314	653.56
334.542	613.56
334.771	626.56
334.999	623.56
335.227	653.56
335.455	615.56
335.684	618.56
335.912	619.56
336.14	589.56
336.369	594.56
336.597	615.56
336.825	599.56
337.053	601.56
337.281	607.56
337.51	588.56
337.738	580.56
337.966	566.56
338.194	578.56
338.422	563.56
338.65	556.56
338.878	547.56
339.106	571.56
339.334	570.56
339.562	553.56
339.79	540.56
340.018	514.56
340.246	527.56
340.474	529.56
340.702	522.56
340.93	511.56
341.158	542.56
341.386	551.56
341.614	570.56
341.842	537.56
342.07	512.56
342.298	539.56
342.526	527.56
342.754	521.56
342.981	531.56
343.209	539.56
343.437	573.56
343.665	581.56
343.893	615.56
344.12	629.56
344.348	615.56
344.576	611.56
344.804	565.56
345.031	568.56
345.259	570.56
345.487	551.56
345.714	541.56
345.942	541.56
346.17	531.56
346.397	552.56
346.625	520.56
346.853	511.56
347.08	519.56
347.308	550.56
347.535	501.56
347.763	507.56
347.99	513.56
348.218	527.56
348.445	530.56
348.673	503.56
348.9	516.56
349.128	521.56
349.355	506.56
349.583	527.56
349.81	513.56
350.037	505.56
350.265	503.56
350.492	492.56
350.72	485.56
350.947	493.56
351.174	503.56
351.402	519.56
351.629	515.56
351.856	503.56
352.083	491.56
352.311	513.56
352.538	492.56
352.765	520.56
352.992	500.56
353.22	474.56
353.447	479.56
353.674	483.56
353.901	461.56
354.128	475.56
354.355	465.56
354.583	499.56
354.81	481.56
355.037	477.56
355.264	489.56
355.491	504.56
355.718	507.56
355.945	481.56
356.172	484.56
356.399	490.56
356.626	502.56
356.853	509.56
357.08	500.56
357.307	481.56
357.534	486.56
357.761	493.56
357.988	482.56
358.215	476.56
358.441	462.56
358.668	492.56
358.895	484.56
359.122	476.56
359.349	463.56
359.576	491.56
359.802	482.56
360.029	489.56
360.256	486.56
360.483	483.56
360.709	470.56
360.936	511.56
361.163	474.56
361.39	481.56
361.616	489.56
361.843	485.56
362.07	495.56
362.296	504.56
362.523	474.56
362.749	474.56
362.976	478.56
363.203	482.56
363.429	484.56
363.656	482.56
363.882	478.56
364.109	463.56
364.335	478.56
364.562	488.56
364.788	493.56
365.015	491.56
365.241	470.56
365.468	485.56
365.694	464.56
365.92	502.56
366.147	486.56
366.373	470.56
366.599	484.56
366.826	462.56
367.052	471.56
367.278	481.56
367.505	475.56
367.731	485.56
367.957	479.56
368.184	469.56
368.41	474.56
368.636	476.56
368.862	487.56
369.089	483.56
369.315	481.56
369.541	482.56
369.767	496.56
369.993	509.56
370.219	488.56
370.445	523.56
370.672	519.56
370.898	512.56
371.124	535.56
371.35	519.56
371.576	498.56
371.802	495.56
372.028	505.56
372.254	506.56
372.48	512.56
372.706	533.56
372.932	534.56
373.158	522.56
373.384	515.56
373.61	521.56
373.835	523.56
374.061	519.56
374.287	522.56
374.513	549.56
374.739	559.56
374.965	570.56
375.191	579.56
375.416	545.56
375.642	529.56
375.868	537.56
376.094	540.56
376.319	515.56
376.545	530.56
376.771	511.56
376.997	534.56
377.222	520.56
377.448	515.56
377.674	516.56
377.899	503.56
378.125	509.56
378.35	517.56
378.576	511.56
378.802	518.56
379.027	492.56
379.253	510.56
379.478	499.56
379.704	497.56
379.929	506.56
380.155	501.56
380.38	517.56
380.606	498.56
380.831	526.56
381.057	523.56
381.282	503.56
381.507	505.56
381.733	537.56
381.958	521.56
382.184	525.56
382.409	556.56
382.634	541.56
382.86	539.56
383.085	533.56
383.31	557.56
383.535	571.56
383.761	537.56
383.986	556.56
384.211	587.56
384.436	577.56
384.662	605.56
384.887	581.56
385.112	588.56
385.337	617.56
385.562	593.56
385.787	603.56
386.013	637.56
386.238	611.56
386.463	611.56
386.688	602.56
386.913	573.56
387.138	588.56
387.363	596.56
387.588	595.56
387.813	600.56
388.038	620.56
388.263	598.56
388.488	602.56
388.713	623.56
388.938	606.56
389.163	591.56
389.387	587.56
389.612	599.56
389.837	601.56
390.062	610.56
390.287	597.56
390.512	602.56
390.736	602.56
390.961	607.56
391.186	611.56
391.411	610.56
391.636	641.56
391.86	667.56
392.085	673.56
392.31	681.56
392.534	647.56
392.759	653.56
392.984	679.56
393.208	626.56
393.433	636.56
393.658	670.56
393.882	650.56
394.107	627.56
394.331	637.56
394.556	638.56
394.78	663.56
395.005	660.56
395.229	656.56
395.454	659.56
395.678	650.56
395.903	662.56
396.127	645.56
396.352	638.56
396.576	661.56
396.801	626.56
397.025	652.56
397.249	653.56
397.474	669.56
397.698	669.56
397.922	679.56
398.147	678.56
398.371	693.56
398.595	725.56
398.82	750.56
399.044	788.56
399.268	850.56
399.492	967.56
399.717	1094.56
399.941	1030.56
400.165	977.56
400.389	905.56
400.613	844.56
400.837	775.56
401.062	762.56
401.286	751.56
401.51	758.56
401.734	754.56
401.958	753.56
402.182	767.56
402.406	772.56
402.63	793.56
402.854	789.56
403.078	799.56
403.302	836.56
403.526	825.56
403.75	837.56
403.974	850.56
404.198	843.56
404.422	861.56
404.645	847.56
404.869	837.56
405.093	834.56
405.317	807.56
405.541	852.56
405.765	841.56
405.988	829.56
406.212	823.56
406.436	829.56
406.66	846.56
406.883	857.56
407.107	888.56
407.331	916.56
407.555	956.56
407.778	925.56
408.002	933.56
408.226	923.56
408.449	881.56
408.673	854.56
408.896	859.56
409.12	827.56
409.344	865.56
409.567	833.56
409.791	841.56
410.014	860.56
410.238	852.56
410.461	858.56
410.685	824.56
410.908	810.56
411.132	811.56
411.355	766.56
411.578	775.56
411.802	818.56
412.025	804.56
412.249	810.56
412.472	780.56
412.695	790.56
412.919	759.56
413.142	744.56
413.365	755.56
413.589	753.56
413.812	741.56
414.035	747.56
414.258	763.56
414.482	753.56
414.705	772.56
414.928	788.56
415.151	771.56
415.374	783.56
415.597	779.56
415.821	775.56
416.044	757.56
416.267	753.56
416.49	746.56
416.713	741.56
416.936	751.56
417.159	743.56
417.382	719.56
417.605	719.56
417.828	744.56
418.051	777.56
418.274	760.56
418.497	757.56
418.72	796.56
418.943	762.56
419.166	823.56
419.389	863.56
419.611	846.56
419.834	834.56
420.057	819.56
420.28	763.56
420.503	749.56
420.726	750.56
420.948	736.56
421.171	734.56
421.394	775.56
421.617	728.56
421.839	755.56
422.062	776.56
422.285	744.56
422.507	800.56
422.73	761.56
422.953	766.56
423.175	788.56
423.398	785.56
423.621	762.56
423.843	791.56
424.066	819.56
424.288	755.56
424.511	789.56
424.733	791.56
424.956	771.56
425.178	747.56
425.401	773.56
425.623	740.56
425.846	727.56
426.068	732.56
426.291	716.56
426.513	729.56
426.735	708.56
426.958	747.56
427.18	681.56
427.402	705.56
427.625	706.56
427.847	686.56
428.069	688.56
428.292	703.56
428.514	679.56
428.736	689.56
428.958	693.56
429.181	663.56
429.403	681.56
429.625	685.56
429.847	696.56
430.069	697.56
430.292	677.56
430.514	653.56
430.736	683.56
430.958	707.56
431.18	678.56
431.402	696.56
431.624	699.56
431.846	671.56
432.068	679.56
432.29	708.56
432.512	690.56
432.734	699.56
432.956	669.56
433.178	697.56
433.4	705.56
433.622	703.56
433.844	716.56
434.066	714.56
434.287	737.56
434.509	735.56
434.731	750.56
434.953	746.56
435.175	770.56
435.397	777.56
435.618	729.56
435.84	695.56
436.062	695.56
436.284	694.56
436.505	722.56
436.727	685.56
436.949	696.56
437.17	695.56
437.392	680.56
437.614	679.56
437.835	685.56
438.057	672.56
438.278	673.56
438.5	667.56
438.721	666.56
438.943	681.56
439.165	679.56
439.386	699.56
439.608	700.56
439.829	694.56
440.05	710.56
440.272	713.56
440.493	718.56
440.715	712.56
440.936	752.56
441.158	747.56
441.379	743.56
441.6	756.56
441.822	772.56
442.043	808.56
442.264	765.56
442.486	766.56
442.707	750.56
442.928	775.56
443.149	746.56
443.371	769.56
443.592	753.56
443.813	792.56
444.034	793.56
444.255	830.56
444.476	851.56
444.698	895.56
444.919	929.56
445.14	941.56
445.361	890.56
445.582	804.56
445.803	781.56
446.024	748.56
446.245	738.56
446.466	745.56
446.687	735.56
446.908	738.56
447.129	711.56
447.35	694.56
447.571	698.56
447.792	675.56
448.013	694.56
448.234	663.56
448.455	659.56
448.675	660.56
448.896	667.56
449.117	651.56
449.338	630.56
449.559	655.56
449.779	656.56
450	638.56
450.221	643.56
450.442	677.56
450.662	666.56
450.883	679.56
451.104	662.56
451.324	674.56
451.545	681.56
451.766	653.56
451.986	661.56
452.207	666.56
452.428	659.56
452.648	655.56
452.869	645.56
453.089	628.56
453.31	640.56
453.53	639.56
453.751	630.56
453.971	630.56
454.192	625.56
454.412	626.56
454.633	617.56
454.853	630.56
455.073	627.56
455.294	645.56
455.514	631.56
455.734	626.56
455.955	625.56
456.175	623.56
456.395	619.56
456.616	597.56
456.836	622.56
457.056	627.56
457.276	601.56
457.497	618.56
457.717	611.56
457.937	615.56
458.157	628.56
458.377	637.56
458.598	645.56
458.818	658.56
459.038	671.56
459.258	665.56
459.478	723.56
459.698	753.56
459.918	732.56
460.138	775.56
460.358	780.56
460.578	832.56
460.798	824.56
461.018	806.56
461.238	825.56
461.458	819.56
461.678	835.56
461.898	839.56
462.118	855.56
462.338	866.56
462.558	906.56
462.777	951.56
462.997	986.56
463.217	1049.56
463.437	1088.56
463.657	991.56
463.876	951.56
464.096	958.56
464.316	949.56
464.536	957.56
464.755	909.56
464.975	866.56
465.195	852.56
465.414	812.56
465.634	758.56
465.854	751.56
466.073	737.56
466.293	718.56
466.512	704.56
466.732	725.56
466.951	694.56
467.171	692.56
467.391	682.56
467.61	695.56
467.829	681.56
468.049	679.56
468.268	668.56
468.488	651.56
468.707	648.56
468.927	650.56
469.146	680.56
469.365	659.56
469.585	690.56
469.804	684.56
470.023	676.56
470.243	697.56
470.462	701.56
470.681	731.56
470.901	710.56
471.12	705.56
471.339	700.56
471.558	673.56
471.777	687.56
471.997	670.56
472.216	669.56
472.435	661.56
472.654	659.56
472.873	665.56
473.092	622.56
473.311	653.56
473.53	647.56
473.749	644.56
473.968	645.56
474.187	619.56
474.406	630.56
474.625	665.56
474.844	678.56
475.063	671.56
475.282	656.56
475.501	673.56
475.72	649.56
475.939	653.56
476.158	671.56
476.377	686.56
476.596	694.56
476.814	667.56
477.033	700.56
477.252	707.56
477.471	713.56
477.69	724.56
477.908	741.56
478.127	747.56
478.346	763.56
478.564	778.56
478.783	802.56
479.002	830.56
479.22	801.56
479.439	817.56
479.658	822.56
479.876	806.56
480.095	803.56
480.313	829.56
480.532	839.56
480.751	834.56
480.969	798.56
481.188	811.56
481.406	790.56
481.624	745.56
481.843	764.56
482.061	728.56
482.28	725.56
482.498	730.56
482.717	753.56
482.935	741.56
483.153	751.56
483.372	763.56
483.59	735.56
483.808	730.56
484.027	723.56
484.245	751.56
484.463	782.56
484.681	797.56
484.9	766.56
485.118	783.56
485.336	763.56
485.554	743.56
485.772	789.56
485.99	765.56
486.209	766.56
486.427	797.56
486.645	773.56
486.863	787.56
487.081	781.56
487.299	766.56
487.517	792.56
487.735	763.56
487.953	787.56
488.171	809.56
488.389	777.56
488.607	765.56
488.825	754.56
489.043	761.56
489.261	748.56
489.479	786.56
489.696	767.56
489.914	768.56
490.132	786.56
490.35	783.56
490.568	787.56
490.786	785.56
491.003	789.56
491.221	788.56
491.439	801.56
491.657	789.56
491.874	821.56
492.092	813.56
492.31	797.56
492.527	819.56
492.745	814.56
492.963	815.56
493.18	841.56
493.398	827.56
493.615	840.56
493.833	823.56
494.05	829.56
494.268	812.56
494.485	831.56
494.703	848.56
494.92	853.56
495.138	855.56
495.355	830.56
495.573	835.56
495.79	837.56
496.008	874.56
496.225	848.56
496.442	846.56
496.66	867.56
496.877	863.56
497.094	899.56
497.312	924.56
497.529	923.56
497.746	964.56
497.963	962.56
498.181	1027.56
498.398	1037.56
498.615	1101.56
498.832	1168.56
499.049	1241.56
499.267	1341.56
499.484	1454.56
499.701	1573.56
499.918	1764.56
500.135	1972.56
500.352	2140.56
500.569	2225.56
500.786	2174.56
501.003	2035.56
501.22	1907.56
501.437	1708.56
