Data from NiCl2@0.125M.TitratingCurve.Agarose3%dH2O.NegLispCup.LampEnergy10.LIBS07252019_HRD10591_18-29-02-576.txt Node
Date: Thu Jul 25 18:29:02 EDT 2019
User: cochatt
Spectrometer: HR+D1059
Trigger mode: 1
Integration Time (sec): 1.000000E-1
Scans to average: 1
Electric dark correction enabled: true
Nonlinearity correction enabled: false
Boxcar width: 0
XAxis mode: Wavelengths
Number of Pixels in Spectrum: 2048
>>>>>Begin Spectral Data<<<<<
223.165	-5.12
223.4	-5.12
223.635	-5.12
223.869	-24.12
224.104	-28.12
224.338	-11.12
224.573	1.88
224.808	-15.12
225.042	-1.12
225.277	-7.12
225.511	-2.12
225.746	0.88
225.98	2.88
226.215	14.88
226.449	12.88
226.683	6.88
226.918	30.88
227.152	22.88
227.387	19.88
227.621	41.88
227.856	43.88
228.09	42.88
228.324	39.88
228.559	51.88
228.793	72.88
229.027	95.88
229.262	102.88
229.496	112.88
229.73	111.88
229.964	136.88
230.199	139.88
230.433	120.88
230.667	144.88
230.901	124.88
231.136	130.88
231.37	138.88
231.604	122.88
231.838	134.88
232.072	132.88
232.306	139.88
232.541	138.88
232.775	149.88
233.009	153.88
233.243	128.88
233.477	146.88
233.711	128.88
233.945	153.88
234.179	162.88
234.413	160.88
234.647	165.88
234.881	157.88
235.115	146.88
235.349	141.88
235.583	145.88
235.817	154.88
236.051	150.88
236.285	163.88
236.519	161.88
236.753	149.88
236.987	155.88
237.221	154.88
237.455	157.88
237.689	159.88
237.922	148.88
238.156	134.88
238.39	162.88
238.624	166.88
238.858	181.88
239.091	161.88
239.325	170.88
239.559	175.88
239.793	172.88
240.027	178.88
240.26	175.88
240.494	190.88
240.728	189.88
240.961	168.88
241.195	178.88
241.429	160.88
241.662	180.88
241.896	196.88
242.13	188.88
242.363	191.88
242.597	192.88
242.83	206.88
243.064	198.88
243.298	195.88
243.531	204.88
243.765	190.88
243.998	211.88
244.232	203.88
244.465	204.88
244.699	217.88
244.932	226.88
245.166	209.88
245.399	231.88
245.633	202.88
245.866	222.88
246.099	225.88
246.333	232.88
246.566	221.88
246.8	222.88
247.033	227.88
247.266	216.88
247.5	216.88
247.733	249.88
247.966	244.88
248.2	242.88
248.433	239.88
248.666	241.88
248.899	252.88
249.133	237.88
249.366	257.88
249.599	247.88
249.832	244.88
250.066	245.88
250.299	253.88
250.532	244.88
250.765	270.88
250.998	253.88
251.231	273.88
251.465	255.88
251.698	262.88
251.931	269.88
252.164	255.88
252.397	267.88
252.63	289.88
252.863	254.88
253.096	267.88
253.329	275.88
253.562	284.88
253.795	295.88
254.028	271.88
254.261	274.88
254.494	294.88
254.727	290.88
254.96	286.88
255.193	257.88
255.426	292.88
255.659	289.88
255.892	291.88
256.124	288.88
256.357	280.88
256.59	285.88
256.823	295.88
257.056	295.88
257.289	308.88
257.521	314.88
257.754	305.88
257.987	289.88
258.22	303.88
258.452	279.88
258.685	314.88
258.918	295.88
259.151	295.88
259.383	308.88
259.616	314.88
259.849	302.88
260.081	301.88
260.314	320.88
260.547	330.88
260.779	311.88
261.012	321.88
261.244	325.88
261.477	310.88
261.71	310.88
261.942	340.88
262.175	309.88
262.407	318.88
262.64	325.88
262.872	326.88
263.105	344.88
263.337	332.88
263.57	329.88
263.802	331.88
264.035	340.88
264.267	332.88
264.499	355.88
264.732	325.88
264.964	349.88
265.197	328.88
265.429	341.88
265.661	331.88
265.894	338.88
266.126	368.88
266.358	355.88
266.591	347.88
266.823	360.88
267.055	341.88
267.287	367.88
267.52	369.88
267.752	359.88
267.984	346.88
268.216	364.88
268.448	374.88
268.681	353.88
268.913	367.88
269.145	358.88
269.377	354.88
269.609	369.88
269.841	367.88
270.073	375.88
270.306	374.88
270.538	369.88
270.77	387.88
271.002	389.88
271.234	383.88
271.466	386.88
271.698	394.88
271.93	383.88
272.162	376.88
272.394	377.88
272.626	384.88
272.858	377.88
273.09	374.88
273.322	381.88
273.553	404.88
273.785	419.88
274.017	407.88
274.249	413.88
274.481	420.88
274.713	402.88
274.945	407.88
275.176	421.88
275.408	413.88
275.64	393.88
275.872	389.88
276.104	401.88
276.335	395.88
276.567	393.88
276.799	407.88
277.031	419.88
277.262	433.88
277.494	409.88
277.726	410.88
277.957	423.88
278.189	418.88
278.421	417.88
278.652	433.88
278.884	419.88
279.115	424.88
279.347	417.88
279.579	457.88
279.81	413.88
280.042	431.88
280.273	441.88
280.505	442.88
280.736	433.88
280.968	451.88
281.199	426.88
281.431	433.88
281.662	456.88
281.894	447.88
282.125	450.88
282.356	469.88
282.588	464.88
282.819	472.88
283.051	453.88
283.282	459.88
283.513	459.88
283.745	473.88
283.976	473.88
284.207	465.88
284.439	481.88
284.67	489.88
284.901	487.88
285.132	488.88
285.364	470.88
285.595	481.88
285.826	483.88
286.057	475.88
286.288	484.88
286.52	487.88
286.751	494.88
286.982	492.88
287.213	504.88
287.444	480.88
287.675	493.88
287.906	498.88
288.138	514.88
288.369	496.88
288.6	506.88
288.831	503.88
289.062	517.88
289.293	517.88
289.524	516.88
289.755	518.88
289.986	534.88
290.217	514.88
290.448	506.88
290.679	513.88
290.91	519.88
291.141	519.88
291.371	551.88
291.602	514.88
291.833	505.88
292.064	527.88
292.295	514.88
292.526	511.88
292.757	541.88
292.987	535.88
293.218	497.88
293.449	547.88
293.68	531.88
293.91	523.88
294.141	518.88
294.372	518.88
294.603	544.88
294.833	529.88
295.064	519.88
295.295	530.88
295.525	539.88
295.756	538.88
295.987	533.88
296.217	535.88
296.448	543.88
296.679	541.88
296.909	559.88
297.14	557.88
297.37	561.88
297.601	562.88
297.831	564.88
298.062	567.88
298.292	574.88
298.523	577.88
298.753	585.88
298.984	584.88
299.214	573.88
299.445	582.88
299.675	558.88
299.905	576.88
300.136	577.88
300.366	590.88
300.597	579.88
300.827	588.88
301.057	614.88
301.288	619.88
301.518	585.88
301.748	605.88
301.979	611.88
302.209	620.88
302.439	598.88
302.669	601.88
302.9	611.88
303.13	588.88
303.36	576.88
303.59	573.88
303.82	566.88
304.051	591.88
304.281	590.88
304.511	560.88
304.741	585.88
304.971	603.88
305.201	570.88
305.431	569.88
305.661	585.88
305.891	611.88
306.121	593.88
306.352	575.88
306.582	578.88
306.812	565.88
307.042	548.88
307.272	561.88
307.502	555.88
307.731	575.88
307.961	574.88
308.191	553.88
308.421	563.88
308.651	563.88
308.881	574.88
309.111	565.88
309.341	545.88
309.571	574.88
309.8	549.88
310.03	559.88
310.26	568.88
310.49	565.88
310.72	573.88
310.949	583.88
311.179	560.88
311.409	564.88
311.639	576.88
311.868	571.88
312.098	592.88
312.328	597.88
312.557	582.88
312.787	594.88
313.017	581.88
313.246	600.88
313.476	576.88
313.706	623.88
313.935	623.88
314.165	599.88
314.394	628.88
314.624	617.88
314.853	606.88
315.083	602.88
315.312	594.88
315.542	579.88
315.771	586.88
316.001	591.88
316.23	605.88
316.46	566.88
316.689	598.88
316.919	592.88
317.148	587.88
317.377	589.88
317.607	585.88
317.836	580.88
318.065	592.88
318.295	597.88
318.524	575.88
318.753	591.88
318.983	582.88
319.212	563.88
319.441	561.88
319.67	595.88
319.9	584.88
320.129	590.88
320.358	583.88
320.587	597.88
320.816	569.88
321.046	559.88
321.275	566.88
321.504	578.88
321.733	592.88
321.962	576.88
322.191	591.88
322.42	574.88
322.649	612.88
322.878	597.88
323.108	590.88
323.337	622.88
323.566	606.88
323.795	577.88
324.024	591.88
324.253	593.88
324.482	592.88
324.71	623.88
324.939	623.88
325.168	632.88
325.397	610.88
325.626	593.88
325.855	632.88
326.084	631.88
326.313	658.88
326.542	645.88
326.77	660.88
326.999	643.88
327.228	625.88
327.457	640.88
327.686	634.88
327.914	617.88
328.143	635.88
328.372	643.88
328.6	649.88
328.829	644.88
329.058	654.88
329.287	642.88
329.515	658.88
329.744	650.88
329.972	648.88
330.201	638.88
330.43	658.88
330.658	658.88
330.887	673.88
331.115	650.88
331.344	662.88
331.572	667.88
331.801	698.88
332.03	705.88
332.258	714.88
332.486	761.88
332.715	779.88
332.943	809.88
333.172	805.88
333.4	859.88
333.629	894.88
333.857	913.88
334.085	898.88
334.314	865.88
334.542	868.88
334.771	831.88
334.999	792.88
335.227	806.88
335.455	801.88
335.684	797.88
335.912	815.88
336.14	762.88
336.369	758.88
336.597	787.88
336.825	775.88
337.053	780.88
337.281	791.88
337.51	744.88
337.738	754.88
337.966	715.88
338.194	705.88
338.422	693.88
338.65	713.88
338.878	713.88
339.106	705.88
339.334	699.88
339.562	707.88
339.79	678.88
340.018	681.88
340.246	687.88
340.474	690.88
340.702	666.88
340.93	675.88
341.158	699.88
341.386	654.88
341.614	670.88
341.842	658.88
342.07	647.88
342.298	658.88
342.526	663.88
342.754	665.88
342.981	650.88
343.209	669.88
343.437	717.88
343.665	771.88
343.893	806.88
344.12	857.88
344.348	805.88
344.576	729.88
344.804	735.88
345.031	718.88
345.259	668.88
345.487	683.88
345.714	666.88
345.942	674.88
346.17	659.88
346.397	672.88
346.625	673.88
346.853	652.88
347.08	662.88
347.308	645.88
347.535	646.88
347.763	669.88
347.99	662.88
348.218	662.88
348.445	667.88
348.673	655.88
348.9	669.88
349.128	661.88
349.355	644.88
349.583	671.88
349.81	671.88
350.037	629.88
350.265	621.88
350.492	623.88
350.72	633.88
350.947	631.88
351.174	621.88
351.402	611.88
351.629	605.88
351.856	621.88
352.083	642.88
352.311	618.88
352.538	639.88
352.765	611.88
352.992	622.88
353.22	603.88
353.447	628.88
353.674	616.88
353.901	621.88
354.128	630.88
354.355	615.88
354.583	618.88
354.81	636.88
355.037	627.88
355.264	617.88
355.491	615.88
355.718	611.88
355.945	625.88
356.172	616.88
356.399	625.88
356.626	635.88
356.853	645.88
357.08	601.88
357.307	627.88
357.534	601.88
357.761	632.88
357.988	641.88
358.215	627.88
358.441	632.88
358.668	628.88
358.895	625.88
359.122	637.88
359.349	612.88
359.576	617.88
359.802	619.88
360.029	643.88
360.256	657.88
360.483	656.88
360.709	625.88
360.936	627.88
361.163	613.88
361.39	639.88
361.616	618.88
361.843	600.88
362.07	630.88
362.296	646.88
362.523	629.88
362.749	625.88
362.976	635.88
363.203	598.88
363.429	602.88
363.656	622.88
363.882	626.88
364.109	632.88
364.335	596.88
364.562	637.88
364.788	631.88
365.015	618.88
365.241	592.88
365.468	584.88
365.694	613.88
365.92	607.88
366.147	597.88
366.373	613.88
366.599	598.88
366.826	605.88
367.052	627.88
367.278	615.88
367.505	631.88
367.731	612.88
367.957	605.88
368.184	615.88
368.41	638.88
368.636	641.88
368.862	656.88
369.089	627.88
369.315	626.88
369.541	640.88
369.767	646.88
369.993	630.88
370.219	647.88
370.445	682.88
370.672	676.88
370.898	674.88
371.124	673.88
371.35	676.88
371.576	696.88
371.802	685.88
372.028	697.88
372.254	682.88
372.48	697.88
372.706	692.88
372.932	699.88
373.158	718.88
373.384	694.88
373.61	697.88
373.835	672.88
374.061	669.88
374.287	691.88
374.513	682.88
374.739	725.88
374.965	773.88
375.191	747.88
375.416	764.88
375.642	735.88
375.868	727.88
376.094	714.88
376.319	713.88
376.545	709.88
376.771	695.88
376.997	693.88
377.222	697.88
377.448	672.88
377.674	683.88
377.899	697.88
378.125	674.88
378.35	705.88
378.576	665.88
378.802	666.88
379.027	702.88
379.253	680.88
379.478	655.88
379.704	675.88
379.929	679.88
380.155	659.88
380.38	671.88
380.606	659.88
380.831	642.88
381.057	679.88
381.282	685.88
381.507	669.88
381.733	693.88
381.958	683.88
382.184	693.88
382.409	712.88
382.634	704.88
382.86	693.88
383.085	735.88
383.31	721.88
383.535	723.88
383.761	747.88
383.986	790.88
384.211	793.88
384.436	801.88
384.662	807.88
384.887	806.88
385.112	831.88
385.337	848.88
385.562	832.88
385.787	831.88
386.013	822.88
386.238	811.88
386.463	830.88
386.688	849.88
386.913	807.88
387.138	810.88
387.363	821.88
387.588	775.88
387.813	797.88
388.038	799.88
388.263	817.88
388.488	789.88
388.713	805.88
388.938	794.88
389.163	810.88
389.387	823.88
389.612	779.88
389.837	808.88
390.062	761.88
390.287	779.88
390.512	814.88
390.736	813.88
390.961	787.88
391.186	820.88
391.411	889.88
391.636	885.88
391.86	898.88
392.085	928.88
392.31	908.88
392.534	918.88
392.759	908.88
392.984	872.88
393.208	864.88
393.433	865.88
393.658	867.88
393.882	863.88
394.107	895.88
394.331	895.88
394.556	864.88
394.78	886.88
395.005	881.88
395.229	881.88
395.454	915.88
395.678	930.88
395.903	936.88
396.127	902.88
396.352	897.88
396.576	855.88
396.801	848.88
397.025	878.88
397.249	864.88
397.474	917.88
397.698	901.88
397.922	923.88
398.147	915.88
398.371	916.88
398.595	949.88
398.82	999.88
399.044	1070.88
399.268	1170.88
399.492	1392.88
399.717	1607.88
399.941	1620.88
400.165	1418.88
400.389	1281.88
400.613	1149.88
400.837	1064.88
401.062	1067.88
401.286	1040.88
401.51	1037.88
401.734	1027.88
401.958	1033.88
402.182	1053.88
402.406	1053.88
402.63	1053.88
402.854	1119.88
403.078	1122.88
403.302	1146.88
403.526	1182.88
403.75	1172.88
403.974	1235.88
404.198	1235.88
404.422	1241.88
404.645	1192.88
404.869	1191.88
405.093	1186.88
405.317	1138.88
405.541	1143.88
405.765	1151.88
405.988	1141.88
406.212	1137.88
406.436	1113.88
406.66	1146.88
406.883	1133.88
407.107	1219.88
407.331	1325.88
407.555	1355.88
407.778	1367.88
408.002	1325.88
408.226	1229.88
408.449	1209.88
408.673	1169.88
408.896	1133.88
409.12	1145.88
409.344	1171.88
409.567	1168.88
409.791	1191.88
410.014	1194.88
410.238	1173.88
410.461	1187.88
410.685	1124.88
410.908	1119.88
411.132	1118.88
411.355	1040.88
411.578	1058.88
411.802	1095.88
412.025	1076.88
412.249	1074.88
412.472	1050.88
412.695	1071.88
412.919	1027.88
413.142	1030.88
413.365	1036.88
413.589	1035.88
413.812	1038.88
414.035	1039.88
414.258	1042.88
414.482	1013.88
414.705	1051.88
414.928	1040.88
415.151	1034.88
415.374	1043.88
415.597	1053.88
415.821	1013.88
416.044	999.88
416.267	1021.88
416.49	1027.88
416.713	991.88
416.936	989.88
417.159	1000.88
417.382	1016.88
417.605	1010.88
417.828	1003.88
418.051	1011.88
418.274	1011.88
418.497	1041.88
418.72	1058.88
418.943	1073.88
419.166	1135.88
419.389	1203.88
419.611	1190.88
419.834	1114.88
420.057	1098.88
420.28	1039.88
420.503	1002.88
420.726	1007.88
420.948	1024.88
421.171	1011.88
421.394	1009.88
421.617	987.88
421.839	1011.88
422.062	1035.88
422.285	1018.88
422.507	1031.88
422.73	1064.88
422.953	1043.88
423.175	1078.88
423.398	1096.88
423.621	1098.88
423.843	1122.88
424.066	1143.88
424.288	1139.88
424.511	1115.88
424.733	1104.88
424.956	1065.88
425.178	1063.88
425.401	1034.88
425.623	1046.88
425.846	998.88
426.068	1009.88
426.291	975.88
426.513	967.88
426.735	978.88
426.958	970.88
427.18	919.88
427.402	957.88
427.625	944.88
427.847	916.88
428.069	927.88
428.292	935.88
428.514	907.88
428.736	896.88
428.958	937.88
429.181	895.88
429.403	896.88
429.625	907.88
429.847	901.88
430.069	879.88
430.292	904.88
430.514	891.88
430.736	881.88
430.958	890.88
431.18	894.88
431.402	897.88
431.624	901.88
431.846	915.88
432.068	919.88
432.29	936.88
432.512	929.88
432.734	911.88
432.956	925.88
433.178	944.88
433.4	889.88
433.622	916.88
433.844	929.88
434.066	964.88
434.287	936.88
434.509	1010.88
434.731	1000.88
434.953	1036.88
435.175	1056.88
435.397	1057.88
435.618	961.88
435.84	961.88
436.062	892.88
436.284	908.88
436.505	909.88
436.727	927.88
436.949	935.88
437.17	922.88
437.392	917.88
437.614	896.88
437.835	866.88
438.057	885.88
438.278	857.88
438.5	868.88
438.721	857.88
438.943	889.88
439.165	889.88
439.386	903.88
439.608	915.88
439.829	934.88
440.05	915.88
440.272	927.88
440.493	953.88
440.715	965.88
440.936	943.88
441.158	971.88
441.379	975.88
441.6	1049.88
441.822	1086.88
442.043	1051.88
442.264	1053.88
442.486	1034.88
442.707	1019.88
442.928	1041.88
443.149	1012.88
443.371	1017.88
443.592	1022.88
443.813	1025.88
444.034	1043.88
444.255	1104.88
444.476	1155.88
444.698	1227.88
444.919	1286.88
445.14	1353.88
445.361	1205.88
445.582	1076.88
445.803	1029.88
446.024	1018.88
446.245	994.88
446.466	965.88
446.687	958.88
446.908	903.88
447.129	933.88
447.35	925.88
447.571	882.88
447.792	867.88
448.013	911.88
448.234	881.88
448.455	880.88
448.675	853.88
448.896	854.88
449.117	872.88
449.338	834.88
449.559	833.88
449.779	822.88
450	817.88
450.221	826.88
450.442	856.88
450.662	857.88
450.883	870.88
451.104	919.88
451.324	863.88
451.545	889.88
451.766	867.88
451.986	873.88
452.207	838.88
452.428	882.88
452.648	835.88
452.869	820.88
453.089	832.88
453.31	862.88
453.53	847.88
453.751	834.88
453.971	839.88
454.192	809.88
454.412	776.88
454.633	813.88
454.853	822.88
455.073	813.88
455.294	815.88
455.514	788.88
455.734	790.88
455.955	809.88
456.175	818.88
456.395	801.88
456.616	796.88
456.836	822.88
457.056	791.88
457.276	765.88
457.497	800.88
457.717	786.88
457.937	791.88
458.157	827.88
458.377	835.88
458.598	856.88
458.818	853.88
459.038	880.88
459.258	901.88
459.478	949.88
459.698	951.88
459.918	989.88
460.138	1041.88
460.358	1080.88
460.578	1107.88
460.798	1117.88
461.018	1122.88
461.238	1104.88
461.458	1082.88
461.678	1089.88
461.898	1101.88
462.118	1102.88
462.338	1166.88
462.558	1217.88
462.777	1263.88
462.997	1391.88
463.217	1491.88
463.437	1524.88
463.657	1423.88
463.876	1336.88
464.096	1316.88
464.316	1302.88
464.536	1313.88
464.755	1263.88
464.975	1213.88
465.195	1142.88
465.414	1095.88
465.634	987.88
465.854	947.88
466.073	945.88
466.293	913.88
466.512	903.88
466.732	903.88
466.951	921.88
467.171	888.88
467.391	910.88
467.61	899.88
467.829	897.88
468.049	872.88
468.268	877.88
468.488	858.88
468.707	830.88
468.927	858.88
469.146	866.88
469.365	867.88
469.585	870.88
469.804	887.88
470.023	903.88
470.243	930.88
470.462	917.88
470.681	948.88
470.901	920.88
471.12	921.88
471.339	894.88
471.558	890.88
471.777	869.88
471.997	859.88
472.216	869.88
472.435	851.88
472.654	831.88
472.873	822.88
473.092	831.88
473.311	824.88
473.53	829.88
473.749	807.88
473.968	844.88
474.187	839.88
474.406	821.88
474.625	842.88
474.844	819.88
475.063	827.88
475.282	841.88
475.501	830.88
475.72	854.88
475.939	840.88
476.158	864.88
476.377	839.88
476.596	835.88
476.814	883.88
477.033	872.88
477.252	903.88
477.471	919.88
477.69	925.88
477.908	957.88
478.127	976.88
478.346	998.88
478.564	1009.88
478.783	1033.88
479.002	1037.88
479.22	1009.88
479.439	1038.88
479.658	1007.88
479.876	1002.88
480.095	1009.88
480.313	1105.88
480.532	1106.88
480.751	1105.88
480.969	1081.88
481.188	1038.88
481.406	978.88
481.624	950.88
481.843	949.88
482.061	938.88
482.28	946.88
482.498	926.88
482.717	920.88
482.935	898.88
483.153	938.88
483.372	919.88
483.59	913.88
483.808	937.88
484.027	954.88
484.245	943.88
484.463	949.88
484.681	965.88
484.9	951.88
485.118	955.88
485.336	983.88
485.554	989.88
485.772	966.88
485.99	991.88
486.209	1012.88
486.427	1027.88
486.645	997.88
486.863	1035.88
487.081	1002.88
487.299	1002.88
487.517	979.88
487.735	971.88
487.953	973.88
488.171	959.88
488.389	977.88
488.607	970.88
488.825	969.88
489.043	966.88
489.261	969.88
489.479	972.88
489.696	982.88
489.914	978.88
490.132	968.88
490.35	993.88
490.568	993.88
490.786	972.88
491.003	977.88
491.221	985.88
491.439	983.88
491.657	1029.88
491.874	979.88
492.092	999.88
492.31	1013.88
492.527	982.88
492.745	1006.88
492.963	1013.88
493.18	1029.88
493.398	994.88
493.615	1007.88
493.833	1010.88
494.05	1043.88
494.268	1036.88
494.485	1040.88
494.703	1053.88
494.92	1053.88
495.138	1045.88
495.355	1050.88
495.573	1041.88
495.79	1048.88
496.008	1041.88
496.225	1080.88
496.442	1081.88
496.66	1041.88
496.877	1057.88
497.094	1121.88
497.312	1101.88
497.529	1152.88
497.746	1152.88
497.963	1215.88
498.181	1246.88
498.398	1285.88
498.615	1393.88
498.832	1465.88
