Data from NiCl2@0.5M.TitratingCurve.Agarose3%dH2O.NegLispCup.LampEnergy10.LIBS07252019_HRD10591_18-18-45-573.txt Node
Date: Thu Jul 25 18:18:45 EDT 2019
User: cochatt
Spectrometer: HR+D1059
Trigger mode: 1
Integration Time (sec): 1.000000E-1
Scans to average: 1
Electric dark correction enabled: true
Nonlinearity correction enabled: false
Boxcar width: 0
XAxis mode: Wavelengths
Number of Pixels in Spectrum: 2048
>>>>>Begin Spectral Data<<<<<
223.165	-17.69
223.4	-17.69
223.635	-17.69
223.869	-32.69
224.104	-5.69
224.338	-22.69
224.573	-15.69
224.808	-15.69
225.042	-9.69
225.277	5.31
225.511	0.31
225.746	5.31
225.98	3.31
226.215	14.31
226.449	14.31
226.683	15.31
226.918	26.31
227.152	35.31
227.387	30.31
227.621	42.31
227.856	32.31
228.09	41.31
228.324	59.31
228.559	55.31
228.793	75.31
229.027	128.31
229.262	150.31
229.496	148.31
229.73	140.31
229.964	149.31
230.199	164.31
230.433	164.31
230.667	177.31
230.901	178.31
231.136	154.31
231.37	172.31
231.604	183.31
231.838	185.31
232.072	195.31
232.306	189.31
232.541	186.31
232.775	211.31
233.009	181.31
233.243	179.31
233.477	207.31
233.711	194.31
233.945	178.31
234.179	195.31
234.413	188.31
234.647	192.31
234.881	191.31
235.115	196.31
235.349	211.31
235.583	204.31
235.817	192.31
236.051	200.31
236.285	197.31
236.519	200.31
236.753	231.31
236.987	208.31
237.221	206.31
237.455	220.31
237.689	209.31
237.922	222.31
238.156	228.31
238.39	231.31
238.624	221.31
238.858	220.31
239.091	236.31
239.325	243.31
239.559	237.31
239.793	234.31
240.027	230.31
240.26	240.31
240.494	233.31
240.728	256.31
240.961	255.31
241.195	264.31
241.429	256.31
241.662	263.31
241.896	243.31
242.13	268.31
242.363	258.31
242.597	281.31
242.83	281.31
243.064	276.31
243.298	274.31
243.531	272.31
243.765	290.31
243.998	294.31
244.232	291.31
244.465	293.31
244.699	305.31
244.932	317.31
245.166	320.31
245.399	308.31
245.633	323.31
245.866	306.31
246.099	307.31
246.333	300.31
246.566	307.31
246.8	332.31
247.033	320.31
247.266	328.31
247.5	313.31
247.733	329.31
247.966	331.31
248.2	346.31
248.433	309.31
248.666	338.31
248.899	342.31
249.133	357.31
249.366	353.31
249.599	341.31
249.832	359.31
250.066	354.31
250.299	348.31
250.532	366.31
250.765	353.31
250.998	364.31
251.231	377.31
251.465	367.31
251.698	381.31
251.931	379.31
252.164	380.31
252.397	401.31
252.63	386.31
252.863	373.31
253.096	392.31
253.329	406.31
253.562	406.31
253.795	400.31
254.028	398.31
254.261	402.31
254.494	407.31
254.727	416.31
254.96	408.31
255.193	415.31
255.426	426.31
255.659	419.31
255.892	430.31
256.124	420.31
256.357	435.31
256.59	428.31
256.823	422.31
257.056	425.31
257.289	437.31
257.521	416.31
257.754	457.31
257.987	449.31
258.22	455.31
258.452	439.31
258.685	447.31
258.918	465.31
259.151	452.31
259.383	447.31
259.616	454.31
259.849	480.31
260.081	462.31
260.314	469.31
260.547	478.31
260.779	457.31
261.012	471.31
261.244	487.31
261.477	480.31
261.71	482.31
261.942	492.31
262.175	477.31
262.407	466.31
262.64	492.31
262.872	510.31
263.105	501.31
263.337	508.31
263.57	503.31
263.802	522.31
264.035	516.31
264.267	528.31
264.499	502.31
264.732	552.31
264.964	515.31
265.197	515.31
265.429	509.31
265.661	517.31
265.894	525.31
266.126	542.31
266.358	541.31
266.591	547.31
266.823	519.31
267.055	530.31
267.287	532.31
267.52	516.31
267.752	545.31
267.984	556.31
268.216	556.31
268.448	573.31
268.681	539.31
268.913	560.31
269.145	550.31
269.377	580.31
269.609	559.31
269.841	565.31
270.073	568.31
270.306	598.31
270.538	587.31
270.77	581.31
271.002	574.31
271.234	572.31
271.466	603.31
271.698	599.31
271.93	582.31
272.162	583.31
272.394	585.31
272.626	593.31
272.858	580.31
273.09	605.31
273.322	640.31
273.553	624.31
273.785	629.31
274.017	589.31
274.249	596.31
274.481	632.31
274.713	621.31
274.945	654.31
275.176	648.31
275.408	642.31
275.64	664.31
275.872	638.31
276.104	664.31
276.335	632.31
276.567	647.31
276.799	642.31
277.031	665.31
277.262	656.31
277.494	658.31
277.726	658.31
277.957	673.31
278.189	650.31
278.421	664.31
278.652	646.31
278.884	677.31
279.115	680.31
279.347	692.31
279.579	711.31
279.81	698.31
280.042	714.31
280.273	685.31
280.505	700.31
280.736	693.31
280.968	698.31
281.199	706.31
281.431	699.31
281.662	718.31
281.894	734.31
282.125	704.31
282.356	703.31
282.588	736.31
282.819	721.31
283.051	733.31
283.282	713.31
283.513	744.31
283.745	741.31
283.976	724.31
284.207	718.31
284.439	754.31
284.67	707.31
284.901	777.31
285.132	757.31
285.364	757.31
285.595	770.31
285.826	752.31
286.057	783.31
286.288	766.31
286.52	788.31
286.751	752.31
286.982	766.31
287.213	768.31
287.444	790.31
287.675	802.31
287.906	792.31
288.138	776.31
288.369	766.31
288.6	790.31
288.831	806.31
289.062	785.31
289.293	804.31
289.524	799.31
289.755	792.31
289.986	783.31
290.217	813.31
290.448	810.31
290.679	808.31
290.91	800.31
291.141	818.31
291.371	807.31
291.602	832.31
291.833	830.31
292.064	814.31
292.295	834.31
292.526	855.31
292.757	818.31
292.987	793.31
293.218	812.31
293.449	832.31
293.68	823.31
293.91	831.31
294.141	827.31
294.372	817.31
294.603	813.31
294.833	836.31
295.064	822.31
295.295	824.31
295.525	846.31
295.756	819.31
295.987	839.31
296.217	831.31
296.448	850.31
296.679	872.31
296.909	844.31
297.14	846.31
297.37	866.31
297.601	858.31
297.831	888.31
298.062	876.31
298.292	894.31
298.523	924.31
298.753	899.31
298.984	905.31
299.214	872.31
299.445	892.31
299.675	912.31
299.905	919.31
300.136	917.31
300.366	936.31
300.597	914.31
300.827	937.31
301.057	918.31
301.288	928.31
301.518	927.31
301.748	932.31
301.979	955.31
302.209	961.31
302.439	941.31
302.669	940.31
302.9	951.31
303.13	915.31
303.36	945.31
303.59	909.31
303.82	948.31
304.051	952.31
304.281	964.31
304.511	946.31
304.741	958.31
304.971	940.31
305.201	965.31
305.431	955.31
305.661	956.31
305.891	967.31
306.121	935.31
306.352	958.31
306.582	962.31
306.812	932.31
307.042	952.31
307.272	937.31
307.502	902.31
307.731	920.31
307.961	949.31
308.191	940.31
308.421	946.31
308.651	941.31
308.881	916.31
309.111	939.31
309.341	961.31
309.571	932.31
309.8	922.31
310.03	949.31
310.26	961.31
310.49	972.31
310.72	949.31
310.949	923.31
311.179	942.31
311.409	963.31
311.639	967.31
311.868	941.31
312.098	970.31
312.328	967.31
312.557	983.31
312.787	993.31
313.017	990.31
313.246	1014.31
313.476	1022.31
313.706	1018.31
313.935	1006.31
314.165	1004.31
314.394	1015.31
314.624	997.31
314.853	1002.31
315.083	1043.31
315.312	1024.31
315.542	1006.31
315.771	1010.31
316.001	1002.31
316.23	1016.31
316.46	985.31
316.689	1020.31
316.919	1009.31
317.148	1008.31
317.377	1019.31
317.607	981.31
317.836	1029.31
318.065	994.31
318.295	1034.31
318.524	1017.31
318.753	1001.31
318.983	1018.31
319.212	972.31
319.441	985.31
319.67	996.31
319.9	1042.31
320.129	1001.31
320.358	1008.31
320.587	977.31
320.816	984.31
321.046	1020.31
321.275	1018.31
321.504	1009.31
321.733	1010.31
321.962	1026.31
322.191	1043.31
322.42	1030.31
322.649	1065.31
322.878	1009.31
323.108	1031.31
323.337	1032.31
323.566	1063.31
323.795	1032.31
324.024	1037.31
324.253	1057.31
324.482	1057.31
324.71	1077.31
324.939	1057.31
325.168	1052.31
325.397	1039.31
325.626	1060.31
325.855	1065.31
326.084	1092.31
326.313	1097.31
326.542	1077.31
326.77	1107.31
326.999	1122.31
327.228	1086.31
327.457	1072.31
327.686	1090.31
327.914	1097.31
328.143	1106.31
328.372	1076.31
328.6	1140.31
328.829	1094.31
329.058	1088.31
329.287	1097.31
329.515	1116.31
329.744	1112.31
329.972	1107.31
330.201	1106.31
330.43	1132.31
330.658	1124.31
330.887	1146.31
331.115	1170.31
331.344	1168.31
331.572	1167.31
331.801	1198.31
332.03	1213.31
332.258	1218.31
332.486	1252.31
332.715	1242.31
332.943	1320.31
333.172	1372.31
333.4	1404.31
333.629	1408.31
333.857	1459.31
334.085	1437.31
334.314	1450.31
334.542	1429.31
334.771	1406.31
334.999	1371.31
335.227	1377.31
335.455	1379.31
335.684	1390.31
335.912	1353.31
336.14	1353.31
336.369	1318.31
336.597	1332.31
336.825	1380.31
337.053	1329.31
337.281	1320.31
337.51	1300.31
337.738	1275.31
337.966	1236.31
338.194	1296.31
338.422	1253.31
338.65	1196.31
338.878	1241.31
339.106	1232.31
339.334	1239.31
339.562	1254.31
339.79	1174.31
340.018	1177.31
340.246	1158.31
340.474	1148.31
340.702	1156.31
340.93	1119.31
341.158	1180.31
341.386	1208.31
341.614	1243.31
341.842	1220.31
342.07	1158.31
342.298	1140.31
342.526	1173.31
342.754	1151.31
342.981	1150.31
343.209	1173.31
343.437	1237.31
343.665	1294.31
343.893	1353.31
344.12	1417.31
344.348	1358.31
344.576	1288.31
344.804	1294.31
345.031	1236.31
345.259	1171.31
345.487	1217.31
345.714	1171.31
345.942	1190.31
346.17	1207.31
346.397	1167.31
346.625	1122.31
346.853	1089.31
347.08	1113.31
347.308	1111.31
347.535	1134.31
347.763	1093.31
347.99	1116.31
348.218	1130.31
348.445	1129.31
348.673	1118.31
348.9	1086.31
349.128	1117.31
349.355	1105.31
349.583	1154.31
349.81	1073.31
350.037	1080.31
350.265	1078.31
350.492	1069.31
350.72	1089.31
350.947	1079.31
351.174	1119.31
351.402	1136.31
351.629	1138.31
351.856	1112.31
352.083	1095.31
352.311	1093.31
352.538	1118.31
352.765	1122.31
352.992	1044.31
353.22	1028.31
353.447	1029.31
353.674	1041.31
353.901	1040.31
354.128	1025.31
354.355	1023.31
354.583	1030.31
354.81	1048.31
355.037	1048.31
355.264	1053.31
355.491	1081.31
355.718	1060.31
355.945	1040.31
356.172	1060.31
356.399	1060.31
356.626	1068.31
356.853	1114.31
357.08	1090.31
357.307	1076.31
357.534	1090.31
357.761	1045.31
357.988	1074.31
358.215	1037.31
358.441	1075.31
358.668	1023.31
358.895	1072.31
359.122	1064.31
359.349	1083.31
359.576	1062.31
359.802	1042.31
360.029	1076.31
360.256	1066.31
360.483	1099.31
360.709	1056.31
360.936	1068.31
361.163	1090.31
361.39	1066.31
361.616	1103.31
361.843	1110.31
362.07	1127.31
362.296	1121.31
362.523	1035.31
362.749	1074.31
362.976	1024.31
363.203	1030.31
363.429	1020.31
363.656	1055.31
363.882	1054.31
364.109	1035.31
364.335	1015.31
364.562	1019.31
364.788	1015.31
365.015	994.31
365.241	1015.31
365.468	1036.31
365.694	1035.31
365.92	1019.31
366.147	1021.31
366.373	1029.31
366.599	1029.31
366.826	1046.31
367.052	1036.31
367.278	1069.31
367.505	1053.31
367.731	1040.31
367.957	1054.31
368.184	1055.31
368.41	1052.31
368.636	1059.31
368.862	1043.31
369.089	1060.31
369.315	1081.31
369.541	1084.31
369.767	1052.31
369.993	1053.31
370.219	1081.31
370.445	1095.31
370.672	1094.31
370.898	1101.31
371.124	1093.31
371.35	1135.31
371.576	1127.31
371.802	1102.31
372.028	1088.31
372.254	1121.31
372.48	1138.31
372.706	1113.31
372.932	1161.31
373.158	1166.31
373.384	1144.31
373.61	1129.31
373.835	1143.31
374.061	1115.31
374.287	1108.31
374.513	1132.31
374.739	1181.31
374.965	1213.31
375.191	1214.31
375.416	1211.31
375.642	1178.31
375.868	1188.31
376.094	1145.31
376.319	1120.31
376.545	1129.31
376.771	1138.31
376.997	1144.31
377.222	1096.31
377.448	1090.31
377.674	1127.31
377.899	1091.31
378.125	1121.31
378.35	1109.31
378.576	1136.31
378.802	1079.31
379.027	1092.31
379.253	1061.31
379.478	1070.31
379.704	1083.31
379.929	1118.31
380.155	1088.31
380.38	1111.31
380.606	1091.31
380.831	1075.31
381.057	1101.31
381.282	1080.31
381.507	1116.31
381.733	1131.31
381.958	1114.31
382.184	1140.31
382.409	1148.31
382.634	1148.31
382.86	1160.31
383.085	1172.31
383.31	1160.31
383.535	1201.31
383.761	1189.31
383.986	1221.31
384.211	1220.31
384.436	1272.31
384.662	1279.31
384.887	1267.31
385.112	1297.31
385.337	1316.31
385.562	1304.31
385.787	1329.31
386.013	1337.31
386.238	1313.31
386.463	1328.31
386.688	1326.31
386.913	1304.31
387.138	1321.31
387.363	1310.31
387.588	1310.31
387.813	1310.31
388.038	1312.31
388.263	1287.31
388.488	1321.31
388.713	1321.31
388.938	1270.31
389.163	1284.31
389.387	1273.31
389.612	1280.31
389.837	1269.31
390.062	1274.31
390.287	1306.31
390.512	1278.31
390.736	1328.31
390.961	1319.31
391.186	1348.31
391.411	1399.31
391.636	1395.31
391.86	1463.31
392.085	1486.31
392.31	1483.31
392.534	1443.31
392.759	1412.31
392.984	1401.31
393.208	1379.31
393.433	1385.31
393.658	1407.31
393.882	1402.31
394.107	1397.31
394.331	1391.31
394.556	1437.31
394.78	1384.31
395.005	1415.31
395.229	1400.31
395.454	1465.31
395.678	1459.31
395.903	1459.31
396.127	1409.31
396.352	1429.31
396.576	1410.31
396.801	1386.31
397.025	1412.31
397.249	1458.31
397.474	1459.31
397.698	1473.31
397.922	1510.31
398.147	1485.31
398.371	1506.31
398.595	1570.31
398.82	1633.31
399.044	1793.31
399.268	1894.31
399.492	2172.31
399.717	2372.31
399.941	2384.31
400.165	2105.31
400.389	1971.31
400.613	1840.31
400.837	1755.31
401.062	1712.31
401.286	1680.31
401.51	1667.31
401.734	1652.31
401.958	1661.31
402.182	1658.31
402.406	1678.31
402.63	1742.31
402.854	1736.31
403.078	1748.31
403.302	1812.31
403.526	1798.31
403.75	1788.31
403.974	1822.31
404.198	1872.31
404.422	1867.31
404.645	1784.31
404.869	1801.31
405.093	1844.31
405.317	1820.31
405.541	1838.31
405.765	1801.31
405.988	1765.31
406.212	1782.31
406.436	1799.31
406.66	1877.31
406.883	1856.31
407.107	1990.31
407.331	2072.31
407.555	2091.31
407.778	2090.31
408.002	2077.31
408.226	2025.31
408.449	1956.31
408.673	1887.31
408.896	1852.31
409.12	1871.31
409.344	1867.31
409.567	1855.31
409.791	1876.31
410.014	1800.31
410.238	1769.31
410.461	1765.31
410.685	1765.31
410.908	1753.31
411.132	1747.31
411.355	1719.31
411.578	1724.31
411.802	1705.31
412.025	1729.31
412.249	1750.31
412.472	1728.31
412.695	1698.31
412.919	1685.31
413.142	1661.31
413.365	1630.31
413.589	1660.31
413.812	1654.31
414.035	1667.31
414.258	1640.31
414.482	1612.31
414.705	1673.31
414.928	1685.31
415.151	1667.31
415.374	1668.31
415.597	1660.31
415.821	1620.31
416.044	1596.31
416.267	1610.31
416.49	1601.31
416.713	1651.31
416.936	1619.31
417.159	1581.31
417.382	1575.31
417.605	1583.31
417.828	1586.31
418.051	1656.31
418.274	1610.31
418.497	1626.31
418.72	1684.31
418.943	1661.31
419.166	1768.31
419.389	1853.31
419.611	1827.31
419.834	1798.31
420.057	1713.31
420.28	1656.31
420.503	1624.31
420.726	1596.31
420.948	1610.31
421.171	1641.31
421.394	1646.31
421.617	1644.31
421.839	1654.31
422.062	1660.31
422.285	1620.31
422.507	1688.31
422.73	1652.31
422.953	1656.31
423.175	1649.31
423.398	1668.31
423.621	1695.31
423.843	1667.31
424.066	1697.31
424.288	1692.31
424.511	1664.31
424.733	1664.31
424.956	1666.31
425.178	1602.31
425.401	1651.31
425.623	1637.31
425.846	1578.31
426.068	1589.31
426.291	1598.31
426.513	1546.31
426.735	1572.31
426.958	1582.31
427.18	1527.31
427.402	1536.31
427.625	1512.31
427.847	1460.31
428.069	1485.31
428.292	1488.31
428.514	1457.31
428.736	1454.31
428.958	1460.31
429.181	1431.31
429.403	1471.31
429.625	1476.31
429.847	1456.31
430.069	1468.31
430.292	1430.31
430.514	1446.31
430.736	1445.31
430.958	1450.31
431.18	1459.31
431.402	1442.31
431.624	1485.31
431.846	1461.31
432.068	1472.31
432.29	1506.31
432.512	1478.31
432.734	1515.31
432.956	1486.31
433.178	1512.31
433.4	1497.31
433.622	1519.31
433.844	1509.31
434.066	1491.31
434.287	1520.31
434.509	1578.31
434.731	1609.31
434.953	1638.31
435.175	1654.31
435.397	1648.31
435.618	1568.31
435.84	1533.31
436.062	1503.31
436.284	1496.31
436.505	1494.31
436.727	1518.31
436.949	1483.31
437.17	1460.31
437.392	1456.31
437.614	1460.31
437.835	1432.31
438.057	1438.31
438.278	1401.31
438.5	1432.31
438.721	1477.31
438.943	1472.31
439.165	1435.31
439.386	1439.31
439.608	1483.31
439.829	1473.31
440.05	1442.31
440.272	1497.31
440.493	1470.31
440.715	1506.31
440.936	1553.31
441.158	1571.31
441.379	1625.31
441.6	1665.31
441.822	1646.31
442.043	1647.31
442.264	1664.31
442.486	1630.31
442.707	1592.31
442.928	1631.31
443.149	1616.31
443.371	1616.31
443.592	1621.31
443.813	1674.31
444.034	1669.31
444.255	1707.31
444.476	1782.31
444.698	1905.31
444.919	1910.31
445.14	1930.31
445.361	1838.31
445.582	1688.31
445.803	1601.31
446.024	1567.31
446.245	1561.31
446.466	1558.31
446.687	1496.31
446.908	1518.31
447.129	1462.31
447.35	1464.31
447.571	1464.31
447.792	1420.31
448.013	1395.31
448.234	1409.31
448.455	1387.31
448.675	1392.31
448.896	1380.31
449.117	1300.31
449.338	1341.31
449.559	1347.31
449.779	1328.31
450	1343.31
450.221	1348.31
450.442	1376.31
450.662	1392.31
450.883	1340.31
451.104	1373.31
451.324	1369.31
451.545	1378.31
451.766	1360.31
451.986	1320.31
452.207	1330.31
452.428	1326.31
452.648	1358.31
452.869	1329.31
453.089	1276.31
453.31	1324.31
453.53	1312.31
453.751	1299.31
453.971	1303.31
454.192	1324.31
454.412	1296.31
454.633	1305.31
454.853	1268.31
455.073	1288.31
455.294	1301.31
455.514	1265.31
455.734	1289.31
455.955	1257.31
456.175	1245.31
456.395	1285.31
456.616	1238.31
456.836	1284.31
457.056	1273.31
457.276	1269.31
457.497	1315.31
457.717	1284.31
457.937	1302.31
458.157	1313.31
458.377	1342.31
458.598	1324.31
458.818	1389.31
459.038	1404.31
459.258	1466.31
459.478	1496.31
459.698	1545.31
459.918	1561.31
460.138	1657.31
460.358	1729.31
460.578	1737.31
460.798	1756.31
461.018	1786.31
461.238	1693.31
461.458	1739.31
461.678	1736.31
461.898	1758.31
462.118	1780.31
462.338	1839.31
462.558	1878.31
462.777	1945.31
462.997	2126.31
463.217	2312.31
463.437	2310.31
463.657	2160.31
463.876	2070.31
464.096	2016.31
464.316	1982.31
464.536	2007.31
464.755	1962.31
464.975	1903.31
465.195	1806.31
465.414	1720.31
465.634	1573.31
465.854	1586.31
466.073	1552.31
466.293	1506.31
466.512	1472.31
466.732	1474.31
466.951	1477.31
467.171	1441.31
467.391	1437.31
467.61	1466.31
467.829	1434.31
468.049	1430.31
468.268	1417.31
468.488	1357.31
468.707	1406.31
468.927	1425.31
469.146	1411.31
469.365	1406.31
469.585	1412.31
469.804	1454.31
470.023	1504.31
470.243	1445.31
470.462	1505.31
470.681	1526.31
470.901	1512.31
471.12	1485.31
471.339	1473.31
471.558	1472.31
471.777	1434.31
471.997	1414.31
472.216	1445.31
472.435	1375.31
472.654	1373.31
472.873	1357.31
473.092	1367.31
473.311	1349.31
473.53	1396.31
473.749	1373.31
473.968	1369.31
474.187	1388.31
474.406	1362.31
474.625	1384.31
474.844	1401.31
475.063	1373.31
475.282	1383.31
475.501	1402.31
475.72	1406.31
475.939	1391.31
476.158	1438.31
476.377	1456.31
476.596	1458.31
476.814	1485.31
477.033	1438.31
477.252	1478.31
477.471	1501.31
477.69	1599.31
477.908	1600.31
478.127	1638.31
478.346	1660.31
478.564	1653.31
478.783	1679.31
479.002	1738.31
479.22	1745.31
479.439	1738.31
479.658	1699.31
479.876	1744.31
480.095	1746.31
480.313	1829.31
480.532	1840.31
480.751	1828.31
480.969	1749.31
481.188	1709.31
481.406	1683.31
481.624	1629.31
481.843	1615.31
482.061	1651.31
482.28	1623.31
482.498	1562.31
482.717	1580.31
482.935	1604.31
483.153	1606.31
483.372	1635.31
483.59	1612.31
483.808	1656.31
484.027	1562.31
484.245	1642.31
484.463	1687.31
484.681	1711.31
484.9	1655.31
485.118	1704.31
485.336	1681.31
485.554	1693.31
485.772	1682.31
485.99	1728.31
486.209	1679.31
486.427	1702.31
486.645	1718.31
486.863	1672.31
487.081	1711.31
487.299	1697.31
487.517	1725.31
487.735	1725.31
487.953	1745.31
488.171	1714.31
488.389	1679.31
488.607	1705.31
488.825	1694.31
489.043	1685.31
489.261	1669.31
489.479	1684.31
489.696	1678.31
489.914	1659.31
490.132	1727.31
490.35	1681.31
490.568	1720.31
490.786	1713.31
491.003	1702.31
