Data from NiCl2@0.0625M.TitratingCurve.Agarose3%dH2O.NegLispCup.LampEnergy10.LIBS07252019_HRD10591_18-35-36-576.txt Node
Date: Thu Jul 25 18:35:36 EDT 2019
User: cochatt
Spectrometer: HR+D1059
Trigger mode: 1
Integration Time (sec): 1.000000E-1
Scans to average: 1
Electric dark correction enabled: true
Nonlinearity correction enabled: false
Boxcar width: 0
XAxis mode: Wavelengths
Number of Pixels in Spectrum: 2048
>>>>>Begin Spectral Data<<<<<
223.165	-26.25
223.4	-26.25
223.635	-26.25
223.869	-21.25
224.104	-34.25
224.338	-1.25
224.573	-13.25
224.808	0.75
225.042	-14.25
225.277	-2.25
225.511	8.75
225.746	-0.25
225.98	1.75
226.215	10.75
226.449	18.75
226.683	22.75
226.918	22.75
227.152	26.75
227.387	37.75
227.621	41.75
227.856	41.75
228.09	43.75
228.324	41.75
228.559	60.75
228.793	67.75
229.027	118.75
229.262	128.75
229.496	143.75
229.73	154.75
229.964	170.75
230.199	169.75
230.433	169.75
230.667	168.75
230.901	170.75
231.136	177.75
231.37	166.75
231.604	177.75
231.838	181.75
232.072	199.75
232.306	186.75
232.541	187.75
232.775	187.75
233.009	185.75
233.243	185.75
233.477	172.75
233.711	191.75
233.945	176.75
234.179	197.75
234.413	195.75
234.647	211.75
234.881	200.75
235.115	198.75
235.349	189.75
235.583	195.75
235.817	195.75
236.051	200.75
236.285	207.75
236.519	206.75
236.753	206.75
236.987	213.75
237.221	206.75
237.455	218.75
237.689	217.75
237.922	213.75
238.156	207.75
238.39	232.75
238.624	213.75
238.858	234.75
239.091	246.75
239.325	234.75
239.559	227.75
239.793	249.75
240.027	243.75
240.26	266.75
240.494	262.75
240.728	244.75
240.961	255.75
241.195	265.75
241.429	241.75
241.662	259.75
241.896	256.75
242.13	260.75
242.363	259.75
242.597	269.75
242.83	282.75
243.064	270.75
243.298	288.75
243.531	262.75
243.765	267.75
243.998	296.75
244.232	306.75
244.465	286.75
244.699	306.75
244.932	301.75
245.166	329.75
245.399	310.75
245.633	314.75
245.866	335.75
246.099	309.75
246.333	327.75
246.566	313.75
246.8	318.75
247.033	315.75
247.266	315.75
247.5	313.75
247.733	325.75
247.966	347.75
248.2	339.75
248.433	343.75
248.666	350.75
248.899	346.75
249.133	338.75
249.366	368.75
249.599	351.75
249.832	358.75
250.066	357.75
250.299	378.75
250.532	369.75
250.765	362.75
250.998	365.75
251.231	387.75
251.465	386.75
251.698	363.75
251.931	398.75
252.164	390.75
252.397	393.75
252.63	385.75
252.863	403.75
253.096	393.75
253.329	422.75
253.562	395.75
253.795	410.75
254.028	425.75
254.261	403.75
254.494	381.75
254.727	395.75
254.96	420.75
255.193	417.75
255.426	409.75
255.659	407.75
255.892	410.75
256.124	409.75
256.357	436.75
256.59	432.75
256.823	448.75
257.056	435.75
257.289	443.75
257.521	428.75
257.754	447.75
257.987	428.75
258.22	456.75
258.452	440.75
258.685	450.75
258.918	463.75
259.151	448.75
259.383	458.75
259.616	453.75
259.849	457.75
260.081	464.75
260.314	466.75
260.547	494.75
260.779	463.75
261.012	478.75
261.244	500.75
261.477	471.75
261.71	475.75
261.942	483.75
262.175	485.75
262.407	505.75
262.64	487.75
262.872	483.75
263.105	492.75
263.337	523.75
263.57	511.75
263.802	534.75
264.035	518.75
264.267	499.75
264.499	515.75
264.732	534.75
264.964	538.75
265.197	510.75
265.429	520.75
265.661	536.75
265.894	546.75
266.126	528.75
266.358	529.75
266.591	538.75
266.823	549.75
267.055	533.75
267.287	525.75
267.52	535.75
267.752	549.75
267.984	554.75
268.216	559.75
268.448	577.75
268.681	546.75
268.913	563.75
269.145	570.75
269.377	581.75
269.609	576.75
269.841	585.75
270.073	580.75
270.306	567.75
270.538	566.75
270.77	597.75
271.002	581.75
271.234	604.75
271.466	578.75
271.698	583.75
271.93	584.75
272.162	605.75
272.394	604.75
272.626	587.75
272.858	592.75
273.09	615.75
273.322	637.75
273.553	598.75
273.785	593.75
274.017	602.75
274.249	620.75
274.481	622.75
274.713	629.75
274.945	617.75
275.176	618.75
275.408	639.75
275.64	633.75
275.872	623.75
276.104	661.75
276.335	637.75
276.567	651.75
276.799	625.75
277.031	659.75
277.262	663.75
277.494	656.75
277.726	662.75
277.957	667.75
278.189	668.75
278.421	674.75
278.652	659.75
278.884	670.75
279.115	663.75
279.347	671.75
279.579	695.75
279.81	686.75
280.042	697.75
280.273	705.75
280.505	683.75
280.736	686.75
280.968	682.75
281.199	703.75
281.431	707.75
281.662	713.75
281.894	728.75
282.125	713.75
282.356	718.75
282.588	742.75
282.819	713.75
283.051	709.75
283.282	730.75
283.513	719.75
283.745	750.75
283.976	753.75
284.207	743.75
284.439	735.75
284.67	769.75
284.901	747.75
285.132	753.75
285.364	763.75
285.595	758.75
285.826	752.75
286.057	748.75
286.288	767.75
286.52	757.75
286.751	774.75
286.982	772.75
287.213	778.75
287.444	776.75
287.675	795.75
287.906	785.75
288.138	806.75
288.369	795.75
288.6	773.75
288.831	790.75
289.062	807.75
289.293	789.75
289.524	765.75
289.755	783.75
289.986	780.75
290.217	806.75
290.448	782.75
290.679	793.75
290.91	775.75
291.141	794.75
291.371	812.75
291.602	836.75
291.833	784.75
292.064	826.75
292.295	814.75
292.526	801.75
292.757	807.75
292.987	807.75
293.218	809.75
293.449	836.75
293.68	813.75
293.91	810.75
294.141	813.75
294.372	835.75
294.603	837.75
294.833	830.75
295.064	841.75
295.295	820.75
295.525	823.75
295.756	858.75
295.987	848.75
296.217	832.75
296.448	859.75
296.679	851.75
296.909	835.75
297.14	833.75
297.37	857.75
297.601	874.75
297.831	859.75
298.062	867.75
298.292	868.75
298.523	883.75
298.753	903.75
298.984	863.75
299.214	886.75
299.445	863.75
299.675	882.75
299.905	847.75
300.136	887.75
300.366	908.75
300.597	882.75
300.827	901.75
301.057	889.75
301.288	935.75
301.518	913.75
301.748	950.75
301.979	943.75
302.209	920.75
302.439	949.75
302.669	935.75
302.9	919.75
303.13	922.75
303.36	939.75
303.59	933.75
303.82	941.75
304.051	957.75
304.281	923.75
304.511	893.75
304.741	915.75
304.971	924.75
305.201	919.75
305.431	929.75
305.661	899.75
305.891	930.75
306.121	916.75
306.352	921.75
306.582	919.75
306.812	889.75
307.042	906.75
307.272	901.75
307.502	908.75
307.731	888.75
307.961	936.75
308.191	930.75
308.421	912.75
308.651	903.75
308.881	891.75
309.111	883.75
309.341	932.75
309.571	936.75
309.8	918.75
310.03	933.75
310.26	924.75
310.49	950.75
310.72	905.75
310.949	912.75
311.179	927.75
311.409	935.75
311.639	950.75
311.868	922.75
312.098	965.75
312.328	957.75
312.557	954.75
312.787	945.75
313.017	957.75
313.246	970.75
313.476	946.75
313.706	979.75
313.935	981.75
314.165	974.75
314.394	988.75
314.624	982.75
314.853	975.75
315.083	960.75
315.312	973.75
315.542	959.75
315.771	994.75
316.001	968.75
316.23	997.75
316.46	943.75
316.689	987.75
316.919	973.75
317.148	995.75
317.377	980.75
317.607	967.75
317.836	941.75
318.065	978.75
318.295	981.75
318.524	1011.75
318.753	961.75
318.983	997.75
319.212	950.75
319.441	944.75
319.67	982.75
319.9	980.75
320.129	953.75
320.358	983.75
320.587	973.75
320.816	972.75
321.046	990.75
321.275	973.75
321.504	969.75
321.733	986.75
321.962	984.75
322.191	1002.75
322.42	984.75
322.649	1006.75
322.878	1001.75
323.108	1005.75
323.337	979.75
323.566	1041.75
323.795	999.75
324.024	1009.75
324.253	1007.75
324.482	990.75
324.71	1016.75
324.939	1029.75
325.168	1041.75
325.397	1009.75
325.626	995.75
325.855	1064.75
326.084	1058.75
326.313	1071.75
326.542	1045.75
326.77	1071.75
326.999	1081.75
327.228	1052.75
327.457	1076.75
327.686	1073.75
327.914	1078.75
328.143	1093.75
328.372	1075.75
328.6	1066.75
328.829	1061.75
329.058	1062.75
329.287	1074.75
329.515	1068.75
329.744	1105.75
329.972	1122.75
330.201	1088.75
330.43	1095.75
330.658	1067.75
330.887	1098.75
331.115	1117.75
331.344	1120.75
331.572	1118.75
331.801	1140.75
332.03	1161.75
332.258	1170.75
332.486	1182.75
332.715	1189.75
332.943	1234.75
333.172	1285.75
333.4	1319.75
333.629	1353.75
333.857	1335.75
334.085	1373.75
334.314	1360.75
334.542	1386.75
334.771	1350.75
334.999	1315.75
335.227	1327.75
335.455	1351.75
335.684	1344.75
335.912	1292.75
336.14	1273.75
336.369	1284.75
336.597	1270.75
336.825	1291.75
337.053	1281.75
337.281	1262.75
337.51	1223.75
337.738	1203.75
337.966	1223.75
338.194	1166.75
338.422	1196.75
338.65	1176.75
338.878	1142.75
339.106	1173.75
339.334	1187.75
339.562	1159.75
339.79	1124.75
340.018	1087.75
340.246	1110.75
340.474	1120.75
340.702	1117.75
340.93	1145.75
341.158	1138.75
341.386	1136.75
341.614	1135.75
341.842	1109.75
342.07	1103.75
342.298	1091.75
342.526	1118.75
342.754	1141.75
342.981	1127.75
343.209	1137.75
343.437	1171.75
343.665	1236.75
343.893	1287.75
344.12	1343.75
344.348	1281.75
344.576	1215.75
344.804	1219.75
345.031	1165.75
345.259	1152.75
345.487	1120.75
345.714	1111.75
345.942	1083.75
346.17	1120.75
346.397	1062.75
346.625	1101.75
346.853	1073.75
347.08	1034.75
347.308	1077.75
347.535	1048.75
347.763	1064.75
347.99	1079.75
348.218	1069.75
348.445	1059.75
348.673	1053.75
348.9	1061.75
349.128	1047.75
349.355	1056.75
349.583	1053.75
349.81	1053.75
350.037	1030.75
350.265	1023.75
350.492	1048.75
350.72	1039.75
350.947	1067.75
351.174	1045.75
351.402	1049.75
351.629	1039.75
351.856	1051.75
352.083	1021.75
352.311	1005.75
352.538	1054.75
352.765	1057.75
352.992	999.75
353.22	1018.75
353.447	1021.75
353.674	1010.75
353.901	1025.75
354.128	1010.75
354.355	1009.75
354.583	1030.75
354.81	1018.75
355.037	1035.75
355.264	1031.75
355.491	1015.75
355.718	1039.75
355.945	1020.75
356.172	1047.75
356.399	1063.75
356.626	1049.75
356.853	1075.75
357.08	1046.75
357.307	1064.75
357.534	1036.75
357.761	1035.75
357.988	1045.75
358.215	1025.75
358.441	1027.75
358.668	1036.75
358.895	1045.75
359.122	1024.75
359.349	1015.75
359.576	1039.75
359.802	1033.75
360.029	1031.75
360.256	1033.75
360.483	1061.75
360.709	1020.75
360.936	1045.75
361.163	1030.75
361.39	1057.75
361.616	1011.75
361.843	1056.75
362.07	1046.75
362.296	1075.75
362.523	1039.75
362.749	1047.75
362.976	1041.75
363.203	1041.75
363.429	1047.75
363.656	1059.75
363.882	1040.75
364.109	1049.75
364.335	1037.75
364.562	1040.75
364.788	1031.75
365.015	1033.75
365.241	1062.75
365.468	1012.75
365.694	1039.75
365.92	1047.75
366.147	1055.75
366.373	1070.75
366.599	1038.75
366.826	1034.75
367.052	1045.75
367.278	1039.75
367.505	1034.75
367.731	1047.75
367.957	1020.75
368.184	1046.75
368.41	1039.75
368.636	1057.75
368.862	1053.75
369.089	1073.75
369.315	1075.75
369.541	1075.75
369.767	1103.75
369.993	1096.75
370.219	1086.75
370.445	1084.75
370.672	1115.75
370.898	1080.75
371.124	1090.75
371.35	1116.75
371.576	1099.75
371.802	1100.75
372.028	1109.75
372.254	1135.75
372.48	1133.75
372.706	1164.75
372.932	1178.75
373.158	1151.75
373.384	1139.75
373.61	1114.75
373.835	1135.75
374.061	1136.75
374.287	1157.75
374.513	1181.75
374.739	1224.75
374.965	1212.75
375.191	1246.75
375.416	1244.75
375.642	1180.75
375.868	1180.75
376.094	1187.75
376.319	1158.75
376.545	1129.75
376.771	1127.75
376.997	1137.75
377.222	1126.75
377.448	1125.75
377.674	1121.75
377.899	1130.75
378.125	1099.75
378.35	1113.75
378.576	1093.75
378.802	1111.75
379.027	1112.75
379.253	1096.75
379.478	1082.75
379.704	1100.75
379.929	1150.75
380.155	1110.75
380.38	1111.75
380.606	1099.75
380.831	1078.75
381.057	1119.75
381.282	1107.75
381.507	1113.75
381.733	1137.75
381.958	1110.75
382.184	1143.75
382.409	1135.75
382.634	1137.75
382.86	1159.75
383.085	1166.75
383.31	1185.75
383.535	1187.75
383.761	1165.75
383.986	1205.75
384.211	1232.75
384.436	1251.75
384.662	1288.75
384.887	1314.75
385.112	1320.75
385.337	1329.75
385.562	1327.75
385.787	1306.75
386.013	1330.75
386.238	1332.75
386.463	1307.75
386.688	1341.75
386.913	1339.75
387.138	1362.75
387.363	1310.75
387.588	1347.75
387.813	1326.75
388.038	1330.75
388.263	1299.75
388.488	1351.75
388.713	1341.75
388.938	1342.75
389.163	1298.75
389.387	1289.75
389.612	1321.75
389.837	1330.75
390.062	1318.75
390.287	1278.75
390.512	1327.75
390.736	1323.75
390.961	1356.75
391.186	1367.75
391.411	1380.75
391.636	1414.75
391.86	1464.75
392.085	1488.75
392.31	1442.75
392.534	1462.75
392.759	1401.75
392.984	1413.75
393.208	1408.75
393.433	1417.75
393.658	1437.75
393.882	1350.75
394.107	1407.75
394.331	1427.75
394.556	1413.75
394.78	1431.75
395.005	1423.75
395.229	1466.75
395.454	1486.75
395.678	1471.75
395.903	1495.75
396.127	1482.75
396.352	1413.75
396.576	1432.75
396.801	1425.75
397.025	1442.75
397.249	1496.75
397.474	1469.75
397.698	1498.75
397.922	1569.75
398.147	1500.75
398.371	1553.75
398.595	1619.75
398.82	1633.75
399.044	1726.75
399.268	1832.75
399.492	2078.75
399.717	2278.75
399.941	2317.75
400.165	2168.75
400.389	2014.75
400.613	1839.75
400.837	1761.75
401.062	1718.75
401.286	1678.75
401.51	1671.75
401.734	1659.75
401.958	1672.75
402.182	1673.75
402.406	1719.75
402.63	1706.75
402.854	1687.75
403.078	1683.75
403.302	1725.75
403.526	1766.75
403.75	1777.75
403.974	1780.75
404.198	1807.75
404.422	1830.75
404.645	1778.75
404.869	1769.75
405.093	1792.75
405.317	1765.75
405.541	1818.75
405.765	1814.75
405.988	1817.75
406.212	1850.75
406.436	1807.75
406.66	1881.75
406.883	1855.75
407.107	1958.75
407.331	2026.75
407.555	2101.75
407.778	2061.75
408.002	2014.75
408.226	1988.75
408.449	1978.75
408.673	1903.75
408.896	1876.75
409.12	1835.75
409.344	1850.75
409.567	1808.75
409.791	1858.75
410.014	1833.75
410.238	1750.75
410.461	1794.75
410.685	1801.75
410.908	1796.75
411.132	1795.75
411.355	1751.75
411.578	1723.75
411.802	1742.75
412.025	1746.75
412.249	1774.75
412.472	1741.75
412.695	1722.75
412.919	1737.75
413.142	1664.75
413.365	1647.75
413.589	1685.75
413.812	1657.75
414.035	1576.75
414.258	1635.75
414.482	1636.75
414.705	1715.75
414.928	1645.75
415.151	1651.75
415.374	1647.75
415.597	1631.75
415.821	1653.75
416.044	1608.75
416.267	1585.75
416.49	1598.75
416.713	1572.75
416.936	1610.75
417.159	1577.75
417.382	1567.75
417.605	1571.75
417.828	1574.75
418.051	1606.75
418.274	1649.75
418.497	1591.75
418.72	1626.75
418.943	1637.75
419.166	1732.75
419.389	1840.75
419.611	1808.75
419.834	1730.75
420.057	1651.75
420.28	1625.75
420.503	1586.75
420.726	1581.75
420.948	1587.75
421.171	1597.75
421.394	1605.75
421.617	1631.75
421.839	1576.75
422.062	1600.75
422.285	1581.75
422.507	1607.75
422.73	1613.75
422.953	1617.75
423.175	1610.75
423.398	1622.75
423.621	1639.75
423.843	1615.75
424.066	1641.75
424.288	1639.75
424.511	1650.75
424.733	1589.75
424.956	1642.75
425.178	1588.75
425.401	1560.75
425.623	1602.75
425.846	1557.75
426.068	1568.75
426.291	1541.75
426.513	1558.75
426.735	1554.75
426.958	1516.75
427.18	1489.75
427.402	1483.75
427.625	1493.75
427.847	1506.75
428.069	1487.75
428.292	1481.75
428.514	1482.75
428.736	1457.75
428.958	1491.75
429.181	1439.75
429.403	1462.75
429.625	1433.75
429.847	1414.75
430.069	1420.75
430.292	1444.75
430.514	1419.75
430.736	1458.75
430.958	1422.75
431.18	1485.75
431.402	1423.75
431.624	1440.75
431.846	1465.75
432.068	1471.75
432.29	1525.75
432.512	1480.75
432.734	1522.75
432.956	1486.75
433.178	1491.75
433.4	1484.75
433.622	1489.75
433.844	1519.75
434.066	1543.75
434.287	1532.75
434.509	1563.75
434.731	1622.75
434.953	1630.75
435.175	1631.75
435.397	1629.75
435.618	1533.75
435.84	1536.75
436.062	1520.75
436.284	1482.75
436.505	1445.75
436.727	1471.75
436.949	1502.75
437.17	1466.75
437.392	1443.75
437.614	1431.75
437.835	1390.75
438.057	1406.75
438.278	1386.75
438.5	1379.75
438.721	1421.75
438.943	1439.75
439.165	1380.75
439.386	1397.75
439.608	1433.75
439.829	1433.75
440.05	1446.75
440.272	1449.75
440.493	1430.75
440.715	1448.75
440.936	1479.75
441.158	1515.75
441.379	1531.75
441.6	1570.75
441.822	1598.75
442.043	1588.75
442.264	1536.75
442.486	1504.75
442.707	1581.75
442.928	1530.75
443.149	1545.75
443.371	1535.75
443.592	1550.75
443.813	1547.75
444.034	1596.75
444.255	1626.75
444.476	1665.75
444.698	1765.75
444.919	1793.75
445.14	1922.75
445.361	1740.75
445.582	1659.75
445.803	1514.75
446.024	1527.75
446.245	1471.75
446.466	1470.75
446.687	1406.75
446.908	1452.75
447.129	1408.75
447.35	1429.75
447.571	1381.75
447.792	1334.75
448.013	1350.75
448.234	1326.75
448.455	1346.75
448.675	1328.75
448.896	1296.75
449.117	1273.75
449.338	1309.75
449.559	1310.75
449.779	1279.75
450	1321.75
450.221	1286.75
450.442	1305.75
450.662	1317.75
450.883	1300.75
451.104	1327.75
451.324	1326.75
451.545	1298.75
451.766	1281.75
451.986	1291.75
452.207	1304.75
452.428	1305.75
452.648	1265.75
452.869	1267.75
453.089	1274.75
453.31	1279.75
453.53	1260.75
453.751	1261.75
453.971	1242.75
454.192	1246.75
454.412	1229.75
454.633	1238.75
454.853	1220.75
455.073	1216.75
455.294	1207.75
455.514	1203.75
455.734	1243.75
455.955	1236.75
456.175	1236.75
456.395	1194.75
456.616	1199.75
456.836	1219.75
457.056	1206.75
457.276	1237.75
457.497	1223.75
457.717	1229.75
457.937	1217.75
458.157	1248.75
458.377	1266.75
458.598	1309.75
458.818	1331.75
459.038	1352.75
459.258	1379.75
459.478	1440.75
459.698	1488.75
459.918	1501.75
460.138	1544.75
460.358	1603.75
460.578	1599.75
460.798	1645.75
461.018	1647.75
461.238	1633.75
461.458	1629.75
461.678	1603.75
461.898	1669.75
462.118	1638.75
462.338	1736.75
462.558	1763.75
462.777	1851.75
462.997	1988.75
463.217	2080.75
463.437	2100.75
463.657	1941.75
463.876	1885.75
464.096	1901.75
464.316	1923.75
464.536	1913.75
464.755	1827.75
464.975	1774.75
465.195	1719.75
465.414	1575.75
465.634	1536.75
465.854	1492.75
466.073	1443.75
466.293	1429.75
466.512	1393.75
466.732	1385.75
466.951	1341.75
467.171	1391.75
467.391	1342.75
467.61	1364.75
467.829	1395.75
468.049	1355.75
468.268	1321.75
468.488	1339.75
468.707	1318.75
468.927	1304.75
469.146	1326.75
469.365	1312.75
469.585	1349.75
469.804	1358.75
470.023	1373.75
470.243	1408.75
470.462	1434.75
470.681	1401.75
470.901	1378.75
471.12	1403.75
471.339	1397.75
471.558	1353.75
471.777	1346.75
471.997	1358.75
472.216	1318.75
472.435	1291.75
472.654	1262.75
472.873	1323.75
473.092	1339.75
473.311	1314.75
473.53	1302.75
473.749	1317.75
473.968	1330.75
474.187	1305.75
474.406	1287.75
474.625	1310.75
474.844	1313.75
475.063	1321.75
475.282	1323.75
475.501	1352.75
475.72	1332.75
475.939	1362.75
476.158	1357.75
476.377	1342.75
476.596	1352.75
476.814	1383.75
477.033	1400.75
477.252	1420.75
477.471	1428.75
477.69	1456.75
477.908	1478.75
478.127	1544.75
478.346	1553.75
478.564	1546.75
478.783	1581.75
479.002	1630.75
479.22	1632.75
479.439	1654.75
479.658	1648.75
479.876	1670.75
480.095	1659.75
480.313	1704.75
480.532	1729.75
480.751	1719.75
480.969	1692.75
481.188	1645.75
481.406	1607.75
481.624	1611.75
481.843	1621.75
482.061	1562.75
482.28	1574.75
482.498	1569.75
482.717	1594.75
482.935	1559.75
483.153	1602.75
483.372	1605.75
483.59	1597.75
483.808	1625.75
484.027	1635.75
484.245	1661.75
484.463	1674.75
484.681	1668.75
484.9	1669.75
485.118	1693.75
485.336	1668.75
485.554	1718.75
485.772	1762.75
485.99	1713.75
486.209	1731.75
486.427	1712.75
486.645	1690.75
486.863	1733.75
487.081	1724.75
487.299	1706.75
487.517	1706.75
487.735	1680.75
487.953	1729.75
488.171	1687.75
488.389	1710.75
488.607	1686.75
488.825	1642.75
489.043	1615.75
489.261	1631.75
489.479	1629.75
489.696	1644.75
489.914	1665.75
490.132	1638.75
490.35	1668.75
490.568	1641.75
490.786	1636.75
491.003	1630.75
491.221	1639.75
