Data from NiCl2@0.5M.TitratingCurve.Agarose3%dH2O.NegLispCup.LampEnergy10.LIBS07252019_HRD10591_18-20-43-597.txt Node
Date: Thu Jul 25 18:20:43 EDT 2019
User: cochatt
Spectrometer: HR+D1059
Trigger mode: 1
Integration Time (sec): 1.000000E-1
Scans to average: 1
Electric dark correction enabled: true
Nonlinearity correction enabled: false
Boxcar width: 0
XAxis mode: Wavelengths
Number of Pixels in Spectrum: 2048
>>>>>Begin Spectral Data<<<<<
223.165	-29.12
223.4	-29.12
223.635	-29.12
223.869	-12.12
224.104	-29.12
224.338	-13.12
224.573	-13.12
224.808	-17.12
225.042	-12.12
225.277	3.88
225.511	-6.12
225.746	-0.12
225.98	4.88
226.215	20.88
226.449	22.88
226.683	30.88
226.918	22.88
227.152	25.88
227.387	36.88
227.621	40.88
227.856	30.88
228.09	37.88
228.324	45.88
228.559	62.88
228.793	61.88
229.027	93.88
229.262	90.88
229.496	92.88
229.73	100.88
229.964	104.88
230.199	113.88
230.433	109.88
230.667	97.88
230.901	142.88
231.136	112.88
231.37	120.88
231.604	123.88
231.838	134.88
232.072	112.88
232.306	131.88
232.541	123.88
232.775	138.88
233.009	124.88
233.243	128.88
233.477	123.88
233.711	108.88
233.945	124.88
234.179	116.88
234.413	127.88
234.647	137.88
234.881	119.88
235.115	139.88
235.349	136.88
235.583	127.88
235.817	121.88
236.051	125.88
236.285	116.88
236.519	120.88
236.753	118.88
236.987	128.88
237.221	125.88
237.455	148.88
237.689	128.88
237.922	136.88
238.156	120.88
238.39	121.88
238.624	136.88
238.858	131.88
239.091	129.88
239.325	126.88
239.559	157.88
239.793	130.88
240.027	134.88
240.26	135.88
240.494	139.88
240.728	127.88
240.961	159.88
241.195	131.88
241.429	151.88
241.662	146.88
241.896	153.88
242.13	149.88
242.363	159.88
242.597	154.88
242.83	155.88
243.064	151.88
243.298	150.88
243.531	161.88
243.765	167.88
243.998	150.88
244.232	160.88
244.465	146.88
244.699	171.88
244.932	159.88
245.166	171.88
245.399	156.88
245.633	167.88
245.866	167.88
246.099	184.88
246.333	182.88
246.566	165.88
246.8	166.88
247.033	171.88
247.266	175.88
247.5	161.88
247.733	173.88
247.966	175.88
248.2	167.88
248.433	184.88
248.666	194.88
248.899	182.88
249.133	177.88
249.366	178.88
249.599	191.88
249.832	186.88
250.066	183.88
250.299	197.88
250.532	197.88
250.765	175.88
250.998	202.88
251.231	197.88
251.465	203.88
251.698	205.88
251.931	199.88
252.164	199.88
252.397	219.88
252.63	196.88
252.863	209.88
253.096	202.88
253.329	185.88
253.562	216.88
253.795	214.88
254.028	212.88
254.261	208.88
254.494	191.88
254.727	210.88
254.96	216.88
255.193	218.88
255.426	212.88
255.659	198.88
255.892	220.88
256.124	213.88
256.357	220.88
256.59	222.88
256.823	219.88
257.056	225.88
257.289	209.88
257.521	214.88
257.754	236.88
257.987	218.88
258.22	212.88
258.452	219.88
258.685	234.88
258.918	211.88
259.151	224.88
259.383	238.88
259.616	216.88
259.849	241.88
260.081	242.88
260.314	225.88
260.547	244.88
260.779	231.88
261.012	222.88
261.244	226.88
261.477	229.88
261.71	246.88
261.942	240.88
262.175	231.88
262.407	245.88
262.64	240.88
262.872	238.88
263.105	257.88
263.337	260.88
263.57	268.88
263.802	239.88
264.035	236.88
264.267	256.88
264.499	247.88
264.732	246.88
264.964	250.88
265.197	248.88
265.429	265.88
265.661	264.88
265.894	255.88
266.126	246.88
266.358	256.88
266.591	266.88
266.823	273.88
267.055	263.88
267.287	254.88
267.52	273.88
267.752	254.88
267.984	268.88
268.216	272.88
268.448	258.88
268.681	263.88
268.913	265.88
269.145	259.88
269.377	272.88
269.609	260.88
269.841	265.88
270.073	281.88
270.306	289.88
270.538	286.88
270.77	263.88
271.002	282.88
271.234	296.88
271.466	288.88
271.698	271.88
271.93	290.88
272.162	283.88
272.394	301.88
272.626	300.88
272.858	288.88
273.09	283.88
273.322	280.88
273.553	302.88
273.785	287.88
274.017	290.88
274.249	302.88
274.481	297.88
274.713	293.88
274.945	307.88
275.176	295.88
275.408	310.88
275.64	313.88
275.872	304.88
276.104	304.88
276.335	308.88
276.567	312.88
276.799	284.88
277.031	291.88
277.262	309.88
277.494	314.88
277.726	323.88
277.957	316.88
278.189	315.88
278.421	316.88
278.652	323.88
278.884	327.88
279.115	300.88
279.347	331.88
279.579	326.88
279.81	316.88
280.042	331.88
280.273	322.88
280.505	318.88
280.736	333.88
280.968	344.88
281.199	322.88
281.431	309.88
281.662	335.88
281.894	343.88
282.125	348.88
282.356	367.88
282.588	330.88
282.819	360.88
283.051	349.88
283.282	338.88
283.513	323.88
283.745	346.88
283.976	340.88
284.207	351.88
284.439	355.88
284.67	355.88
284.901	346.88
285.132	355.88
285.364	366.88
285.595	340.88
285.826	350.88
286.057	351.88
286.288	361.88
286.52	371.88
286.751	358.88
286.982	354.88
287.213	384.88
287.444	378.88
287.675	384.88
287.906	356.88
288.138	366.88
288.369	373.88
288.6	367.88
288.831	371.88
289.062	375.88
289.293	372.88
289.524	376.88
289.755	385.88
289.986	390.88
290.217	397.88
290.448	401.88
290.679	369.88
290.91	387.88
291.141	395.88
291.371	380.88
291.602	372.88
291.833	370.88
292.064	398.88
292.295	384.88
292.526	367.88
292.757	388.88
292.987	379.88
293.218	375.88
293.449	375.88
293.68	393.88
293.91	407.88
294.141	386.88
294.372	401.88
294.603	412.88
294.833	372.88
295.064	390.88
295.295	391.88
295.525	400.88
295.756	406.88
295.987	394.88
296.217	412.88
296.448	404.88
296.679	426.88
296.909	396.88
297.14	403.88
297.37	414.88
297.601	429.88
297.831	409.88
298.062	426.88
298.292	416.88
298.523	416.88
298.753	411.88
298.984	403.88
299.214	431.88
299.445	427.88
299.675	408.88
299.905	403.88
300.136	441.88
300.366	428.88
300.597	427.88
300.827	448.88
301.057	440.88
301.288	441.88
301.518	453.88
301.748	469.88
301.979	433.88
302.209	439.88
302.439	443.88
302.669	441.88
302.9	431.88
303.13	438.88
303.36	432.88
303.59	423.88
303.82	447.88
304.051	437.88
304.281	465.88
304.511	448.88
304.741	453.88
304.971	439.88
305.201	454.88
305.431	460.88
305.661	455.88
305.891	416.88
306.121	438.88
306.352	438.88
306.582	435.88
306.812	448.88
307.042	428.88
307.272	448.88
307.502	437.88
307.731	445.88
307.961	434.88
308.191	436.88
308.421	414.88
308.651	433.88
308.881	428.88
309.111	440.88
309.341	434.88
309.571	431.88
309.8	441.88
310.03	432.88
310.26	442.88
310.49	451.88
310.72	438.88
310.949	440.88
311.179	456.88
311.409	454.88
311.639	435.88
311.868	434.88
312.098	436.88
312.328	443.88
312.557	465.88
312.787	465.88
313.017	454.88
313.246	461.88
313.476	486.88
313.706	457.88
313.935	465.88
314.165	444.88
314.394	467.88
314.624	451.88
314.853	445.88
315.083	475.88
315.312	464.88
315.542	449.88
315.771	469.88
316.001	473.88
316.23	473.88
316.46	470.88
316.689	466.88
316.919	440.88
317.148	462.88
317.377	453.88
317.607	470.88
317.836	459.88
318.065	459.88
318.295	466.88
318.524	459.88
318.753	459.88
318.983	483.88
319.212	449.88
319.441	453.88
319.67	464.88
319.9	465.88
320.129	474.88
320.358	455.88
320.587	482.88
320.816	484.88
321.046	472.88
321.275	497.88
321.504	465.88
321.733	466.88
321.962	479.88
322.191	471.88
322.42	469.88
322.649	486.88
322.878	474.88
323.108	472.88
323.337	466.88
323.566	470.88
323.795	471.88
324.024	490.88
324.253	495.88
324.482	481.88
324.71	474.88
324.939	464.88
325.168	487.88
325.397	480.88
325.626	496.88
325.855	504.88
326.084	511.88
326.313	512.88
326.542	519.88
326.77	533.88
326.999	512.88
327.228	504.88
327.457	514.88
327.686	485.88
327.914	505.88
328.143	528.88
328.372	497.88
328.6	484.88
328.829	506.88
329.058	508.88
329.287	503.88
329.515	514.88
329.744	526.88
329.972	536.88
330.201	512.88
330.43	522.88
330.658	525.88
330.887	515.88
331.115	530.88
331.344	550.88
331.572	533.88
331.801	553.88
332.03	547.88
332.258	569.88
332.486	553.88
332.715	600.88
332.943	612.88
333.172	627.88
333.4	650.88
333.629	662.88
333.857	673.88
334.085	648.88
334.314	652.88
334.542	635.88
334.771	641.88
334.999	633.88
335.227	620.88
335.455	629.88
335.684	633.88
335.912	615.88
336.14	615.88
336.369	601.88
336.597	603.88
336.825	605.88
337.053	618.88
337.281	600.88
337.51	583.88
337.738	570.88
337.966	583.88
338.194	568.88
338.422	574.88
338.65	555.88
338.878	562.88
339.106	573.88
339.334	570.88
339.562	548.88
339.79	536.88
340.018	533.88
340.246	532.88
340.474	522.88
340.702	547.88
340.93	518.88
341.158	533.88
341.386	542.88
341.614	544.88
341.842	538.88
342.07	520.88
342.298	531.88
342.526	524.88
342.754	542.88
342.981	553.88
343.209	546.88
343.437	572.88
343.665	598.88
343.893	622.88
344.12	641.88
344.348	617.88
344.576	602.88
344.804	589.88
345.031	549.88
345.259	540.88
345.487	536.88
345.714	524.88
345.942	529.88
346.17	558.88
346.397	517.88
346.625	514.88
346.853	518.88
347.08	520.88
347.308	533.88
347.535	542.88
347.763	532.88
347.99	521.88
348.218	526.88
348.445	512.88
348.673	514.88
348.9	515.88
349.128	493.88
349.355	495.88
349.583	518.88
349.81	512.88
350.037	481.88
350.265	498.88
350.492	512.88
350.72	483.88
350.947	460.88
351.174	492.88
351.402	521.88
351.629	498.88
351.856	515.88
352.083	511.88
352.311	502.88
352.538	472.88
352.765	507.88
352.992	492.88
353.22	500.88
353.447	480.88
353.674	476.88
353.901	471.88
354.128	491.88
354.355	482.88
354.583	494.88
354.81	506.88
355.037	487.88
355.264	470.88
355.491	494.88
355.718	482.88
355.945	506.88
356.172	521.88
356.399	473.88
356.626	483.88
356.853	526.88
357.08	508.88
357.307	486.88
357.534	487.88
357.761	494.88
357.988	509.88
358.215	485.88
358.441	474.88
358.668	490.88
358.895	506.88
359.122	472.88
359.349	494.88
359.576	495.88
359.802	481.88
360.029	512.88
360.256	488.88
360.483	489.88
360.709	484.88
360.936	485.88
361.163	499.88
361.39	503.88
361.616	504.88
361.843	490.88
362.07	501.88
362.296	491.88
362.523	487.88
362.749	480.88
362.976	496.88
363.203	487.88
363.429	498.88
363.656	469.88
363.882	491.88
364.109	482.88
364.335	487.88
364.562	484.88
364.788	473.88
365.015	490.88
365.241	471.88
365.468	472.88
365.694	497.88
365.92	489.88
366.147	490.88
366.373	499.88
366.599	454.88
366.826	474.88
367.052	491.88
367.278	479.88
367.505	490.88
367.731	476.88
367.957	490.88
368.184	470.88
368.41	506.88
368.636	502.88
368.862	507.88
369.089	480.88
369.315	492.88
369.541	516.88
369.767	531.88
369.993	501.88
370.219	500.88
370.445	508.88
370.672	515.88
370.898	511.88
371.124	487.88
371.35	518.88
371.576	514.88
371.802	513.88
372.028	504.88
372.254	521.88
372.48	531.88
372.706	540.88
372.932	564.88
373.158	541.88
373.384	527.88
373.61	514.88
373.835	515.88
374.061	523.88
374.287	513.88
374.513	535.88
374.739	565.88
374.965	581.88
375.191	571.88
375.416	569.88
375.642	546.88
375.868	571.88
376.094	529.88
376.319	513.88
376.545	525.88
376.771	549.88
376.997	534.88
377.222	530.88
377.448	528.88
377.674	531.88
377.899	519.88
378.125	527.88
378.35	491.88
378.576	508.88
378.802	526.88
379.027	511.88
379.253	512.88
379.478	534.88
379.704	520.88
379.929	507.88
380.155	491.88
380.38	517.88
380.606	529.88
380.831	528.88
381.057	512.88
381.282	525.88
381.507	503.88
381.733	515.88
381.958	526.88
382.184	537.88
382.409	548.88
382.634	555.88
382.86	538.88
383.085	529.88
383.31	528.88
383.535	570.88
383.761	571.88
383.986	595.88
384.211	600.88
384.436	571.88
384.662	579.88
384.887	611.88
385.112	623.88
385.337	606.88
385.562	595.88
385.787	622.88
386.013	626.88
386.238	645.88
386.463	607.88
386.688	625.88
386.913	614.88
387.138	586.88
387.363	596.88
387.588	615.88
387.813	628.88
388.038	603.88
388.263	620.88
388.488	595.88
388.713	593.88
388.938	593.88
389.163	599.88
389.387	599.88
389.612	602.88
389.837	610.88
390.062	594.88
390.287	595.88
390.512	594.88
390.736	624.88
390.961	631.88
391.186	610.88
391.411	642.88
391.636	668.88
391.86	683.88
392.085	679.88
392.31	687.88
392.534	658.88
392.759	642.88
392.984	633.88
393.208	646.88
393.433	624.88
393.658	633.88
393.882	633.88
394.107	653.88
394.331	655.88
394.556	636.88
394.78	641.88
395.005	650.88
395.229	662.88
395.454	673.88
395.678	714.88
395.903	704.88
396.127	688.88
396.352	639.88
396.576	652.88
396.801	641.88
397.025	671.88
397.249	660.88
397.474	699.88
397.698	669.88
397.922	668.88
398.147	683.88
398.371	712.88
398.595	721.88
398.82	773.88
399.044	815.88
399.268	885.88
399.492	1035.88
399.717	1096.88
399.941	1095.88
400.165	978.88
400.389	906.88
400.613	841.88
400.837	804.88
401.062	770.88
401.286	781.88
401.51	774.88
401.734	733.88
401.958	776.88
402.182	800.88
402.406	782.88
402.63	817.88
402.854	794.88
403.078	840.88
403.302	833.88
403.526	828.88
403.75	863.88
403.974	890.88
404.198	865.88
404.422	871.88
404.645	876.88
404.869	856.88
405.093	858.88
405.317	841.88
405.541	843.88
405.765	852.88
405.988	850.88
406.212	855.88
406.436	838.88
406.66	886.88
406.883	875.88
407.107	902.88
407.331	940.88
407.555	992.88
407.778	994.88
408.002	948.88
408.226	921.88
408.449	912.88
408.673	866.88
408.896	859.88
409.12	888.88
409.344	886.88
409.567	873.88
409.791	883.88
410.014	864.88
410.238	876.88
410.461	854.88
410.685	862.88
410.908	852.88
411.132	837.88
411.355	790.88
411.578	826.88
411.802	790.88
412.025	818.88
412.249	800.88
412.472	796.88
412.695	783.88
412.919	774.88
413.142	805.88
413.365	774.88
413.589	785.88
413.812	788.88
414.035	780.88
414.258	783.88
414.482	778.88
414.705	794.88
414.928	768.88
415.151	792.88
415.374	768.88
415.597	784.88
415.821	759.88
416.044	725.88
416.267	763.88
416.49	761.88
416.713	733.88
416.936	742.88
417.159	761.88
417.382	769.88
417.605	773.88
417.828	777.88
418.051	771.88
418.274	753.88
418.497	767.88
418.72	779.88
418.943	781.88
419.166	843.88
419.389	897.88
419.611	875.88
419.834	822.88
420.057	791.88
420.28	778.88
420.503	774.88
420.726	763.88
420.948	770.88
421.171	759.88
421.394	783.88
421.617	785.88
421.839	766.88
422.062	772.88
422.285	753.88
422.507	782.88
422.73	786.88
422.953	789.88
423.175	811.88
423.398	805.88
423.621	803.88
423.843	785.88
424.066	825.88
424.288	816.88
424.511	798.88
424.733	796.88
424.956	785.88
425.178	781.88
425.401	773.88
425.623	782.88
425.846	753.88
426.068	758.88
426.291	762.88
426.513	744.88
426.735	739.88
426.958	742.88
427.18	692.88
427.402	719.88
427.625	722.88
427.847	714.88
428.069	721.88
428.292	683.88
428.514	680.88
428.736	716.88
428.958	697.88
429.181	713.88
429.403	695.88
429.625	700.88
429.847	718.88
430.069	694.88
430.292	674.88
430.514	654.88
430.736	689.88
430.958	707.88
431.18	649.88
431.402	703.88
431.624	718.88
431.846	686.88
432.068	677.88
432.29	728.88
432.512	711.88
432.734	725.88
432.956	714.88
433.178	697.88
433.4	711.88
433.622	714.88
433.844	700.88
434.066	705.88
434.287	688.88
434.509	753.88
434.731	774.88
434.953	768.88
435.175	799.88
435.397	774.88
435.618	765.88
435.84	730.88
436.062	734.88
436.284	698.88
436.505	692.88
436.727	715.88
436.949	739.88
437.17	710.88
437.392	713.88
437.614	675.88
437.835	675.88
438.057	690.88
438.278	664.88
438.5	660.88
438.721	711.88
438.943	701.88
439.165	682.88
439.386	692.88
439.608	699.88
439.829	684.88
440.05	695.88
440.272	724.88
440.493	699.88
440.715	728.88
440.936	736.88
441.158	766.88
441.379	764.88
441.6	804.88
441.822	802.88
442.043	787.88
442.264	785.88
442.486	773.88
442.707	789.88
442.928	785.88
443.149	787.88
443.371	783.88
443.592	778.88
443.813	799.88
444.034	803.88
444.255	832.88
444.476	851.88
444.698	886.88
444.919	904.88
445.14	977.88
445.361	902.88
445.582	832.88
445.803	802.88
446.024	757.88
446.245	776.88
446.466	747.88
446.687	739.88
446.908	772.88
447.129	717.88
447.35	698.88
447.571	696.88
447.792	683.88
448.013	699.88
448.234	682.88
448.455	655.88
448.675	675.88
448.896	655.88
449.117	649.88
449.338	663.88
449.559	649.88
449.779	670.88
450	667.88
450.221	659.88
450.442	678.88
450.662	650.88
450.883	678.88
451.104	667.88
451.324	658.88
451.545	673.88
451.766	687.88
451.986	673.88
452.207	673.88
452.428	639.88
452.648	639.88
452.869	659.88
453.089	615.88
453.31	647.88
453.53	630.88
453.751	629.88
453.971	657.88
454.192	639.88
454.412	628.88
454.633	615.88
454.853	636.88
455.073	626.88
455.294	623.88
455.514	602.88
455.734	642.88
455.955	635.88
456.175	626.88
456.395	624.88
456.616	633.88
456.836	638.88
457.056	631.88
457.276	629.88
457.497	641.88
457.717	612.88
457.937	645.88
458.157	635.88
458.377	635.88
458.598	635.88
458.818	658.88
459.038	683.88
459.258	689.88
459.478	722.88
459.698	749.88
459.918	774.88
460.138	788.88
460.358	815.88
460.578	820.88
460.798	872.88
461.018	859.88
461.238	849.88
461.458	834.88
461.678	820.88
461.898	862.88
462.118	870.88
462.338	907.88
462.558	944.88
462.777	964.88
462.997	1025.88
463.217	1075.88
463.437	1073.88
463.657	1022.88
463.876	964.88
464.096	950.88
464.316	992.88
464.536	1006.88
464.755	946.88
464.975	897.88
465.195	866.88
465.414	837.88
465.634	791.88
465.854	756.88
466.073	738.88
466.293	724.88
466.512	705.88
466.732	706.88
466.951	717.88
467.171	684.88
467.391	709.88
467.61	714.88
467.829	712.88
468.049	701.88
468.268	687.88
468.488	653.88
468.707	674.88
468.927	695.88
469.146	668.88
469.365	669.88
469.585	708.88
469.804	694.88
470.023	723.88
470.243	715.88
470.462	728.88
470.681	710.88
470.901	716.88
471.12	706.88
471.339	709.88
471.558	694.88
471.777	684.88
471.997	673.88
472.216	675.88
472.435	681.88
472.654	647.88
472.873	647.88
473.092	657.88
473.311	656.88
473.53	682.88
473.749	674.88
473.968	650.88
474.187	677.88
474.406	670.88
474.625	653.88
474.844	667.88
475.063	669.88
475.282	659.88
475.501	656.88
475.72	667.88
475.939	659.88
476.158	670.88
476.377	690.88
476.596	663.88
476.814	690.88
477.033	676.88
477.252	715.88
477.471	698.88
477.69	744.88
477.908	752.88
478.127	792.88
478.346	786.88
478.564	810.88
478.783	788.88
479.002	803.88
479.22	835.88
479.439	820.88
479.658	787.88
479.876	822.88
480.095	800.88
480.313	810.88
480.532	859.88
480.751	843.88
480.969	843.88
481.188	791.88
481.406	774.88
481.624	779.88
481.843	743.88
482.061	751.88
482.28	731.88
482.498	754.88
482.717	719.88
482.935	732.88
483.153	768.88
483.372	776.88
483.59	763.88
483.808	735.88
484.027	751.88
484.245	720.88
484.463	739.88
484.681	780.88
484.9	780.88
485.118	767.88
485.336	799.88
485.554	781.88
485.772	789.88
485.99	797.88
486.209	791.88
486.427	789.88
486.645	799.88
486.863	801.88
487.081	790.88
487.299	785.88
487.517	788.88
487.735	794.88
487.953	785.88
488.171	811.88
488.389	805.88
488.607	775.88
488.825	787.88
489.043	783.88
489.261	768.88
489.479	783.88
489.696	788.88
489.914	785.88
490.132	798.88
490.35	801.88
490.568	785.88
490.786	789.88
491.003	803.88
491.221	816.88
491.439	827.88
491.657	792.88
491.874	829.88
492.092	833.88
492.31	850.88
492.527	830.88
492.745	841.88
492.963	814.88
493.18	798.88
493.398	826.88
493.615	816.88
493.833	836.88
494.05	826.88
494.268	832.88
494.485	863.88
494.703	828.88
494.92	860.88
495.138	848.88
495.355	862.88
495.573	854.88
495.79	858.88
496.008	863.88
496.225	843.88
496.442	899.88
496.66	882.88
496.877	893.88
497.094	930.88
497.312	917.88
497.529	919.88
497.746	964.88
497.963	982.88
498.181	1008.88
498.398	1064.88
498.615	1150.88
498.832	1203.88
499.049	1279.88
499.267	1358.88
499.484	1511.88
499.701	1641.88
499.918	1801.88
500.135	2052.88
500.352	2280.88
500.569	2354.88
500.786	2293.88
501.003	2200.88
501.22	1976.88
501.437	1738.88
