Data from NiCl2@0.25M.TitratingCurve.Agarose3%dH2O.NegLispCup.LampEnergy10.LIBS07252019_HRD10591_18-26-04-574.txt Node
Date: Thu Jul 25 18:26:04 EDT 2019
User: cochatt
Spectrometer: HR+D1059
Trigger mode: 1
Integration Time (sec): 1.000000E-1
Scans to average: 1
Electric dark correction enabled: true
Nonlinearity correction enabled: false
Boxcar width: 0
XAxis mode: Wavelengths
Number of Pixels in Spectrum: 2048
>>>>>Begin Spectral Data<<<<<
223.165	-3.25
223.4	-3.25
223.635	-3.25
223.869	-17.25
224.104	-29.25
224.338	-13.25
224.573	-9.25
224.808	-9.25
225.042	-2.25
225.277	-21.25
225.511	-8.25
225.746	-8.25
225.98	-13.25
226.215	13.75
226.449	19.75
226.683	20.75
226.918	35.75
227.152	44.75
227.387	36.75
227.621	37.75
227.856	50.75
228.09	67.75
228.324	41.75
228.559	54.75
228.793	70.75
229.027	133.75
229.262	130.75
229.496	150.75
229.73	154.75
229.964	153.75
230.199	154.75
230.433	151.75
230.667	157.75
230.901	181.75
231.136	164.75
231.37	179.75
231.604	189.75
231.838	178.75
232.072	184.75
232.306	175.75
232.541	199.75
232.775	179.75
233.009	186.75
233.243	187.75
233.477	193.75
233.711	200.75
233.945	178.75
234.179	188.75
234.413	196.75
234.647	213.75
234.881	212.75
235.115	186.75
235.349	201.75
235.583	205.75
235.817	194.75
236.051	200.75
236.285	197.75
236.519	203.75
236.753	188.75
236.987	199.75
237.221	188.75
237.455	204.75
237.689	188.75
237.922	196.75
238.156	209.75
238.39	204.75
238.624	227.75
238.858	236.75
239.091	220.75
239.325	229.75
239.559	228.75
239.793	251.75
240.027	215.75
240.26	222.75
240.494	231.75
240.728	242.75
240.961	255.75
241.195	241.75
241.429	238.75
241.662	262.75
241.896	266.75
242.13	247.75
242.363	276.75
242.597	254.75
242.83	278.75
243.064	272.75
243.298	259.75
243.531	278.75
243.765	294.75
243.998	287.75
244.232	293.75
244.465	303.75
244.699	277.75
244.932	279.75
245.166	296.75
245.399	289.75
245.633	295.75
245.866	294.75
246.099	293.75
246.333	329.75
246.566	289.75
246.8	313.75
247.033	306.75
247.266	314.75
247.5	332.75
247.733	311.75
247.966	317.75
248.2	317.75
248.433	319.75
248.666	305.75
248.899	330.75
249.133	318.75
249.366	334.75
249.599	334.75
249.832	347.75
250.066	356.75
250.299	353.75
250.532	345.75
250.765	341.75
250.998	337.75
251.231	355.75
251.465	338.75
251.698	357.75
251.931	345.75
252.164	361.75
252.397	346.75
252.63	357.75
252.863	374.75
253.096	385.75
253.329	378.75
253.562	373.75
253.795	381.75
254.028	370.75
254.261	382.75
254.494	378.75
254.727	370.75
254.96	389.75
255.193	382.75
255.426	387.75
255.659	404.75
255.892	404.75
256.124	403.75
256.357	420.75
256.59	400.75
256.823	418.75
257.056	407.75
257.289	419.75
257.521	402.75
257.754	399.75
257.987	439.75
258.22	410.75
258.452	412.75
258.685	437.75
258.918	406.75
259.151	413.75
259.383	425.75
259.616	440.75
259.849	423.75
260.081	430.75
260.314	442.75
260.547	438.75
260.779	447.75
261.012	454.75
261.244	446.75
261.477	457.75
261.71	448.75
261.942	477.75
262.175	446.75
262.407	453.75
262.64	476.75
262.872	472.75
263.105	469.75
263.337	460.75
263.57	474.75
263.802	467.75
264.035	476.75
264.267	478.75
264.499	457.75
264.732	467.75
264.964	496.75
265.197	483.75
265.429	486.75
265.661	490.75
265.894	491.75
266.126	510.75
266.358	500.75
266.591	481.75
266.823	511.75
267.055	494.75
267.287	502.75
267.52	495.75
267.752	509.75
267.984	527.75
268.216	509.75
268.448	517.75
268.681	517.75
268.913	532.75
269.145	513.75
269.377	485.75
269.609	531.75
269.841	525.75
270.073	507.75
270.306	534.75
270.538	542.75
270.77	513.75
271.002	528.75
271.234	536.75
271.466	563.75
271.698	546.75
271.93	560.75
272.162	550.75
272.394	549.75
272.626	555.75
272.858	560.75
273.09	549.75
273.322	595.75
273.553	561.75
273.785	573.75
274.017	566.75
274.249	604.75
274.481	590.75
274.713	576.75
274.945	574.75
275.176	586.75
275.408	610.75
275.64	597.75
275.872	609.75
276.104	620.75
276.335	591.75
276.567	580.75
276.799	609.75
277.031	628.75
277.262	625.75
277.494	617.75
277.726	619.75
277.957	620.75
278.189	606.75
278.421	642.75
278.652	633.75
278.884	619.75
279.115	614.75
279.347	633.75
279.579	613.75
279.81	620.75
280.042	641.75
280.273	649.75
280.505	638.75
280.736	661.75
280.968	639.75
281.199	646.75
281.431	682.75
281.662	697.75
281.894	667.75
282.125	669.75
282.356	681.75
282.588	675.75
282.819	682.75
283.051	673.75
283.282	670.75
283.513	703.75
283.745	703.75
283.976	699.75
284.207	680.75
284.439	689.75
284.67	680.75
284.901	703.75
285.132	675.75
285.364	711.75
285.595	702.75
285.826	698.75
286.057	716.75
286.288	705.75
286.52	705.75
286.751	719.75
286.982	737.75
287.213	730.75
287.444	738.75
287.675	741.75
287.906	714.75
288.138	722.75
288.369	730.75
288.6	724.75
288.831	720.75
289.062	765.75
289.293	753.75
289.524	750.75
289.755	759.75
289.986	745.75
290.217	731.75
290.448	735.75
290.679	750.75
290.91	747.75
291.141	742.75
291.371	765.75
291.602	744.75
291.833	726.75
292.064	747.75
292.295	738.75
292.526	728.75
292.757	750.75
292.987	777.75
293.218	759.75
293.449	781.75
293.68	752.75
293.91	755.75
294.141	741.75
294.372	763.75
294.603	742.75
294.833	776.75
295.064	769.75
295.295	751.75
295.525	777.75
295.756	789.75
295.987	779.75
296.217	799.75
296.448	787.75
296.679	794.75
296.909	778.75
297.14	790.75
297.37	787.75
297.601	823.75
297.831	791.75
298.062	793.75
298.292	828.75
298.523	844.75
298.753	841.75
298.984	829.75
299.214	826.75
299.445	813.75
299.675	818.75
299.905	825.75
300.136	821.75
300.366	832.75
300.597	846.75
300.827	868.75
301.057	855.75
301.288	861.75
301.518	900.75
301.748	881.75
301.979	893.75
302.209	874.75
302.439	841.75
302.669	862.75
302.9	852.75
303.13	832.75
303.36	864.75
303.59	874.75
303.82	898.75
304.051	879.75
304.281	856.75
304.511	863.75
304.741	854.75
304.971	867.75
305.201	828.75
305.431	871.75
305.661	852.75
305.891	836.75
306.121	856.75
306.352	860.75
306.582	835.75
306.812	805.75
307.042	849.75
307.272	823.75
307.502	823.75
307.731	853.75
307.961	813.75
308.191	805.75
308.421	797.75
308.651	823.75
308.881	842.75
309.111	844.75
309.341	842.75
309.571	862.75
309.8	857.75
310.03	849.75
310.26	811.75
310.49	830.75
310.72	846.75
310.949	851.75
311.179	836.75
311.409	833.75
311.639	873.75
311.868	862.75
312.098	850.75
312.328	862.75
312.557	930.75
312.787	864.75
313.017	861.75
313.246	878.75
313.476	873.75
313.706	919.75
313.935	869.75
314.165	901.75
314.394	921.75
314.624	904.75
314.853	895.75
315.083	893.75
315.312	885.75
315.542	872.75
315.771	907.75
316.001	908.75
316.23	901.75
316.46	870.75
316.689	889.75
316.919	865.75
317.148	892.75
317.377	913.75
317.607	898.75
317.836	891.75
318.065	863.75
318.295	872.75
318.524	866.75
318.753	890.75
318.983	904.75
319.212	879.75
319.441	895.75
319.67	885.75
319.9	895.75
320.129	869.75
320.358	856.75
320.587	881.75
320.816	880.75
321.046	869.75
321.275	919.75
321.504	891.75
321.733	892.75
321.962	903.75
322.191	897.75
322.42	875.75
322.649	934.75
322.878	890.75
323.108	875.75
323.337	909.75
323.566	919.75
323.795	897.75
324.024	932.75
324.253	904.75
324.482	926.75
324.71	947.75
324.939	897.75
325.168	931.75
325.397	936.75
325.626	942.75
325.855	956.75
326.084	962.75
326.313	959.75
326.542	977.75
326.77	1004.75
326.999	970.75
327.228	978.75
327.457	955.75
327.686	970.75
327.914	958.75
328.143	958.75
328.372	964.75
328.6	979.75
328.829	943.75
329.058	950.75
329.287	956.75
329.515	975.75
329.744	999.75
329.972	1004.75
330.201	1015.75
330.43	966.75
330.658	992.75
330.887	998.75
331.115	1020.75
331.344	1035.75
331.572	1031.75
331.801	1023.75
332.03	1053.75
332.258	1093.75
332.486	1093.75
332.715	1123.75
332.943	1179.75
333.172	1204.75
333.4	1231.75
333.629	1242.75
333.857	1298.75
334.085	1310.75
334.314	1329.75
334.542	1285.75
334.771	1302.75
334.999	1237.75
335.227	1250.75
335.455	1249.75
335.684	1242.75
335.912	1211.75
336.14	1208.75
336.369	1195.75
336.597	1205.75
336.825	1189.75
337.053	1172.75
337.281	1175.75
337.51	1157.75
337.738	1163.75
337.966	1126.75
338.194	1089.75
338.422	1070.75
338.65	1073.75
338.878	1069.75
339.106	1085.75
339.334	1082.75
339.562	1053.75
339.79	1014.75
340.018	1057.75
340.246	1039.75
340.474	1046.75
340.702	1023.75
340.93	1065.75
341.158	1067.75
341.386	1043.75
341.614	1043.75
341.842	1002.75
342.07	996.75
342.298	1002.75
342.526	978.75
342.754	1020.75
342.981	1039.75
343.209	1047.75
343.437	1086.75
343.665	1140.75
343.893	1198.75
344.12	1257.75
344.348	1231.75
344.576	1199.75
344.804	1134.75
345.031	1085.75
345.259	1027.75
345.487	1062.75
345.714	1039.75
345.942	1036.75
346.17	998.75
346.397	1025.75
346.625	983.75
346.853	961.75
347.08	950.75
347.308	960.75
347.535	993.75
347.763	990.75
347.99	995.75
348.218	998.75
348.445	948.75
348.673	986.75
348.9	963.75
349.128	980.75
349.355	949.75
349.583	1012.75
349.81	954.75
350.037	952.75
350.265	959.75
350.492	931.75
350.72	964.75
350.947	947.75
351.174	948.75
351.402	937.75
351.629	934.75
351.856	933.75
352.083	948.75
352.311	955.75
352.538	945.75
352.765	947.75
352.992	914.75
353.22	909.75
353.447	925.75
353.674	932.75
353.901	927.75
354.128	923.75
354.355	921.75
354.583	929.75
354.81	933.75
355.037	946.75
355.264	929.75
355.491	951.75
355.718	933.75
355.945	929.75
356.172	938.75
356.399	937.75
356.626	960.75
356.853	990.75
357.08	950.75
357.307	918.75
357.534	940.75
357.761	929.75
357.988	961.75
358.215	929.75
358.441	947.75
358.668	920.75
358.895	951.75
359.122	944.75
359.349	945.75
359.576	940.75
359.802	963.75
360.029	947.75
360.256	960.75
360.483	934.75
360.709	917.75
360.936	968.75
361.163	961.75
361.39	961.75
361.616	953.75
361.843	933.75
362.07	937.75
362.296	937.75
362.523	941.75
362.749	928.75
362.976	935.75
363.203	963.75
363.429	945.75
363.656	965.75
363.882	950.75
364.109	919.75
364.335	913.75
364.562	952.75
364.788	967.75
365.015	936.75
365.241	936.75
365.468	915.75
365.694	958.75
365.92	918.75
366.147	943.75
366.373	933.75
366.599	960.75
366.826	945.75
367.052	924.75
367.278	911.75
367.505	926.75
367.731	918.75
367.957	929.75
368.184	956.75
368.41	981.75
368.636	972.75
368.862	966.75
369.089	967.75
369.315	963.75
369.541	972.75
369.767	971.75
369.993	981.75
370.219	996.75
370.445	979.75
370.672	1012.75
370.898	1031.75
371.124	1026.75
371.35	1021.75
371.576	1038.75
371.802	1051.75
372.028	1025.75
372.254	1019.75
372.48	1034.75
372.706	1063.75
372.932	1060.75
373.158	1088.75
373.384	1057.75
373.61	1029.75
373.835	1027.75
374.061	1066.75
374.287	1050.75
374.513	1014.75
374.739	1063.75
374.965	1105.75
375.191	1143.75
375.416	1164.75
375.642	1090.75
375.868	1091.75
376.094	1092.75
376.319	1042.75
376.545	1094.75
376.771	1033.75
376.997	1041.75
377.222	1039.75
377.448	1031.75
377.674	1010.75
377.899	1057.75
378.125	1037.75
378.35	1033.75
378.576	1045.75
378.802	1014.75
379.027	1044.75
379.253	1043.75
379.478	1003.75
379.704	1000.75
379.929	1016.75
380.155	983.75
380.38	1010.75
380.606	1035.75
380.831	1013.75
381.057	1044.75
381.282	1029.75
381.507	1002.75
381.733	1042.75
381.958	1017.75
382.184	1027.75
382.409	1044.75
382.634	1026.75
382.86	1083.75
383.085	1106.75
383.31	1087.75
383.535	1125.75
383.761	1133.75
383.986	1131.75
384.211	1148.75
384.436	1171.75
384.662	1206.75
384.887	1237.75
385.112	1219.75
385.337	1225.75
385.562	1225.75
385.787	1247.75
386.013	1246.75
386.238	1252.75
386.463	1304.75
386.688	1297.75
386.913	1250.75
387.138	1277.75
387.363	1262.75
387.588	1211.75
387.813	1241.75
388.038	1260.75
388.263	1244.75
388.488	1250.75
388.713	1274.75
388.938	1252.75
389.163	1223.75
389.387	1239.75
389.612	1235.75
389.837	1228.75
390.062	1205.75
390.287	1257.75
390.512	1241.75
390.736	1273.75
390.961	1279.75
391.186	1272.75
391.411	1304.75
391.636	1353.75
391.86	1393.75
392.085	1422.75
392.31	1405.75
392.534	1405.75
392.759	1373.75
392.984	1316.75
393.208	1317.75
393.433	1311.75
393.658	1339.75
393.882	1351.75
394.107	1337.75
394.331	1327.75
394.556	1347.75
394.78	1335.75
395.005	1321.75
395.229	1382.75
395.454	1420.75
395.678	1423.75
395.903	1447.75
396.127	1415.75
396.352	1384.75
396.576	1387.75
396.801	1386.75
397.025	1373.75
397.249	1385.75
397.474	1455.75
397.698	1443.75
397.922	1431.75
398.147	1430.75
398.371	1473.75
398.595	1509.75
398.82	1610.75
399.044	1674.75
399.268	1816.75
399.492	2069.75
399.717	2263.75
399.941	2326.75
400.165	2163.75
400.389	2023.75
400.613	1875.75
400.837	1738.75
401.062	1738.75
401.286	1620.75
401.51	1609.75
401.734	1658.75
401.958	1614.75
402.182	1627.75
402.406	1653.75
402.63	1640.75
402.854	1679.75
403.078	1665.75
403.302	1733.75
403.526	1725.75
403.75	1733.75
403.974	1775.75
404.198	1783.75
404.422	1758.75
404.645	1786.75
404.869	1741.75
405.093	1814.75
405.317	1755.75
405.541	1767.75
405.765	1763.75
405.988	1755.75
406.212	1801.75
406.436	1788.75
406.66	1793.75
406.883	1817.75
407.107	1887.75
407.331	2033.75
407.555	2064.75
407.778	2079.75
408.002	2030.75
408.226	2003.75
408.449	1973.75
408.673	1861.75
408.896	1870.75
409.12	1797.75
409.344	1827.75
409.567	1810.75
409.791	1875.75
410.014	1820.75
410.238	1781.75
410.461	1771.75
410.685	1744.75
410.908	1710.75
411.132	1702.75
411.355	1633.75
411.578	1659.75
411.802	1659.75
412.025	1679.75
412.249	1697.75
412.472	1654.75
412.695	1685.75
412.919	1626.75
413.142	1603.75
413.365	1604.75
413.589	1637.75
413.812	1585.75
414.035	1565.75
414.258	1614.75
414.482	1635.75
414.705	1645.75
414.928	1617.75
415.151	1610.75
415.374	1614.75
415.597	1591.75
415.821	1572.75
416.044	1530.75
416.267	1544.75
416.49	1527.75
416.713	1490.75
416.936	1531.75
417.159	1529.75
417.382	1566.75
417.605	1542.75
417.828	1554.75
418.051	1529.75
418.274	1565.75
418.497	1567.75
418.72	1609.75
418.943	1599.75
419.166	1688.75
419.389	1852.75
419.611	1808.75
419.834	1742.75
420.057	1642.75
420.28	1593.75
420.503	1547.75
420.726	1531.75
420.948	1544.75
421.171	1553.75
421.394	1543.75
421.617	1515.75
421.839	1544.75
422.062	1582.75
422.285	1522.75
422.507	1581.75
422.73	1555.75
422.953	1563.75
423.175	1605.75
423.398	1580.75
423.621	1595.75
423.843	1601.75
424.066	1612.75
424.288	1595.75
424.511	1608.75
424.733	1598.75
424.956	1543.75
425.178	1574.75
425.401	1600.75
425.623	1599.75
425.846	1518.75
426.068	1542.75
426.291	1515.75
426.513	1502.75
426.735	1462.75
426.958	1491.75
427.18	1424.75
427.402	1438.75
427.625	1446.75
427.847	1400.75
428.069	1407.75
428.292	1413.75
428.514	1426.75
428.736	1361.75
428.958	1405.75
429.181	1362.75
429.403	1370.75
429.625	1376.75
429.847	1365.75
430.069	1382.75
430.292	1369.75
430.514	1343.75
430.736	1345.75
430.958	1381.75
431.18	1397.75
431.402	1379.75
431.624	1379.75
431.846	1400.75
432.068	1399.75
432.29	1443.75
432.512	1404.75
432.734	1419.75
432.956	1409.75
433.178	1397.75
433.4	1404.75
433.622	1404.75
433.844	1394.75
434.066	1410.75
434.287	1421.75
434.509	1477.75
434.731	1509.75
434.953	1552.75
435.175	1542.75
435.397	1555.75
435.618	1483.75
435.84	1440.75
436.062	1410.75
436.284	1416.75
436.505	1395.75
436.727	1410.75
436.949	1375.75
437.17	1395.75
437.392	1359.75
437.614	1339.75
437.835	1321.75
438.057	1346.75
438.278	1338.75
438.5	1347.75
438.721	1326.75
438.943	1317.75
439.165	1348.75
439.386	1354.75
439.608	1373.75
439.829	1382.75
440.05	1396.75
440.272	1384.75
440.493	1381.75
440.715	1422.75
440.936	1431.75
441.158	1453.75
441.379	1468.75
441.6	1541.75
441.822	1571.75
442.043	1534.75
442.264	1513.75
442.486	1473.75
442.707	1476.75
442.928	1522.75
443.149	1509.75
443.371	1484.75
443.592	1507.75
443.813	1544.75
444.034	1565.75
444.255	1612.75
444.476	1690.75
444.698	1757.75
444.919	1751.75
445.14	1779.75
445.361	1706.75
445.582	1601.75
445.803	1527.75
446.024	1530.75
446.245	1492.75
446.466	1438.75
446.687	1430.75
446.908	1421.75
447.129	1377.75
447.35	1381.75
447.571	1319.75
447.792	1303.75
448.013	1296.75
448.234	1263.75
448.455	1238.75
448.675	1279.75
448.896	1272.75
449.117	1258.75
449.338	1241.75
449.559	1202.75
449.779	1229.75
450	1202.75
450.221	1220.75
450.442	1245.75
450.662	1266.75
450.883	1237.75
451.104	1283.75
451.324	1277.75
451.545	1247.75
451.766	1260.75
451.986	1247.75
452.207	1237.75
452.428	1237.75
452.648	1251.75
452.869	1242.75
453.089	1235.75
453.31	1232.75
453.53	1203.75
453.751	1214.75
453.971	1206.75
454.192	1206.75
454.412	1218.75
454.633	1192.75
454.853	1205.75
455.073	1169.75
455.294	1193.75
455.514	1144.75
455.734	1152.75
455.955	1153.75
456.175	1170.75
456.395	1165.75
456.616	1135.75
456.836	1191.75
457.056	1125.75
457.276	1141.75
457.497	1203.75
457.717	1203.75
457.937	1165.75
458.157	1205.75
458.377	1221.75
458.598	1270.75
458.818	1300.75
459.038	1315.75
459.258	1345.75
459.478	1413.75
459.698	1447.75
459.918	1463.75
460.138	1522.75
460.358	1573.75
460.578	1633.75
460.798	1652.75
461.018	1638.75
461.238	1655.75
461.458	1653.75
461.678	1620.75
461.898	1643.75
462.118	1705.75
462.338	1771.75
462.558	1813.75
462.777	1851.75
462.997	2012.75
463.217	2100.75
463.437	2162.75
463.657	2021.75
463.876	1980.75
464.096	1966.75
464.316	1921.75
464.536	1913.75
464.755	1871.75
464.975	1803.75
465.195	1701.75
465.414	1578.75
465.634	1549.75
465.854	1469.75
466.073	1432.75
466.293	1402.75
466.512	1341.75
466.732	1349.75
466.951	1360.75
467.171	1322.75
467.391	1331.75
467.61	1307.75
467.829	1283.75
468.049	1307.75
468.268	1288.75
468.488	1294.75
468.707	1276.75
468.927	1275.75
469.146	1226.75
469.365	1301.75
469.585	1295.75
469.804	1320.75
470.023	1338.75
470.243	1337.75
470.462	1361.75
470.681	1332.75
470.901	1386.75
471.12	1380.75
471.339	1337.75
471.558	1313.75
471.777	1305.75
471.997	1322.75
472.216	1306.75
472.435	1263.75
472.654	1261.75
472.873	1229.75
473.092	1235.75
473.311	1220.75
473.53	1244.75
473.749	1236.75
473.968	1243.75
474.187	1222.75
474.406	1236.75
474.625	1262.75
474.844	1250.75
475.063	1262.75
475.282	1271.75
475.501	1261.75
475.72	1265.75
475.939	1253.75
476.158	1279.75
476.377	1313.75
476.596	1325.75
476.814	1312.75
477.033	1301.75
477.252	1368.75
477.471	1367.75
477.69	1403.75
477.908	1449.75
478.127	1484.75
478.346	1497.75
478.564	1510.75
478.783	1565.75
479.002	1577.75
479.22	1558.75
479.439	1572.75
479.658	1588.75
479.876	1568.75
480.095	1605.75
480.313	1644.75
480.532	1664.75
480.751	1631.75
480.969	1593.75
481.188	1593.75
481.406	1517.75
481.624	1508.75
481.843	1461.75
482.061	1490.75
482.28	1452.75
482.498	1424.75
482.717	1416.75
482.935	1445.75
483.153	1437.75
483.372	1452.75
483.59	1417.75
483.808	1470.75
484.027	1430.75
484.245	1493.75
484.463	1478.75
484.681	1497.75
484.9	1467.75
485.118	1525.75
485.336	1491.75
485.554	1514.75
485.772	1498.75
485.99	1540.75
486.209	1537.75
486.427	1541.75
486.645	1551.75
486.863	1547.75
487.081	1525.75
487.299	1504.75
487.517	1505.75
487.735	1480.75
487.953	1504.75
488.171	1507.75
488.389	1521.75
488.607	1470.75
488.825	1472.75
489.043	1453.75
489.261	1461.75
489.479	1494.75
489.696	1506.75
489.914	1500.75
490.132	1499.75
490.35	1490.75
490.568	1499.75
490.786	1521.75
491.003	1547.75
491.221	1526.75
491.439	1534.75
491.657	1503.75
491.874	1515.75
492.092	1549.75
492.31	1513.75
492.527	1573.75
492.745	1571.75
492.963	1566.75
493.18	1558.75
