Data from NiCl2@0.25M.TitratingCurve.Agarose3%dH2O.NegLispCup.LampEnergy10.LIBS07252019_HRD10591_18-25-11-573.txt Node
Date: Thu Jul 25 18:25:11 EDT 2019
User: cochatt
Spectrometer: HR+D1059
Trigger mode: 1
Integration Time (sec): 1.000000E-1
Scans to average: 1
Electric dark correction enabled: true
Nonlinearity correction enabled: false
Boxcar width: 0
XAxis mode: Wavelengths
Number of Pixels in Spectrum: 2048
>>>>>Begin Spectral Data<<<<<
223.165	-16.88
223.4	-16.88
223.635	-16.88
223.869	-21.88
224.104	-1.88
224.338	-12.88
224.573	-15.88
224.808	-12.88
225.042	-11.88
225.277	-13.88
225.511	7.12
225.746	-9.88
225.98	3.12
226.215	14.12
226.449	15.12
226.683	13.12
226.918	19.12
227.152	46.12
227.387	35.12
227.621	33.12
227.856	39.12
228.09	51.12
228.324	58.12
228.559	55.12
228.793	76.12
229.027	97.12
229.262	110.12
229.496	106.12
229.73	115.12
229.964	133.12
230.199	129.12
230.433	134.12
230.667	132.12
230.901	141.12
231.136	141.12
231.37	142.12
231.604	142.12
231.838	153.12
232.072	132.12
232.306	153.12
232.541	161.12
232.775	152.12
233.009	167.12
233.243	158.12
233.477	144.12
233.711	157.12
233.945	153.12
234.179	166.12
234.413	138.12
234.647	164.12
234.881	161.12
235.115	144.12
235.349	157.12
235.583	147.12
235.817	140.12
236.051	159.12
236.285	170.12
236.519	155.12
236.753	158.12
236.987	166.12
237.221	161.12
237.455	167.12
237.689	153.12
237.922	168.12
238.156	175.12
238.39	171.12
238.624	165.12
238.858	166.12
239.091	172.12
239.325	167.12
239.559	171.12
239.793	189.12
240.027	197.12
240.26	185.12
240.494	197.12
240.728	173.12
240.961	200.12
241.195	198.12
241.429	195.12
241.662	201.12
241.896	193.12
242.13	197.12
242.363	204.12
242.597	205.12
242.83	202.12
243.064	183.12
243.298	200.12
243.531	208.12
243.765	209.12
243.998	198.12
244.232	206.12
244.465	204.12
244.699	203.12
244.932	223.12
245.166	221.12
245.399	219.12
245.633	235.12
245.866	233.12
246.099	231.12
246.333	231.12
246.566	227.12
246.8	221.12
247.033	243.12
247.266	227.12
247.5	235.12
247.733	233.12
247.966	235.12
248.2	258.12
248.433	251.12
248.666	259.12
248.899	253.12
249.133	233.12
249.366	253.12
249.599	246.12
249.832	237.12
250.066	254.12
250.299	279.12
250.532	260.12
250.765	262.12
250.998	269.12
251.231	263.12
251.465	275.12
251.698	270.12
251.931	262.12
252.164	265.12
252.397	277.12
252.63	269.12
252.863	281.12
253.096	289.12
253.329	274.12
253.562	281.12
253.795	266.12
254.028	267.12
254.261	277.12
254.494	278.12
254.727	290.12
254.96	294.12
255.193	289.12
255.426	292.12
255.659	283.12
255.892	298.12
256.124	283.12
256.357	293.12
256.59	269.12
256.823	300.12
257.056	313.12
257.289	303.12
257.521	329.12
257.754	315.12
257.987	319.12
258.22	293.12
258.452	311.12
258.685	297.12
258.918	319.12
259.151	324.12
259.383	322.12
259.616	323.12
259.849	331.12
260.081	311.12
260.314	321.12
260.547	344.12
260.779	326.12
261.012	340.12
261.244	328.12
261.477	332.12
261.71	341.12
261.942	320.12
262.175	338.12
262.407	332.12
262.64	335.12
262.872	346.12
263.105	335.12
263.337	350.12
263.57	353.12
263.802	360.12
264.035	362.12
264.267	343.12
264.499	348.12
264.732	336.12
264.964	370.12
265.197	368.12
265.429	346.12
265.661	373.12
265.894	352.12
266.126	374.12
266.358	365.12
266.591	359.12
266.823	349.12
267.055	353.12
267.287	372.12
267.52	379.12
267.752	373.12
267.984	375.12
268.216	376.12
268.448	372.12
268.681	380.12
268.913	385.12
269.145	377.12
269.377	367.12
269.609	397.12
269.841	378.12
270.073	394.12
270.306	409.12
270.538	389.12
270.77	390.12
271.002	392.12
271.234	399.12
271.466	392.12
271.698	413.12
271.93	404.12
272.162	395.12
272.394	386.12
272.626	416.12
272.858	416.12
273.09	410.12
273.322	413.12
273.553	418.12
273.785	415.12
274.017	421.12
274.249	422.12
274.481	425.12
274.713	422.12
274.945	418.12
275.176	431.12
275.408	428.12
275.64	433.12
275.872	441.12
276.104	435.12
276.335	422.12
276.567	434.12
276.799	422.12
277.031	443.12
277.262	442.12
277.494	435.12
277.726	449.12
277.957	425.12
278.189	437.12
278.421	439.12
278.652	429.12
278.884	436.12
279.115	455.12
279.347	453.12
279.579	452.12
279.81	464.12
280.042	449.12
280.273	468.12
280.505	461.12
280.736	446.12
280.968	484.12
281.199	481.12
281.431	456.12
281.662	470.12
281.894	486.12
282.125	494.12
282.356	494.12
282.588	476.12
282.819	492.12
283.051	480.12
283.282	472.12
283.513	484.12
283.745	467.12
283.976	465.12
284.207	520.12
284.439	516.12
284.67	516.12
284.901	488.12
285.132	497.12
285.364	495.12
285.595	527.12
285.826	498.12
286.057	535.12
286.288	517.12
286.52	523.12
286.751	523.12
286.982	523.12
287.213	505.12
287.444	528.12
287.675	521.12
287.906	546.12
288.138	525.12
288.369	515.12
288.6	537.12
288.831	536.12
289.062	535.12
289.293	523.12
289.524	551.12
289.755	549.12
289.986	547.12
290.217	549.12
290.448	518.12
290.679	543.12
290.91	551.12
291.141	575.12
291.371	547.12
291.602	546.12
291.833	554.12
292.064	541.12
292.295	523.12
292.526	531.12
292.757	569.12
292.987	549.12
293.218	522.12
293.449	538.12
293.68	552.12
293.91	558.12
294.141	559.12
294.372	529.12
294.603	554.12
294.833	547.12
295.064	566.12
295.295	543.12
295.525	547.12
295.756	557.12
295.987	563.12
296.217	568.12
296.448	561.12
296.679	577.12
296.909	618.12
297.14	570.12
297.37	555.12
297.601	579.12
297.831	581.12
298.062	583.12
298.292	598.12
298.523	611.12
298.753	623.12
298.984	600.12
299.214	608.12
299.445	586.12
299.675	576.12
299.905	580.12
300.136	617.12
300.366	598.12
300.597	601.12
300.827	629.12
301.057	612.12
301.288	637.12
301.518	620.12
301.748	616.12
301.979	610.12
302.209	638.12
302.439	629.12
302.669	609.12
302.9	635.12
303.13	606.12
303.36	621.12
303.59	613.12
303.82	615.12
304.051	608.12
304.281	627.12
304.511	624.12
304.741	618.12
304.971	605.12
305.201	606.12
305.431	606.12
305.661	625.12
305.891	603.12
306.121	614.12
306.352	608.12
306.582	602.12
306.812	592.12
307.042	612.12
307.272	615.12
307.502	608.12
307.731	598.12
307.961	591.12
308.191	601.12
308.421	595.12
308.651	614.12
308.881	617.12
309.111	605.12
309.341	614.12
309.571	615.12
309.8	605.12
310.03	608.12
310.26	602.12
310.49	614.12
310.72	607.12
310.949	615.12
311.179	634.12
311.409	617.12
311.639	608.12
311.868	621.12
312.098	612.12
312.328	619.12
312.557	646.12
312.787	642.12
313.017	634.12
313.246	657.12
313.476	613.12
313.706	651.12
313.935	649.12
314.165	647.12
314.394	651.12
314.624	649.12
314.853	646.12
315.083	643.12
315.312	678.12
315.542	657.12
315.771	662.12
316.001	661.12
316.23	637.12
316.46	650.12
316.689	623.12
316.919	646.12
317.148	639.12
317.377	637.12
317.607	619.12
317.836	637.12
318.065	642.12
318.295	637.12
318.524	655.12
318.753	640.12
318.983	650.12
319.212	638.12
319.441	610.12
319.67	622.12
319.9	635.12
320.129	637.12
320.358	651.12
320.587	642.12
320.816	628.12
321.046	625.12
321.275	635.12
321.504	628.12
321.733	635.12
321.962	641.12
322.191	645.12
322.42	651.12
322.649	652.12
322.878	641.12
323.108	664.12
323.337	631.12
323.566	644.12
323.795	659.12
324.024	661.12
324.253	662.12
324.482	674.12
324.71	677.12
324.939	684.12
325.168	672.12
325.397	671.12
325.626	664.12
325.855	685.12
326.084	712.12
326.313	695.12
326.542	700.12
326.77	695.12
326.999	725.12
327.228	702.12
327.457	698.12
327.686	708.12
327.914	681.12
328.143	705.12
328.372	696.12
328.6	714.12
328.829	718.12
329.058	699.12
329.287	749.12
329.515	709.12
329.744	685.12
329.972	702.12
330.201	687.12
330.43	695.12
330.658	727.12
330.887	723.12
331.115	733.12
331.344	737.12
331.572	755.12
331.801	754.12
332.03	789.12
332.258	813.12
332.486	809.12
332.715	841.12
332.943	878.12
333.172	907.12
333.4	959.12
333.629	970.12
333.857	945.12
334.085	951.12
334.314	958.12
334.542	909.12
334.771	914.12
334.999	896.12
335.227	893.12
335.455	894.12
335.684	895.12
335.912	861.12
336.14	845.12
336.369	858.12
336.597	862.12
336.825	849.12
337.053	863.12
337.281	847.12
337.51	805.12
337.738	811.12
337.966	809.12
338.194	776.12
338.422	783.12
338.65	778.12
338.878	760.12
339.106	759.12
339.334	776.12
339.562	755.12
339.79	733.12
340.018	731.12
340.246	741.12
340.474	729.12
340.702	749.12
340.93	744.12
341.158	757.12
341.386	735.12
341.614	720.12
341.842	744.12
342.07	703.12
342.298	718.12
342.526	735.12
342.754	711.12
342.981	720.12
343.209	731.12
343.437	807.12
343.665	836.12
343.893	886.12
344.12	893.12
344.348	897.12
344.576	823.12
344.804	817.12
345.031	781.12
345.259	759.12
345.487	762.12
345.714	737.12
345.942	737.12
346.17	702.12
346.397	729.12
346.625	709.12
346.853	717.12
347.08	720.12
347.308	735.12
347.535	714.12
347.763	738.12
347.99	707.12
348.218	719.12
348.445	715.12
348.673	699.12
348.9	691.12
349.128	680.12
349.355	701.12
349.583	709.12
349.81	689.12
350.037	697.12
350.265	683.12
350.492	678.12
350.72	685.12
350.947	652.12
351.174	685.12
351.402	685.12
351.629	696.12
351.856	683.12
352.083	677.12
352.311	672.12
352.538	687.12
352.765	675.12
352.992	663.12
353.22	672.12
353.447	694.12
353.674	665.12
353.901	669.12
354.128	679.12
354.355	671.12
354.583	660.12
354.81	677.12
355.037	692.12
355.264	693.12
355.491	655.12
355.718	708.12
355.945	675.12
356.172	715.12
356.399	693.12
356.626	681.12
356.853	695.12
357.08	678.12
357.307	687.12
357.534	687.12
357.761	682.12
357.988	694.12
358.215	657.12
358.441	668.12
358.668	685.12
358.895	691.12
359.122	671.12
359.349	685.12
359.576	662.12
359.802	669.12
360.029	691.12
360.256	682.12
360.483	702.12
360.709	692.12
360.936	686.12
361.163	701.12
361.39	672.12
361.616	697.12
361.843	667.12
362.07	706.12
362.296	706.12
362.523	686.12
362.749	666.12
362.976	681.12
363.203	699.12
363.429	674.12
363.656	687.12
363.882	687.12
364.109	661.12
364.335	685.12
364.562	662.12
364.788	665.12
365.015	685.12
365.241	668.12
365.468	701.12
365.694	668.12
365.92	660.12
366.147	688.12
366.373	665.12
366.599	697.12
366.826	667.12
367.052	683.12
367.278	692.12
367.505	697.12
367.731	680.12
367.957	694.12
368.184	686.12
368.41	680.12
368.636	703.12
368.862	695.12
369.089	706.12
369.315	711.12
369.541	724.12
369.767	707.12
369.993	696.12
370.219	726.12
370.445	703.12
370.672	729.12
370.898	710.12
371.124	734.12
371.35	706.12
371.576	716.12
371.802	749.12
372.028	742.12
372.254	723.12
372.48	746.12
372.706	766.12
372.932	761.12
373.158	789.12
373.384	773.12
373.61	753.12
373.835	740.12
374.061	751.12
374.287	750.12
374.513	760.12
374.739	797.12
374.965	829.12
375.191	851.12
375.416	806.12
375.642	797.12
375.868	787.12
376.094	778.12
376.319	767.12
376.545	768.12
376.771	773.12
376.997	767.12
377.222	756.12
377.448	754.12
377.674	761.12
377.899	766.12
378.125	720.12
378.35	738.12
378.576	751.12
378.802	742.12
379.027	727.12
379.253	750.12
379.478	744.12
379.704	729.12
379.929	716.12
380.155	726.12
380.38	725.12
380.606	731.12
380.831	743.12
381.057	757.12
381.282	739.12
381.507	742.12
381.733	777.12
381.958	758.12
382.184	761.12
382.409	785.12
382.634	761.12
382.86	783.12
383.085	767.12
383.31	813.12
383.535	810.12
383.761	835.12
383.986	824.12
384.211	855.12
384.436	871.12
384.662	856.12
384.887	905.12
385.112	887.12
385.337	894.12
385.562	899.12
385.787	912.12
386.013	936.12
386.238	932.12
386.463	925.12
386.688	898.12
386.913	905.12
387.138	874.12
387.363	903.12
387.588	875.12
387.813	884.12
388.038	879.12
388.263	863.12
388.488	891.12
388.713	861.12
388.938	887.12
389.163	871.12
389.387	889.12
389.612	863.12
389.837	877.12
390.062	874.12
390.287	881.12
390.512	870.12
390.736	891.12
390.961	889.12
391.186	902.12
391.411	927.12
391.636	973.12
391.86	1026.12
392.085	1021.12
392.31	1029.12
392.534	994.12
392.759	994.12
392.984	955.12
393.208	952.12
393.433	957.12
393.658	951.12
393.882	953.12
394.107	938.12
394.331	948.12
394.556	967.12
394.78	947.12
395.005	977.12
395.229	974.12
395.454	981.12
395.678	1010.12
395.903	1012.12
396.127	991.12
396.352	964.12
396.576	969.12
396.801	965.12
397.025	984.12
397.249	974.12
397.474	1021.12
397.698	975.12
397.922	1035.12
398.147	1017.12
398.371	1044.12
398.595	1083.12
398.82	1120.12
399.044	1205.12
399.268	1341.12
399.492	1535.12
399.717	1738.12
399.941	1725.12
400.165	1566.12
400.389	1417.12
400.613	1297.12
400.837	1211.12
401.062	1156.12
401.286	1159.12
401.51	1136.12
401.734	1114.12
401.958	1110.12
402.182	1165.12
402.406	1177.12
402.63	1165.12
402.854	1228.12
403.078	1205.12
403.302	1256.12
403.526	1284.12
403.75	1308.12
403.974	1341.12
404.198	1342.12
404.422	1316.12
404.645	1290.12
404.869	1305.12
405.093	1297.12
405.317	1245.12
405.541	1275.12
405.765	1270.12
405.988	1265.12
406.212	1257.12
406.436	1234.12
406.66	1291.12
406.883	1282.12
407.107	1381.12
407.331	1451.12
407.555	1485.12
407.778	1467.12
408.002	1427.12
408.226	1388.12
408.449	1330.12
408.673	1301.12
408.896	1302.12
409.12	1283.12
409.344	1288.12
409.567	1271.12
409.791	1296.12
410.014	1281.12
410.238	1234.12
410.461	1229.12
410.685	1241.12
410.908	1221.12
411.132	1184.12
411.355	1159.12
411.578	1177.12
411.802	1149.12
412.025	1178.12
412.249	1193.12
412.472	1207.12
412.695	1159.12
412.919	1128.12
413.142	1145.12
413.365	1129.12
413.589	1159.12
413.812	1120.12
414.035	1086.12
414.258	1097.12
414.482	1146.12
414.705	1133.12
414.928	1175.12
415.151	1141.12
415.374	1146.12
415.597	1109.12
415.821	1066.12
416.044	1084.12
416.267	1122.12
416.49	1130.12
416.713	1088.12
416.936	1152.12
417.159	1100.12
417.382	1091.12
417.605	1104.12
417.828	1120.12
418.051	1123.12
418.274	1118.12
418.497	1125.12
418.72	1139.12
418.943	1157.12
419.166	1226.12
419.389	1311.12
419.611	1255.12
419.834	1208.12
420.057	1199.12
420.28	1149.12
420.503	1130.12
420.726	1105.12
420.948	1086.12
421.171	1117.12
421.394	1144.12
421.617	1129.12
421.839	1101.12
422.062	1101.12
422.285	1117.12
422.507	1123.12
422.73	1143.12
422.953	1145.12
423.175	1181.12
423.398	1151.12
423.621	1168.12
423.843	1182.12
424.066	1197.12
424.288	1181.12
424.511	1162.12
424.733	1189.12
424.956	1159.12
425.178	1138.12
425.401	1149.12
425.623	1139.12
425.846	1089.12
426.068	1093.12
426.291	1059.12
426.513	1049.12
426.735	1064.12
426.958	1025.12
427.18	1021.12
427.402	1044.12
427.625	1037.12
427.847	1011.12
428.069	1001.12
428.292	1011.12
428.514	1009.12
428.736	1001.12
428.958	997.12
429.181	990.12
429.403	958.12
429.625	962.12
429.847	953.12
430.069	952.12
430.292	986.12
430.514	970.12
430.736	982.12
430.958	947.12
431.18	963.12
431.402	977.12
431.624	957.12
431.846	981.12
432.068	1002.12
432.29	1012.12
432.512	986.12
432.734	992.12
432.956	952.12
433.178	976.12
433.4	971.12
433.622	981.12
433.844	1024.12
434.066	1010.12
434.287	1014.12
434.509	1056.12
434.731	1081.12
434.953	1095.12
435.175	1135.12
435.397	1101.12
435.618	1013.12
435.84	1025.12
436.062	989.12
436.284	985.12
436.505	1002.12
436.727	968.12
436.949	1011.12
437.17	987.12
437.392	975.12
437.614	995.12
437.835	949.12
438.057	941.12
438.278	927.12
438.5	962.12
438.721	955.12
438.943	958.12
439.165	945.12
439.386	955.12
439.608	947.12
439.829	989.12
440.05	979.12
440.272	971.12
440.493	998.12
440.715	1017.12
440.936	1039.12
441.158	1041.12
441.379	1037.12
441.6	1106.12
441.822	1122.12
442.043	1091.12
442.264	1109.12
442.486	1059.12
442.707	1077.12
442.928	1065.12
443.149	1079.12
443.371	1063.12
443.592	1059.12
443.813	1106.12
444.034	1129.12
444.255	1142.12
444.476	1201.12
444.698	1263.12
444.919	1302.12
445.14	1391.12
445.361	1251.12
445.582	1153.12
445.803	1124.12
446.024	1083.12
446.245	1016.12
446.466	1015.12
446.687	995.12
446.908	993.12
447.129	989.12
447.35	922.12
447.571	961.12
447.792	928.12
448.013	941.12
448.234	902.12
448.455	907.12
448.675	905.12
448.896	916.12
449.117	847.12
449.338	877.12
449.559	890.12
449.779	885.12
450	877.12
450.221	907.12
450.442	890.12
450.662	890.12
450.883	916.12
451.104	906.12
451.324	943.12
451.545	917.12
451.766	926.12
451.986	922.12
452.207	923.12
452.428	895.12
452.648	899.12
452.869	860.12
453.089	891.12
453.31	891.12
453.53	854.12
453.751	894.12
453.971	879.12
454.192	863.12
454.412	850.12
454.633	859.12
454.853	850.12
455.073	823.12
455.294	841.12
455.514	851.12
455.734	869.12
455.955	835.12
456.175	834.12
456.395	834.12
456.616	827.12
456.836	852.12
457.056	845.12
457.276	840.12
457.497	850.12
457.717	851.12
457.937	878.12
458.157	871.12
458.377	871.12
458.598	888.12
458.818	913.12
459.038	902.12
459.258	962.12
459.478	1031.12
459.698	1059.12
459.918	1041.12
460.138	1071.12
460.358	1184.12
460.578	1185.12
460.798	1198.12
461.018	1217.12
461.238	1190.12
461.458	1192.12
461.678	1156.12
461.898	1168.12
462.118	1206.12
462.338	1246.12
462.558	1295.12
462.777	1317.12
462.997	1437.12
463.217	1585.12
463.437	1597.12
463.657	1456.12
463.876	1397.12
464.096	1388.12
464.316	1372.12
464.536	1373.12
464.755	1328.12
464.975	1278.12
465.195	1224.12
465.414	1134.12
465.634	1054.12
465.854	1056.12
466.073	1002.12
466.293	998.12
466.512	935.12
466.732	973.12
466.951	919.12
467.171	921.12
467.391	938.12
467.61	924.12
467.829	933.12
468.049	941.12
468.268	870.12
468.488	884.12
468.707	899.12
468.927	926.12
469.146	889.12
469.365	929.12
469.585	926.12
469.804	945.12
470.023	961.12
470.243	983.12
470.462	995.12
470.681	1008.12
470.901	994.12
471.12	968.12
471.339	964.12
471.558	953.12
471.777	914.12
471.997	890.12
472.216	895.12
472.435	886.12
472.654	870.12
472.873	890.12
473.092	885.12
473.311	887.12
473.53	887.12
473.749	885.12
473.968	877.12
474.187	885.12
474.406	903.12
474.625	900.12
474.844	906.12
475.063	875.12
475.282	904.12
475.501	907.12
475.72	909.12
475.939	911.12
476.158	909.12
476.377	928.12
476.596	915.12
476.814	956.12
477.033	930.12
477.252	953.12
477.471	984.12
477.69	993.12
477.908	1042.12
478.127	1065.12
478.346	1054.12
478.564	1063.12
478.783	1079.12
479.002	1118.12
479.22	1113.12
479.439	1143.12
479.658	1090.12
479.876	1089.12
480.095	1138.12
480.313	1162.12
480.532	1209.12
480.751	1209.12
480.969	1157.12
481.188	1121.12
481.406	1075.12
481.624	1053.12
481.843	1020.12
482.061	1007.12
482.28	1024.12
482.498	1017.12
482.717	1005.12
482.935	1035.12
483.153	990.12
483.372	995.12
483.59	1017.12
483.808	990.12
484.027	983.12
484.245	987.12
484.463	1021.12
484.681	1057.12
484.9	1036.12
485.118	1045.12
485.336	1064.12
485.554	1069.12
485.772	1064.12
485.99	1063.12
486.209	1084.12
486.427	1052.12
486.645	1073.12
486.863	1097.12
487.081	1042.12
487.299	1054.12
487.517	1057.12
487.735	1033.12
487.953	1056.12
488.171	1033.12
488.389	1047.12
488.607	1042.12
488.825	1005.12
489.043	1009.12
489.261	1034.12
489.479	1061.12
489.696	1071.12
489.914	1060.12
490.132	1064.12
490.35	1076.12
490.568	1040.12
490.786	1073.12
491.003	1072.12
491.221	1084.12
491.439	1081.12
491.657	1103.12
491.874	1084.12
492.092	1073.12
492.31	1105.12
492.527	1074.12
492.745	1114.12
492.963	1125.12
493.18	1079.12
493.398	1133.12
493.615	1114.12
493.833	1097.12
494.05	1127.12
494.268	1097.12
494.485	1137.12
494.703	1140.12
494.92	1153.12
495.138	1134.12
495.355	1119.12
495.573	1119.12
495.79	1136.12
496.008	1177.12
496.225	1129.12
496.442	1165.12
496.66	1169.12
496.877	1206.12
497.094	1213.12
497.312	1213.12
497.529	1259.12
