Data from NiCl2@0.0625M.TitratingCurve.Agarose3%dH2O.NegLispCup.LampEnergy10.LIBS07252019_HRD10591_18-34-09-577.txt Node
Date: Thu Jul 25 18:34:09 EDT 2019
User: cochatt
Spectrometer: HR+D1059
Trigger mode: 1
Integration Time (sec): 1.000000E-1
Scans to average: 1
Electric dark correction enabled: true
Nonlinearity correction enabled: false
Boxcar width: 0
XAxis mode: Wavelengths
Number of Pixels in Spectrum: 2048
>>>>>Begin Spectral Data<<<<<
223.165	-23.12
223.4	-23.12
223.635	-23.12
223.869	-31.12
224.104	-17.12
224.338	-22.12
224.573	-2.12
224.808	-2.12
225.042	-13.12
225.277	-2.12
225.511	-2.12
225.746	0.88
225.98	20.88
226.215	17.88
226.449	11.88
226.683	7.88
226.918	29.88
227.152	25.88
227.387	33.88
227.621	35.88
227.856	32.88
228.09	43.88
228.324	29.88
228.559	43.88
228.793	72.88
229.027	149.88
229.262	155.88
229.496	168.88
229.73	162.88
229.964	177.88
230.199	182.88
230.433	179.88
230.667	175.88
230.901	169.88
231.136	176.88
231.37	187.88
231.604	198.88
231.838	181.88
232.072	215.88
232.306	202.88
232.541	206.88
232.775	208.88
233.009	212.88
233.243	205.88
233.477	200.88
233.711	211.88
233.945	220.88
234.179	223.88
234.413	206.88
234.647	227.88
234.881	211.88
235.115	199.88
235.349	218.88
235.583	220.88
235.817	228.88
236.051	230.88
236.285	223.88
236.519	237.88
236.753	224.88
236.987	245.88
237.221	245.88
237.455	247.88
237.689	255.88
237.922	235.88
238.156	245.88
238.39	253.88
238.624	251.88
238.858	265.88
239.091	251.88
239.325	255.88
239.559	279.88
239.793	270.88
240.027	264.88
240.26	283.88
240.494	275.88
240.728	285.88
240.961	290.88
241.195	281.88
241.429	284.88
241.662	291.88
241.896	294.88
242.13	296.88
242.363	283.88
242.597	317.88
242.83	302.88
243.064	319.88
243.298	312.88
243.531	318.88
243.765	324.88
243.998	344.88
244.232	307.88
244.465	332.88
244.699	338.88
244.932	331.88
245.166	343.88
245.399	322.88
245.633	354.88
245.866	345.88
246.099	350.88
246.333	352.88
246.566	357.88
246.8	362.88
247.033	361.88
247.266	346.88
247.5	351.88
247.733	355.88
247.966	372.88
248.2	394.88
248.433	392.88
248.666	390.88
248.899	391.88
249.133	392.88
249.366	394.88
249.599	398.88
249.832	391.88
250.066	421.88
250.299	402.88
250.532	433.88
250.765	402.88
250.998	407.88
251.231	419.88
251.465	416.88
251.698	449.88
251.931	432.88
252.164	424.88
252.397	438.88
252.63	440.88
252.863	435.88
253.096	448.88
253.329	472.88
253.562	437.88
253.795	446.88
254.028	439.88
254.261	450.88
254.494	465.88
254.727	465.88
254.96	464.88
255.193	448.88
255.426	487.88
255.659	466.88
255.892	492.88
256.124	464.88
256.357	482.88
256.59	504.88
256.823	490.88
257.056	485.88
257.289	501.88
257.521	486.88
257.754	495.88
257.987	513.88
258.22	512.88
258.452	521.88
258.685	511.88
258.918	535.88
259.151	511.88
259.383	514.88
259.616	501.88
259.849	529.88
260.081	525.88
260.314	519.88
260.547	514.88
260.779	516.88
261.012	548.88
261.244	531.88
261.477	528.88
261.71	553.88
261.942	561.88
262.175	534.88
262.407	553.88
262.64	555.88
262.872	571.88
263.105	573.88
263.337	570.88
263.57	582.88
263.802	559.88
264.035	572.88
264.267	583.88
264.499	576.88
264.732	610.88
264.964	577.88
265.197	592.88
265.429	607.88
265.661	585.88
265.894	597.88
266.126	608.88
266.358	589.88
266.591	588.88
266.823	623.88
267.055	607.88
267.287	620.88
267.52	605.88
267.752	617.88
267.984	630.88
268.216	618.88
268.448	635.88
268.681	633.88
268.913	641.88
269.145	634.88
269.377	648.88
269.609	634.88
269.841	631.88
270.073	633.88
270.306	619.88
270.538	629.88
270.77	625.88
271.002	641.88
271.234	672.88
271.466	655.88
271.698	659.88
271.93	677.88
272.162	681.88
272.394	682.88
272.626	656.88
272.858	669.88
273.09	667.88
273.322	681.88
273.553	702.88
273.785	680.88
274.017	690.88
274.249	703.88
274.481	709.88
274.713	706.88
274.945	702.88
275.176	702.88
275.408	727.88
275.64	716.88
275.872	751.88
276.104	729.88
276.335	732.88
276.567	731.88
276.799	746.88
277.031	736.88
277.262	735.88
277.494	735.88
277.726	756.88
277.957	779.88
278.189	748.88
278.421	752.88
278.652	777.88
278.884	756.88
279.115	767.88
279.347	796.88
279.579	774.88
279.81	777.88
280.042	753.88
280.273	794.88
280.505	794.88
280.736	788.88
280.968	784.88
281.199	806.88
281.431	831.88
281.662	798.88
281.894	819.88
282.125	817.88
282.356	829.88
282.588	824.88
282.819	823.88
283.051	828.88
283.282	831.88
283.513	811.88
283.745	854.88
283.976	845.88
284.207	850.88
284.439	860.88
284.67	857.88
284.901	862.88
285.132	888.88
285.364	847.88
285.595	854.88
285.826	849.88
286.057	869.88
286.288	853.88
286.52	859.88
286.751	866.88
286.982	891.88
287.213	861.88
287.444	878.88
287.675	835.88
287.906	891.88
288.138	886.88
288.369	886.88
288.6	902.88
288.831	888.88
289.062	885.88
289.293	882.88
289.524	906.88
289.755	896.88
289.986	915.88
290.217	915.88
290.448	906.88
290.679	911.88
290.91	893.88
291.141	925.88
291.371	931.88
291.602	906.88
291.833	910.88
292.064	918.88
292.295	921.88
292.526	911.88
292.757	920.88
292.987	924.88
293.218	910.88
293.449	926.88
293.68	915.88
293.91	913.88
294.141	923.88
294.372	931.88
294.603	931.88
294.833	929.88
295.064	931.88
295.295	925.88
295.525	921.88
295.756	938.88
295.987	956.88
296.217	946.88
296.448	957.88
296.679	983.88
296.909	931.88
297.14	958.88
297.37	1011.88
297.601	958.88
297.831	997.88
298.062	1014.88
298.292	1003.88
298.523	1009.88
298.753	1006.88
298.984	1023.88
299.214	984.88
299.445	1014.88
299.675	1010.88
299.905	1006.88
300.136	1036.88
300.366	1031.88
300.597	1019.88
300.827	1025.88
301.057	1045.88
301.288	1039.88
301.518	999.88
301.748	1019.88
301.979	1047.88
302.209	1074.88
302.439	1058.88
302.669	1054.88
302.9	1044.88
303.13	1051.88
303.36	1043.88
303.59	1050.88
303.82	1073.88
304.051	1055.88
304.281	1062.88
304.511	1055.88
304.741	1046.88
304.971	1047.88
305.201	1051.88
305.431	1032.88
305.661	1041.88
305.891	1027.88
306.121	1022.88
306.352	1062.88
306.582	1039.88
306.812	1046.88
307.042	1034.88
307.272	1046.88
307.502	1021.88
307.731	1013.88
307.961	1036.88
308.191	1036.88
308.421	1030.88
308.651	1034.88
308.881	1056.88
309.111	1048.88
309.341	1026.88
309.571	1055.88
309.8	1045.88
310.03	1036.88
310.26	1048.88
310.49	1041.88
310.72	1043.88
310.949	1082.88
311.179	1055.88
311.409	1047.88
311.639	1061.88
311.868	1079.88
312.098	1085.88
312.328	1083.88
312.557	1086.88
312.787	1124.88
313.017	1103.88
313.246	1124.88
313.476	1064.88
313.706	1129.88
313.935	1119.88
314.165	1129.88
314.394	1125.88
314.624	1123.88
314.853	1106.88
315.083	1094.88
315.312	1112.88
315.542	1120.88
315.771	1126.88
316.001	1112.88
316.23	1139.88
316.46	1114.88
316.689	1129.88
316.919	1137.88
317.148	1119.88
317.377	1120.88
317.607	1098.88
317.836	1088.88
318.065	1105.88
318.295	1074.88
318.524	1099.88
318.753	1112.88
318.983	1089.88
319.212	1084.88
319.441	1121.88
319.67	1097.88
319.9	1095.88
320.129	1092.88
320.358	1127.88
320.587	1128.88
320.816	1098.88
321.046	1107.88
321.275	1119.88
321.504	1121.88
321.733	1122.88
321.962	1122.88
322.191	1137.88
322.42	1156.88
322.649	1137.88
322.878	1133.88
323.108	1136.88
323.337	1155.88
323.566	1138.88
323.795	1177.88
324.024	1139.88
324.253	1151.88
324.482	1145.88
324.71	1155.88
324.939	1153.88
325.168	1155.88
325.397	1179.88
325.626	1159.88
325.855	1182.88
326.084	1206.88
326.313	1224.88
326.542	1189.88
326.77	1224.88
326.999	1217.88
327.228	1216.88
327.457	1214.88
327.686	1190.88
327.914	1249.88
328.143	1234.88
328.372	1188.88
328.6	1211.88
328.829	1203.88
329.058	1186.88
329.287	1219.88
329.515	1235.88
329.744	1233.88
329.972	1205.88
330.201	1215.88
330.43	1244.88
330.658	1236.88
330.887	1267.88
331.115	1307.88
331.344	1261.88
331.572	1283.88
331.801	1323.88
332.03	1335.88
332.258	1339.88
332.486	1376.88
332.715	1434.88
332.943	1409.88
333.172	1492.88
333.4	1542.88
333.629	1567.88
333.857	1573.88
334.085	1604.88
334.314	1562.88
334.542	1524.88
334.771	1523.88
334.999	1537.88
335.227	1485.88
335.455	1516.88
335.684	1506.88
335.912	1507.88
336.14	1527.88
336.369	1529.88
336.597	1492.88
336.825	1467.88
337.053	1441.88
337.281	1437.88
337.51	1425.88
337.738	1434.88
337.966	1397.88
338.194	1360.88
338.422	1352.88
338.65	1368.88
338.878	1319.88
339.106	1349.88
339.334	1358.88
339.562	1314.88
339.79	1291.88
340.018	1267.88
340.246	1272.88
340.474	1272.88
340.702	1265.88
340.93	1277.88
341.158	1299.88
341.386	1288.88
341.614	1281.88
341.842	1301.88
342.07	1274.88
342.298	1267.88
342.526	1266.88
342.754	1296.88
342.981	1303.88
343.209	1316.88
343.437	1335.88
343.665	1383.88
343.893	1490.88
344.12	1496.88
344.348	1496.88
344.576	1451.88
344.804	1410.88
345.031	1310.88
345.259	1312.88
345.487	1297.88
345.714	1282.88
345.942	1271.88
346.17	1254.88
346.397	1246.88
346.625	1245.88
346.853	1210.88
347.08	1222.88
347.308	1243.88
347.535	1211.88
347.763	1239.88
347.99	1223.88
348.218	1233.88
348.445	1238.88
348.673	1227.88
348.9	1246.88
349.128	1233.88
349.355	1197.88
349.583	1197.88
349.81	1206.88
350.037	1200.88
350.265	1211.88
350.492	1230.88
350.72	1173.88
350.947	1205.88
351.174	1182.88
351.402	1195.88
351.629	1172.88
351.856	1214.88
352.083	1162.88
352.311	1182.88
352.538	1172.88
352.765	1219.88
352.992	1153.88
353.22	1158.88
353.447	1136.88
353.674	1175.88
353.901	1187.88
354.128	1195.88
354.355	1180.88
354.583	1193.88
354.81	1200.88
355.037	1192.88
355.264	1182.88
355.491	1184.88
355.718	1204.88
355.945	1197.88
356.172	1168.88
356.399	1181.88
356.626	1161.88
356.853	1199.88
357.08	1185.88
357.307	1199.88
357.534	1169.88
357.761	1169.88
357.988	1192.88
358.215	1193.88
358.441	1174.88
358.668	1161.88
358.895	1204.88
359.122	1188.88
359.349	1174.88
359.576	1184.88
359.802	1209.88
360.029	1173.88
360.256	1179.88
360.483	1183.88
360.709	1190.88
360.936	1160.88
361.163	1211.88
361.39	1192.88
361.616	1145.88
361.843	1168.88
362.07	1160.88
362.296	1203.88
362.523	1191.88
362.749	1205.88
362.976	1192.88
363.203	1167.88
363.429	1149.88
363.656	1203.88
363.882	1182.88
364.109	1153.88
364.335	1187.88
364.562	1159.88
364.788	1171.88
365.015	1189.88
365.241	1167.88
365.468	1170.88
365.694	1199.88
365.92	1184.88
366.147	1203.88
366.373	1188.88
366.599	1185.88
366.826	1177.88
367.052	1176.88
367.278	1177.88
367.505	1218.88
367.731	1193.88
367.957	1221.88
368.184	1201.88
368.41	1229.88
368.636	1235.88
368.862	1170.88
369.089	1216.88
369.315	1226.88
369.541	1238.88
369.767	1250.88
369.993	1252.88
370.219	1235.88
370.445	1247.88
370.672	1268.88
370.898	1256.88
371.124	1299.88
371.35	1293.88
371.576	1291.88
371.802	1301.88
372.028	1300.88
372.254	1280.88
372.48	1357.88
372.706	1338.88
372.932	1351.88
373.158	1361.88
373.384	1319.88
373.61	1312.88
373.835	1285.88
374.061	1280.88
374.287	1294.88
374.513	1334.88
374.739	1348.88
374.965	1402.88
375.191	1409.88
375.416	1401.88
375.642	1376.88
375.868	1368.88
376.094	1337.88
376.319	1321.88
376.545	1319.88
376.771	1325.88
376.997	1303.88
377.222	1306.88
377.448	1302.88
377.674	1285.88
377.899	1255.88
378.125	1276.88
378.35	1273.88
378.576	1270.88
378.802	1309.88
379.027	1279.88
379.253	1304.88
379.478	1254.88
379.704	1291.88
379.929	1257.88
380.155	1269.88
380.38	1274.88
380.606	1264.88
380.831	1314.88
381.057	1284.88
381.282	1246.88
381.507	1288.88
381.733	1310.88
381.958	1304.88
382.184	1331.88
382.409	1337.88
382.634	1352.88
382.86	1325.88
383.085	1399.88
383.31	1357.88
383.535	1397.88
383.761	1411.88
383.986	1435.88
384.211	1450.88
384.436	1431.88
384.662	1474.88
384.887	1493.88
385.112	1481.88
385.337	1529.88
385.562	1526.88
385.787	1537.88
386.013	1542.88
386.238	1566.88
386.463	1570.88
386.688	1569.88
386.913	1492.88
387.138	1509.88
387.363	1542.88
387.588	1546.88
387.813	1547.88
388.038	1532.88
388.263	1520.88
388.488	1508.88
388.713	1541.88
388.938	1534.88
389.163	1553.88
389.387	1514.88
389.612	1501.88
389.837	1538.88
390.062	1519.88
390.287	1514.88
390.512	1553.88
390.736	1559.88
390.961	1580.88
391.186	1552.88
391.411	1633.88
391.636	1660.88
391.86	1661.88
392.085	1700.88
392.31	1695.88
392.534	1696.88
392.759	1670.88
392.984	1608.88
393.208	1650.88
393.433	1653.88
393.658	1637.88
393.882	1590.88
394.107	1589.88
394.331	1638.88
394.556	1616.88
394.78	1670.88
395.005	1645.88
395.229	1646.88
395.454	1679.88
395.678	1735.88
395.903	1739.88
396.127	1698.88
396.352	1642.88
396.576	1649.88
396.801	1617.88
397.025	1689.88
397.249	1683.88
397.474	1745.88
397.698	1742.88
397.922	1775.88
398.147	1718.88
398.371	1773.88
398.595	1848.88
398.82	1909.88
399.044	1998.88
399.268	2171.88
399.492	2402.88
399.717	2629.88
399.941	2637.88
400.165	2519.88
400.389	2341.88
400.613	2116.88
400.837	2021.88
401.062	2000.88
401.286	1940.88
401.51	1922.88
401.734	1926.88
401.958	1911.88
402.182	1926.88
402.406	1953.88
402.63	1967.88
402.854	1976.88
403.078	1997.88
403.302	2065.88
403.526	2070.88
403.75	2097.88
403.974	2097.88
404.198	2104.88
404.422	2081.88
404.645	2066.88
404.869	2050.88
405.093	2101.88
405.317	2073.88
405.541	2101.88
405.765	2064.88
405.988	2067.88
406.212	2081.88
406.436	2096.88
406.66	2141.88
406.883	2179.88
407.107	2297.88
407.331	2322.88
407.555	2418.88
407.778	2434.88
408.002	2364.88
408.226	2321.88
408.449	2281.88
408.673	2167.88
408.896	2214.88
409.12	2122.88
409.344	2162.88
409.567	2147.88
409.791	2187.88
410.014	2120.88
410.238	2062.88
410.461	2071.88
410.685	2099.88
410.908	2043.88
411.132	2049.88
411.355	1943.88
411.578	2022.88
411.802	1991.88
412.025	2024.88
412.249	2033.88
412.472	2031.88
412.695	1973.88
412.919	1942.88
413.142	1914.88
413.365	1930.88
413.589	1964.88
413.812	1895.88
414.035	1896.88
414.258	1903.88
414.482	1930.88
414.705	1930.88
414.928	1931.88
415.151	1908.88
415.374	1873.88
415.597	1856.88
415.821	1843.88
416.044	1815.88
416.267	1856.88
416.49	1857.88
416.713	1844.88
416.936	1884.88
417.159	1848.88
417.382	1861.88
417.605	1808.88
417.828	1834.88
418.051	1852.88
418.274	1860.88
418.497	1797.88
418.72	1863.88
418.943	1875.88
419.166	1981.88
419.389	2104.88
419.611	2123.88
419.834	1970.88
420.057	1970.88
420.28	1894.88
420.503	1811.88
420.726	1825.88
420.948	1837.88
421.171	1868.88
421.394	1836.88
421.617	1832.88
421.839	1861.88
422.062	1837.88
422.285	1849.88
422.507	1874.88
422.73	1885.88
422.953	1907.88
423.175	1941.88
423.398	1918.88
423.621	1892.88
423.843	1901.88
424.066	1908.88
424.288	1902.88
424.511	1893.88
424.733	1843.88
424.956	1832.88
425.178	1834.88
425.401	1849.88
425.623	1825.88
425.846	1792.88
426.068	1799.88
426.291	1796.88
426.513	1771.88
426.735	1749.88
426.958	1782.88
427.18	1738.88
427.402	1733.88
427.625	1719.88
427.847	1683.88
428.069	1715.88
428.292	1701.88
428.514	1685.88
428.736	1662.88
428.958	1675.88
429.181	1653.88
429.403	1647.88
429.625	1657.88
429.847	1660.88
430.069	1606.88
430.292	1661.88
430.514	1633.88
430.736	1639.88
430.958	1636.88
431.18	1684.88
431.402	1685.88
431.624	1651.88
431.846	1682.88
432.068	1711.88
432.29	1723.88
432.512	1701.88
432.734	1717.88
432.956	1680.88
433.178	1700.88
433.4	1677.88
433.622	1705.88
433.844	1753.88
434.066	1744.88
434.287	1725.88
434.509	1791.88
434.731	1870.88
434.953	1852.88
435.175	1858.88
435.397	1899.88
435.618	1768.88
435.84	1746.88
436.062	1692.88
436.284	1710.88
436.505	1691.88
436.727	1720.88
436.949	1681.88
437.17	1663.88
437.392	1637.88
437.614	1628.88
437.835	1591.88
438.057	1587.88
438.278	1547.88
438.5	1616.88
438.721	1587.88
438.943	1647.88
439.165	1613.88
439.386	1632.88
439.608	1621.88
439.829	1620.88
440.05	1617.88
440.272	1623.88
440.493	1666.88
440.715	1670.88
440.936	1719.88
441.158	1713.88
441.379	1758.88
441.6	1791.88
441.822	1796.88
442.043	1827.88
442.264	1789.88
442.486	1767.88
442.707	1780.88
442.928	1818.88
443.149	1761.88
443.371	1780.88
443.592	1801.88
443.813	1818.88
444.034	1816.88
444.255	1833.88
444.476	1951.88
444.698	2053.88
444.919	2110.88
445.14	2168.88
445.361	2009.88
445.582	1870.88
445.803	1795.88
446.024	1758.88
446.245	1729.88
446.466	1697.88
446.687	1650.88
446.908	1659.88
447.129	1611.88
447.35	1610.88
447.571	1601.88
447.792	1528.88
448.013	1574.88
448.234	1555.88
448.455	1514.88
448.675	1506.88
448.896	1476.88
449.117	1506.88
449.338	1490.88
449.559	1492.88
449.779	1486.88
450	1475.88
450.221	1481.88
450.442	1485.88
450.662	1492.88
450.883	1479.88
451.104	1470.88
451.324	1516.88
451.545	1498.88
451.766	1507.88
451.986	1465.88
452.207	1474.88
452.428	1508.88
452.648	1478.88
452.869	1439.88
453.089	1472.88
453.31	1443.88
453.53	1472.88
453.751	1444.88
453.971	1423.88
454.192	1463.88
454.412	1406.88
454.633	1438.88
454.853	1427.88
455.073	1408.88
455.294	1393.88
455.514	1386.88
455.734	1385.88
455.955	1373.88
456.175	1408.88
456.395	1416.88
456.616	1361.88
456.836	1389.88
457.056	1409.88
457.276	1417.88
457.497	1456.88
457.717	1415.88
457.937	1417.88
458.157	1460.88
458.377	1427.88
458.598	1490.88
458.818	1530.88
459.038	1563.88
459.258	1603.88
459.478	1656.88
459.698	1745.88
459.918	1733.88
460.138	1752.88
460.358	1861.88
460.578	1856.88
460.798	1865.88
461.018	1859.88
461.238	1875.88
461.458	1867.88
461.678	1851.88
461.898	1889.88
462.118	1881.88
462.338	1991.88
462.558	2062.88
462.777	2115.88
462.997	2229.88
463.217	2369.88
463.437	2397.88
463.657	2234.88
463.876	2208.88
464.096	2194.88
464.316	2117.88
464.536	2170.88
464.755	2086.88
464.975	2054.88
465.195	1954.88
465.414	1875.88
465.634	1766.88
465.854	1709.88
466.073	1704.88
466.293	1641.88
466.512	1627.88
466.732	1634.88
466.951	1591.88
467.171	1568.88
467.391	1590.88
467.61	1542.88
467.829	1546.88
468.049	1571.88
468.268	1529.88
468.488	1491.88
468.707	1546.88
468.927	1509.88
469.146	1513.88
469.365	1525.88
469.585	1550.88
469.804	1610.88
470.023	1596.88
470.243	1573.88
470.462	1594.88
470.681	1607.88
470.901	1593.88
471.12	1582.88
471.339	1593.88
471.558	1573.88
471.777	1561.88
471.997	1533.88
472.216	1531.88
472.435	1509.88
472.654	1483.88
472.873	1485.88
473.092	1503.88
473.311	1484.88
473.53	1519.88
473.749	1499.88
473.968	1461.88
474.187	1481.88
474.406	1492.88
474.625	1474.88
474.844	1496.88
475.063	1538.88
475.282	1513.88
475.501	1501.88
475.72	1543.88
475.939	1557.88
476.158	1536.88
476.377	1582.88
476.596	1572.88
476.814	1577.88
477.033	1615.88
477.252	1661.88
477.471	1657.88
477.69	1699.88
477.908	1710.88
478.127	1797.88
478.346	1797.88
478.564	1822.88
478.783	1825.88
479.002	1837.88
479.22	1899.88
479.439	1897.88
479.658	1864.88
479.876	1902.88
480.095	1931.88
480.313	1986.88
480.532	2026.88
480.751	1989.88
480.969	1953.88
481.188	1872.88
481.406	1876.88
481.624	1861.88
481.843	1853.88
482.061	1807.88
482.28	1802.88
482.498	1827.88
482.717	1847.88
482.935	1811.88
483.153	1814.88
483.372	1842.88
483.59	1881.88
483.808	1846.88
484.027	1913.88
484.245	1881.88
484.463	1932.88
484.681	1917.88
484.9	1936.88
485.118	1981.88
485.336	2008.88
485.554	1999.88
485.772	2059.88
485.99	2014.88
486.209	2061.88
486.427	2000.88
486.645	1995.88
486.863	1999.88
487.081	1953.88
487.299	1994.88
487.517	1994.88
487.735	1922.88
487.953	1991.88
488.171	1969.88
488.389	1951.88
488.607	1905.88
488.825	1907.88
489.043	1855.88
489.261	1903.88
489.479	1904.88
489.696	1921.88
489.914	1914.88
