Data from NiCl2@0.25M.TitratingCurve.Agarose3%dH2O.NegLispCup.LampEnergy10.LIBS07252019_HRD10591_18-26-20-573.txt Node
Date: Thu Jul 25 18:26:20 EDT 2019
User: cochatt
Spectrometer: HR+D1059
Trigger mode: 1
Integration Time (sec): 1.000000E-1
Scans to average: 1
Electric dark correction enabled: true
Nonlinearity correction enabled: false
Boxcar width: 0
XAxis mode: Wavelengths
Number of Pixels in Spectrum: 2048
>>>>>Begin Spectral Data<<<<<
223.165	-15.38
223.4	-15.38
223.635	-15.38
223.869	-12.38
224.104	-25.38
224.338	-11.38
224.573	-12.38
224.808	-15.38
225.042	-0.38
225.277	-4.38
225.511	-5.38
225.746	0.62
225.98	1.62
226.215	24.62
226.449	25.62
226.683	11.62
226.918	11.62
227.152	26.62
227.387	49.62
227.621	52.62
227.856	37.62
228.09	40.62
228.324	59.62
228.559	59.62
228.793	69.62
229.027	116.62
229.262	112.62
229.496	116.62
229.73	115.62
229.964	129.62
230.199	140.62
230.433	126.62
230.667	139.62
230.901	145.62
231.136	141.62
231.37	150.62
231.604	145.62
231.838	157.62
232.072	145.62
232.306	150.62
232.541	135.62
232.775	162.62
233.009	140.62
233.243	149.62
233.477	165.62
233.711	163.62
233.945	168.62
234.179	156.62
234.413	145.62
234.647	160.62
234.881	155.62
235.115	159.62
235.349	166.62
235.583	155.62
235.817	167.62
236.051	167.62
236.285	172.62
236.519	167.62
236.753	176.62
236.987	166.62
237.221	163.62
237.455	170.62
237.689	171.62
237.922	177.62
238.156	170.62
238.39	170.62
238.624	170.62
238.858	169.62
239.091	184.62
239.325	183.62
239.559	174.62
239.793	169.62
240.027	183.62
240.26	179.62
240.494	191.62
240.728	205.62
240.961	201.62
241.195	202.62
241.429	205.62
241.662	203.62
241.896	197.62
242.13	208.62
242.363	204.62
242.597	188.62
242.83	211.62
243.064	190.62
243.298	205.62
243.531	215.62
243.765	224.62
243.998	213.62
244.232	226.62
244.465	213.62
244.699	206.62
244.932	215.62
245.166	224.62
245.399	216.62
245.633	220.62
245.866	233.62
246.099	220.62
246.333	219.62
246.566	216.62
246.8	203.62
247.033	225.62
247.266	229.62
247.5	231.62
247.733	258.62
247.966	272.62
248.2	255.62
248.433	251.62
248.666	231.62
248.899	253.62
249.133	253.62
249.366	261.62
249.599	243.62
249.832	246.62
250.066	261.62
250.299	272.62
250.532	264.62
250.765	266.62
250.998	271.62
251.231	266.62
251.465	274.62
251.698	262.62
251.931	284.62
252.164	272.62
252.397	263.62
252.63	283.62
252.863	274.62
253.096	286.62
253.329	294.62
253.562	272.62
253.795	288.62
254.028	292.62
254.261	278.62
254.494	296.62
254.727	294.62
254.96	286.62
255.193	273.62
255.426	284.62
255.659	296.62
255.892	301.62
256.124	300.62
256.357	296.62
256.59	303.62
256.823	296.62
257.056	292.62
257.289	289.62
257.521	307.62
257.754	308.62
257.987	305.62
258.22	312.62
258.452	313.62
258.685	299.62
258.918	305.62
259.151	311.62
259.383	320.62
259.616	320.62
259.849	309.62
260.081	341.62
260.314	323.62
260.547	328.62
260.779	323.62
261.012	315.62
261.244	329.62
261.477	318.62
261.71	333.62
261.942	339.62
262.175	325.62
262.407	332.62
262.64	346.62
262.872	346.62
263.105	358.62
263.337	344.62
263.57	337.62
263.802	357.62
264.035	366.62
264.267	356.62
264.499	353.62
264.732	364.62
264.964	332.62
265.197	352.62
265.429	368.62
265.661	355.62
265.894	373.62
266.126	371.62
266.358	381.62
266.591	375.62
266.823	375.62
267.055	375.62
267.287	377.62
267.52	384.62
267.752	374.62
267.984	388.62
268.216	374.62
268.448	392.62
268.681	372.62
268.913	393.62
269.145	369.62
269.377	376.62
269.609	386.62
269.841	368.62
270.073	380.62
270.306	367.62
270.538	379.62
270.77	392.62
271.002	387.62
271.234	384.62
271.466	399.62
271.698	402.62
271.93	409.62
272.162	411.62
272.394	407.62
272.626	381.62
272.858	384.62
273.09	396.62
273.322	415.62
273.553	419.62
273.785	419.62
274.017	419.62
274.249	417.62
274.481	407.62
274.713	395.62
274.945	432.62
275.176	408.62
275.408	426.62
275.64	432.62
275.872	411.62
276.104	424.62
276.335	425.62
276.567	411.62
276.799	428.62
277.031	448.62
277.262	439.62
277.494	441.62
277.726	440.62
277.957	435.62
278.189	447.62
278.421	440.62
278.652	461.62
278.884	450.62
279.115	452.62
279.347	431.62
279.579	455.62
279.81	467.62
280.042	453.62
280.273	461.62
280.505	450.62
280.736	474.62
280.968	472.62
281.199	464.62
281.431	470.62
281.662	469.62
281.894	476.62
282.125	476.62
282.356	485.62
282.588	483.62
282.819	494.62
283.051	471.62
283.282	473.62
283.513	476.62
283.745	482.62
283.976	488.62
284.207	503.62
284.439	497.62
284.67	506.62
284.901	507.62
285.132	524.62
285.364	519.62
285.595	505.62
285.826	508.62
286.057	516.62
286.288	506.62
286.52	525.62
286.751	515.62
286.982	532.62
287.213	531.62
287.444	512.62
287.675	493.62
287.906	534.62
288.138	525.62
288.369	517.62
288.6	525.62
288.831	538.62
289.062	522.62
289.293	527.62
289.524	526.62
289.755	523.62
289.986	525.62
290.217	532.62
290.448	541.62
290.679	534.62
290.91	563.62
291.141	532.62
291.371	537.62
291.602	527.62
291.833	547.62
292.064	533.62
292.295	536.62
292.526	545.62
292.757	553.62
292.987	535.62
293.218	534.62
293.449	543.62
293.68	553.62
293.91	556.62
294.141	557.62
294.372	552.62
294.603	547.62
294.833	560.62
295.064	538.62
295.295	548.62
295.525	560.62
295.756	551.62
295.987	530.62
296.217	571.62
296.448	568.62
296.679	565.62
296.909	567.62
297.14	564.62
297.37	576.62
297.601	597.62
297.831	579.62
298.062	555.62
298.292	594.62
298.523	606.62
298.753	592.62
298.984	593.62
299.214	594.62
299.445	592.62
299.675	581.62
299.905	601.62
300.136	613.62
300.366	599.62
300.597	620.62
300.827	603.62
301.057	612.62
301.288	640.62
301.518	638.62
301.748	619.62
301.979	620.62
302.209	631.62
302.439	615.62
302.669	604.62
302.9	613.62
303.13	615.62
303.36	620.62
303.59	623.62
303.82	630.62
304.051	632.62
304.281	646.62
304.511	612.62
304.741	586.62
304.971	607.62
305.201	611.62
305.431	619.62
305.661	597.62
305.891	599.62
306.121	606.62
306.352	609.62
306.582	608.62
306.812	580.62
307.042	594.62
307.272	586.62
307.502	600.62
307.731	621.62
307.961	613.62
308.191	625.62
308.421	596.62
308.651	584.62
308.881	584.62
309.111	607.62
309.341	608.62
309.571	606.62
309.8	614.62
310.03	607.62
310.26	612.62
310.49	603.62
310.72	613.62
310.949	598.62
311.179	603.62
311.409	616.62
311.639	613.62
311.868	618.62
312.098	607.62
312.328	633.62
312.557	625.62
312.787	643.62
313.017	629.62
313.246	638.62
313.476	635.62
313.706	646.62
313.935	643.62
314.165	640.62
314.394	660.62
314.624	659.62
314.853	662.62
315.083	661.62
315.312	639.62
315.542	619.62
315.771	632.62
316.001	622.62
316.23	627.62
316.46	633.62
316.689	642.62
316.919	651.62
317.148	624.62
317.377	661.62
317.607	622.62
317.836	626.62
318.065	611.62
318.295	616.62
318.524	618.62
318.753	603.62
318.983	644.62
319.212	617.62
319.441	609.62
319.67	631.62
319.9	637.62
320.129	632.62
320.358	626.62
320.587	640.62
320.816	632.62
321.046	649.62
321.275	641.62
321.504	637.62
321.733	645.62
321.962	632.62
322.191	627.62
322.42	640.62
322.649	640.62
322.878	622.62
323.108	655.62
323.337	666.62
323.566	676.62
323.795	657.62
324.024	652.62
324.253	640.62
324.482	665.62
324.71	640.62
324.939	672.62
325.168	646.62
325.397	661.62
325.626	657.62
325.855	682.62
326.084	678.62
326.313	694.62
326.542	699.62
326.77	700.62
326.999	681.62
327.228	697.62
327.457	695.62
327.686	674.62
327.914	704.62
328.143	700.62
328.372	700.62
328.6	670.62
328.829	686.62
329.058	702.62
329.287	684.62
329.515	732.62
329.744	685.62
329.972	684.62
330.201	722.62
330.43	726.62
330.658	715.62
330.887	705.62
331.115	703.62
331.344	729.62
331.572	737.62
331.801	729.62
332.03	747.62
332.258	773.62
332.486	807.62
332.715	835.62
332.943	860.62
333.172	903.62
333.4	890.62
333.629	935.62
333.857	939.62
334.085	950.62
334.314	947.62
334.542	939.62
334.771	899.62
334.999	886.62
335.227	902.62
335.455	870.62
335.684	881.62
335.912	864.62
336.14	858.62
336.369	835.62
336.597	850.62
336.825	852.62
337.053	847.62
337.281	832.62
337.51	831.62
337.738	809.62
337.966	774.62
338.194	792.62
338.422	761.62
338.65	742.62
338.878	752.62
339.106	780.62
339.334	785.62
339.562	753.62
339.79	745.62
340.018	729.62
340.246	718.62
340.474	722.62
340.702	733.62
340.93	717.62
341.158	733.62
341.386	728.62
341.614	753.62
341.842	732.62
342.07	735.62
342.298	739.62
342.526	727.62
342.754	696.62
342.981	735.62
343.209	740.62
343.437	778.62
343.665	811.62
343.893	847.62
344.12	907.62
344.348	883.62
344.576	821.62
344.804	795.62
345.031	763.62
345.259	767.62
345.487	731.62
345.714	712.62
345.942	715.62
346.17	709.62
346.397	714.62
346.625	711.62
346.853	696.62
347.08	698.62
347.308	715.62
347.535	704.62
347.763	718.62
347.99	707.62
348.218	724.62
348.445	724.62
348.673	697.62
348.9	685.62
349.128	672.62
349.355	684.62
349.583	700.62
349.81	684.62
350.037	676.62
350.265	680.62
350.492	668.62
350.72	683.62
350.947	686.62
351.174	682.62
351.402	682.62
351.629	656.62
351.856	665.62
352.083	665.62
352.311	664.62
352.538	667.62
352.765	665.62
352.992	656.62
353.22	674.62
353.447	673.62
353.674	638.62
353.901	665.62
354.128	683.62
354.355	656.62
354.583	687.62
354.81	666.62
355.037	688.62
355.264	697.62
355.491	667.62
355.718	671.62
355.945	662.62
356.172	674.62
356.399	678.62
356.626	708.62
356.853	685.62
357.08	688.62
357.307	681.62
357.534	683.62
357.761	690.62
357.988	695.62
358.215	658.62
358.441	647.62
358.668	675.62
358.895	679.62
359.122	676.62
359.349	699.62
359.576	673.62
359.802	662.62
360.029	672.62
360.256	686.62
360.483	685.62
360.709	686.62
360.936	682.62
361.163	680.62
361.39	668.62
361.616	673.62
361.843	678.62
362.07	688.62
362.296	693.62
362.523	694.62
362.749	661.62
362.976	657.62
363.203	697.62
363.429	680.62
363.656	676.62
363.882	683.62
364.109	687.62
364.335	661.62
364.562	674.62
364.788	668.62
365.015	693.62
365.241	671.62
365.468	665.62
365.694	683.62
365.92	686.62
366.147	668.62
366.373	647.62
366.599	671.62
366.826	674.62
367.052	668.62
367.278	680.62
367.505	671.62
367.731	656.62
367.957	684.62
368.184	698.62
368.41	675.62
368.636	671.62
368.862	700.62
369.089	696.62
369.315	685.62
369.541	711.62
369.767	709.62
369.993	704.62
370.219	688.62
370.445	697.62
370.672	700.62
370.898	719.62
371.124	702.62
371.35	743.62
371.576	736.62
371.802	719.62
372.028	720.62
372.254	718.62
372.48	732.62
372.706	747.62
372.932	782.62
373.158	773.62
373.384	743.62
373.61	748.62
373.835	745.62
374.061	728.62
374.287	748.62
374.513	737.62
374.739	767.62
374.965	817.62
375.191	822.62
375.416	825.62
375.642	781.62
375.868	777.62
376.094	748.62
376.319	768.62
376.545	732.62
376.771	745.62
376.997	717.62
377.222	747.62
377.448	747.62
377.674	746.62
377.899	745.62
378.125	747.62
378.35	721.62
378.576	736.62
378.802	720.62
379.027	725.62
379.253	741.62
379.478	744.62
379.704	730.62
379.929	760.62
380.155	735.62
380.38	717.62
380.606	759.62
380.831	745.62
381.057	711.62
381.282	704.62
381.507	728.62
381.733	732.62
381.958	755.62
382.184	782.62
382.409	755.62
382.634	771.62
382.86	791.62
383.085	795.62
383.31	784.62
383.535	802.62
383.761	816.62
383.986	834.62
384.211	835.62
384.436	843.62
384.662	847.62
384.887	895.62
385.112	886.62
385.337	899.62
385.562	901.62
385.787	895.62
386.013	910.62
386.238	906.62
386.463	868.62
386.688	915.62
386.913	888.62
387.138	867.62
387.363	871.62
387.588	898.62
387.813	891.62
388.038	874.62
388.263	870.62
388.488	865.62
388.713	891.62
388.938	892.62
389.163	838.62
389.387	885.62
389.612	887.62
389.837	848.62
390.062	862.62
390.287	862.62
390.512	848.62
390.736	902.62
390.961	901.62
391.186	913.62
391.411	933.62
391.636	975.62
391.86	998.62
392.085	1005.62
392.31	1006.62
392.534	949.62
392.759	958.62
392.984	959.62
393.208	962.62
393.433	949.62
393.658	962.62
393.882	948.62
394.107	948.62
394.331	962.62
394.556	950.62
394.78	948.62
395.005	976.62
395.229	957.62
395.454	963.62
395.678	1021.62
395.903	990.62
396.127	1012.62
396.352	1000.62
396.576	934.62
396.801	931.62
397.025	955.62
397.249	985.62
397.474	991.62
397.698	968.62
397.922	1016.62
398.147	1001.62
398.371	1025.62
398.595	1027.62
398.82	1119.62
399.044	1190.62
399.268	1325.62
399.492	1490.62
399.717	1683.62
399.941	1755.62
400.165	1572.62
400.389	1406.62
400.613	1307.62
400.837	1219.62
401.062	1166.62
401.286	1154.62
401.51	1144.62
401.734	1151.62
401.958	1146.62
402.182	1177.62
402.406	1181.62
402.63	1185.62
402.854	1207.62
403.078	1205.62
403.302	1252.62
403.526	1278.62
403.75	1295.62
403.974	1303.62
404.198	1306.62
404.422	1331.62
404.645	1285.62
404.869	1265.62
405.093	1302.62
405.317	1256.62
405.541	1268.62
405.765	1253.62
405.988	1226.62
406.212	1231.62
406.436	1246.62
406.66	1297.62
406.883	1289.62
407.107	1346.62
407.331	1457.62
407.555	1483.62
407.778	1455.62
408.002	1429.62
408.226	1392.62
408.449	1355.62
408.673	1335.62
408.896	1267.62
409.12	1290.62
409.344	1288.62
409.567	1268.62
409.791	1279.62
410.014	1284.62
410.238	1249.62
410.461	1250.62
410.685	1246.62
410.908	1208.62
411.132	1189.62
411.355	1189.62
411.578	1180.62
411.802	1177.62
412.025	1184.62
412.249	1197.62
412.472	1195.62
412.695	1142.62
412.919	1149.62
413.142	1159.62
413.365	1164.62
413.589	1160.62
413.812	1105.62
414.035	1117.62
414.258	1126.62
414.482	1123.62
414.705	1149.62
414.928	1136.62
415.151	1134.62
415.374	1133.62
415.597	1120.62
415.821	1098.62
416.044	1103.62
416.267	1093.62
416.49	1100.62
416.713	1099.62
416.936	1104.62
417.159	1107.62
417.382	1122.62
417.605	1105.62
417.828	1134.62
418.051	1121.62
418.274	1111.62
418.497	1109.62
418.72	1156.62
418.943	1125.62
419.166	1228.62
419.389	1312.62
419.611	1255.62
419.834	1229.62
420.057	1187.62
420.28	1159.62
420.503	1131.62
420.726	1112.62
420.948	1114.62
421.171	1110.62
421.394	1110.62
421.617	1117.62
421.839	1107.62
422.062	1112.62
422.285	1111.62
422.507	1118.62
422.73	1144.62
422.953	1137.62
423.175	1163.62
423.398	1199.62
423.621	1131.62
423.843	1156.62
424.066	1165.62
424.288	1160.62
424.511	1143.62
424.733	1149.62
424.956	1145.62
425.178	1124.62
425.401	1147.62
425.623	1117.62
425.846	1076.62
426.068	1087.62
426.291	1055.62
426.513	1084.62
426.735	1029.62
426.958	1058.62
427.18	1031.62
427.402	1008.62
427.625	982.62
427.847	972.62
428.069	1010.62
428.292	994.62
428.514	979.62
428.736	992.62
428.958	969.62
429.181	985.62
429.403	989.62
429.625	973.62
429.847	966.62
430.069	957.62
430.292	976.62
430.514	955.62
430.736	923.62
430.958	971.62
431.18	979.62
431.402	987.62
431.624	959.62
431.846	990.62
432.068	1005.62
432.29	1032.62
432.512	988.62
432.734	975.62
432.956	993.62
433.178	991.62
433.4	967.62
433.622	992.62
433.844	990.62
434.066	998.62
434.287	1008.62
434.509	1034.62
434.731	1121.62
434.953	1095.62
435.175	1086.62
435.397	1095.62
435.618	1051.62
435.84	1003.62
436.062	1019.62
436.284	980.62
436.505	982.62
436.727	979.62
436.949	976.62
437.17	996.62
437.392	949.62
437.614	957.62
437.835	943.62
438.057	989.62
438.278	939.62
438.5	936.62
438.721	957.62
438.943	957.62
439.165	951.62
439.386	950.62
439.608	997.62
439.829	967.62
440.05	986.62
440.272	1004.62
440.493	984.62
440.715	1020.62
440.936	1020.62
441.158	1046.62
441.379	1058.62
441.6	1145.62
441.822	1124.62
442.043	1112.62
442.264	1107.62
442.486	1063.62
442.707	1089.62
442.928	1064.62
443.149	1048.62
443.371	1100.62
443.592	1063.62
443.813	1106.62
444.034	1107.62
444.255	1144.62
444.476	1222.62
444.698	1255.62
444.919	1304.62
445.14	1356.62
445.361	1235.62
445.582	1153.62
445.803	1085.62
446.024	1059.62
446.245	1042.62
446.466	1041.62
446.687	1011.62
446.908	993.62
447.129	967.62
447.35	951.62
447.571	947.62
447.792	923.62
448.013	936.62
448.234	895.62
448.455	917.62
448.675	893.62
448.896	884.62
449.117	903.62
449.338	899.62
449.559	890.62
449.779	874.62
450	891.62
450.221	899.62
450.442	883.62
450.662	894.62
450.883	897.62
451.104	925.62
451.324	935.62
451.545	909.62
451.766	896.62
451.986	923.62
452.207	882.62
452.428	896.62
452.648	891.62
452.869	890.62
453.089	855.62
453.31	895.62
453.53	845.62
453.751	868.62
453.971	862.62
454.192	885.62
454.412	842.62
454.633	856.62
454.853	857.62
455.073	856.62
455.294	817.62
455.514	864.62
455.734	861.62
455.955	833.62
456.175	817.62
456.395	839.62
456.616	815.62
456.836	835.62
457.056	833.62
457.276	839.62
457.497	857.62
457.717	827.62
457.937	883.62
458.157	888.62
458.377	896.62
458.598	915.62
458.818	913.62
459.038	927.62
459.258	974.62
459.478	1027.62
459.698	1035.62
459.918	1045.62
460.138	1054.62
460.358	1132.62
460.578	1159.62
460.798	1167.62
461.018	1211.62
461.238	1165.62
461.458	1156.62
461.678	1163.62
461.898	1187.62
462.118	1190.62
462.338	1261.62
462.558	1275.62
462.777	1363.62
462.997	1480.62
463.217	1515.62
463.437	1561.62
463.657	1457.62
463.876	1387.62
464.096	1382.62
464.316	1376.62
464.536	1379.62
464.755	1350.62
464.975	1264.62
465.195	1201.62
465.414	1164.62
465.634	1068.62
465.854	1051.62
466.073	997.62
466.293	995.62
466.512	977.62
466.732	937.62
466.951	972.62
467.171	952.62
467.391	949.62
467.61	919.62
467.829	947.62
468.049	954.62
468.268	888.62
468.488	933.62
468.707	902.62
468.927	930.62
469.146	935.62
469.365	930.62
469.585	925.62
469.804	938.62
470.023	972.62
470.243	981.62
470.462	972.62
470.681	992.62
470.901	971.62
471.12	979.62
471.339	974.62
471.558	956.62
471.777	920.62
471.997	944.62
472.216	890.62
472.435	907.62
472.654	902.62
472.873	903.62
473.092	877.62
473.311	872.62
473.53	924.62
473.749	893.62
473.968	893.62
474.187	892.62
474.406	879.62
474.625	887.62
474.844	873.62
475.063	874.62
475.282	871.62
475.501	899.62
475.72	895.62
475.939	884.62
476.158	881.62
476.377	921.62
476.596	901.62
476.814	950.62
477.033	926.62
477.252	938.62
477.471	975.62
477.69	1019.62
477.908	1014.62
478.127	1056.62
478.346	1083.62
478.564	1061.62
478.783	1077.62
479.002	1123.62
479.22	1135.62
479.439	1141.62
479.658	1100.62
479.876	1077.62
480.095	1104.62
480.313	1171.62
480.532	1167.62
480.751	1209.62
480.969	1148.62
481.188	1100.62
481.406	1077.62
481.624	1022.62
481.843	1006.62
482.061	1041.62
482.28	1004.62
482.498	1006.62
482.717	991.62
482.935	1010.62
483.153	1000.62
483.372	982.62
483.59	1013.62
483.808	1002.62
484.027	1013.62
484.245	1007.62
484.463	1005.62
484.681	1028.62
484.9	1032.62
485.118	1034.62
485.336	1044.62
485.554	1043.62
485.772	1063.62
485.99	1072.62
486.209	1083.62
486.427	1069.62
486.645	1065.62
486.863	1080.62
487.081	1075.62
487.299	1091.62
487.517	1038.62
487.735	1048.62
487.953	1064.62
488.171	1083.62
488.389	1055.62
488.607	1059.62
488.825	1054.62
489.043	1011.62
489.261	1041.62
489.479	1053.62
489.696	1068.62
489.914	1045.62
490.132	1075.62
490.35	1049.62
490.568	1072.62
490.786	1053.62
491.003	1087.62
491.221	1106.62
491.439	1067.62
491.657	1088.62
491.874	1061.62
492.092	1091.62
492.31	1086.62
492.527	1091.62
492.745	1096.62
492.963	1084.62
493.18	1120.62
493.398	1112.62
493.615	1094.62
493.833	1084.62
494.05	1152.62
494.268	1155.62
494.485	1128.62
494.703	1136.62
494.92	1153.62
495.138	1149.62
495.355	1148.62
495.573	1147.62
495.79	1153.62
496.008	1191.62
496.225	1170.62
496.442	1176.62
496.66	1197.62
496.877	1240.62
497.094	1239.62
497.312	1253.62
497.529	1273.62
