Data from NiCl2@0.25M.TitratingCurve.Agarose3%dH2O.NegLispCup.LampEnergy10.LIBS07252019_HRD10591_18-24-49-574.txt Node
Date: Thu Jul 25 18:24:49 EDT 2019
User: cochatt
Spectrometer: HR+D1059
Trigger mode: 1
Integration Time (sec): 1.000000E-1
Scans to average: 1
Electric dark correction enabled: true
Nonlinearity correction enabled: false
Boxcar width: 0
XAxis mode: Wavelengths
Number of Pixels in Spectrum: 2048
>>>>>Begin Spectral Data<<<<<
223.165	-22
223.4	-22
223.635	-22
223.869	-12
224.104	-14
224.338	-13
224.573	-20
224.808	-19
225.042	-4
225.277	3
225.511	1
225.746	7
225.98	-8
226.215	14
226.449	18
226.683	12
226.918	27
227.152	30
227.387	21
227.621	31
227.856	37
228.09	43
228.324	50
228.559	68
228.793	71
229.027	114
229.262	132
229.496	121
229.73	129
229.964	127
230.199	133
230.433	143
230.667	130
230.901	152
231.136	149
231.37	161
231.604	149
231.838	144
232.072	161
232.306	165
232.541	157
232.775	153
233.009	163
233.243	152
233.477	157
233.711	153
233.945	158
234.179	167
234.413	179
234.647	157
234.881	166
235.115	166
235.349	161
235.583	188
235.817	148
236.051	178
236.285	163
236.519	157
236.753	168
236.987	172
237.221	159
237.455	184
237.689	188
237.922	164
238.156	190
238.39	182
238.624	180
238.858	190
239.091	190
239.325	201
239.559	189
239.793	204
240.027	194
240.26	206
240.494	203
240.728	187
240.961	200
241.195	204
241.429	204
241.662	199
241.896	212
242.13	201
242.363	212
242.597	210
242.83	208
243.064	212
243.298	235
243.531	219
243.765	225
243.998	227
244.232	221
244.465	235
244.699	229
244.932	232
245.166	245
245.399	244
245.633	248
245.866	234
246.099	240
246.333	243
246.566	241
246.8	251
247.033	247
247.266	263
247.5	254
247.733	256
247.966	238
248.2	244
248.433	264
248.666	252
248.899	268
249.133	264
249.366	269
249.599	269
249.832	258
250.066	278
250.299	287
250.532	268
250.765	274
250.998	294
251.231	305
251.465	284
251.698	282
251.931	292
252.164	280
252.397	300
252.63	300
252.863	309
253.096	319
253.329	306
253.562	325
253.795	329
254.028	307
254.261	305
254.494	304
254.727	315
254.96	307
255.193	317
255.426	334
255.659	336
255.892	344
256.124	340
256.357	317
256.59	331
256.823	323
257.056	336
257.289	343
257.521	334
257.754	342
257.987	324
258.22	345
258.452	337
258.685	334
258.918	342
259.151	346
259.383	342
259.616	354
259.849	346
260.081	360
260.314	351
260.547	335
260.779	360
261.012	356
261.244	357
261.477	364
261.71	378
261.942	355
262.175	376
262.407	358
262.64	347
262.872	357
263.105	382
263.337	374
263.57	387
263.802	406
264.035	394
264.267	386
264.499	389
264.732	388
264.964	395
265.197	400
265.429	392
265.661	392
265.894	412
266.126	409
266.358	408
266.591	386
266.823	407
267.055	415
267.287	402
267.52	397
267.752	413
267.984	414
268.216	412
268.448	433
268.681	420
268.913	422
269.145	418
269.377	421
269.609	420
269.841	416
270.073	402
270.306	430
270.538	422
270.77	431
271.002	423
271.234	435
271.466	428
271.698	428
271.93	436
272.162	462
272.394	458
272.626	430
272.858	439
273.09	451
273.322	432
273.553	445
273.785	442
274.017	454
274.249	438
274.481	463
274.713	463
274.945	474
275.176	468
275.408	463
275.64	458
275.872	466
276.104	493
276.335	462
276.567	475
276.799	472
277.031	457
277.262	458
277.494	492
277.726	488
277.957	472
278.189	495
278.421	465
278.652	474
278.884	493
279.115	499
279.347	501
279.579	496
279.81	517
280.042	489
280.273	520
280.505	496
280.736	501
280.968	520
281.199	504
281.431	525
281.662	525
281.894	524
282.125	518
282.356	544
282.588	540
282.819	545
283.051	538
283.282	519
283.513	547
283.745	554
283.976	525
284.207	545
284.439	547
284.67	557
284.901	552
285.132	540
285.364	553
285.595	556
285.826	550
286.057	580
286.288	589
286.52	546
286.751	573
286.982	600
287.213	583
287.444	556
287.675	578
287.906	577
288.138	572
288.369	565
288.6	592
288.831	574
289.062	571
289.293	564
289.524	574
289.755	594
289.986	581
290.217	604
290.448	593
290.679	605
290.91	590
291.141	586
291.371	613
291.602	593
291.833	580
292.064	595
292.295	595
292.526	580
292.757	635
292.987	584
293.218	583
293.449	615
293.68	629
293.91	607
294.141	596
294.372	588
294.603	613
294.833	590
295.064	622
295.295	603
295.525	610
295.756	622
295.987	611
296.217	614
296.448	652
296.679	628
296.909	627
297.14	621
297.37	644
297.601	635
297.831	628
298.062	625
298.292	630
298.523	668
298.753	681
298.984	658
299.214	627
299.445	662
299.675	627
299.905	663
300.136	636
300.366	650
300.597	684
300.827	649
301.057	677
301.288	679
301.518	685
301.748	694
301.979	699
302.209	688
302.439	681
302.669	704
302.9	696
303.13	692
303.36	669
303.59	659
303.82	679
304.051	679
304.281	700
304.511	653
304.741	695
304.971	664
305.201	661
305.431	682
305.661	672
305.891	655
306.121	679
306.352	688
306.582	680
306.812	667
307.042	651
307.272	671
307.502	653
307.731	679
307.961	645
308.191	692
308.421	660
308.651	671
308.881	676
309.111	670
309.341	650
309.571	672
309.8	649
310.03	652
310.26	668
310.49	673
310.72	662
310.949	669
311.179	676
311.409	681
311.639	692
311.868	674
312.098	674
312.328	719
312.557	699
312.787	681
313.017	708
313.246	694
313.476	676
313.706	682
313.935	715
314.165	713
314.394	730
314.624	714
314.853	742
315.083	719
315.312	706
315.542	714
315.771	738
316.001	696
316.23	713
316.46	710
316.689	713
316.919	662
317.148	715
317.377	684
317.607	715
317.836	685
318.065	685
318.295	686
318.524	712
318.753	694
318.983	709
319.212	691
319.441	702
319.67	705
319.9	709
320.129	718
320.358	698
320.587	693
320.816	714
321.046	712
321.275	707
321.504	701
321.733	702
321.962	688
322.191	713
322.42	694
322.649	704
322.878	726
323.108	707
323.337	723
323.566	704
323.795	709
324.024	724
324.253	733
324.482	732
324.71	731
324.939	737
325.168	745
325.397	725
325.626	744
325.855	756
326.084	753
326.313	761
326.542	776
326.77	789
326.999	768
327.228	737
327.457	774
327.686	755
327.914	763
328.143	762
328.372	748
328.6	760
328.829	794
329.058	747
329.287	776
329.515	772
329.744	774
329.972	764
330.201	796
330.43	812
330.658	812
330.887	795
331.115	826
331.344	807
331.572	842
331.801	822
332.03	874
332.258	872
332.486	912
332.715	920
332.943	967
333.172	998
333.4	1032
333.629	1041
333.857	1087
334.085	1065
334.314	1063
334.542	1022
334.771	1004
334.999	1010
335.227	958
335.455	986
335.684	981
335.912	935
336.14	936
336.369	914
336.597	932
336.825	923
337.053	937
337.281	913
337.51	887
337.738	871
337.966	882
338.194	841
338.422	861
338.65	848
338.878	837
339.106	813
339.334	836
339.562	813
339.79	828
340.018	834
340.246	782
340.474	780
340.702	829
340.93	805
341.158	798
341.386	805
341.614	828
341.842	810
342.07	818
342.298	809
342.526	788
342.754	813
342.981	784
343.209	852
343.437	853
343.665	920
343.893	962
344.12	987
344.348	956
344.576	939
344.804	873
345.031	837
345.259	822
345.487	809
345.714	816
345.942	792
346.17	801
346.397	791
346.625	801
346.853	769
347.08	783
347.308	788
347.535	785
347.763	772
347.99	788
348.218	772
348.445	788
348.673	780
348.9	771
349.128	763
349.355	778
349.583	764
349.81	754
350.037	766
350.265	752
350.492	764
350.72	741
350.947	768
351.174	753
351.402	743
351.629	752
351.856	754
352.083	741
352.311	761
352.538	758
352.765	790
352.992	768
353.22	741
353.447	741
353.674	730
353.901	722
354.128	744
354.355	733
354.583	738
354.81	766
355.037	739
355.264	746
355.491	761
355.718	757
355.945	715
356.172	769
356.399	749
356.626	760
356.853	764
357.08	736
357.307	730
357.534	761
357.761	740
357.988	761
358.215	747
358.441	727
358.668	778
358.895	758
359.122	739
359.349	759
359.576	721
359.802	749
360.029	774
360.256	788
360.483	742
360.709	762
360.936	757
361.163	758
361.39	745
361.616	756
361.843	744
362.07	778
362.296	749
362.523	749
362.749	713
362.976	722
363.203	748
363.429	723
363.656	745
363.882	754
364.109	712
364.335	729
364.562	732
364.788	734
365.015	743
365.241	731
365.468	745
365.694	756
365.92	755
366.147	745
366.373	722
366.599	736
366.826	741
367.052	724
367.278	749
367.505	756
367.731	756
367.957	742
368.184	744
368.41	765
368.636	760
368.862	790
369.089	766
369.315	810
369.541	796
369.767	746
369.993	770
370.219	798
370.445	792
370.672	809
370.898	818
371.124	792
371.35	836
371.576	818
371.802	805
372.028	779
372.254	818
372.48	814
372.706	829
372.932	846
373.158	866
373.384	831
373.61	844
373.835	809
374.061	802
374.287	823
374.513	828
374.739	844
374.965	906
375.191	902
375.416	905
375.642	874
375.868	876
376.094	845
376.319	846
376.545	823
376.771	807
376.997	807
377.222	824
377.448	816
377.674	813
377.899	794
378.125	808
378.35	797
378.576	796
378.802	775
379.027	809
379.253	782
379.478	811
379.704	782
379.929	822
380.155	827
380.38	802
380.606	796
380.831	810
381.057	834
381.282	826
381.507	816
381.733	802
381.958	795
382.184	834
382.409	844
382.634	858
382.86	848
383.085	880
383.31	860
383.535	862
383.761	910
383.986	941
384.211	928
384.436	928
384.662	937
384.887	968
385.112	998
385.337	972
385.562	980
385.787	996
386.013	992
386.238	992
386.463	952
386.688	1002
386.913	952
387.138	985
387.363	944
387.588	956
387.813	968
388.038	972
388.263	978
388.488	988
388.713	975
388.938	980
389.163	914
389.387	930
389.612	942
389.837	924
390.062	956
390.287	962
390.512	973
390.736	981
390.961	969
391.186	1002
391.411	1051
391.636	1072
391.86	1092
392.085	1146
392.31	1094
392.534	1078
392.759	1107
392.984	1042
393.208	1012
393.433	1034
393.658	1044
393.882	1056
394.107	1041
394.331	1065
394.556	1054
394.78	1028
395.005	1029
395.229	1067
395.454	1106
395.678	1110
395.903	1101
396.127	1101
396.352	1054
396.576	1029
396.801	1026
397.025	1046
397.249	1074
397.474	1130
397.698	1105
397.922	1108
398.147	1114
398.371	1106
398.595	1147
398.82	1232
399.044	1289
399.268	1436
399.492	1644
399.717	1900
399.941	1894
400.165	1724
400.389	1518
400.613	1413
400.837	1313
401.062	1273
401.286	1265
401.51	1231
401.734	1221
401.958	1248
402.182	1263
402.406	1295
402.63	1294
402.854	1343
403.078	1321
403.302	1361
403.526	1388
403.75	1436
403.974	1422
404.198	1445
404.422	1465
404.645	1453
404.869	1410
405.093	1393
405.317	1422
405.541	1368
405.765	1326
405.988	1388
406.212	1373
406.436	1408
406.66	1382
406.883	1422
407.107	1492
407.331	1545
407.555	1630
407.778	1615
408.002	1554
408.226	1498
408.449	1506
408.673	1437
408.896	1364
409.12	1426
409.344	1395
409.567	1385
409.791	1385
410.014	1378
410.238	1385
410.461	1385
410.685	1358
410.908	1337
411.132	1287
411.355	1252
411.578	1276
411.802	1273
412.025	1291
412.249	1286
412.472	1321
412.695	1240
412.919	1219
413.142	1226
413.365	1246
413.589	1255
413.812	1204
414.035	1209
414.258	1232
414.482	1254
414.705	1233
414.928	1226
415.151	1250
415.374	1203
415.597	1212
415.821	1196
416.044	1194
416.267	1199
416.49	1174
416.713	1193
416.936	1213
417.159	1219
417.382	1187
417.605	1198
417.828	1204
418.051	1221
418.274	1220
418.497	1228
418.72	1249
418.943	1264
419.166	1323
419.389	1440
419.611	1399
419.834	1337
420.057	1274
420.28	1243
420.503	1202
420.726	1206
420.948	1219
421.171	1200
421.394	1200
421.617	1189
421.839	1222
422.062	1213
422.285	1174
422.507	1229
422.73	1237
422.953	1247
423.175	1280
423.398	1308
423.621	1275
423.843	1302
424.066	1315
424.288	1275
424.511	1285
424.733	1220
424.956	1230
425.178	1216
425.401	1240
425.623	1232
425.846	1175
426.068	1152
426.291	1146
426.513	1150
426.735	1162
426.958	1148
427.18	1105
427.402	1140
427.625	1098
427.847	1085
428.069	1102
428.292	1091
428.514	1068
428.736	1077
428.958	1089
429.181	1060
429.403	1059
429.625	1026
429.847	1055
430.069	1046
430.292	1042
430.514	1052
430.736	1064
430.958	1063
431.18	1043
431.402	1088
431.624	1072
431.846	1061
432.068	1076
432.29	1080
432.512	1081
432.734	1081
432.956	1068
433.178	1090
433.4	1064
433.622	1072
433.844	1083
434.066	1089
434.287	1085
434.509	1148
434.731	1179
434.953	1220
435.175	1222
435.397	1192
435.618	1127
435.84	1096
436.062	1090
436.284	1084
436.505	1060
436.727	1077
436.949	1084
437.17	1047
437.392	1056
437.614	1048
437.835	1037
438.057	1037
438.278	1040
438.5	1028
438.721	1000
438.943	1025
439.165	1029
439.386	1034
439.608	1076
439.829	1075
440.05	1079
440.272	1095
440.493	1091
440.715	1081
440.936	1124
441.158	1147
441.379	1136
441.6	1198
441.822	1206
442.043	1213
442.264	1151
442.486	1160
442.707	1184
442.928	1166
443.149	1197
443.371	1152
443.592	1202
443.813	1185
444.034	1186
444.255	1258
444.476	1336
444.698	1364
444.919	1443
445.14	1530
445.361	1369
445.582	1253
445.803	1180
446.024	1131
446.245	1094
446.466	1122
446.687	1086
446.908	1080
447.129	1065
447.35	1037
447.571	998
447.792	994
448.013	1011
448.234	978
448.455	1006
448.675	991
448.896	989
449.117	973
449.338	962
449.559	956
449.779	945
450	972
450.221	962
450.442	985
450.662	1006
450.883	969
451.104	1010
451.324	1012
451.545	998
451.766	1000
451.986	989
452.207	960
452.428	959
452.648	963
452.869	943
453.089	937
453.31	970
453.53	950
453.751	943
453.971	930
454.192	964
454.412	905
454.633	924
454.853	928
455.073	917
455.294	941
455.514	900
455.734	930
455.955	874
456.175	904
456.395	911
456.616	910
456.836	918
457.056	886
457.276	899
457.497	923
457.717	906
457.937	898
458.157	908
458.377	980
458.598	948
458.818	967
459.038	1005
459.258	1093
459.478	1083
459.698	1108
459.918	1142
460.138	1190
460.358	1227
460.578	1265
460.798	1266
461.018	1305
461.238	1223
461.458	1259
461.678	1231
461.898	1299
462.118	1312
462.338	1370
462.558	1392
462.777	1429
462.997	1557
463.217	1732
463.437	1716
463.657	1574
463.876	1532
464.096	1520
464.316	1493
464.536	1464
464.755	1462
464.975	1384
465.195	1322
465.414	1224
465.634	1155
465.854	1134
466.073	1076
466.293	1062
466.512	1061
466.732	1040
466.951	1018
467.171	1023
467.391	1004
467.61	981
467.829	990
468.049	1042
468.268	1011
468.488	982
468.707	949
468.927	980
469.146	968
469.365	1003
469.585	982
469.804	1030
470.023	1052
470.243	1061
470.462	1042
470.681	1052
470.901	1065
471.12	1063
471.339	1018
471.558	989
471.777	1017
471.997	1003
472.216	971
472.435	946
472.654	972
472.873	965
473.092	955
473.311	969
473.53	942
473.749	952
473.968	961
474.187	938
474.406	966
474.625	927
474.844	928
475.063	946
475.282	944
475.501	979
475.72	969
475.939	985
476.158	986
476.377	999
476.596	1016
476.814	1012
477.033	992
477.252	1039
477.471	1043
477.69	1105
477.908	1129
478.127	1153
478.346	1156
478.564	1188
478.783	1172
479.002	1215
479.22	1210
479.439	1195
479.658	1184
479.876	1194
480.095	1228
480.313	1238
480.532	1298
480.751	1272
480.969	1235
481.188	1192
481.406	1152
481.624	1102
481.843	1121
482.061	1094
482.28	1082
482.498	1099
482.717	1081
482.935	1109
483.153	1101
483.372	1116
483.59	1094
483.808	1120
484.027	1108
484.245	1102
484.463	1082
484.681	1116
484.9	1116
485.118	1149
485.336	1122
485.554	1155
485.772	1125
485.99	1138
486.209	1141
486.427	1162
486.645	1165
486.863	1184
487.081	1169
487.299	1124
487.517	1152
487.735	1123
487.953	1166
488.171	1152
488.389	1128
488.607	1125
488.825	1113
489.043	1104
489.261	1121
489.479	1119
489.696	1159
489.914	1139
490.132	1137
490.35	1154
490.568	1137
490.786	1156
491.003	1142
491.221	1166
491.439	1155
491.657	1162
491.874	1183
492.092	1195
492.31	1165
492.527	1146
492.745	1142
492.963	1161
493.18	1190
493.398	1184
493.615	1191
493.833	1188
494.05	1220
494.268	1191
494.485	1249
494.703	1213
494.92	1269
495.138	1257
495.355	1220
495.573	1210
495.79	1196
496.008	1265
496.225	1265
496.442	1242
496.66	1275
496.877	1286
497.094	1310
497.312	1328
497.529	1356
497.746	1442
497.963	1448
498.181	1490
498.398	1597
498.615	1684
498.832	1776
499.049	1950
499.267	2087
499.484	2344
499.701	2594
499.918	2839
500.135	3234
500.352	3642
500.569	3794
500.786	3808
501.003	3587
501.22	3192
501.437	2836
501.654	2536
501.871	2271
502.088	2070
502.305	1938
502.522	1809
502.739	1752
502.956	1637
503.172	1601
503.389	1526
503.606	1479
503.823	1417
504.04	1416
504.256	1465
504.473	1441
504.69	1496
504.907	1429
505.123	1370
505.34	1303
505.557	1243
505.773	1219
505.99	1184
506.207	1142
506.423	1136
506.64	1127
506.856	1093
507.073	1100
507.289	1088
507.506	1113
507.722	1100
507.939	1073
508.155	1029
508.372	1061
508.588	1062
508.805	1028
509.021	1032
509.238	1030
509.454	1024
509.67	1032
509.887	1017
510.103	1024
510.319	1004
510.536	997
510.752	996
510.968	954
511.184	999
511.401	1003
511.617	987
511.833	998
512.049	976
512.265	1003
512.481	990
512.698	960
512.914	980
513.13	997
513.346	985
513.562	978
513.778	990
513.994	974
514.21	998
514.426	993
514.642	980
514.858	989
515.074	1010
515.29	1006
515.506	1067
515.721	1068
515.937	1050
516.153	1074
516.369	1113
516.585	1139
516.801	1172
517.016	1197
517.232	1313
517.448	1362
517.664	1388
517.879	1400
518.095	1426
518.311	1412
518.527	1311
518.742	1288
518.958	1215
519.173	1176
519.389	1120
519.605	1132
519.82	1060
520.036	1038
520.251	999
520.467	1003
520.682	989
520.898	979
521.113	987
521.329	974
521.544	974
521.76	970
521.975	929
522.19	944
522.406	932
522.621	936
522.836	944
523.052	934
523.267	924
523.482	933
523.698	901
523.913	925
524.128	910
524.343	914
524.559	923
524.774	887
524.989	915
525.204	940
525.419	901
525.634	897
525.849	904
526.064	932
526.28	899
526.495	864
526.71	886
526.925	900
527.14	898
527.355	878
527.57	861
527.785	896
527.999	876
528.214	881
528.429	877
528.644	920
528.859	880
529.074	901
529.289	898
529.503	873
529.718	892
529.933	881
530.148	881
530.363	885
530.577	859
530.792	866
531.007	877
531.221	891
531.436	888
531.651	873
531.865	907
532.08	899
532.295	886
532.509	877
532.724	869
532.938	878
533.153	888
533.367	893
533.582	908
533.796	864
534.011	892
534.225	848
534.44	884
534.654	880
534.868	872
535.083	855
535.297	857
535.511	869
535.726	850
535.94	867
536.154	830
536.369	845
536.583	834
536.797	847
537.011	822
537.225	827
537.44	818
537.654	824
537.868	824
538.082	802
538.296	800
538.51	797
538.724	806
538.938	820
539.153	824
539.367	801
539.581	817
539.795	798
540.009	782
540.222	788
540.436	804
540.65	789
540.864	757
541.078	780
541.292	796
541.506	803
541.72	772
541.934	790
542.147	816
542.361	791
542.575	788
542.789	783
543.002	768
543.216	771
543.43	776
543.644	770
543.857	790
544.071	775
544.285	820
544.498	809
544.712	817
544.925	796
545.139	804
545.352	797
545.566	815
545.779	813
545.993	816
546.206	840
546.42	811
546.633	800
546.847	816
547.06	806
547.274	799
547.487	822
547.7	822
547.914	828
548.127	809
548.34	820
548.554	804
548.767	810
548.98	825
549.193	813
549.407	822
549.62	846
549.833	845
550.046	850
550.259	822
550.473	817
550.686	810
550.899	796
551.112	800
551.325	801
551.538	774
551.751	771
551.964	796
552.177	806
552.39	839
552.603	858
552.816	874
553.029	881
553.242	892
553.455	901
553.667	910
553.88	896
554.093	858
554.306	837
554.519	838
554.732	809
554.944	813
