Data from NiCl2@0.25M.TitratingCurve.Agarose3%dH2O.NegLispCup.LampEnergy10.LIBS07252019_HRD10591_18-24-34-573.txt Node
Date: Thu Jul 25 18:24:34 EDT 2019
User: cochatt
Spectrometer: HR+D1059
Trigger mode: 1
Integration Time (sec): 1.000000E-1
Scans to average: 1
Electric dark correction enabled: true
Nonlinearity correction enabled: false
Boxcar width: 0
XAxis mode: Wavelengths
Number of Pixels in Spectrum: 2048
>>>>>Begin Spectral Data<<<<<
223.165	-6.12
223.4	-6.12
223.635	-6.12
223.869	-9.12
224.104	-17.12
224.338	-14.12
224.573	-10.12
224.808	-20.12
225.042	-14.12
225.277	1.88
225.511	-0.12
225.746	5.88
225.98	-3.12
226.215	13.88
226.449	6.88
226.683	8.88
226.918	21.88
227.152	34.88
227.387	35.88
227.621	26.88
227.856	45.88
228.09	48.88
228.324	51.88
228.559	57.88
228.793	74.88
229.027	121.88
229.262	134.88
229.496	118.88
229.73	127.88
229.964	138.88
230.199	142.88
230.433	150.88
230.667	144.88
230.901	144.88
231.136	136.88
231.37	159.88
231.604	161.88
231.838	145.88
232.072	171.88
232.306	157.88
232.541	165.88
232.775	168.88
233.009	164.88
233.243	163.88
233.477	156.88
233.711	163.88
233.945	172.88
234.179	177.88
234.413	165.88
234.647	161.88
234.881	167.88
235.115	191.88
235.349	166.88
235.583	180.88
235.817	168.88
236.051	179.88
236.285	183.88
236.519	192.88
236.753	192.88
236.987	178.88
237.221	174.88
237.455	188.88
237.689	193.88
237.922	195.88
238.156	197.88
238.39	180.88
238.624	185.88
238.858	192.88
239.091	191.88
239.325	200.88
239.559	188.88
239.793	197.88
240.027	197.88
240.26	196.88
240.494	201.88
240.728	226.88
240.961	212.88
241.195	205.88
241.429	206.88
241.662	201.88
241.896	214.88
242.13	238.88
242.363	227.88
242.597	224.88
242.83	230.88
243.064	226.88
243.298	229.88
243.531	237.88
243.765	241.88
243.998	239.88
244.232	243.88
244.465	232.88
244.699	248.88
244.932	259.88
245.166	241.88
245.399	253.88
245.633	249.88
245.866	249.88
246.099	262.88
246.333	269.88
246.566	263.88
246.8	253.88
247.033	251.88
247.266	275.88
247.5	277.88
247.733	279.88
247.966	284.88
248.2	270.88
248.433	260.88
248.666	285.88
248.899	281.88
249.133	264.88
249.366	286.88
249.599	286.88
249.832	279.88
250.066	291.88
250.299	293.88
250.532	288.88
250.765	274.88
250.998	283.88
251.231	288.88
251.465	283.88
251.698	294.88
251.931	313.88
252.164	305.88
252.397	309.88
252.63	325.88
252.863	322.88
253.096	332.88
253.329	329.88
253.562	328.88
253.795	311.88
254.028	319.88
254.261	331.88
254.494	333.88
254.727	323.88
254.96	326.88
255.193	316.88
255.426	323.88
255.659	326.88
255.892	328.88
256.124	372.88
256.357	347.88
256.59	325.88
256.823	337.88
257.056	337.88
257.289	338.88
257.521	357.88
257.754	372.88
257.987	369.88
258.22	371.88
258.452	366.88
258.685	367.88
258.918	370.88
259.151	366.88
259.383	367.88
259.616	355.88
259.849	375.88
260.081	365.88
260.314	384.88
260.547	359.88
260.779	373.88
261.012	395.88
261.244	387.88
261.477	398.88
261.71	373.88
261.942	374.88
262.175	387.88
262.407	385.88
262.64	381.88
262.872	355.88
263.105	366.88
263.337	357.88
263.57	408.88
263.802	399.88
264.035	408.88
264.267	399.88
264.499	383.88
264.732	400.88
264.964	402.88
265.197	426.88
265.429	424.88
265.661	412.88
265.894	408.88
266.126	422.88
266.358	407.88
266.591	414.88
266.823	426.88
267.055	413.88
267.287	422.88
267.52	419.88
267.752	428.88
267.984	412.88
268.216	433.88
268.448	414.88
268.681	439.88
268.913	427.88
269.145	431.88
269.377	439.88
269.609	435.88
269.841	440.88
270.073	429.88
270.306	460.88
270.538	455.88
270.77	426.88
271.002	439.88
271.234	429.88
271.466	453.88
271.698	465.88
271.93	460.88
272.162	455.88
272.394	470.88
272.626	469.88
272.858	458.88
273.09	477.88
273.322	457.88
273.553	473.88
273.785	453.88
274.017	484.88
274.249	484.88
274.481	499.88
274.713	485.88
274.945	495.88
275.176	477.88
275.408	481.88
275.64	503.88
275.872	471.88
276.104	502.88
276.335	487.88
276.567	489.88
276.799	503.88
277.031	524.88
277.262	503.88
277.494	491.88
277.726	500.88
277.957	508.88
278.189	520.88
278.421	508.88
278.652	511.88
278.884	521.88
279.115	543.88
279.347	525.88
279.579	547.88
279.81	539.88
280.042	542.88
280.273	537.88
280.505	542.88
280.736	549.88
280.968	526.88
281.199	536.88
281.431	535.88
281.662	533.88
281.894	555.88
282.125	552.88
282.356	550.88
282.588	549.88
282.819	573.88
283.051	551.88
283.282	575.88
283.513	571.88
283.745	579.88
283.976	573.88
284.207	573.88
284.439	588.88
284.67	595.88
284.901	594.88
285.132	580.88
285.364	562.88
285.595	567.88
285.826	591.88
286.057	618.88
286.288	588.88
286.52	600.88
286.751	599.88
286.982	618.88
287.213	622.88
287.444	586.88
287.675	607.88
287.906	593.88
288.138	597.88
288.369	607.88
288.6	622.88
288.831	605.88
289.062	615.88
289.293	603.88
289.524	610.88
289.755	598.88
289.986	596.88
290.217	630.88
290.448	592.88
290.679	639.88
290.91	623.88
291.141	629.88
291.371	624.88
291.602	634.88
291.833	618.88
292.064	662.88
292.295	645.88
292.526	649.88
292.757	611.88
292.987	607.88
293.218	619.88
293.449	638.88
293.68	629.88
293.91	648.88
294.141	616.88
294.372	621.88
294.603	634.88
294.833	631.88
295.064	665.88
295.295	651.88
295.525	636.88
295.756	637.88
295.987	643.88
296.217	642.88
296.448	665.88
296.679	649.88
296.909	654.88
297.14	668.88
297.37	670.88
297.601	676.88
297.831	664.88
298.062	681.88
298.292	689.88
298.523	665.88
298.753	699.88
298.984	681.88
299.214	675.88
299.445	670.88
299.675	663.88
299.905	674.88
300.136	691.88
300.366	691.88
300.597	661.88
300.827	712.88
301.057	737.88
301.288	718.88
301.518	717.88
301.748	713.88
301.979	718.88
302.209	721.88
302.439	739.88
302.669	711.88
302.9	702.88
303.13	734.88
303.36	704.88
303.59	726.88
303.82	707.88
304.051	729.88
304.281	715.88
304.511	701.88
304.741	723.88
304.971	720.88
305.201	735.88
305.431	725.88
305.661	711.88
305.891	698.88
306.121	685.88
306.352	707.88
306.582	701.88
306.812	690.88
307.042	715.88
307.272	706.88
307.502	698.88
307.731	716.88
307.961	703.88
308.191	668.88
308.421	688.88
308.651	692.88
308.881	683.88
309.111	699.88
309.341	692.88
309.571	699.88
309.8	705.88
310.03	691.88
310.26	730.88
310.49	707.88
310.72	721.88
310.949	703.88
311.179	716.88
311.409	715.88
311.639	700.88
311.868	704.88
312.098	730.88
312.328	705.88
312.557	734.88
312.787	734.88
313.017	727.88
313.246	735.88
313.476	747.88
313.706	738.88
313.935	758.88
314.165	771.88
314.394	745.88
314.624	749.88
314.853	734.88
315.083	753.88
315.312	769.88
315.542	760.88
315.771	734.88
316.001	739.88
316.23	737.88
316.46	727.88
316.689	735.88
316.919	732.88
317.148	757.88
317.377	738.88
317.607	726.88
317.836	740.88
318.065	708.88
318.295	756.88
318.524	766.88
318.753	711.88
318.983	699.88
319.212	721.88
319.441	730.88
319.67	754.88
319.9	745.88
320.129	726.88
320.358	753.88
320.587	736.88
320.816	718.88
321.046	749.88
321.275	735.88
321.504	758.88
321.733	754.88
321.962	739.88
322.191	763.88
322.42	729.88
322.649	738.88
322.878	754.88
323.108	761.88
323.337	749.88
323.566	767.88
323.795	779.88
324.024	767.88
324.253	781.88
324.482	765.88
324.71	772.88
324.939	770.88
325.168	788.88
325.397	774.88
325.626	789.88
325.855	788.88
326.084	797.88
326.313	833.88
326.542	832.88
326.77	835.88
326.999	779.88
327.228	805.88
327.457	795.88
327.686	794.88
327.914	826.88
328.143	810.88
328.372	813.88
328.6	819.88
328.829	798.88
329.058	803.88
329.287	827.88
329.515	831.88
329.744	838.88
329.972	837.88
330.201	814.88
330.43	840.88
330.658	812.88
330.887	818.88
331.115	858.88
331.344	841.88
331.572	854.88
331.801	874.88
332.03	922.88
332.258	949.88
332.486	937.88
332.715	965.88
332.943	1020.88
333.172	1040.88
333.4	1113.88
333.629	1134.88
333.857	1090.88
334.085	1129.88
334.314	1107.88
334.542	1068.88
334.771	1069.88
334.999	1028.88
335.227	1002.88
335.455	1000.88
335.684	998.88
335.912	1012.88
336.14	996.88
336.369	984.88
336.597	1022.88
336.825	984.88
337.053	1010.88
337.281	949.88
337.51	961.88
337.738	933.88
337.966	908.88
338.194	914.88
338.422	911.88
338.65	907.88
338.878	903.88
339.106	885.88
339.334	893.88
339.562	886.88
339.79	878.88
340.018	870.88
340.246	837.88
340.474	865.88
340.702	830.88
340.93	873.88
341.158	843.88
341.386	855.88
341.614	853.88
341.842	866.88
342.07	887.88
342.298	854.88
342.526	844.88
342.754	852.88
342.981	848.88
343.209	864.88
343.437	901.88
343.665	976.88
343.893	1020.88
344.12	1068.88
344.348	1005.88
344.576	973.88
344.804	923.88
345.031	895.88
345.259	850.88
345.487	832.88
345.714	858.88
345.942	832.88
346.17	858.88
346.397	853.88
346.625	830.88
346.853	826.88
347.08	812.88
347.308	801.88
347.535	815.88
347.763	822.88
347.99	844.88
348.218	838.88
348.445	798.88
348.673	791.88
348.9	821.88
349.128	796.88
349.355	823.88
349.583	810.88
349.81	795.88
350.037	798.88
350.265	815.88
350.492	787.88
350.72	777.88
350.947	790.88
351.174	794.88
351.402	804.88
351.629	812.88
351.856	789.88
352.083	822.88
352.311	791.88
352.538	783.88
352.765	799.88
352.992	771.88
353.22	755.88
353.447	771.88
353.674	784.88
353.901	777.88
354.128	782.88
354.355	790.88
354.583	776.88
354.81	777.88
355.037	777.88
355.264	778.88
355.491	799.88
355.718	792.88
355.945	782.88
356.172	782.88
356.399	794.88
356.626	789.88
356.853	791.88
357.08	780.88
357.307	815.88
357.534	806.88
357.761	795.88
357.988	803.88
358.215	785.88
358.441	769.88
358.668	754.88
358.895	807.88
359.122	783.88
359.349	794.88
359.576	782.88
359.802	784.88
360.029	759.88
360.256	792.88
360.483	759.88
360.709	782.88
360.936	793.88
361.163	771.88
361.39	810.88
361.616	779.88
361.843	789.88
362.07	803.88
362.296	796.88
362.523	777.88
362.749	799.88
362.976	789.88
363.203	778.88
363.429	753.88
363.656	745.88
363.882	830.88
364.109	784.88
364.335	794.88
364.562	777.88
364.788	795.88
365.015	783.88
365.241	784.88
365.468	776.88
365.694	783.88
365.92	793.88
366.147	783.88
366.373	815.88
366.599	761.88
366.826	793.88
367.052	790.88
367.278	776.88
367.505	810.88
367.731	814.88
367.957	773.88
368.184	792.88
368.41	781.88
368.636	795.88
368.862	773.88
369.089	789.88
369.315	794.88
369.541	804.88
369.767	803.88
369.993	827.88
370.219	826.88
370.445	808.88
370.672	834.88
370.898	819.88
371.124	848.88
371.35	855.88
371.576	842.88
371.802	853.88
372.028	827.88
372.254	847.88
372.48	882.88
372.706	898.88
372.932	912.88
373.158	895.88
373.384	871.88
373.61	862.88
373.835	860.88
374.061	868.88
374.287	870.88
374.513	867.88
374.739	903.88
374.965	951.88
375.191	951.88
375.416	953.88
375.642	945.88
375.868	911.88
376.094	890.88
376.319	887.88
376.545	889.88
376.771	870.88
376.997	851.88
377.222	889.88
377.448	869.88
377.674	848.88
377.899	829.88
378.125	842.88
378.35	862.88
378.576	854.88
378.802	842.88
379.027	834.88
379.253	861.88
379.478	854.88
379.704	848.88
379.929	841.88
380.155	849.88
380.38	857.88
380.606	820.88
380.831	836.88
381.057	878.88
381.282	822.88
381.507	847.88
381.733	858.88
381.958	859.88
382.184	878.88
382.409	878.88
382.634	892.88
382.86	874.88
383.085	917.88
383.31	921.88
383.535	928.88
383.761	946.88
383.986	965.88
384.211	985.88
384.436	1002.88
384.662	1014.88
384.887	1009.88
385.112	1035.88
385.337	1048.88
385.562	1037.88
385.787	1053.88
386.013	1065.88
386.238	1039.88
386.463	1057.88
386.688	1035.88
386.913	1041.88
387.138	1043.88
387.363	1026.88
387.588	1029.88
387.813	1032.88
388.038	1028.88
388.263	1044.88
388.488	1031.88
388.713	1009.88
388.938	1023.88
389.163	986.88
389.387	1015.88
389.612	1016.88
389.837	1007.88
390.062	991.88
390.287	1000.88
390.512	1025.88
390.736	1034.88
390.961	1047.88
391.186	1069.88
391.411	1081.88
391.636	1144.88
391.86	1177.88
392.085	1198.88
392.31	1155.88
392.534	1135.88
392.759	1102.88
392.984	1081.88
393.208	1107.88
393.433	1106.88
393.658	1125.88
393.882	1114.88
394.107	1094.88
394.331	1111.88
394.556	1109.88
394.78	1145.88
395.005	1115.88
395.229	1131.88
395.454	1154.88
395.678	1178.88
395.903	1177.88
396.127	1165.88
396.352	1092.88
396.576	1100.88
396.801	1106.88
397.025	1109.88
397.249	1145.88
397.474	1156.88
397.698	1180.88
397.922	1161.88
398.147	1188.88
398.371	1185.88
398.595	1249.88
398.82	1318.88
399.044	1407.88
399.268	1571.88
399.492	1801.88
399.717	2010.88
399.941	2051.88
400.165	1803.88
400.389	1636.88
400.613	1494.88
400.837	1378.88
401.062	1375.88
401.286	1342.88
401.51	1316.88
401.734	1295.88
401.958	1324.88
402.182	1357.88
402.406	1372.88
402.63	1383.88
402.854	1404.88
403.078	1417.88
403.302	1480.88
403.526	1506.88
403.75	1515.88
403.974	1556.88
404.198	1509.88
404.422	1583.88
404.645	1511.88
404.869	1534.88
405.093	1513.88
405.317	1493.88
405.541	1438.88
405.765	1462.88
405.988	1471.88
406.212	1457.88
406.436	1473.88
406.66	1489.88
406.883	1523.88
407.107	1560.88
407.331	1709.88
407.555	1723.88
407.778	1727.88
408.002	1655.88
408.226	1612.88
408.449	1613.88
408.673	1512.88
408.896	1474.88
409.12	1492.88
409.344	1495.88
409.567	1495.88
409.791	1479.88
410.014	1483.88
410.238	1460.88
410.461	1417.88
410.685	1427.88
410.908	1382.88
411.132	1433.88
411.355	1300.88
411.578	1364.88
411.802	1356.88
412.025	1355.88
412.249	1402.88
412.472	1369.88
412.695	1329.88
412.919	1282.88
413.142	1287.88
413.365	1322.88
413.589	1315.88
413.812	1280.88
414.035	1284.88
414.258	1286.88
414.482	1309.88
414.705	1291.88
414.928	1316.88
415.151	1313.88
415.374	1329.88
415.597	1330.88
415.821	1285.88
416.044	1272.88
416.267	1235.88
416.49	1268.88
416.713	1259.88
416.936	1258.88
417.159	1265.88
417.382	1310.88
417.605	1274.88
417.828	1299.88
418.051	1299.88
418.274	1302.88
418.497	1307.88
418.72	1357.88
418.943	1349.88
419.166	1442.88
419.389	1531.88
419.611	1448.88
419.834	1388.88
420.057	1374.88
420.28	1319.88
420.503	1284.88
420.726	1278.88
420.948	1276.88
421.171	1274.88
421.394	1266.88
421.617	1278.88
421.839	1278.88
422.062	1283.88
422.285	1277.88
422.507	1313.88
422.73	1339.88
422.953	1333.88
423.175	1364.88
423.398	1406.88
423.621	1335.88
423.843	1382.88
424.066	1379.88
424.288	1393.88
424.511	1370.88
424.733	1345.88
424.956	1327.88
425.178	1359.88
425.401	1325.88
425.623	1294.88
425.846	1265.88
426.068	1235.88
426.291	1251.88
426.513	1203.88
426.735	1198.88
426.958	1196.88
427.18	1180.88
427.402	1175.88
427.625	1175.88
427.847	1149.88
428.069	1153.88
428.292	1150.88
428.514	1126.88
428.736	1145.88
428.958	1141.88
429.181	1114.88
429.403	1111.88
429.625	1100.88
429.847	1096.88
430.069	1092.88
430.292	1102.88
430.514	1094.88
430.736	1121.88
430.958	1117.88
431.18	1109.88
431.402	1125.88
431.624	1145.88
431.846	1141.88
432.068	1154.88
432.29	1139.88
432.512	1101.88
432.734	1173.88
432.956	1135.88
433.178	1151.88
433.4	1151.88
433.622	1131.88
433.844	1169.88
434.066	1189.88
434.287	1183.88
434.509	1221.88
434.731	1282.88
434.953	1261.88
435.175	1269.88
435.397	1287.88
435.618	1208.88
435.84	1176.88
436.062	1161.88
436.284	1129.88
436.505	1120.88
436.727	1143.88
436.949	1164.88
437.17	1132.88
437.392	1096.88
437.614	1109.88
437.835	1054.88
438.057	1103.88
438.278	1074.88
438.5	1087.88
438.721	1103.88
438.943	1121.88
439.165	1081.88
439.386	1116.88
439.608	1124.88
439.829	1097.88
440.05	1099.88
440.272	1134.88
440.493	1151.88
440.715	1193.88
440.936	1207.88
441.158	1167.88
441.379	1266.88
441.6	1304.88
441.822	1286.88
442.043	1292.88
442.264	1261.88
442.486	1237.88
442.707	1268.88
442.928	1283.88
443.149	1266.88
443.371	1236.88
443.592	1262.88
443.813	1289.88
444.034	1288.88
444.255	1367.88
444.476	1413.88
444.698	1475.88
444.919	1515.88
445.14	1621.88
445.361	1459.88
445.582	1341.88
445.803	1271.88
446.024	1220.88
446.245	1190.88
446.466	1160.88
446.687	1147.88
446.908	1138.88
447.129	1127.88
447.35	1103.88
447.571	1048.88
447.792	1058.88
448.013	1087.88
448.234	1045.88
448.455	1083.88
448.675	1022.88
448.896	1015.88
449.117	1026.88
449.338	1013.88
449.559	1009.88
449.779	999.88
450	1009.88
450.221	1029.88
450.442	993.88
450.662	1014.88
450.883	1049.88
451.104	1065.88
451.324	1039.88
451.545	1054.88
451.766	1061.88
451.986	1000.88
452.207	1014.88
452.428	1018.88
452.648	1007.88
452.869	997.88
453.089	984.88
453.31	1027.88
453.53	990.88
453.751	1005.88
453.971	977.88
454.192	999.88
454.412	976.88
454.633	960.88
454.853	982.88
455.073	979.88
455.294	965.88
455.514	958.88
455.734	982.88
455.955	923.88
456.175	975.88
456.395	963.88
456.616	946.88
456.836	978.88
457.056	976.88
457.276	957.88
457.497	961.88
457.717	976.88
457.937	969.88
458.157	995.88
458.377	1016.88
458.598	1037.88
458.818	1030.88
459.038	1117.88
459.258	1117.88
459.478	1154.88
459.698	1197.88
459.918	1222.88
460.138	1281.88
460.358	1337.88
460.578	1329.88
460.798	1357.88
461.018	1408.88
461.238	1321.88
461.458	1329.88
461.678	1340.88
461.898	1382.88
462.118	1374.88
462.338	1463.88
462.558	1501.88
462.777	1529.88
462.997	1685.88
463.217	1794.88
463.437	1809.88
463.657	1699.88
463.876	1611.88
464.096	1585.88
464.316	1583.88
464.536	1612.88
464.755	1544.88
464.975	1509.88
465.195	1422.88
465.414	1340.88
465.634	1219.88
465.854	1170.88
466.073	1159.88
466.293	1164.88
466.512	1133.88
466.732	1083.88
466.951	1093.88
467.171	1070.88
467.391	1089.88
467.61	1088.88
467.829	1075.88
468.049	1089.88
468.268	1039.88
468.488	1045.88
468.707	1031.88
468.927	1056.88
469.146	1030.88
469.365	1042.88
469.585	1083.88
469.804	1093.88
470.023	1132.88
470.243	1114.88
470.462	1140.88
470.681	1142.88
470.901	1145.88
471.12	1137.88
471.339	1103.88
471.558	1077.88
471.777	1082.88
471.997	1043.88
472.216	1052.88
472.435	1083.88
472.654	1034.88
472.873	1019.88
473.092	983.88
473.311	1013.88
473.53	1022.88
473.749	1006.88
473.968	1010.88
474.187	995.88
474.406	1000.88
474.625	997.88
474.844	1025.88
475.063	1028.88
475.282	1023.88
475.501	1038.88
475.72	1044.88
475.939	1067.88
476.158	1031.88
476.377	1055.88
476.596	1061.88
476.814	1086.88
477.033	1059.88
477.252	1083.88
477.471	1110.88
477.69	1150.88
477.908	1198.88
478.127	1200.88
478.346	1234.88
478.564	1253.88
478.783	1261.88
479.002	1243.88
479.22	1295.88
479.439	1292.88
479.658	1252.88
479.876	1271.88
480.095	1311.88
480.313	1363.88
480.532	1409.88
480.751	1381.88
480.969	1323.88
481.188	1296.88
481.406	1235.88
481.624	1233.88
481.843	1198.88
482.061	1180.88
482.28	1172.88
482.498	1173.88
482.717	1146.88
482.935	1162.88
483.153	1160.88
483.372	1155.88
483.59	1171.88
483.808	1186.88
484.027	1139.88
484.245	1189.88
484.463	1185.88
484.681	1230.88
484.9	1197.88
485.118	1157.88
485.336	1177.88
485.554	1231.88
485.772	1198.88
485.99	1231.88
486.209	1209.88
486.427	1255.88
486.645	1229.88
486.863	1216.88
487.081	1227.88
487.299	1227.88
487.517	1192.88
487.735	1210.88
487.953	1214.88
488.171	1214.88
488.389	1218.88
488.607	1167.88
488.825	1177.88
489.043	1214.88
489.261	1184.88
489.479	1189.88
489.696	1238.88
489.914	1202.88
490.132	1233.88
490.35	1245.88
490.568	1207.88
490.786	1208.88
491.003	1235.88
491.221	1238.88
491.439	1230.88
491.657	1252.88
491.874	1225.88
492.092	1227.88
492.31	1218.88
492.527	1238.88
492.745	1277.88
492.963	1238.88
493.18	1260.88
493.398	1258.88
493.615	1270.88
493.833	1257.88
494.05	1265.88
494.268	1288.88
494.485	1298.88
494.703	1321.88
494.92	1299.88
