Data from NiCl2@0.125M.TitratingCurve.Agarose3%dH2O.NegLispCup.LampEnergy10.LIBS07252019_HRD10591_18-29-05-574.txt Node
Date: Thu Jul 25 18:29:05 EDT 2019
User: cochatt
Spectrometer: HR+D1059
Trigger mode: 1
Integration Time (sec): 1.000000E-1
Scans to average: 1
Electric dark correction enabled: true
Nonlinearity correction enabled: false
Boxcar width: 0
XAxis mode: Wavelengths
Number of Pixels in Spectrum: 2048
>>>>>Begin Spectral Data<<<<<
223.165	-12
223.4	-12
223.635	-12
223.869	-10
224.104	-12
224.338	-24
224.573	-26
224.808	-25
225.042	1
225.277	6
225.511	-7
225.746	6
225.98	4
226.215	5
226.449	18
226.683	15
226.918	32
227.152	29
227.387	37
227.621	47
227.856	47
228.09	58
228.324	63
228.559	70
228.793	74
229.027	103
229.262	119
229.496	122
229.73	138
229.964	139
230.199	130
230.433	137
230.667	142
230.901	143
231.136	154
231.37	141
231.604	150
231.838	164
232.072	164
232.306	162
232.541	161
232.775	161
233.009	169
233.243	151
233.477	159
233.711	164
233.945	144
234.179	154
234.413	155
234.647	166
234.881	156
235.115	155
235.349	156
235.583	162
235.817	156
236.051	163
236.285	169
236.519	185
236.753	166
236.987	164
237.221	178
237.455	186
237.689	168
237.922	156
238.156	175
238.39	176
238.624	168
238.858	167
239.091	186
239.325	172
239.559	197
239.793	182
240.027	173
240.26	198
240.494	192
240.728	182
240.961	206
241.195	207
241.429	190
241.662	198
241.896	201
242.13	189
242.363	207
242.597	212
242.83	201
243.064	204
243.298	198
243.531	212
243.765	224
243.998	231
244.232	219
244.465	217
244.699	218
244.932	216
245.166	230
245.399	223
245.633	229
245.866	225
246.099	232
246.333	255
246.566	228
246.8	226
247.033	223
247.266	231
247.5	259
247.733	249
247.966	254
248.2	253
248.433	246
248.666	247
248.899	250
249.133	242
249.366	246
249.599	245
249.832	267
250.066	269
250.299	270
250.532	275
250.765	266
250.998	246
251.231	266
251.465	282
251.698	272
251.931	267
252.164	286
252.397	295
252.63	294
252.863	284
253.096	293
253.329	294
253.562	302
253.795	286
254.028	309
254.261	299
254.494	293
254.727	293
254.96	307
255.193	290
255.426	306
255.659	292
255.892	296
256.124	307
256.357	307
256.59	312
256.823	306
257.056	315
257.289	312
257.521	307
257.754	311
257.987	317
258.22	301
258.452	325
258.685	302
258.918	325
259.151	316
259.383	325
259.616	310
259.849	336
260.081	324
260.314	330
260.547	339
260.779	346
261.012	336
261.244	325
261.477	332
261.71	350
261.942	351
262.175	343
262.407	342
262.64	363
262.872	342
263.105	347
263.337	370
263.57	346
263.802	337
264.035	354
264.267	349
264.499	364
264.732	363
264.964	368
265.197	358
265.429	361
265.661	361
265.894	379
266.126	358
266.358	378
266.591	367
266.823	364
267.055	387
267.287	383
267.52	370
267.752	399
267.984	388
268.216	374
268.448	392
268.681	363
268.913	380
269.145	390
269.377	391
269.609	404
269.841	382
270.073	397
270.306	414
270.538	384
270.77	386
271.002	399
271.234	382
271.466	401
271.698	384
271.93	404
272.162	421
272.394	399
272.626	398
272.858	409
273.09	410
273.322	412
273.553	420
273.785	419
274.017	421
274.249	408
274.481	415
274.713	434
274.945	430
275.176	446
275.408	454
275.64	452
275.872	438
276.104	443
276.335	456
276.567	411
276.799	452
277.031	457
277.262	450
277.494	460
277.726	451
277.957	446
278.189	475
278.421	467
278.652	471
278.884	470
279.115	445
279.347	440
279.579	457
279.81	471
280.042	464
280.273	479
280.505	468
280.736	468
280.968	457
281.199	483
281.431	471
281.662	482
281.894	496
282.125	475
282.356	503
282.588	492
282.819	487
283.051	495
283.282	494
283.513	482
283.745	480
283.976	493
284.207	496
284.439	500
284.67	479
284.901	510
285.132	506
285.364	494
285.595	503
285.826	510
286.057	528
286.288	504
286.52	527
286.751	516
286.982	521
287.213	531
287.444	525
287.675	532
287.906	535
288.138	523
288.369	511
288.6	536
288.831	525
289.062	541
289.293	555
289.524	528
289.755	535
289.986	560
290.217	556
290.448	555
290.679	568
290.91	552
291.141	551
291.371	565
291.602	548
291.833	560
292.064	560
292.295	558
292.526	565
292.757	540
292.987	572
293.218	567
293.449	554
293.68	558
293.91	539
294.141	563
294.372	550
294.603	554
294.833	574
295.064	563
295.295	567
295.525	562
295.756	577
295.987	582
296.217	576
296.448	598
296.679	588
296.909	566
297.14	563
297.37	587
297.601	618
297.831	575
298.062	597
298.292	610
298.523	666
298.753	624
298.984	617
299.214	602
299.445	603
299.675	628
299.905	602
300.136	598
300.366	604
300.597	595
300.827	619
301.057	630
301.288	624
301.518	628
301.748	638
301.979	670
302.209	657
302.439	628
302.669	622
302.9	626
303.13	602
303.36	617
303.59	597
303.82	607
304.051	605
304.281	622
304.511	643
304.741	626
304.971	646
305.201	638
305.431	625
305.661	615
305.891	603
306.121	619
306.352	606
306.582	613
306.812	616
307.042	603
307.272	612
307.502	592
307.731	614
307.961	600
308.191	621
308.421	627
308.651	598
308.881	597
309.111	609
309.341	604
309.571	619
309.8	608
310.03	606
310.26	574
310.49	616
310.72	614
310.949	630
311.179	600
311.409	598
311.639	606
311.868	610
312.098	616
312.328	624
312.557	620
312.787	645
313.017	646
313.246	661
313.476	623
313.706	641
313.935	657
314.165	668
314.394	654
314.624	658
314.853	660
315.083	632
315.312	622
315.542	667
315.771	640
316.001	646
316.23	650
316.46	627
316.689	632
316.919	646
317.148	639
317.377	628
317.607	608
317.836	615
318.065	656
318.295	636
318.524	613
318.753	608
318.983	638
319.212	628
319.441	623
319.67	620
319.9	610
320.129	626
320.358	650
320.587	629
320.816	614
321.046	621
321.275	616
321.504	643
321.733	620
321.962	642
322.191	625
322.42	635
322.649	628
322.878	634
323.108	632
323.337	622
323.566	644
323.795	647
324.024	640
324.253	640
324.482	655
324.71	643
324.939	648
325.168	646
325.397	657
325.626	671
325.855	658
326.084	686
326.313	703
326.542	722
326.77	684
326.999	685
327.228	674
327.457	656
327.686	656
327.914	679
328.143	686
328.372	683
328.6	671
328.829	673
329.058	682
329.287	667
329.515	687
329.744	720
329.972	698
330.201	698
330.43	699
330.658	702
330.887	706
331.115	720
331.344	731
331.572	740
331.801	750
332.03	745
332.258	781
332.486	804
332.715	833
332.943	848
333.172	902
333.4	930
333.629	962
333.857	981
334.085	963
334.314	930
334.542	903
334.771	874
334.999	871
335.227	860
335.455	866
335.684	850
335.912	854
336.14	818
336.369	808
336.597	884
336.825	816
337.053	835
337.281	811
337.51	813
337.738	810
337.966	792
338.194	734
338.422	745
338.65	720
338.878	720
339.106	733
339.334	742
339.562	735
339.79	699
340.018	711
340.246	676
340.474	705
340.702	682
340.93	724
341.158	743
341.386	729
341.614	720
341.842	722
342.07	686
342.298	692
342.526	702
342.754	702
342.981	697
343.209	708
343.437	765
343.665	799
343.893	873
344.12	922
344.348	876
344.576	808
344.804	807
345.031	773
345.259	733
345.487	718
345.714	719
345.942	684
346.17	706
346.397	690
346.625	691
346.853	692
347.08	687
347.308	683
347.535	707
347.763	694
347.99	729
348.218	723
348.445	708
348.673	712
348.9	714
349.128	700
349.355	669
349.583	698
349.81	687
350.037	660
350.265	675
350.492	662
350.72	685
350.947	638
351.174	671
351.402	665
351.629	655
351.856	656
352.083	665
352.311	664
352.538	653
352.765	660
352.992	652
353.22	673
353.447	652
353.674	639
353.901	651
354.128	654
354.355	650
354.583	642
354.81	650
355.037	669
355.264	654
355.491	674
355.718	675
355.945	669
356.172	642
356.399	673
356.626	648
356.853	668
357.08	677
357.307	648
357.534	687
357.761	634
357.988	693
358.215	650
358.441	671
358.668	656
358.895	654
359.122	659
359.349	662
359.576	672
359.802	659
360.029	651
360.256	676
360.483	669
360.709	670
360.936	656
361.163	666
361.39	660
361.616	642
361.843	669
362.07	655
362.296	660
362.523	662
362.749	674
362.976	646
363.203	655
363.429	669
363.656	660
363.882	681
364.109	659
364.335	653
364.562	658
364.788	671
365.015	657
365.241	656
365.468	647
365.694	633
365.92	642
366.147	640
366.373	667
366.599	685
366.826	672
367.052	658
367.278	657
367.505	660
367.731	636
367.957	651
368.184	669
368.41	678
368.636	650
368.862	658
369.089	686
369.315	667
369.541	680
369.767	668
369.993	678
370.219	696
370.445	696
370.672	680
370.898	725
371.124	694
371.35	733
371.576	701
371.802	732
372.028	739
372.254	724
372.48	732
372.706	749
372.932	773
373.158	756
373.384	729
373.61	732
373.835	716
374.061	741
374.287	736
374.513	722
374.739	753
374.965	784
375.191	832
375.416	826
375.642	782
375.868	794
376.094	735
376.319	747
376.545	747
376.771	735
376.997	725
377.222	729
377.448	709
377.674	726
377.899	727
378.125	720
378.35	727
378.576	677
378.802	692
379.027	688
379.253	722
379.478	696
379.704	722
379.929	710
380.155	717
380.38	705
380.606	690
380.831	696
381.057	717
381.282	732
381.507	715
381.733	716
381.958	734
382.184	730
382.409	767
382.634	748
382.86	767
383.085	769
383.31	762
383.535	804
383.761	806
383.986	802
384.211	818
384.436	848
384.662	858
384.887	912
385.112	852
385.337	853
385.562	867
385.787	852
386.013	891
386.238	871
386.463	856
386.688	871
386.913	858
387.138	840
387.363	853
387.588	844
387.813	845
388.038	836
388.263	852
388.488	862
388.713	854
388.938	865
389.163	846
389.387	847
389.612	838
389.837	823
390.062	811
390.287	842
390.512	803
390.736	857
390.961	846
391.186	880
391.411	924
391.636	939
391.86	969
392.085	983
392.31	978
392.534	972
392.759	948
392.984	907
393.208	930
393.433	905
393.658	909
393.882	954
394.107	932
394.331	929
394.556	898
394.78	960
395.005	932
395.229	966
395.454	960
395.678	990
395.903	1004
396.127	974
396.352	959
396.576	905
396.801	888
397.025	926
397.249	952
397.474	973
397.698	966
397.922	958
398.147	948
398.371	977
398.595	1034
398.82	1074
399.044	1143
399.268	1240
399.492	1468
399.717	1733
399.941	1732
400.165	1508
400.389	1340
400.613	1192
400.837	1154
401.062	1114
401.286	1108
401.51	1113
401.734	1096
401.958	1120
402.182	1131
402.406	1122
402.63	1135
402.854	1170
403.078	1179
403.302	1255
403.526	1253
403.75	1263
403.974	1299
404.198	1299
404.422	1310
404.645	1300
404.869	1286
405.093	1265
405.317	1235
405.541	1259
405.765	1255
405.988	1220
406.212	1218
406.436	1191
406.66	1244
406.883	1275
407.107	1320
407.331	1401
407.555	1450
407.778	1436
408.002	1421
408.226	1372
408.449	1304
408.673	1255
408.896	1248
409.12	1231
409.344	1263
409.567	1243
409.791	1279
410.014	1267
410.238	1231
410.461	1216
410.685	1240
410.908	1208
411.132	1111
411.355	1128
411.578	1150
411.802	1130
412.025	1142
412.249	1191
412.472	1163
412.695	1116
412.919	1061
413.142	1087
413.365	1093
413.589	1118
413.812	1074
414.035	1091
414.258	1105
414.482	1111
414.705	1098
414.928	1121
415.151	1106
415.374	1101
415.597	1093
415.821	1069
416.044	1091
416.267	1092
416.49	1067
416.713	1082
416.936	1070
417.159	1070
417.382	1090
417.605	1034
417.828	1097
418.051	1076
418.274	1101
418.497	1066
418.72	1111
418.943	1115
419.166	1202
419.389	1291
419.611	1250
419.834	1211
420.057	1152
420.28	1132
420.503	1106
420.726	1107
420.948	1106
421.171	1078
421.394	1085
421.617	1077
421.839	1083
422.062	1114
422.285	1087
422.507	1095
422.73	1148
422.953	1114
423.175	1135
423.398	1152
423.621	1180
423.843	1179
424.066	1190
424.288	1194
424.511	1172
424.733	1132
424.956	1146
425.178	1126
425.401	1124
425.623	1090
425.846	1120
426.068	1051
426.291	1051
426.513	1007
426.735	1028
426.958	1048
427.18	1011
427.402	985
427.625	998
427.847	978
428.069	994
428.292	986
428.514	931
428.736	976
428.958	947
429.181	945
429.403	956
429.625	946
429.847	941
430.069	948
430.292	942
430.514	944
430.736	963
430.958	953
431.18	944
431.402	943
431.624	968
431.846	980
432.068	982
432.29	988
432.512	958
432.734	974
432.956	988
433.178	961
433.4	994
433.622	972
433.844	976
434.066	989
434.287	993
434.509	1061
434.731	1059
434.953	1100
435.175	1134
435.397	1104
435.618	1048
435.84	1035
436.062	996
436.284	1011
436.505	986
436.727	976
436.949	956
437.17	983
437.392	974
437.614	980
437.835	948
438.057	959
438.278	946
438.5	944
438.721	943
438.943	957
439.165	976
439.386	969
439.608	986
439.829	937
440.05	980
440.272	1021
440.493	996
440.715	1023
440.936	1001
441.158	1018
441.379	1077
441.6	1095
441.822	1150
442.043	1164
442.264	1105
442.486	1084
442.707	1086
442.928	1083
443.149	1087
443.371	1116
443.592	1120
443.813	1110
444.034	1117
444.255	1179
444.476	1243
444.698	1314
444.919	1330
445.14	1443
445.361	1306
445.582	1159
445.803	1133
446.024	1080
446.245	1069
446.466	1010
446.687	1000
446.908	1017
447.129	962
447.35	979
447.571	969
447.792	956
448.013	925
448.234	948
448.455	915
448.675	903
448.896	894
449.117	911
449.338	912
449.559	890
449.779	879
450	922
450.221	886
450.442	930
450.662	917
450.883	960
451.104	948
451.324	940
451.545	917
451.766	930
451.986	951
452.207	925
452.428	932
452.648	945
452.869	903
453.089	900
453.31	906
453.53	859
453.751	887
453.971	868
454.192	888
454.412	865
454.633	867
454.853	873
455.073	858
455.294	863
455.514	832
455.734	856
455.955	847
456.175	828
456.395	843
456.616	828
456.836	864
457.056	855
457.276	814
457.497	814
457.717	855
457.937	844
458.157	848
458.377	851
458.598	882
458.818	905
459.038	908
459.258	958
459.478	967
459.698	1032
459.918	1068
460.138	1108
460.358	1168
460.578	1185
460.798	1191
461.018	1195
461.238	1169
461.458	1171
461.678	1133
461.898	1149
462.118	1184
462.338	1248
462.558	1284
462.777	1355
462.997	1459
463.217	1629
463.437	1637
463.657	1476
463.876	1448
464.096	1389
464.316	1397
464.536	1391
464.755	1320
464.975	1248
465.195	1223
465.414	1157
465.634	1065
465.854	1034
466.073	1000
466.293	990
466.512	973
466.732	952
466.951	963
467.171	935
467.391	947
467.61	956
467.829	959
468.049	945
468.268	912
468.488	892
468.707	913
468.927	886
469.146	914
469.365	927
469.585	917
469.804	946
470.023	967
470.243	997
470.462	989
470.681	980
470.901	1017
471.12	969
471.339	974
471.558	939
471.777	908
471.997	902
472.216	916
472.435	880
472.654	847
472.873	890
473.092	880
473.311	876
473.53	867
473.749	876
473.968	871
474.187	879
474.406	839
474.625	897
474.844	862
475.063	871
475.282	862
475.501	887
475.72	888
475.939	897
476.158	888
476.377	926
476.596	907
476.814	924
477.033	928
477.252	936
477.471	945
477.69	972
477.908	1005
478.127	1014
478.346	1040
478.564	1048
478.783	1070
479.002	1105
479.22	1079
479.439	1080
479.658	1086
479.876	1093
480.095	1107
480.313	1143
480.532	1184
480.751	1192
480.969	1095
481.188	1066
481.406	1034
481.624	1034
481.843	1017
482.061	1028
482.28	1002
482.498	972
482.717	957
482.935	978
483.153	1016
483.372	977
483.59	973
483.808	989
484.027	972
484.245	987
484.463	1004
484.681	1001
484.9	991
485.118	1010
485.336	1017
485.554	1055
485.772	1058
485.99	1048
486.209	1081
486.427	1078
486.645	1071
486.863	1058
487.081	1087
487.299	1046
487.517	1028
487.735	1044
487.953	1033
488.171	1041
488.389	1034
488.607	1026
488.825	1015
489.043	1007
489.261	1013
489.479	1041
489.696	1043
489.914	1036
490.132	1048
490.35	1040
490.568	1052
490.786	1047
491.003	1052
491.221	1021
491.439	1055
491.657	1065
491.874	1010
492.092	1032
492.31	1059
492.527	1076
492.745	1050
492.963	1055
493.18	1080
493.398	1076
493.615	1064
493.833	1084
494.05	1072
494.268	1105
494.485	1115
494.703	1098
494.92	1103
495.138	1096
495.355	1102
495.573	1121
495.79	1090
496.008	1093
496.225	1083
496.442	1109
496.66	1148
496.877	1126
497.094	1167
497.312	1183
497.529	1198
497.746	1238
497.963	1267
498.181	1304
498.398	1379
498.615	1469
498.832	1572
499.049	1680
499.267	1831
499.484	2053
499.701	2247
499.918	2517
500.135	2930
500.352	3420
500.569	3622
500.786	3567
501.003	3314
501.22	2916
501.437	2571
501.654	2246
501.871	1968
502.088	1793
502.305	1704
502.522	1633
502.739	1566
502.956	1453
503.172	1361
503.389	1310
503.606	1243
503.823	1260
504.04	1262
504.256	1230
504.473	1318
504.69	1378
504.907	1319
505.123	1239
505.34	1191
505.557	1126
505.773	1063
505.99	1059
506.207	1044
506.423	1049
506.64	999
506.856	1002
507.073	1006
507.289	986
507.506	950
507.722	988
507.939	973
508.155	931
508.372	955
508.588	948
508.805	921
509.021	927
509.238	935
509.454	910
509.67	917
509.887	901
510.103	893
510.319	917
510.536	900
510.752	884
510.968	885
511.184	916
511.401	895
511.617	888
511.833	876
512.049	889
512.265	896
512.481	910
512.698	872
512.914	893
513.13	904
513.346	902
513.562	914
513.778	890
513.994	887
514.21	892
514.426	924
514.642	907
514.858	913
515.074	930
515.29	923
515.506	923
515.721	935
515.937	960
516.153	972
516.369	966
516.585	1040
516.801	1057
517.016	1132
517.232	1175
517.448	1207
517.664	1295
517.879	1281
518.095	1299
518.311	1279
518.527	1209
518.742	1164
518.958	1112
519.173	1060
519.389	1024
519.605	994
519.82	945
520.036	962
520.251	931
520.467	917
520.682	917
520.898	898
521.113	894
521.329	882
521.544	877
521.76	860
521.975	869
522.19	868
522.406	846
522.621	870
522.836	811
523.052	853
523.267	843
523.482	808
523.698	822
523.913	818
524.128	813
524.343	832
524.559	816
524.774	819
524.989	828
525.204	848
525.419	822
525.634	828
525.849	832
526.064	818
526.28	822
526.495	815
526.71	794
526.925	824
527.14	803
527.355	771
527.57	798
527.785	798
527.999	778
528.214	813
528.429	819
528.644	813
528.859	838
529.074	806
529.289	806
529.503	811
529.718	824
529.933	798
530.148	825
530.363	786
530.577	795
530.792	789
531.007	805
531.221	814
531.436	823
531.651	823
531.865	818
532.08	828
532.295	845
532.509	816
532.724	832
532.938	800
533.153	825
533.367	807
533.582	812
533.796	803
534.011	830
534.225	806
534.44	802
534.654	791
534.868	807
535.083	777
535.297	804
535.511	771
535.726	783
535.94	786
536.154	770
536.369	778
536.583	764
536.797	784
537.011	756
537.225	739
537.44	757
537.654	752
537.868	728
538.082	736
538.296	734
538.51	720
538.724	742
538.938	703
539.153	743
539.367	745
539.581	707
539.795	725
540.009	731
540.222	746
540.436	719
540.65	708
540.864	734
541.078	706
541.292	725
541.506	738
541.72	738
541.934	718
542.147	735
542.361	744
542.575	703
542.789	699
543.002	724
543.216	703
543.43	720
543.644	705
543.857	724
544.071	733
544.285	746
544.498	727
544.712	737
544.925	750
545.139	735
545.352	723
545.566	746
545.779	734
545.993	754
546.206	758
546.42	739
546.633	740
546.847	725
547.06	726
547.274	731
547.487	740
547.7	741
547.914	734
548.127	755
548.34	741
548.554	754
548.767	750
548.98	745
549.193	763
549.407	757
549.62	743
549.833	744
550.046	760
550.259	758
550.473	743
550.686	738
550.899	733
551.112	724
551.325	685
551.538	727
551.751	732
551.964	732
552.177	702
552.39	742
552.603	770
552.816	801
553.029	807
553.242	809
553.455	820
553.667	816
553.88	839
554.093	780
554.306	767
554.519	787
554.732	749
554.944	738
555.157	719
555.37	722
555.583	690
555.795	693
556.008	672
556.221	636
556.433	661
556.646	668
556.859	690
557.071	666
557.284	619
557.496	629
557.709	634
