Data from NiCl2@0.5M.TitratingCurve.Agarose3%dH2O.NegLispCup.LampEnergy10.LIBS07252019_HRD10591_18-19-06-571.txt Node
Date: Thu Jul 25 18:19:06 EDT 2019
User: cochatt
Spectrometer: HR+D1059
Trigger mode: 1
Integration Time (sec): 1.000000E-1
Scans to average: 1
Electric dark correction enabled: true
Nonlinearity correction enabled: false
Boxcar width: 0
XAxis mode: Wavelengths
Number of Pixels in Spectrum: 2048
>>>>>Begin Spectral Data<<<<<
223.165	-18.69
223.4	-18.69
223.635	-18.69
223.869	-8.69
224.104	-25.69
224.338	-15.69
224.573	-9.69
224.808	4.31
225.042	-4.69
225.277	-6.69
225.511	-14.69
225.746	0.31
225.98	0.31
226.215	10.31
226.449	13.31
226.683	16.31
226.918	32.31
227.152	27.31
227.387	42.31
227.621	56.31
227.856	41.31
228.09	38.31
228.324	47.31
228.559	53.31
228.793	84.31
229.027	114.31
229.262	111.31
229.496	136.31
229.73	112.31
229.964	132.31
230.199	131.31
230.433	136.31
230.667	142.31
230.901	140.31
231.136	142.31
231.37	142.31
231.604	134.31
231.838	141.31
232.072	153.31
232.306	154.31
232.541	156.31
232.775	152.31
233.009	141.31
233.243	145.31
233.477	139.31
233.711	155.31
233.945	164.31
234.179	150.31
234.413	131.31
234.647	164.31
234.881	139.31
235.115	151.31
235.349	160.31
235.583	144.31
235.817	149.31
236.051	178.31
236.285	139.31
236.519	142.31
236.753	155.31
236.987	171.31
237.221	155.31
237.455	155.31
237.689	162.31
237.922	178.31
238.156	164.31
238.39	151.31
238.624	159.31
238.858	165.31
239.091	172.31
239.325	170.31
239.559	175.31
239.793	182.31
240.027	185.31
240.26	178.31
240.494	172.31
240.728	188.31
240.961	184.31
241.195	182.31
241.429	178.31
241.662	191.31
241.896	191.31
242.13	203.31
242.363	210.31
242.597	190.31
242.83	216.31
243.064	207.31
243.298	189.31
243.531	198.31
243.765	205.31
243.998	210.31
244.232	213.31
244.465	205.31
244.699	220.31
244.932	206.31
245.166	209.31
245.399	229.31
245.633	231.31
245.866	213.31
246.099	214.31
246.333	239.31
246.566	219.31
246.8	219.31
247.033	238.31
247.266	234.31
247.5	236.31
247.733	233.31
247.966	227.31
248.2	234.31
248.433	228.31
248.666	223.31
248.899	240.31
249.133	242.31
249.366	244.31
249.599	265.31
249.832	245.31
250.066	239.31
250.299	262.31
250.532	256.31
250.765	259.31
250.998	246.31
251.231	250.31
251.465	275.31
251.698	279.31
251.931	261.31
252.164	270.31
252.397	262.31
252.63	260.31
252.863	267.31
253.096	264.31
253.329	278.31
253.562	277.31
253.795	278.31
254.028	261.31
254.261	285.31
254.494	290.31
254.727	267.31
254.96	283.31
255.193	282.31
255.426	284.31
255.659	291.31
255.892	294.31
256.124	291.31
256.357	303.31
256.59	299.31
256.823	288.31
257.056	280.31
257.289	296.31
257.521	306.31
257.754	303.31
257.987	295.31
258.22	308.31
258.452	306.31
258.685	312.31
258.918	310.31
259.151	310.31
259.383	312.31
259.616	298.31
259.849	328.31
260.081	312.31
260.314	318.31
260.547	302.31
260.779	305.31
261.012	321.31
261.244	317.31
261.477	329.31
261.71	319.31
261.942	340.31
262.175	345.31
262.407	333.31
262.64	341.31
262.872	333.31
263.105	342.31
263.337	334.31
263.57	335.31
263.802	328.31
264.035	334.31
264.267	339.31
264.499	346.31
264.732	349.31
264.964	366.31
265.197	367.31
265.429	359.31
265.661	338.31
265.894	326.31
266.126	359.31
266.358	363.31
266.591	372.31
266.823	356.31
267.055	357.31
267.287	370.31
267.52	357.31
267.752	352.31
267.984	344.31
268.216	362.31
268.448	387.31
268.681	376.31
268.913	374.31
269.145	387.31
269.377	370.31
269.609	358.31
269.841	372.31
270.073	376.31
270.306	385.31
270.538	394.31
270.77	377.31
271.002	384.31
271.234	379.31
271.466	396.31
271.698	382.31
271.93	365.31
272.162	392.31
272.394	398.31
272.626	421.31
272.858	420.31
273.09	413.31
273.322	393.31
273.553	367.31
273.785	404.31
274.017	401.31
274.249	404.31
274.481	412.31
274.713	413.31
274.945	417.31
275.176	408.31
275.408	421.31
275.64	414.31
275.872	407.31
276.104	412.31
276.335	421.31
276.567	422.31
276.799	432.31
277.031	435.31
277.262	435.31
277.494	444.31
277.726	419.31
277.957	431.31
278.189	425.31
278.421	429.31
278.652	450.31
278.884	450.31
279.115	434.31
279.347	441.31
279.579	434.31
279.81	438.31
280.042	447.31
280.273	471.31
280.505	462.31
280.736	449.31
280.968	452.31
281.199	478.31
281.431	462.31
281.662	460.31
281.894	460.31
282.125	447.31
282.356	490.31
282.588	466.31
282.819	481.31
283.051	484.31
283.282	464.31
283.513	479.31
283.745	494.31
283.976	487.31
284.207	487.31
284.439	475.31
284.67	477.31
284.901	479.31
285.132	498.31
285.364	489.31
285.595	481.31
285.826	467.31
286.057	493.31
286.288	490.31
286.52	504.31
286.751	494.31
286.982	501.31
287.213	509.31
287.444	515.31
287.675	485.31
287.906	506.31
288.138	510.31
288.369	486.31
288.6	500.31
288.831	521.31
289.062	515.31
289.293	512.31
289.524	503.31
289.755	521.31
289.986	520.31
290.217	541.31
290.448	522.31
290.679	530.31
290.91	517.31
291.141	537.31
291.371	523.31
291.602	554.31
291.833	512.31
292.064	528.31
292.295	526.31
292.526	525.31
292.757	532.31
292.987	528.31
293.218	530.31
293.449	523.31
293.68	550.31
293.91	531.31
294.141	540.31
294.372	500.31
294.603	556.31
294.833	569.31
295.064	548.31
295.295	563.31
295.525	556.31
295.756	516.31
295.987	552.31
296.217	540.31
296.448	552.31
296.679	558.31
296.909	563.31
297.14	565.31
297.37	563.31
297.601	553.31
297.831	573.31
298.062	562.31
298.292	594.31
298.523	603.31
298.753	584.31
298.984	562.31
299.214	576.31
299.445	572.31
299.675	597.31
299.905	591.31
300.136	594.31
300.366	618.31
300.597	608.31
300.827	620.31
301.057	613.31
301.288	600.31
301.518	591.31
301.748	608.31
301.979	629.31
302.209	630.31
302.439	607.31
302.669	598.31
302.9	598.31
303.13	596.31
303.36	603.31
303.59	628.31
303.82	580.31
304.051	630.31
304.281	603.31
304.511	598.31
304.741	622.31
304.971	615.31
305.201	635.31
305.431	634.31
305.661	640.31
305.891	616.31
306.121	632.31
306.352	622.31
306.582	593.31
306.812	605.31
307.042	611.31
307.272	596.31
307.502	599.31
307.731	612.31
307.961	608.31
308.191	595.31
308.421	617.31
308.651	606.31
308.881	600.31
309.111	599.31
309.341	622.31
309.571	619.31
309.8	602.31
310.03	619.31
310.26	633.31
310.49	619.31
310.72	622.31
310.949	593.31
311.179	636.31
311.409	643.31
311.639	631.31
311.868	648.31
312.098	655.31
312.328	635.31
312.557	630.31
312.787	641.31
313.017	629.31
313.246	658.31
313.476	654.31
313.706	661.31
313.935	654.31
314.165	666.31
314.394	660.31
314.624	656.31
314.853	644.31
315.083	641.31
315.312	651.31
315.542	667.31
315.771	627.31
316.001	663.31
316.23	653.31
316.46	646.31
316.689	646.31
316.919	654.31
317.148	640.31
317.377	655.31
317.607	628.31
317.836	648.31
318.065	646.31
318.295	626.31
318.524	626.31
318.753	621.31
318.983	672.31
319.212	638.31
319.441	659.31
319.67	654.31
319.9	656.31
320.129	646.31
320.358	642.31
320.587	648.31
320.816	659.31
321.046	675.31
321.275	681.31
321.504	651.31
321.733	655.31
321.962	662.31
322.191	677.31
322.42	681.31
322.649	650.31
322.878	648.31
323.108	668.31
323.337	691.31
323.566	693.31
323.795	720.31
324.024	684.31
324.253	703.31
324.482	702.31
324.71	701.31
324.939	694.31
325.168	674.31
325.397	700.31
325.626	714.31
325.855	694.31
326.084	710.31
326.313	727.31
326.542	694.31
326.77	727.31
326.999	727.31
327.228	699.31
327.457	700.31
327.686	724.31
327.914	720.31
328.143	702.31
328.372	732.31
328.6	734.31
328.829	706.31
329.058	711.31
329.287	701.31
329.515	713.31
329.744	706.31
329.972	706.31
330.201	722.31
330.43	727.31
330.658	718.31
330.887	738.31
331.115	745.31
331.344	750.31
331.572	724.31
331.801	775.31
332.03	768.31
332.258	794.31
332.486	801.31
332.715	821.31
332.943	839.31
333.172	876.31
333.4	867.31
333.629	875.31
333.857	901.31
334.085	865.31
334.314	891.31
334.542	895.31
334.771	884.31
334.999	873.31
335.227	858.31
335.455	846.31
335.684	861.31
335.912	847.31
336.14	847.31
336.369	854.31
336.597	854.31
336.825	872.31
337.053	836.31
337.281	854.31
337.51	835.31
337.738	807.31
337.966	804.31
338.194	826.31
338.422	806.31
338.65	778.31
338.878	791.31
339.106	764.31
339.334	807.31
339.562	794.31
339.79	770.31
340.018	760.31
340.246	722.31
340.474	743.31
340.702	747.31
340.93	763.31
341.158	779.31
341.386	770.31
341.614	775.31
341.842	764.31
342.07	737.31
342.298	726.31
342.526	715.31
342.754	736.31
342.981	758.31
343.209	747.31
343.437	798.31
343.665	829.31
343.893	862.31
344.12	875.31
344.348	847.31
344.576	818.31
344.804	797.31
345.031	813.31
345.259	788.31
345.487	762.31
345.714	743.31
345.942	758.31
346.17	765.31
346.397	754.31
346.625	747.31
346.853	734.31
347.08	727.31
347.308	720.31
347.535	738.31
347.763	712.31
347.99	715.31
348.218	757.31
348.445	718.31
348.673	704.31
348.9	707.31
349.128	736.31
349.355	741.31
349.583	754.31
349.81	711.31
350.037	715.31
350.265	702.31
350.492	690.31
350.72	721.31
350.947	671.31
351.174	721.31
351.402	726.31
351.629	712.31
351.856	741.31
352.083	709.31
352.311	684.31
352.538	706.31
352.765	732.31
352.992	685.31
353.22	695.31
353.447	670.31
353.674	676.31
353.901	684.31
354.128	666.31
354.355	683.31
354.583	682.31
354.81	700.31
355.037	677.31
355.264	694.31
355.491	686.31
355.718	679.31
355.945	703.31
356.172	698.31
356.399	684.31
356.626	715.31
356.853	727.31
357.08	694.31
357.307	696.31
357.534	705.31
357.761	704.31
357.988	710.31
358.215	698.31
358.441	686.31
358.668	669.31
358.895	655.31
359.122	700.31
359.349	688.31
359.576	694.31
359.802	680.31
360.029	680.31
360.256	694.31
360.483	698.31
360.709	678.31
360.936	682.31
361.163	678.31
361.39	690.31
361.616	694.31
361.843	716.31
362.07	747.31
362.296	726.31
362.523	684.31
362.749	688.31
362.976	682.31
363.203	656.31
363.429	664.31
363.656	678.31
363.882	683.31
364.109	671.31
364.335	694.31
364.562	672.31
364.788	685.31
365.015	690.31
365.241	670.31
365.468	700.31
365.694	683.31
365.92	660.31
366.147	666.31
366.373	679.31
366.599	676.31
366.826	694.31
367.052	699.31
367.278	683.31
367.505	668.31
367.731	693.31
367.957	679.31
368.184	675.31
368.41	700.31
368.636	686.31
368.862	700.31
369.089	668.31
369.315	669.31
369.541	685.31
369.767	709.31
369.993	699.31
370.219	720.31
370.445	714.31
370.672	726.31
370.898	702.31
371.124	705.31
371.35	724.31
371.576	735.31
371.802	735.31
372.028	704.31
372.254	696.31
372.48	748.31
372.706	736.31
372.932	733.31
373.158	735.31
373.384	723.31
373.61	724.31
373.835	750.31
374.061	743.31
374.287	713.31
374.513	750.31
374.739	751.31
374.965	770.31
375.191	792.31
375.416	772.31
375.642	752.31
375.868	756.31
376.094	748.31
376.319	716.31
376.545	739.31
376.771	720.31
376.997	717.31
377.222	706.31
377.448	728.31
377.674	720.31
377.899	724.31
378.125	709.31
378.35	700.31
378.576	698.31
378.802	709.31
379.027	687.31
379.253	711.31
379.478	700.31
379.704	694.31
379.929	695.31
380.155	724.31
380.38	731.31
380.606	720.31
380.831	716.31
381.057	734.31
381.282	714.31
381.507	724.31
381.733	724.31
381.958	700.31
382.184	719.31
382.409	725.31
382.634	715.31
382.86	744.31
383.085	735.31
383.31	758.31
383.535	766.31
383.761	754.31
383.986	779.31
384.211	784.31
384.436	794.31
384.662	784.31
384.887	834.31
385.112	815.31
385.337	822.31
385.562	838.31
385.787	832.31
386.013	850.31
386.238	850.31
386.463	842.31
386.688	842.31
386.913	833.31
387.138	791.31
387.363	824.31
387.588	818.31
387.813	819.31
388.038	811.31
388.263	850.31
388.488	836.31
388.713	802.31
388.938	834.31
389.163	812.31
389.387	831.31
389.612	788.31
389.837	816.31
390.062	820.31
390.287	810.31
390.512	833.31
390.736	810.31
390.961	848.31
391.186	827.31
391.411	865.31
391.636	865.31
391.86	899.31
392.085	882.31
392.31	916.31
392.534	899.31
392.759	887.31
392.984	887.31
393.208	864.31
393.433	905.31
393.658	842.31
393.882	850.31
394.107	855.31
394.331	900.31
394.556	872.31
394.78	872.31
395.005	899.31
395.229	898.31
395.454	893.31
395.678	894.31
395.903	916.31
396.127	929.31
396.352	879.31
396.576	893.31
396.801	882.31
397.025	878.31
397.249	896.31
397.474	924.31
397.698	900.31
397.922	931.31
398.147	927.31
398.371	964.31
398.595	955.31
398.82	1005.31
399.044	1062.31
399.268	1125.31
399.492	1273.31
399.717	1387.31
399.941	1370.31
400.165	1283.31
400.389	1182.31
400.613	1133.31
400.837	1040.31
401.062	1055.31
401.286	1019.31
401.51	1022.31
401.734	1016.31
401.958	1048.31
402.182	1008.31
402.406	1038.31
402.63	1048.31
402.854	1048.31
403.078	1056.31
403.302	1087.31
403.526	1094.31
403.75	1145.31
403.974	1144.31
404.198	1103.31
404.422	1116.31
404.645	1100.31
404.869	1108.31
405.093	1103.31
405.317	1134.31
405.541	1104.31
405.765	1085.31
405.988	1102.31
406.212	1120.31
406.436	1122.31
406.66	1123.31
406.883	1114.31
407.107	1188.31
407.331	1220.31
407.555	1272.31
407.778	1258.31
408.002	1242.31
408.226	1206.31
408.449	1188.31
408.673	1177.31
408.896	1148.31
409.12	1106.31
409.344	1163.31
409.567	1151.31
409.791	1154.31
410.014	1122.31
410.238	1101.31
410.461	1115.31
410.685	1078.31
410.908	1084.31
411.132	1089.31
411.355	1047.31
411.578	1063.31
411.802	1070.31
412.025	1097.31
412.249	1098.31
412.472	1071.31
412.695	1083.31
412.919	1036.31
413.142	1057.31
413.365	1018.31
413.589	1035.31
413.812	1020.31
414.035	1002.31
414.258	1036.31
414.482	1023.31
414.705	1021.31
414.928	1033.31
415.151	1049.31
415.374	1055.31
415.597	1001.31
415.821	997.31
416.044	1006.31
416.267	986.31
416.49	1025.31
416.713	1012.31
416.936	1037.31
417.159	1013.31
417.382	1019.31
417.605	1022.31
417.828	995.31
418.051	1000.31
418.274	1001.31
418.497	1021.31
418.72	1088.31
418.943	1033.31
419.166	1090.31
419.389	1141.31
419.611	1144.31
419.834	1118.31
420.057	1067.31
420.28	1036.31
420.503	1026.31
420.726	982.31
420.948	1018.31
421.171	1017.31
421.394	1018.31
421.617	1024.31
421.839	997.31
422.062	1021.31
422.285	1032.31
422.507	1050.31
422.73	1051.31
422.953	1039.31
423.175	1037.31
423.398	1040.31
423.621	1019.31
423.843	1054.31
424.066	1081.31
424.288	1036.31
424.511	1043.31
424.733	1055.31
424.956	1051.31
425.178	1060.31
425.401	1032.31
425.623	1028.31
425.846	994.31
426.068	1000.31
426.291	1004.31
426.513	1013.31
426.735	965.31
426.958	984.31
427.18	948.31
427.402	949.31
427.625	934.31
427.847	960.31
428.069	968.31
428.292	942.31
428.514	941.31
428.736	980.31
428.958	965.31
429.181	926.31
429.403	923.31
429.625	918.31
429.847	952.31
430.069	953.31
430.292	943.31
430.514	918.31
430.736	948.31
430.958	968.31
431.18	933.31
431.402	931.31
431.624	930.31
431.846	970.31
432.068	940.31
432.29	969.31
432.512	950.31
432.734	952.31
432.956	953.31
433.178	952.31
433.4	938.31
433.622	981.31
433.844	1002.31
434.066	972.31
434.287	991.31
434.509	1004.31
434.731	1018.31
434.953	1028.31
435.175	1067.31
435.397	1036.31
435.618	1011.31
435.84	995.31
436.062	958.31
436.284	964.31
436.505	967.31
436.727	962.31
436.949	980.31
437.17	960.31
437.392	943.31
437.614	940.31
437.835	910.31
438.057	926.31
438.278	923.31
438.5	938.31
438.721	932.31
438.943	934.31
439.165	905.31
439.386	949.31
439.608	967.31
439.829	958.31
440.05	963.31
440.272	992.31
440.493	966.31
440.715	987.31
440.936	1012.31
441.158	1002.31
441.379	1011.31
441.6	1080.31
441.822	1053.31
442.043	1033.31
442.264	1023.31
442.486	1007.31
442.707	1028.31
442.928	1029.31
443.149	1052.31
443.371	1048.31
443.592	1047.31
443.813	1052.31
444.034	1063.31
444.255	1114.31
444.476	1140.31
444.698	1182.31
444.919	1223.31
445.14	1288.31
445.361	1149.31
445.582	1110.31
445.803	1040.31
446.024	1034.31
446.245	1007.31
446.466	998.31
446.687	968.31
446.908	1003.31
447.129	931.31
447.35	963.31
447.571	918.31
447.792	935.31
448.013	922.31
448.234	934.31
448.455	904.31
448.675	913.31
448.896	916.31
449.117	895.31
449.338	904.31
449.559	903.31
449.779	903.31
450	879.31
450.221	889.31
450.442	922.31
450.662	889.31
450.883	910.31
451.104	910.31
451.324	919.31
451.545	910.31
451.766	912.31
451.986	910.31
452.207	907.31
452.428	908.31
452.648	888.31
452.869	890.31
453.089	879.31
453.31	896.31
453.53	856.31
453.751	868.31
453.971	875.31
454.192	888.31
454.412	860.31
454.633	884.31
454.853	858.31
455.073	830.31
455.294	886.31
455.514	882.31
455.734	871.31
455.955	857.31
456.175	855.31
456.395	846.31
456.616	837.31
456.836	844.31
457.056	836.31
457.276	840.31
457.497	877.31
457.717	839.31
457.937	849.31
458.157	856.31
458.377	869.31
458.598	908.31
458.818	882.31
459.038	918.31
459.258	927.31
459.478	984.31
459.698	1042.31
459.918	1028.31
460.138	1034.31
460.358	1104.31
460.578	1113.31
460.798	1103.31
461.018	1104.31
461.238	1138.31
461.458	1116.31
461.678	1114.31
461.898	1132.31
462.118	1149.31
462.338	1163.31
462.558	1208.31
462.777	1232.31
462.997	1312.31
463.217	1382.31
463.437	1405.31
463.657	1328.31
463.876	1272.31
464.096	1294.31
464.316	1262.31
464.536	1226.31
464.755	1232.31
464.975	1199.31
465.195	1134.31
465.414	1121.31
465.634	1059.31
465.854	1037.31
466.073	1015.31
466.293	982.31
466.512	962.31
466.732	957.31
466.951	951.31
467.171	960.31
467.391	967.31
467.61	948.31
467.829	939.31
468.049	938.31
468.268	931.31
468.488	925.31
468.707	912.31
468.927	906.31
469.146	924.31
469.365	975.31
469.585	920.31
469.804	948.31
470.023	962.31
470.243	983.31
470.462	960.31
470.681	979.31
470.901	951.31
471.12	961.31
471.339	960.31
471.558	973.31
471.777	933.31
471.997	947.31
472.216	908.31
472.435	926.31
472.654	931.31
472.873	904.31
473.092	909.31
473.311	926.31
473.53	899.31
473.749	914.31
473.968	934.31
474.187	912.31
474.406	912.31
474.625	899.31
474.844	934.31
475.063	947.31
475.282	926.31
475.501	934.31
475.72	948.31
475.939	952.31
476.158	965.31
476.377	918.31
476.596	939.31
476.814	994.31
477.033	958.31
477.252	981.31
477.471	1025.31
477.69	1024.31
477.908	1038.31
478.127	1038.31
478.346	1056.31
478.564	1077.31
478.783	1088.31
479.002	1130.31
479.22	1117.31
479.439	1151.31
479.658	1116.31
479.876	1112.31
480.095	1111.31
480.313	1151.31
480.532	1146.31
480.751	1180.31
480.969	1130.31
481.188	1131.31
481.406	1094.31
481.624	1044.31
481.843	1036.31
482.061	1028.31
482.28	1031.31
482.498	1050.31
482.717	1041.31
482.935	1054.31
483.153	1065.31
483.372	1064.31
483.59	1095.31
483.808	1099.31
484.027	1063.31
484.245	1058.31
484.463	1070.31
484.681	1092.31
484.9	1110.31
485.118	1087.31
485.336	1048.31
485.554	1068.31
485.772	1094.31
485.99	1100.31
486.209	1115.31
486.427	1109.31
486.645	1116.31
486.863	1109.31
487.081	1101.31
487.299	1076.31
487.517	1108.31
487.735	1114.31
487.953	1132.31
488.171	1122.31
488.389	1114.31
488.607	1101.31
488.825	1080.31
489.043	1081.31
489.261	1098.31
489.479	1065.31
489.696	1103.31
489.914	1113.31
490.132	1111.31
490.35	1140.31
490.568	1116.31
490.786	1124.31
491.003	1107.31
491.221	1131.31
491.439	1172.31
491.657	1127.31
491.874	1147.31
492.092	1151.31
492.31	1163.31
492.527	1186.31
492.745	1168.31
492.963	1166.31
493.18	1182.31
493.398	1178.31
493.615	1161.31
493.833	1158.31
494.05	1184.31
494.268	1183.31
494.485	1195.31
494.703	1160.31
494.92	1190.31
495.138	1163.31
495.355	1186.31
495.573	1174.31
495.79	1173.31
496.008	1194.31
496.225	1237.31
496.442	1226.31
496.66	1236.31
496.877	1234.31
497.094	1276.31
497.312	1275.31
497.529	1309.31
497.746	1295.31
497.963	1342.31
