Data from NiCl2@0.0625M.TitratingCurve.Agarose3%dH2O.NegLispCup.LampEnergy10.LIBS07252019_HRD10591_18-34-42-577.txt Node
Date: Thu Jul 25 18:34:42 EDT 2019
User: cochatt
Spectrometer: HR+D1059
Trigger mode: 1
Integration Time (sec): 1.000000E-1
Scans to average: 1
Electric dark correction enabled: true
Nonlinearity correction enabled: false
Boxcar width: 0
XAxis mode: Wavelengths
Number of Pixels in Spectrum: 2048
>>>>>Begin Spectral Data<<<<<
223.165	-15.44
223.4	-15.44
223.635	-15.44
223.869	-28.44
224.104	-21.44
224.338	-14.44
224.573	-24.44
224.808	-21.44
225.042	0.56
225.277	-5.44
225.511	-14.44
225.746	17.56
225.98	5.56
226.215	11.56
226.449	16.56
226.683	23.56
226.918	30.56
227.152	39.56
227.387	28.56
227.621	24.56
227.856	28.56
228.09	27.56
228.324	51.56
228.559	47.56
228.793	59.56
229.027	133.56
229.262	163.56
229.496	141.56
229.73	159.56
229.964	175.56
230.199	172.56
230.433	163.56
230.667	193.56
230.901	169.56
231.136	166.56
231.37	171.56
231.604	192.56
231.838	183.56
232.072	194.56
232.306	206.56
232.541	206.56
232.775	199.56
233.009	201.56
233.243	203.56
233.477	201.56
233.711	205.56
233.945	212.56
234.179	208.56
234.413	182.56
234.647	200.56
234.881	187.56
235.115	218.56
235.349	212.56
235.583	225.56
235.817	199.56
236.051	217.56
236.285	211.56
236.519	229.56
236.753	221.56
236.987	224.56
237.221	224.56
237.455	221.56
237.689	237.56
237.922	239.56
238.156	246.56
238.39	227.56
238.624	255.56
238.858	253.56
239.091	239.56
239.325	257.56
239.559	258.56
239.793	236.56
240.027	256.56
240.26	242.56
240.494	253.56
240.728	239.56
240.961	267.56
241.195	289.56
241.429	269.56
241.662	265.56
241.896	270.56
242.13	276.56
242.363	281.56
242.597	293.56
242.83	291.56
243.064	298.56
243.298	289.56
243.531	305.56
243.765	315.56
243.998	324.56
244.232	306.56
244.465	316.56
244.699	343.56
244.932	319.56
245.166	321.56
245.399	331.56
245.633	308.56
245.866	312.56
246.099	310.56
246.333	346.56
246.566	350.56
246.8	333.56
247.033	329.56
247.266	370.56
247.5	353.56
247.733	341.56
247.966	353.56
248.2	344.56
248.433	363.56
248.666	364.56
248.899	368.56
249.133	373.56
249.366	369.56
249.599	375.56
249.832	359.56
250.066	393.56
250.299	380.56
250.532	396.56
250.765	383.56
250.998	403.56
251.231	416.56
251.465	423.56
251.698	405.56
251.931	388.56
252.164	403.56
252.397	419.56
252.63	434.56
252.863	404.56
253.096	403.56
253.329	420.56
253.562	423.56
253.795	417.56
254.028	419.56
254.261	435.56
254.494	437.56
254.727	439.56
254.96	433.56
255.193	453.56
255.426	442.56
255.659	451.56
255.892	448.56
256.124	447.56
256.357	463.56
256.59	460.56
256.823	458.56
257.056	450.56
257.289	445.56
257.521	470.56
257.754	478.56
257.987	466.56
258.22	467.56
258.452	459.56
258.685	491.56
258.918	484.56
259.151	483.56
259.383	520.56
259.616	484.56
259.849	501.56
260.081	500.56
260.314	498.56
260.547	490.56
260.779	525.56
261.012	511.56
261.244	511.56
261.477	509.56
261.71	522.56
261.942	499.56
262.175	533.56
262.407	533.56
262.64	521.56
262.872	515.56
263.105	531.56
263.337	532.56
263.57	524.56
263.802	551.56
264.035	531.56
264.267	541.56
264.499	546.56
264.732	567.56
264.964	545.56
265.197	550.56
265.429	568.56
265.661	561.56
265.894	562.56
266.126	545.56
266.358	556.56
266.591	563.56
266.823	596.56
267.055	575.56
267.287	560.56
267.52	588.56
267.752	585.56
267.984	574.56
268.216	606.56
268.448	589.56
268.681	626.56
268.913	596.56
269.145	600.56
269.377	626.56
269.609	602.56
269.841	591.56
270.073	593.56
270.306	581.56
270.538	625.56
270.77	594.56
271.002	609.56
271.234	587.56
271.466	616.56
271.698	623.56
271.93	631.56
272.162	642.56
272.394	632.56
272.626	629.56
272.858	651.56
273.09	640.56
273.322	647.56
273.553	651.56
273.785	652.56
274.017	667.56
274.249	671.56
274.481	654.56
274.713	649.56
274.945	651.56
275.176	671.56
275.408	674.56
275.64	674.56
275.872	688.56
276.104	696.56
276.335	682.56
276.567	696.56
276.799	677.56
277.031	705.56
277.262	665.56
277.494	679.56
277.726	702.56
277.957	720.56
278.189	708.56
278.421	705.56
278.652	721.56
278.884	730.56
279.115	683.56
279.347	713.56
279.579	704.56
279.81	727.56
280.042	732.56
280.273	724.56
280.505	738.56
280.736	726.56
280.968	727.56
281.199	741.56
281.431	740.56
281.662	760.56
281.894	751.56
282.125	765.56
282.356	776.56
282.588	757.56
282.819	760.56
283.051	762.56
283.282	752.56
283.513	792.56
283.745	779.56
283.976	755.56
284.207	791.56
284.439	792.56
284.67	775.56
284.901	817.56
285.132	789.56
285.364	791.56
285.595	807.56
285.826	831.56
286.057	815.56
286.288	810.56
286.52	827.56
286.751	816.56
286.982	825.56
287.213	820.56
287.444	820.56
287.675	821.56
287.906	807.56
288.138	845.56
288.369	869.56
288.6	871.56
288.831	833.56
289.062	836.56
289.293	850.56
289.524	837.56
289.755	821.56
289.986	848.56
290.217	836.56
290.448	828.56
290.679	865.56
290.91	835.56
291.141	829.56
291.371	848.56
291.602	870.56
291.833	852.56
292.064	857.56
292.295	871.56
292.526	884.56
292.757	873.56
292.987	848.56
293.218	849.56
293.449	871.56
293.68	874.56
293.91	887.56
294.141	861.56
294.372	857.56
294.603	869.56
294.833	864.56
295.064	857.56
295.295	870.56
295.525	872.56
295.756	883.56
295.987	863.56
296.217	880.56
296.448	875.56
296.679	919.56
296.909	888.56
297.14	912.56
297.37	912.56
297.601	936.56
297.831	915.56
298.062	911.56
298.292	923.56
298.523	963.56
298.753	932.56
298.984	922.56
299.214	948.56
299.445	951.56
299.675	939.56
299.905	924.56
300.136	959.56
300.366	963.56
300.597	947.56
300.827	943.56
301.057	959.56
301.288	939.56
301.518	991.56
301.748	991.56
301.979	1005.56
302.209	987.56
302.439	1007.56
302.669	971.56
302.9	992.56
303.13	971.56
303.36	985.56
303.59	968.56
303.82	959.56
304.051	957.56
304.281	976.56
304.511	967.56
304.741	961.56
304.971	991.56
305.201	1007.56
305.431	1001.56
305.661	966.56
305.891	1000.56
306.121	963.56
306.352	987.56
306.582	960.56
306.812	976.56
307.042	968.56
307.272	960.56
307.502	955.56
307.731	965.56
307.961	986.56
308.191	973.56
308.421	972.56
308.651	936.56
308.881	964.56
309.111	980.56
309.341	961.56
309.571	968.56
309.8	959.56
310.03	988.56
310.26	975.56
310.49	988.56
310.72	951.56
310.949	975.56
311.179	973.56
311.409	972.56
311.639	952.56
311.868	980.56
312.098	1023.56
312.328	1014.56
312.557	1028.56
312.787	1012.56
313.017	1021.56
313.246	1016.56
313.476	1020.56
313.706	1043.56
313.935	1001.56
314.165	1029.56
314.394	1055.56
314.624	1038.56
314.853	1031.56
315.083	1059.56
315.312	1036.56
315.542	1052.56
315.771	1030.56
316.001	1048.56
316.23	1048.56
316.46	1036.56
316.689	1045.56
316.919	1030.56
317.148	1047.56
317.377	1068.56
317.607	1037.56
317.836	1033.56
318.065	1031.56
318.295	1027.56
318.524	1037.56
318.753	1029.56
318.983	1007.56
319.212	1019.56
319.441	1015.56
319.67	1043.56
319.9	1066.56
320.129	1033.56
320.358	1045.56
320.587	1032.56
320.816	1062.56
321.046	1078.56
321.275	1063.56
321.504	1052.56
321.733	1061.56
321.962	1025.56
322.191	1047.56
322.42	1077.56
322.649	1069.56
322.878	1057.56
323.108	1075.56
323.337	1077.56
323.566	1064.56
323.795	1080.56
324.024	1081.56
324.253	1087.56
324.482	1085.56
324.71	1062.56
324.939	1088.56
325.168	1100.56
325.397	1111.56
325.626	1105.56
325.855	1113.56
326.084	1096.56
326.313	1107.56
326.542	1109.56
326.77	1146.56
326.999	1143.56
327.228	1122.56
327.457	1145.56
327.686	1110.56
327.914	1129.56
328.143	1130.56
328.372	1127.56
328.6	1123.56
328.829	1132.56
329.058	1149.56
329.287	1155.56
329.515	1161.56
329.744	1122.56
329.972	1132.56
330.201	1159.56
330.43	1184.56
330.658	1177.56
330.887	1173.56
331.115	1193.56
331.344	1196.56
331.572	1189.56
331.801	1201.56
332.03	1226.56
332.258	1243.56
332.486	1261.56
332.715	1277.56
332.943	1320.56
333.172	1369.56
333.4	1409.56
333.629	1447.56
333.857	1427.56
334.085	1428.56
334.314	1477.56
334.542	1419.56
334.771	1415.56
334.999	1410.56
335.227	1388.56
335.455	1405.56
335.684	1417.56
335.912	1357.56
336.14	1380.56
336.369	1383.56
336.597	1379.56
336.825	1361.56
337.053	1328.56
337.281	1331.56
337.51	1336.56
337.738	1322.56
337.966	1252.56
338.194	1277.56
338.422	1228.56
338.65	1226.56
338.878	1242.56
339.106	1241.56
339.334	1252.56
339.562	1251.56
339.79	1220.56
340.018	1226.56
340.246	1154.56
340.474	1211.56
340.702	1171.56
340.93	1200.56
341.158	1223.56
341.386	1179.56
341.614	1186.56
341.842	1212.56
342.07	1208.56
342.298	1167.56
342.526	1177.56
342.754	1195.56
342.981	1184.56
343.209	1212.56
343.437	1242.56
343.665	1314.56
343.893	1365.56
344.12	1399.56
344.348	1375.56
344.576	1324.56
344.804	1287.56
345.031	1242.56
345.259	1271.56
345.487	1174.56
345.714	1220.56
345.942	1171.56
346.17	1171.56
346.397	1187.56
346.625	1178.56
346.853	1130.56
347.08	1130.56
347.308	1143.56
347.535	1156.56
347.763	1148.56
347.99	1118.56
348.218	1159.56
348.445	1144.56
348.673	1112.56
348.9	1155.56
349.128	1133.56
349.355	1123.56
349.583	1106.56
349.81	1131.56
350.037	1141.56
350.265	1116.56
350.492	1122.56
350.72	1102.56
350.947	1143.56
351.174	1121.56
351.402	1146.56
351.629	1109.56
351.856	1099.56
352.083	1065.56
352.311	1105.56
352.538	1113.56
352.765	1089.56
352.992	1077.56
353.22	1082.56
353.447	1128.56
353.674	1083.56
353.901	1097.56
354.128	1117.56
354.355	1077.56
354.583	1083.56
354.81	1100.56
355.037	1123.56
355.264	1114.56
355.491	1102.56
355.718	1095.56
355.945	1111.56
356.172	1116.56
356.399	1095.56
356.626	1098.56
356.853	1097.56
357.08	1110.56
357.307	1095.56
357.534	1122.56
357.761	1118.56
357.988	1113.56
358.215	1103.56
358.441	1094.56
358.668	1104.56
358.895	1106.56
359.122	1062.56
359.349	1099.56
359.576	1111.56
359.802	1087.56
360.029	1111.56
360.256	1098.56
360.483	1102.56
360.709	1097.56
360.936	1137.56
361.163	1100.56
361.39	1091.56
361.616	1094.56
361.843	1129.56
362.07	1090.56
362.296	1116.56
362.523	1128.56
362.749	1093.56
362.976	1084.56
363.203	1092.56
363.429	1123.56
363.656	1101.56
363.882	1097.56
364.109	1112.56
364.335	1096.56
364.562	1127.56
364.788	1085.56
365.015	1101.56
365.241	1110.56
365.468	1120.56
365.694	1099.56
365.92	1096.56
366.147	1148.56
366.373	1099.56
366.599	1089.56
366.826	1113.56
367.052	1127.56
367.278	1101.56
367.505	1101.56
367.731	1127.56
367.957	1139.56
368.184	1129.56
368.41	1128.56
368.636	1123.56
368.862	1113.56
369.089	1147.56
369.315	1139.56
369.541	1137.56
369.767	1180.56
369.993	1162.56
370.219	1164.56
370.445	1145.56
370.672	1163.56
370.898	1148.56
371.124	1183.56
371.35	1192.56
371.576	1161.56
371.802	1197.56
372.028	1221.56
372.254	1211.56
372.48	1229.56
372.706	1244.56
372.932	1216.56
373.158	1233.56
373.384	1226.56
373.61	1186.56
373.835	1209.56
374.061	1163.56
374.287	1221.56
374.513	1237.56
374.739	1280.56
374.965	1307.56
375.191	1313.56
375.416	1300.56
375.642	1278.56
375.868	1242.56
376.094	1220.56
376.319	1230.56
376.545	1183.56
376.771	1199.56
376.997	1200.56
377.222	1214.56
377.448	1177.56
377.674	1189.56
377.899	1171.56
378.125	1186.56
378.35	1197.56
378.576	1189.56
378.802	1171.56
379.027	1184.56
379.253	1192.56
379.478	1165.56
379.704	1165.56
379.929	1181.56
380.155	1186.56
380.38	1196.56
380.606	1196.56
380.831	1189.56
381.057	1205.56
381.282	1202.56
381.507	1174.56
381.733	1198.56
381.958	1211.56
382.184	1231.56
382.409	1254.56
382.634	1249.56
382.86	1242.56
383.085	1239.56
383.31	1284.56
383.535	1285.56
383.761	1268.56
383.986	1278.56
384.211	1327.56
384.436	1353.56
384.662	1374.56
384.887	1384.56
385.112	1414.56
385.337	1408.56
385.562	1416.56
385.787	1424.56
386.013	1463.56
386.238	1449.56
386.463	1423.56
386.688	1429.56
386.913	1408.56
387.138	1405.56
387.363	1401.56
387.588	1391.56
387.813	1420.56
388.038	1419.56
388.263	1469.56
388.488	1428.56
388.713	1429.56
388.938	1417.56
389.163	1393.56
389.387	1399.56
389.612	1416.56
389.837	1420.56
390.062	1428.56
390.287	1432.56
390.512	1410.56
390.736	1433.56
390.961	1479.56
391.186	1417.56
391.411	1478.56
391.636	1521.56
391.86	1556.56
392.085	1578.56
392.31	1590.56
392.534	1553.56
392.759	1541.56
392.984	1486.56
393.208	1523.56
393.433	1503.56
393.658	1460.56
393.882	1488.56
394.107	1501.56
394.331	1494.56
394.556	1521.56
394.78	1526.56
395.005	1508.56
395.229	1536.56
395.454	1547.56
395.678	1598.56
395.903	1565.56
396.127	1580.56
396.352	1531.56
396.576	1533.56
396.801	1538.56
397.025	1565.56
397.249	1583.56
397.474	1579.56
397.698	1587.56
397.922	1622.56
398.147	1618.56
398.371	1642.56
398.595	1687.56
398.82	1754.56
399.044	1881.56
399.268	2000.56
399.492	2202.56
399.717	2399.56
399.941	2477.56
400.165	2297.56
400.389	2079.56
400.613	2001.56
400.837	1888.56
401.062	1874.56
401.286	1806.56
401.51	1789.56
401.734	1794.56
401.958	1790.56
402.182	1788.56
402.406	1811.56
402.63	1807.56
402.854	1868.56
403.078	1836.56
403.302	1893.56
403.526	1887.56
403.75	1910.56
403.974	1999.56
404.198	1921.56
404.422	1961.56
404.645	1929.56
404.869	1904.56
405.093	1889.56
405.317	1884.56
405.541	1888.56
405.765	1905.56
405.988	1878.56
406.212	1905.56
406.436	1902.56
406.66	1993.56
406.883	1974.56
407.107	2095.56
407.331	2129.56
407.555	2206.56
407.778	2249.56
408.002	2213.56
408.226	2171.56
408.449	2061.56
408.673	2025.56
408.896	2000.56
409.12	1996.56
409.344	2015.56
409.567	1944.56
409.791	1996.56
410.014	1963.56
410.238	1939.56
410.461	1922.56
410.685	1931.56
410.908	1913.56
411.132	1901.56
411.355	1855.56
411.578	1834.56
411.802	1801.56
412.025	1845.56
412.249	1877.56
412.472	1831.56
412.695	1775.56
412.919	1780.56
413.142	1771.56
413.365	1770.56
413.589	1813.56
413.812	1732.56
414.035	1731.56
414.258	1744.56
414.482	1787.56
414.705	1747.56
414.928	1776.56
415.151	1814.56
415.374	1755.56
415.597	1765.56
415.821	1731.56
416.044	1717.56
416.267	1728.56
416.49	1691.56
416.713	1720.56
416.936	1720.56
417.159	1697.56
417.382	1691.56
417.605	1660.56
417.828	1686.56
418.051	1721.56
418.274	1723.56
418.497	1712.56
418.72	1691.56
418.943	1715.56
419.166	1837.56
419.389	1971.56
419.611	1918.56
419.834	1842.56
420.057	1749.56
420.28	1741.56
420.503	1691.56
420.726	1689.56
420.948	1678.56
421.171	1698.56
421.394	1702.56
421.617	1698.56
421.839	1688.56
422.062	1675.56
422.285	1672.56
422.507	1731.56
422.73	1704.56
422.953	1711.56
423.175	1754.56
423.398	1739.56
423.621	1740.56
423.843	1769.56
424.066	1777.56
424.288	1746.56
424.511	1745.56
424.733	1732.56
424.956	1717.56
425.178	1704.56
425.401	1712.56
425.623	1718.56
425.846	1659.56
426.068	1660.56
426.291	1638.56
426.513	1617.56
426.735	1633.56
426.958	1656.56
427.18	1602.56
427.402	1585.56
427.625	1545.56
427.847	1556.56
428.069	1565.56
428.292	1585.56
428.514	1555.56
428.736	1565.56
428.958	1572.56
429.181	1542.56
429.403	1527.56
429.625	1536.56
429.847	1543.56
430.069	1535.56
430.292	1544.56
430.514	1537.56
430.736	1535.56
430.958	1512.56
431.18	1549.56
431.402	1572.56
431.624	1566.56
431.846	1559.56
432.068	1603.56
432.29	1590.56
432.512	1535.56
432.734	1607.56
432.956	1563.56
433.178	1550.56
433.4	1566.56
433.622	1589.56
433.844	1601.56
434.066	1579.56
434.287	1657.56
434.509	1645.56
434.731	1677.56
434.953	1747.56
435.175	1745.56
435.397	1692.56
435.618	1640.56
435.84	1610.56
436.062	1590.56
436.284	1577.56
436.505	1541.56
436.727	1540.56
436.949	1579.56
437.17	1566.56
437.392	1545.56
437.614	1507.56
437.835	1475.56
438.057	1501.56
438.278	1477.56
438.5	1482.56
438.721	1448.56
438.943	1539.56
439.165	1489.56
439.386	1457.56
439.608	1490.56
439.829	1516.56
440.05	1523.56
440.272	1547.56
440.493	1511.56
440.715	1523.56
440.936	1569.56
441.158	1578.56
441.379	1626.56
441.6	1666.56
441.822	1711.56
442.043	1681.56
442.264	1649.56
442.486	1623.56
442.707	1646.56
442.928	1627.56
443.149	1617.56
443.371	1625.56
443.592	1645.56
443.813	1697.56
444.034	1664.56
444.255	1741.56
444.476	1812.56
444.698	1855.56
444.919	1899.56
445.14	1940.56
445.361	1841.56
445.582	1733.56
445.803	1629.56
446.024	1595.56
446.245	1583.56
446.466	1591.56
446.687	1515.56
446.908	1523.56
447.129	1472.56
447.35	1491.56
447.571	1459.56
447.792	1451.56
448.013	1460.56
448.234	1430.56
448.455	1421.56
448.675	1402.56
448.896	1400.56
449.117	1352.56
449.338	1386.56
449.559	1367.56
449.779	1391.56
450	1376.56
450.221	1401.56
450.442	1409.56
450.662	1363.56
450.883	1396.56
451.104	1385.56
451.324	1399.56
451.545	1344.56
451.766	1382.56
451.986	1379.56
452.207	1366.56
452.428	1357.56
452.648	1362.56
452.869	1317.56
453.089	1312.56
453.31	1352.56
453.53	1288.56
453.751	1331.56
453.971	1343.56
454.192	1306.56
454.412	1312.56
454.633	1281.56
454.853	1312.56
455.073	1307.56
455.294	1304.56
455.514	1271.56
455.734	1316.56
455.955	1263.56
456.175	1293.56
456.395	1286.56
456.616	1294.56
456.836	1299.56
457.056	1298.56
457.276	1313.56
457.497	1305.56
457.717	1300.56
457.937	1323.56
458.157	1334.56
458.377	1320.56
458.598	1392.56
458.818	1425.56
459.038	1437.56
459.258	1476.56
459.478	1514.56
459.698	1543.56
459.918	1600.56
460.138	1613.56
460.358	1690.56
460.578	1671.56
460.798	1714.56
461.018	1735.56
461.238	1738.56
461.458	1707.56
461.678	1715.56
461.898	1741.56
462.118	1766.56
462.338	1848.56
462.558	1888.56
462.777	1945.56
462.997	2047.56
463.217	2175.56
463.437	2172.56
463.657	2085.56
463.876	2007.56
464.096	1980.56
464.316	1951.56
464.536	1993.56
464.755	1916.56
464.975	1886.56
465.195	1817.56
465.414	1736.56
465.634	1632.56
465.854	1547.56
466.073	1559.56
466.293	1495.56
466.512	1451.56
466.732	1479.56
466.951	1475.56
467.171	1456.56
467.391	1457.56
467.61	1430.56
467.829	1415.56
468.049	1467.56
468.268	1403.56
468.488	1412.56
468.707	1403.56
468.927	1401.56
469.146	1360.56
469.365	1400.56
469.585	1423.56
469.804	1450.56
470.023	1453.56
470.243	1471.56
470.462	1501.56
470.681	1513.56
470.901	1511.56
471.12	1483.56
471.339	1415.56
471.558	1439.56
471.777	1435.56
471.997	1420.56
472.216	1416.56
472.435	1425.56
472.654	1396.56
472.873	1343.56
473.092	1401.56
473.311	1381.56
473.53	1381.56
473.749	1389.56
473.968	1379.56
474.187	1384.56
474.406	1384.56
474.625	1375.56
474.844	1374.56
475.063	1353.56
475.282	1394.56
475.501	1391.56
475.72	1407.56
475.939	1436.56
476.158	1441.56
476.377	1461.56
476.596	1445.56
476.814	1485.56
477.033	1526.56
477.252	1505.56
477.471	1512.56
477.69	1565.56
477.908	1584.56
478.127	1619.56
478.346	1628.56
478.564	1638.56
478.783	1702.56
479.002	1731.56
479.22	1724.56
479.439	1711.56
479.658	1727.56
479.876	1744.56
480.095	1766.56
480.313	1771.56
480.532	1833.56
480.751	1863.56
480.969	1747.56
481.188	1732.56
481.406	1682.56
481.624	1696.56
481.843	1709.56
482.061	1677.56
482.28	1648.56
482.498	1693.56
482.717	1711.56
482.935	1693.56
483.153	1695.56
483.372	1661.56
483.59	1700.56
483.808	1737.56
484.027	1735.56
484.245	1771.56
484.463	1748.56
484.681	1776.56
484.9	1773.56
485.118	1851.56
485.336	1871.56
485.554	1884.56
485.772	1884.56
485.99	1850.56
486.209	1888.56
486.427	1888.56
486.645	1891.56
486.863	1840.56
487.081	1841.56
487.299	1845.56
487.517	1860.56
487.735	1815.56
487.953	1845.56
488.171	1805.56
488.389	1811.56
488.607	1747.56
488.825	1759.56
489.043	1781.56
489.261	1756.56
489.479	1751.56
489.696	1755.56
489.914	1760.56
490.132	1733.56
490.35	1762.56
490.568	1733.56
