Data from NiCl2@0.0625M.TitratingCurve.Agarose3%dH2O.NegLispCup.LampEnergy10.LIBS07252019_HRD10591_18-34-24-576.txt Node
Date: Thu Jul 25 18:34:24 EDT 2019
User: cochatt
Spectrometer: HR+D1059
Trigger mode: 1
Integration Time (sec): 1.000000E-1
Scans to average: 1
Electric dark correction enabled: true
Nonlinearity correction enabled: false
Boxcar width: 0
XAxis mode: Wavelengths
Number of Pixels in Spectrum: 2048
>>>>>Begin Spectral Data<<<<<
223.165	-11.25
223.4	-11.25
223.635	-11.25
223.869	-24.25
224.104	-11.25
224.338	-15.25
224.573	-14.25
224.808	-8.25
225.042	-7.25
225.277	-3.25
225.511	-0.25
225.746	1.75
225.98	10.75
226.215	6.75
226.449	24.75
226.683	10.75
226.918	17.75
227.152	22.75
227.387	35.75
227.621	25.75
227.856	34.75
228.09	47.75
228.324	49.75
228.559	51.75
228.793	66.75
229.027	138.75
229.262	137.75
229.496	154.75
229.73	166.75
229.964	176.75
230.199	165.75
230.433	178.75
230.667	183.75
230.901	160.75
231.136	170.75
231.37	179.75
231.604	180.75
231.838	168.75
232.072	180.75
232.306	212.75
232.541	201.75
232.775	190.75
233.009	193.75
233.243	198.75
233.477	202.75
233.711	195.75
233.945	201.75
234.179	198.75
234.413	206.75
234.647	202.75
234.881	218.75
235.115	230.75
235.349	205.75
235.583	208.75
235.817	206.75
236.051	209.75
236.285	214.75
236.519	221.75
236.753	205.75
236.987	209.75
237.221	233.75
237.455	209.75
237.689	238.75
237.922	227.75
238.156	226.75
238.39	234.75
238.624	230.75
238.858	229.75
239.091	251.75
239.325	273.75
239.559	264.75
239.793	269.75
240.027	253.75
240.26	251.75
240.494	271.75
240.728	261.75
240.961	264.75
241.195	276.75
241.429	281.75
241.662	280.75
241.896	275.75
242.13	287.75
242.363	293.75
242.597	288.75
242.83	295.75
243.064	294.75
243.298	303.75
243.531	310.75
243.765	305.75
243.998	307.75
244.232	292.75
244.465	296.75
244.699	322.75
244.932	330.75
245.166	352.75
245.399	336.75
245.633	324.75
245.866	310.75
246.099	335.75
246.333	337.75
246.566	348.75
246.8	350.75
247.033	341.75
247.266	321.75
247.5	358.75
247.733	359.75
247.966	354.75
248.2	360.75
248.433	373.75
248.666	361.75
248.899	384.75
249.133	354.75
249.366	394.75
249.599	389.75
249.832	389.75
250.066	390.75
250.299	365.75
250.532	400.75
250.765	407.75
250.998	386.75
251.231	388.75
251.465	414.75
251.698	411.75
251.931	418.75
252.164	396.75
252.397	395.75
252.63	403.75
252.863	400.75
253.096	428.75
253.329	438.75
253.562	422.75
253.795	436.75
254.028	434.75
254.261	434.75
254.494	436.75
254.727	434.75
254.96	437.75
255.193	455.75
255.426	460.75
255.659	434.75
255.892	470.75
256.124	443.75
256.357	464.75
256.59	470.75
256.823	465.75
257.056	453.75
257.289	478.75
257.521	467.75
257.754	468.75
257.987	474.75
258.22	476.75
258.452	477.75
258.685	457.75
258.918	477.75
259.151	510.75
259.383	489.75
259.616	485.75
259.849	506.75
260.081	518.75
260.314	505.75
260.547	500.75
260.779	493.75
261.012	517.75
261.244	513.75
261.477	537.75
261.71	517.75
261.942	522.75
262.175	509.75
262.407	537.75
262.64	536.75
262.872	521.75
263.105	513.75
263.337	549.75
263.57	539.75
263.802	561.75
264.035	542.75
264.267	552.75
264.499	558.75
264.732	548.75
264.964	563.75
265.197	561.75
265.429	546.75
265.661	557.75
265.894	582.75
266.126	584.75
266.358	554.75
266.591	591.75
266.823	575.75
267.055	593.75
267.287	572.75
267.52	590.75
267.752	586.75
267.984	587.75
268.216	586.75
268.448	589.75
268.681	596.75
268.913	609.75
269.145	606.75
269.377	592.75
269.609	590.75
269.841	609.75
270.073	604.75
270.306	614.75
270.538	611.75
270.77	608.75
271.002	616.75
271.234	599.75
271.466	625.75
271.698	612.75
271.93	663.75
272.162	659.75
272.394	614.75
272.626	632.75
272.858	638.75
273.09	672.75
273.322	676.75
273.553	649.75
273.785	658.75
274.017	654.75
274.249	684.75
274.481	673.75
274.713	668.75
274.945	668.75
275.176	668.75
275.408	687.75
275.64	689.75
275.872	688.75
276.104	691.75
276.335	698.75
276.567	697.75
276.799	690.75
277.031	689.75
277.262	697.75
277.494	689.75
277.726	697.75
277.957	707.75
278.189	721.75
278.421	722.75
278.652	716.75
278.884	714.75
279.115	728.75
279.347	762.75
279.579	755.75
279.81	718.75
280.042	722.75
280.273	741.75
280.505	773.75
280.736	766.75
280.968	728.75
281.199	772.75
281.431	776.75
281.662	761.75
281.894	761.75
282.125	761.75
282.356	776.75
282.588	802.75
282.819	751.75
283.051	767.75
283.282	791.75
283.513	815.75
283.745	789.75
283.976	803.75
284.207	784.75
284.439	788.75
284.67	789.75
284.901	801.75
285.132	788.75
285.364	838.75
285.595	832.75
285.826	809.75
286.057	831.75
286.288	834.75
286.52	801.75
286.751	814.75
286.982	822.75
287.213	830.75
287.444	824.75
287.675	852.75
287.906	850.75
288.138	839.75
288.369	865.75
288.6	886.75
288.831	843.75
289.062	854.75
289.293	844.75
289.524	863.75
289.755	852.75
289.986	884.75
290.217	865.75
290.448	872.75
290.679	870.75
290.91	861.75
291.141	865.75
291.371	858.75
291.602	874.75
291.833	889.75
292.064	854.75
292.295	883.75
292.526	871.75
292.757	894.75
292.987	866.75
293.218	853.75
293.449	906.75
293.68	882.75
293.91	870.75
294.141	876.75
294.372	834.75
294.603	861.75
294.833	872.75
295.064	888.75
295.295	887.75
295.525	892.75
295.756	871.75
295.987	883.75
296.217	908.75
296.448	907.75
296.679	902.75
296.909	890.75
297.14	898.75
297.37	956.75
297.601	950.75
297.831	911.75
298.062	942.75
298.292	931.75
298.523	972.75
298.753	979.75
298.984	966.75
299.214	950.75
299.445	957.75
299.675	974.75
299.905	941.75
300.136	948.75
300.366	929.75
300.597	952.75
300.827	980.75
301.057	979.75
301.288	991.75
301.518	1014.75
301.748	993.75
301.979	1008.75
302.209	985.75
302.439	964.75
302.669	988.75
302.9	973.75
303.13	982.75
303.36	993.75
303.59	969.75
303.82	988.75
304.051	1019.75
304.281	1025.75
304.511	973.75
304.741	1005.75
304.971	1023.75
305.201	969.75
305.431	983.75
305.661	1030.75
305.891	980.75
306.121	973.75
306.352	985.75
306.582	994.75
306.812	966.75
307.042	1004.75
307.272	1015.75
307.502	983.75
307.731	992.75
307.961	981.75
308.191	968.75
308.421	989.75
308.651	960.75
308.881	978.75
309.111	1008.75
309.341	985.75
309.571	961.75
309.8	1031.75
310.03	1011.75
310.26	995.75
310.49	986.75
310.72	989.75
310.949	977.75
311.179	1007.75
311.409	989.75
311.639	1030.75
311.868	1007.75
312.098	1028.75
312.328	1034.75
312.557	1041.75
312.787	1038.75
313.017	1048.75
313.246	1035.75
313.476	1085.75
313.706	1056.75
313.935	1074.75
314.165	1078.75
314.394	1077.75
314.624	1046.75
314.853	1069.75
315.083	1040.75
315.312	1063.75
315.542	1070.75
315.771	1083.75
316.001	1071.75
316.23	1037.75
316.46	1053.75
316.689	1070.75
316.919	1083.75
317.148	1061.75
317.377	1074.75
317.607	1057.75
317.836	1024.75
318.065	1033.75
318.295	1062.75
318.524	1045.75
318.753	1047.75
318.983	1059.75
319.212	1030.75
319.441	1086.75
319.67	1072.75
319.9	1055.75
320.129	1061.75
320.358	1053.75
320.587	1051.75
320.816	1075.75
321.046	1057.75
321.275	1087.75
321.504	1053.75
321.733	1047.75
321.962	1072.75
322.191	1086.75
322.42	1056.75
322.649	1065.75
322.878	1089.75
323.108	1086.75
323.337	1087.75
323.566	1070.75
323.795	1076.75
324.024	1102.75
324.253	1091.75
324.482	1091.75
324.71	1097.75
324.939	1119.75
325.168	1103.75
325.397	1097.75
325.626	1151.75
325.855	1126.75
326.084	1108.75
326.313	1171.75
326.542	1149.75
326.77	1161.75
326.999	1160.75
327.228	1122.75
327.457	1152.75
327.686	1127.75
327.914	1143.75
328.143	1177.75
328.372	1159.75
328.6	1158.75
328.829	1155.75
329.058	1167.75
329.287	1141.75
329.515	1176.75
329.744	1175.75
329.972	1198.75
330.201	1180.75
330.43	1220.75
330.658	1183.75
330.887	1204.75
331.115	1207.75
331.344	1201.75
331.572	1193.75
331.801	1265.75
332.03	1277.75
332.258	1265.75
332.486	1301.75
332.715	1302.75
332.943	1378.75
333.172	1418.75
333.4	1441.75
333.629	1459.75
333.857	1499.75
334.085	1490.75
334.314	1473.75
334.542	1473.75
334.771	1491.75
334.999	1471.75
335.227	1457.75
335.455	1444.75
335.684	1406.75
335.912	1456.75
336.14	1428.75
336.369	1382.75
336.597	1404.75
336.825	1352.75
337.053	1362.75
337.281	1364.75
337.51	1353.75
337.738	1334.75
337.966	1283.75
338.194	1316.75
338.422	1269.75
338.65	1285.75
338.878	1286.75
339.106	1280.75
339.334	1258.75
339.562	1233.75
339.79	1221.75
340.018	1243.75
340.246	1241.75
340.474	1192.75
340.702	1212.75
340.93	1232.75
341.158	1214.75
341.386	1226.75
341.614	1217.75
341.842	1226.75
342.07	1210.75
342.298	1198.75
342.526	1200.75
342.754	1202.75
342.981	1235.75
343.209	1225.75
343.437	1285.75
343.665	1320.75
343.893	1404.75
344.12	1422.75
344.348	1393.75
344.576	1380.75
344.804	1312.75
345.031	1280.75
345.259	1224.75
345.487	1204.75
345.714	1208.75
345.942	1184.75
346.17	1189.75
346.397	1203.75
346.625	1167.75
346.853	1176.75
347.08	1176.75
347.308	1181.75
347.535	1163.75
347.763	1154.75
347.99	1153.75
348.218	1162.75
348.445	1175.75
348.673	1142.75
348.9	1160.75
349.128	1145.75
349.355	1156.75
349.583	1173.75
349.81	1146.75
350.037	1153.75
350.265	1141.75
350.492	1142.75
350.72	1126.75
350.947	1122.75
351.174	1131.75
351.402	1140.75
351.629	1124.75
351.856	1120.75
352.083	1121.75
352.311	1100.75
352.538	1111.75
352.765	1109.75
352.992	1136.75
353.22	1094.75
353.447	1084.75
353.674	1138.75
353.901	1102.75
354.128	1119.75
354.355	1118.75
354.583	1113.75
354.81	1125.75
355.037	1126.75
355.264	1112.75
355.491	1129.75
355.718	1123.75
355.945	1123.75
356.172	1134.75
356.399	1129.75
356.626	1153.75
356.853	1153.75
357.08	1130.75
357.307	1152.75
357.534	1132.75
357.761	1150.75
357.988	1130.75
358.215	1115.75
358.441	1112.75
358.668	1126.75
358.895	1121.75
359.122	1125.75
359.349	1137.75
359.576	1129.75
359.802	1110.75
360.029	1120.75
360.256	1142.75
360.483	1136.75
360.709	1132.75
360.936	1141.75
361.163	1116.75
361.39	1120.75
361.616	1106.75
361.843	1120.75
362.07	1119.75
362.296	1124.75
362.523	1095.75
362.749	1126.75
362.976	1105.75
363.203	1100.75
363.429	1139.75
363.656	1140.75
363.882	1149.75
364.109	1124.75
364.335	1110.75
364.562	1127.75
364.788	1116.75
365.015	1119.75
365.241	1119.75
365.468	1135.75
365.694	1112.75
365.92	1119.75
366.147	1111.75
366.373	1110.75
366.599	1104.75
366.826	1129.75
367.052	1114.75
367.278	1124.75
367.505	1130.75
367.731	1145.75
367.957	1130.75
368.184	1143.75
368.41	1140.75
368.636	1160.75
368.862	1164.75
369.089	1160.75
369.315	1136.75
369.541	1181.75
369.767	1183.75
369.993	1170.75
370.219	1152.75
370.445	1183.75
370.672	1202.75
370.898	1198.75
371.124	1166.75
371.35	1223.75
371.576	1222.75
371.802	1220.75
372.028	1193.75
372.254	1209.75
372.48	1233.75
372.706	1267.75
372.932	1277.75
373.158	1269.75
373.384	1279.75
373.61	1237.75
373.835	1253.75
374.061	1235.75
374.287	1229.75
374.513	1233.75
374.739	1256.75
374.965	1296.75
375.191	1310.75
375.416	1321.75
375.642	1318.75
375.868	1280.75
376.094	1287.75
376.319	1265.75
376.545	1252.75
376.771	1239.75
376.997	1203.75
377.222	1210.75
377.448	1233.75
377.674	1198.75
377.899	1214.75
378.125	1198.75
378.35	1183.75
378.576	1197.75
378.802	1213.75
379.027	1206.75
379.253	1200.75
379.478	1196.75
379.704	1210.75
379.929	1214.75
380.155	1207.75
380.38	1173.75
380.606	1196.75
380.831	1200.75
381.057	1246.75
381.282	1222.75
381.507	1218.75
381.733	1267.75
381.958	1234.75
382.184	1248.75
382.409	1285.75
382.634	1296.75
382.86	1276.75
383.085	1325.75
383.31	1312.75
383.535	1344.75
383.761	1329.75
383.986	1348.75
384.211	1376.75
384.436	1395.75
384.662	1402.75
384.887	1413.75
385.112	1426.75
385.337	1440.75
385.562	1432.75
385.787	1429.75
386.013	1424.75
386.238	1473.75
386.463	1478.75
386.688	1455.75
386.913	1440.75
387.138	1476.75
387.363	1470.75
387.588	1456.75
387.813	1432.75
388.038	1456.75
388.263	1463.75
388.488	1495.75
388.713	1440.75
388.938	1447.75
389.163	1428.75
389.387	1413.75
389.612	1435.75
389.837	1428.75
390.062	1453.75
390.287	1437.75
390.512	1434.75
390.736	1430.75
390.961	1472.75
391.186	1507.75
391.411	1552.75
391.636	1561.75
391.86	1568.75
392.085	1628.75
392.31	1564.75
392.534	1589.75
392.759	1548.75
392.984	1554.75
393.208	1553.75
393.433	1549.75
393.658	1534.75
393.882	1518.75
394.107	1526.75
394.331	1530.75
394.556	1523.75
394.78	1557.75
395.005	1584.75
395.229	1580.75
395.454	1594.75
395.678	1646.75
395.903	1627.75
396.127	1603.75
396.352	1589.75
396.576	1577.75
396.801	1574.75
397.025	1583.75
397.249	1598.75
397.474	1645.75
397.698	1649.75
397.922	1644.75
398.147	1607.75
398.371	1693.75
398.595	1747.75
398.82	1806.75
399.044	1880.75
399.268	2054.75
399.492	2256.75
399.717	2512.75
399.941	2538.75
400.165	2360.75
400.389	2206.75
400.613	2006.75
400.837	1940.75
401.062	1911.75
401.286	1858.75
401.51	1864.75
401.734	1821.75
401.958	1854.75
402.182	1840.75
402.406	1845.75
402.63	1876.75
402.854	1912.75
403.078	1910.75
403.302	1906.75
403.526	1962.75
403.75	1973.75
403.974	1982.75
404.198	1936.75
404.422	1977.75
404.645	2008.75
404.869	1985.75
405.093	1993.75
405.317	1973.75
405.541	1988.75
405.765	1932.75
405.988	1918.75
406.212	1980.75
406.436	2001.75
406.66	2053.75
406.883	2048.75
407.107	2182.75
407.331	2220.75
407.555	2245.75
407.778	2268.75
408.002	2216.75
408.226	2191.75
408.449	2201.75
408.673	2069.75
408.896	2048.75
409.12	2050.75
409.344	2061.75
409.567	2002.75
409.791	2002.75
410.014	2028.75
410.238	1989.75
410.461	1991.75
410.685	1942.75
410.908	1906.75
411.132	1914.75
411.355	1843.75
411.578	1883.75
411.802	1875.75
412.025	1870.75
412.249	1947.75
412.472	1956.75
412.695	1870.75
412.919	1816.75
413.142	1816.75
413.365	1845.75
413.589	1810.75
413.812	1822.75
414.035	1807.75
414.258	1810.75
414.482	1807.75
414.705	1813.75
414.928	1871.75
415.151	1800.75
415.374	1794.75
415.597	1759.75
415.821	1756.75
416.044	1738.75
416.267	1752.75
416.49	1745.75
416.713	1737.75
416.936	1767.75
417.159	1728.75
417.382	1728.75
417.605	1723.75
417.828	1737.75
418.051	1734.75
418.274	1754.75
418.497	1743.75
418.72	1773.75
418.943	1781.75
419.166	1887.75
419.389	2044.75
419.611	1979.75
419.834	1906.75
420.057	1829.75
420.28	1774.75
420.503	1751.75
420.726	1762.75
420.948	1736.75
421.171	1700.75
421.394	1749.75
421.617	1732.75
421.839	1712.75
422.062	1716.75
422.285	1703.75
422.507	1750.75
422.73	1744.75
422.953	1770.75
423.175	1798.75
423.398	1809.75
423.621	1812.75
423.843	1840.75
424.066	1801.75
424.288	1794.75
424.511	1802.75
424.733	1792.75
424.956	1769.75
425.178	1774.75
425.401	1737.75
425.623	1738.75
425.846	1681.75
426.068	1715.75
426.291	1732.75
426.513	1682.75
426.735	1654.75
426.958	1648.75
427.18	1611.75
427.402	1664.75
427.625	1640.75
427.847	1618.75
428.069	1618.75
428.292	1612.75
428.514	1601.75
428.736	1566.75
428.958	1586.75
429.181	1559.75
429.403	1557.75
429.625	1592.75
429.847	1580.75
430.069	1546.75
430.292	1538.75
430.514	1514.75
430.736	1571.75
430.958	1604.75
431.18	1570.75
431.402	1578.75
431.624	1577.75
431.846	1605.75
432.068	1613.75
432.29	1649.75
432.512	1572.75
432.734	1663.75
432.956	1593.75
433.178	1596.75
433.4	1627.75
433.622	1609.75
433.844	1632.75
434.066	1633.75
434.287	1664.75
434.509	1734.75
434.731	1784.75
434.953	1744.75
435.175	1788.75
435.397	1766.75
435.618	1677.75
435.84	1700.75
436.062	1638.75
436.284	1600.75
436.505	1646.75
436.727	1606.75
436.949	1575.75
437.17	1600.75
437.392	1557.75
437.614	1522.75
437.835	1519.75
438.057	1516.75
438.278	1517.75
438.5	1517.75
438.721	1544.75
438.943	1538.75
439.165	1505.75
439.386	1532.75
439.608	1594.75
439.829	1561.75
440.05	1536.75
440.272	1558.75
440.493	1574.75
440.715	1600.75
440.936	1626.75
441.158	1615.75
441.379	1688.75
441.6	1719.75
441.822	1696.75
442.043	1731.75
442.264	1693.75
442.486	1684.75
442.707	1762.75
442.928	1713.75
443.149	1667.75
443.371	1647.75
443.592	1718.75
443.813	1733.75
444.034	1752.75
444.255	1782.75
444.476	1832.75
444.698	1904.75
444.919	1932.75
445.14	2074.75
445.361	1877.75
445.582	1776.75
445.803	1705.75
446.024	1682.75
446.245	1671.75
446.466	1593.75
446.687	1568.75
446.908	1544.75
447.129	1536.75
447.35	1533.75
447.571	1512.75
447.792	1471.75
448.013	1465.75
448.234	1417.75
448.455	1482.75
448.675	1441.75
448.896	1438.75
449.117	1394.75
449.338	1399.75
449.559	1426.75
449.779	1366.75
450	1405.75
450.221	1391.75
450.442	1393.75
450.662	1390.75
450.883	1390.75
451.104	1446.75
451.324	1416.75
451.545	1406.75
451.766	1438.75
451.986	1390.75
452.207	1396.75
452.428	1397.75
452.648	1381.75
452.869	1384.75
453.089	1369.75
453.31	1375.75
453.53	1352.75
453.751	1358.75
453.971	1364.75
454.192	1373.75
454.412	1342.75
454.633	1334.75
454.853	1335.75
455.073	1330.75
455.294	1333.75
455.514	1304.75
455.734	1342.75
455.955	1326.75
456.175	1322.75
456.395	1316.75
456.616	1303.75
456.836	1308.75
457.056	1346.75
457.276	1287.75
457.497	1329.75
457.717	1342.75
457.937	1327.75
458.157	1364.75
458.377	1354.75
458.598	1394.75
458.818	1448.75
459.038	1446.75
459.258	1475.75
459.478	1578.75
459.698	1598.75
459.918	1641.75
460.138	1700.75
460.358	1748.75
460.578	1759.75
460.798	1749.75
461.018	1817.75
461.238	1803.75
461.458	1765.75
461.678	1792.75
461.898	1780.75
462.118	1792.75
462.338	1912.75
462.558	1974.75
462.777	2028.75
462.997	2121.75
463.217	2292.75
463.437	2293.75
463.657	2095.75
463.876	2085.75
464.096	2086.75
464.316	2004.75
464.536	1999.75
464.755	1988.75
464.975	1952.75
465.195	1840.75
465.414	1762.75
465.634	1680.75
465.854	1604.75
466.073	1590.75
466.293	1594.75
466.512	1539.75
466.732	1506.75
466.951	1486.75
467.171	1490.75
467.391	1523.75
467.61	1481.75
467.829	1473.75
468.049	1480.75
468.268	1434.75
468.488	1453.75
468.707	1406.75
468.927	1446.75
469.146	1435.75
469.365	1474.75
469.585	1443.75
469.804	1477.75
470.023	1485.75
470.243	1497.75
470.462	1523.75
470.681	1517.75
470.901	1503.75
471.12	1491.75
471.339	1483.75
471.558	1477.75
471.777	1496.75
471.997	1454.75
472.216	1445.75
472.435	1436.75
472.654	1444.75
472.873	1419.75
473.092	1392.75
473.311	1414.75
473.53	1404.75
473.749	1425.75
473.968	1408.75
474.187	1393.75
474.406	1415.75
474.625	1417.75
474.844	1423.75
475.063	1396.75
475.282	1415.75
475.501	1436.75
475.72	1440.75
475.939	1469.75
476.158	1501.75
476.377	1488.75
476.596	1474.75
476.814	1512.75
477.033	1531.75
477.252	1532.75
477.471	1572.75
477.69	1555.75
477.908	1612.75
478.127	1639.75
478.346	1675.75
478.564	1695.75
478.783	1748.75
479.002	1759.75
479.22	1782.75
479.439	1763.75
479.658	1796.75
479.876	1800.75
480.095	1809.75
480.313	1901.75
480.532	1872.75
480.751	1892.75
480.969	1893.75
481.188	1800.75
481.406	1744.75
481.624	1746.75
481.843	1757.75
482.061	1734.75
482.28	1755.75
482.498	1752.75
482.717	1741.75
482.935	1719.75
483.153	1752.75
483.372	1729.75
483.59	1733.75
483.808	1751.75
484.027	1785.75
484.245	1806.75
484.463	1757.75
484.681	1839.75
484.9	1870.75
485.118	1901.75
485.336	1910.75
485.554	1931.75
485.772	1967.75
485.99	1910.75
486.209	1924.75
486.427	1882.75
486.645	1910.75
486.863	1919.75
487.081	1881.75
487.299	1890.75
487.517	1870.75
487.735	1852.75
487.953	1863.75
488.171	1865.75
488.389	1844.75
488.607	1836.75
488.825	1815.75
489.043	1826.75
489.261	1819.75
489.479	1854.75
489.696	1788.75
489.914	1792.75
490.132	1833.75
490.35	1789.75
