Data from NiCl2@0.0625M.TitratingCurve.Agarose3%dH2O.NegLispCup.LampEnergy10.LIBS07252019_HRD10591_18-32-53-576.txt Node
Date: Thu Jul 25 18:32:53 EDT 2019
User: cochatt
Spectrometer: HR+D1059
Trigger mode: 1
Integration Time (sec): 1.000000E-1
Scans to average: 1
Electric dark correction enabled: true
Nonlinearity correction enabled: false
Boxcar width: 0
XAxis mode: Wavelengths
Number of Pixels in Spectrum: 2048
>>>>>Begin Spectral Data<<<<<
223.165	-22.25
223.4	-22.25
223.635	-22.25
223.869	-17.25
224.104	-24.25
224.338	-10.25
224.573	-14.25
224.808	-16.25
225.042	4.75
225.277	-13.25
225.511	5.75
225.746	2.75
225.98	9.75
226.215	12.75
226.449	12.75
226.683	24.75
226.918	20.75
227.152	23.75
227.387	33.75
227.621	46.75
227.856	39.75
228.09	48.75
228.324	42.75
228.559	63.75
228.793	95.75
229.027	163.75
229.262	174.75
229.496	172.75
229.73	180.75
229.964	172.75
230.199	189.75
230.433	190.75
230.667	204.75
230.901	199.75
231.136	188.75
231.37	201.75
231.604	200.75
231.838	193.75
232.072	220.75
232.306	207.75
232.541	228.75
232.775	207.75
233.009	208.75
233.243	204.75
233.477	214.75
233.711	233.75
233.945	223.75
234.179	234.75
234.413	227.75
234.647	237.75
234.881	227.75
235.115	209.75
235.349	233.75
235.583	213.75
235.817	227.75
236.051	228.75
236.285	227.75
236.519	245.75
236.753	247.75
236.987	251.75
237.221	248.75
237.455	248.75
237.689	238.75
237.922	236.75
238.156	263.75
238.39	245.75
238.624	266.75
238.858	279.75
239.091	272.75
239.325	265.75
239.559	282.75
239.793	280.75
240.027	273.75
240.26	288.75
240.494	289.75
240.728	303.75
240.961	307.75
241.195	293.75
241.429	307.75
241.662	314.75
241.896	319.75
242.13	321.75
242.363	302.75
242.597	306.75
242.83	326.75
243.064	332.75
243.298	321.75
243.531	330.75
243.765	344.75
243.998	331.75
244.232	348.75
244.465	337.75
244.699	363.75
244.932	364.75
245.166	382.75
245.399	363.75
245.633	362.75
245.866	348.75
246.099	363.75
246.333	381.75
246.566	374.75
246.8	379.75
247.033	376.75
247.266	365.75
247.5	385.75
247.733	393.75
247.966	416.75
248.2	424.75
248.433	450.75
248.666	385.75
248.899	409.75
249.133	407.75
249.366	421.75
249.599	410.75
249.832	422.75
250.066	436.75
250.299	417.75
250.532	424.75
250.765	432.75
250.998	435.75
251.231	432.75
251.465	451.75
251.698	447.75
251.931	457.75
252.164	460.75
252.397	473.75
252.63	481.75
252.863	488.75
253.096	462.75
253.329	472.75
253.562	464.75
253.795	480.75
254.028	456.75
254.261	469.75
254.494	454.75
254.727	474.75
254.96	476.75
255.193	486.75
255.426	497.75
255.659	496.75
255.892	496.75
256.124	484.75
256.357	488.75
256.59	490.75
256.823	496.75
257.056	511.75
257.289	506.75
257.521	526.75
257.754	513.75
257.987	528.75
258.22	517.75
258.452	535.75
258.685	523.75
258.918	547.75
259.151	518.75
259.383	535.75
259.616	530.75
259.849	530.75
260.081	572.75
260.314	570.75
260.547	554.75
260.779	557.75
261.012	578.75
261.244	551.75
261.477	566.75
261.71	576.75
261.942	598.75
262.175	572.75
262.407	571.75
262.64	554.75
262.872	565.75
263.105	585.75
263.337	576.75
263.57	587.75
263.802	600.75
264.035	604.75
264.267	592.75
264.499	599.75
264.732	603.75
264.964	612.75
265.197	624.75
265.429	617.75
265.661	639.75
265.894	623.75
266.126	623.75
266.358	640.75
266.591	624.75
266.823	620.75
267.055	624.75
267.287	621.75
267.52	631.75
267.752	637.75
267.984	622.75
268.216	653.75
268.448	659.75
268.681	663.75
268.913	691.75
269.145	659.75
269.377	656.75
269.609	666.75
269.841	663.75
270.073	653.75
270.306	678.75
270.538	663.75
270.77	665.75
271.002	672.75
271.234	686.75
271.466	687.75
271.698	691.75
271.93	673.75
272.162	715.75
272.394	681.75
272.626	690.75
272.858	683.75
273.09	721.75
273.322	704.75
273.553	696.75
273.785	699.75
274.017	724.75
274.249	717.75
274.481	731.75
274.713	762.75
274.945	743.75
275.176	734.75
275.408	756.75
275.64	749.75
275.872	735.75
276.104	757.75
276.335	752.75
276.567	786.75
276.799	769.75
277.031	765.75
277.262	797.75
277.494	772.75
277.726	778.75
277.957	789.75
278.189	791.75
278.421	751.75
278.652	777.75
278.884	814.75
279.115	791.75
279.347	831.75
279.579	809.75
279.81	804.75
280.042	819.75
280.273	813.75
280.505	805.75
280.736	833.75
280.968	782.75
281.199	823.75
281.431	839.75
281.662	856.75
281.894	857.75
282.125	811.75
282.356	850.75
282.588	861.75
282.819	848.75
283.051	830.75
283.282	858.75
283.513	856.75
283.745	846.75
283.976	869.75
284.207	897.75
284.439	871.75
284.67	891.75
284.901	893.75
285.132	903.75
285.364	878.75
285.595	867.75
285.826	903.75
286.057	897.75
286.288	881.75
286.52	905.75
286.751	872.75
286.982	905.75
287.213	890.75
287.444	917.75
287.675	907.75
287.906	927.75
288.138	923.75
288.369	907.75
288.6	937.75
288.831	925.75
289.062	944.75
289.293	917.75
289.524	927.75
289.755	917.75
289.986	918.75
290.217	942.75
290.448	921.75
290.679	940.75
290.91	919.75
291.141	928.75
291.371	949.75
291.602	973.75
291.833	957.75
292.064	959.75
292.295	944.75
292.526	927.75
292.757	936.75
292.987	947.75
293.218	974.75
293.449	958.75
293.68	966.75
293.91	948.75
294.141	943.75
294.372	945.75
294.603	972.75
294.833	951.75
295.064	957.75
295.295	947.75
295.525	962.75
295.756	962.75
295.987	933.75
296.217	959.75
296.448	967.75
296.679	985.75
296.909	973.75
297.14	1005.75
297.37	1010.75
297.601	1018.75
297.831	1017.75
298.062	1020.75
298.292	1030.75
298.523	1009.75
298.753	1038.75
298.984	1031.75
299.214	1039.75
299.445	1044.75
299.675	985.75
299.905	1028.75
300.136	993.75
300.366	1022.75
300.597	1017.75
300.827	1062.75
301.057	1079.75
301.288	1062.75
301.518	1057.75
301.748	1080.75
301.979	1100.75
302.209	1096.75
302.439	1075.75
302.669	1103.75
302.9	1061.75
303.13	1085.75
303.36	1060.75
303.59	1075.75
303.82	1093.75
304.051	1068.75
304.281	1103.75
304.511	1042.75
304.741	1099.75
304.971	1082.75
305.201	1055.75
305.431	1091.75
305.661	1069.75
305.891	1069.75
306.121	1087.75
306.352	1085.75
306.582	1043.75
306.812	1050.75
307.042	1083.75
307.272	1040.75
307.502	1062.75
307.731	1105.75
307.961	1056.75
308.191	1053.75
308.421	1057.75
308.651	1075.75
308.881	1059.75
309.111	1070.75
309.341	1062.75
309.571	1050.75
309.8	1102.75
310.03	1076.75
310.26	1082.75
310.49	1099.75
310.72	1115.75
310.949	1099.75
311.179	1094.75
311.409	1096.75
311.639	1120.75
311.868	1082.75
312.098	1087.75
312.328	1110.75
312.557	1132.75
312.787	1131.75
313.017	1150.75
313.246	1120.75
313.476	1123.75
313.706	1147.75
313.935	1123.75
314.165	1171.75
314.394	1147.75
314.624	1164.75
314.853	1157.75
315.083	1141.75
315.312	1167.75
315.542	1162.75
315.771	1151.75
316.001	1146.75
316.23	1206.75
316.46	1165.75
316.689	1159.75
316.919	1179.75
317.148	1179.75
317.377	1173.75
317.607	1127.75
317.836	1167.75
318.065	1184.75
318.295	1191.75
318.524	1161.75
318.753	1143.75
318.983	1133.75
319.212	1132.75
319.441	1145.75
319.67	1144.75
319.9	1123.75
320.129	1135.75
320.358	1136.75
320.587	1150.75
320.816	1157.75
321.046	1149.75
321.275	1146.75
321.504	1146.75
321.733	1142.75
321.962	1165.75
322.191	1173.75
322.42	1166.75
322.649	1179.75
322.878	1158.75
323.108	1157.75
323.337	1169.75
323.566	1170.75
323.795	1173.75
324.024	1173.75
324.253	1191.75
324.482	1180.75
324.71	1201.75
324.939	1192.75
325.168	1210.75
325.397	1183.75
325.626	1207.75
325.855	1272.75
326.084	1226.75
326.313	1254.75
326.542	1234.75
326.77	1263.75
326.999	1235.75
327.228	1219.75
327.457	1252.75
327.686	1229.75
327.914	1253.75
328.143	1244.75
328.372	1289.75
328.6	1251.75
328.829	1264.75
329.058	1267.75
329.287	1251.75
329.515	1269.75
329.744	1254.75
329.972	1263.75
330.201	1249.75
330.43	1270.75
330.658	1291.75
330.887	1281.75
331.115	1302.75
331.344	1348.75
331.572	1323.75
331.801	1346.75
332.03	1353.75
332.258	1396.75
332.486	1383.75
332.715	1417.75
332.943	1513.75
333.172	1495.75
333.4	1540.75
333.629	1583.75
333.857	1612.75
334.085	1614.75
334.314	1575.75
334.542	1563.75
334.771	1591.75
334.999	1558.75
335.227	1584.75
335.455	1555.75
335.684	1535.75
335.912	1515.75
336.14	1504.75
336.369	1495.75
336.597	1514.75
336.825	1515.75
337.053	1501.75
337.281	1499.75
337.51	1450.75
337.738	1442.75
337.966	1423.75
338.194	1390.75
338.422	1382.75
338.65	1393.75
338.878	1410.75
339.106	1373.75
339.334	1413.75
339.562	1386.75
339.79	1348.75
340.018	1304.75
340.246	1318.75
340.474	1297.75
340.702	1324.75
340.93	1317.75
341.158	1324.75
341.386	1335.75
341.614	1322.75
341.842	1303.75
342.07	1262.75
342.298	1312.75
342.526	1278.75
342.754	1290.75
342.981	1344.75
343.209	1353.75
343.437	1393.75
343.665	1453.75
343.893	1543.75
344.12	1553.75
344.348	1516.75
344.576	1481.75
344.804	1399.75
345.031	1375.75
345.259	1347.75
345.487	1359.75
345.714	1319.75
345.942	1309.75
346.17	1286.75
346.397	1312.75
346.625	1271.75
346.853	1269.75
347.08	1309.75
347.308	1261.75
347.535	1271.75
347.763	1268.75
347.99	1244.75
348.218	1271.75
348.445	1257.75
348.673	1254.75
348.9	1223.75
349.128	1248.75
349.355	1243.75
349.583	1246.75
349.81	1209.75
350.037	1211.75
350.265	1233.75
350.492	1228.75
350.72	1222.75
350.947	1213.75
351.174	1200.75
351.402	1222.75
351.629	1213.75
351.856	1225.75
352.083	1240.75
352.311	1231.75
352.538	1227.75
352.765	1205.75
352.992	1196.75
353.22	1220.75
353.447	1207.75
353.674	1213.75
353.901	1219.75
354.128	1175.75
354.355	1191.75
354.583	1203.75
354.81	1183.75
355.037	1211.75
355.264	1217.75
355.491	1207.75
355.718	1228.75
355.945	1208.75
356.172	1218.75
356.399	1237.75
356.626	1212.75
356.853	1258.75
357.08	1229.75
357.307	1238.75
357.534	1222.75
357.761	1245.75
357.988	1222.75
358.215	1227.75
358.441	1211.75
358.668	1231.75
358.895	1219.75
359.122	1221.75
359.349	1246.75
359.576	1255.75
359.802	1252.75
360.029	1194.75
360.256	1214.75
360.483	1239.75
360.709	1231.75
360.936	1218.75
361.163	1203.75
361.39	1198.75
361.616	1242.75
361.843	1224.75
362.07	1233.75
362.296	1254.75
362.523	1221.75
362.749	1250.75
362.976	1223.75
363.203	1228.75
363.429	1203.75
363.656	1223.75
363.882	1228.75
364.109	1218.75
364.335	1190.75
364.562	1235.75
364.788	1209.75
365.015	1260.75
365.241	1205.75
365.468	1175.75
365.694	1230.75
365.92	1196.75
366.147	1225.75
366.373	1221.75
366.599	1254.75
366.826	1209.75
367.052	1258.75
367.278	1243.75
367.505	1238.75
367.731	1217.75
367.957	1224.75
368.184	1240.75
368.41	1229.75
368.636	1244.75
368.862	1272.75
369.089	1269.75
369.315	1248.75
369.541	1264.75
369.767	1284.75
369.993	1283.75
370.219	1257.75
370.445	1299.75
370.672	1317.75
370.898	1295.75
371.124	1299.75
371.35	1342.75
371.576	1333.75
371.802	1311.75
372.028	1351.75
372.254	1336.75
372.48	1335.75
372.706	1354.75
372.932	1384.75
373.158	1379.75
373.384	1352.75
373.61	1326.75
373.835	1371.75
374.061	1342.75
374.287	1390.75
374.513	1364.75
374.739	1424.75
374.965	1447.75
375.191	1496.75
375.416	1440.75
375.642	1447.75
375.868	1405.75
376.094	1352.75
376.319	1351.75
376.545	1358.75
376.771	1352.75
376.997	1313.75
377.222	1349.75
377.448	1289.75
377.674	1310.75
377.899	1320.75
378.125	1333.75
378.35	1310.75
378.576	1308.75
378.802	1308.75
379.027	1370.75
379.253	1319.75
379.478	1312.75
379.704	1304.75
379.929	1312.75
380.155	1301.75
380.38	1285.75
380.606	1317.75
380.831	1321.75
381.057	1294.75
381.282	1303.75
381.507	1325.75
381.733	1358.75
381.958	1344.75
382.184	1371.75
382.409	1393.75
382.634	1374.75
382.86	1392.75
383.085	1379.75
383.31	1409.75
383.535	1401.75
383.761	1453.75
383.986	1453.75
384.211	1485.75
384.436	1488.75
384.662	1504.75
384.887	1502.75
385.112	1531.75
385.337	1581.75
385.562	1604.75
385.787	1573.75
386.013	1604.75
386.238	1592.75
386.463	1639.75
386.688	1596.75
386.913	1562.75
387.138	1573.75
387.363	1601.75
387.588	1543.75
387.813	1569.75
388.038	1572.75
388.263	1599.75
388.488	1588.75
388.713	1572.75
388.938	1565.75
389.163	1533.75
389.387	1546.75
389.612	1541.75
389.837	1578.75
390.062	1526.75
390.287	1544.75
390.512	1555.75
390.736	1583.75
390.961	1575.75
391.186	1654.75
391.411	1639.75
391.636	1691.75
391.86	1719.75
392.085	1781.75
392.31	1769.75
392.534	1723.75
392.759	1697.75
392.984	1749.75
393.208	1748.75
393.433	1921.75
393.658	2118.75
393.882	1767.75
394.107	1717.75
394.331	1688.75
394.556	1679.75
394.78	1716.75
395.005	1719.75
395.229	1709.75
395.454	1739.75
395.678	1755.75
395.903	1740.75
396.127	1753.75
396.352	1767.75
396.576	1730.75
396.801	1803.75
397.025	1967.75
397.249	1886.75
397.474	1843.75
397.698	1799.75
397.922	1840.75
398.147	1831.75
398.371	1843.75
398.595	1884.75
398.82	1878.75
399.044	2021.75
399.268	2207.75
399.492	2434.75
399.717	2709.75
399.941	2741.75
400.165	2543.75
400.389	2375.75
400.613	2212.75
400.837	2084.75
401.062	2022.75
401.286	1999.75
401.51	1995.75
401.734	1944.75
401.958	2001.75
402.182	1985.75
402.406	1975.75
402.63	1971.75
402.854	2001.75
403.078	2059.75
403.302	2130.75
403.526	2122.75
403.75	2140.75
403.974	2179.75
404.198	2155.75
404.422	2168.75
404.645	2186.75
404.869	2135.75
405.093	2108.75
405.317	2095.75
405.541	2111.75
405.765	2103.75
405.988	2088.75
406.212	2158.75
406.436	2179.75
406.66	2217.75
406.883	2207.75
407.107	2312.75
407.331	2389.75
407.555	2429.75
407.778	2403.75
408.002	2424.75
408.226	2376.75
408.449	2321.75
408.673	2206.75
408.896	2223.75
409.12	2183.75
409.344	2198.75
409.567	2201.75
409.791	2171.75
410.014	2161.75
410.238	2156.75
410.461	2126.75
410.685	2093.75
410.908	2082.75
411.132	2077.75
411.355	2011.75
411.578	2045.75
411.802	2046.75
412.025	2012.75
412.249	2049.75
412.472	2055.75
412.695	2033.75
412.919	2011.75
413.142	1950.75
413.365	1983.75
413.589	1966.75
413.812	1925.75
414.035	1929.75
414.258	1934.75
414.482	1953.75
414.705	1979.75
414.928	1995.75
415.151	1960.75
415.374	1955.75
415.597	1944.75
415.821	1930.75
416.044	1883.75
416.267	1900.75
416.49	1871.75
416.713	1863.75
416.936	1864.75
417.159	1891.75
417.382	1855.75
417.605	1851.75
417.828	1846.75
418.051	1882.75
418.274	1928.75
418.497	1883.75
418.72	1955.75
418.943	1879.75
419.166	2000.75
419.389	2183.75
419.611	2106.75
419.834	2057.75
420.057	2039.75
420.28	1929.75
420.503	1874.75
420.726	1883.75
420.948	1883.75
421.171	1850.75
421.394	1893.75
421.617	1896.75
421.839	1862.75
422.062	1888.75
422.285	1840.75
422.507	1901.75
422.73	1927.75
422.953	1951.75
423.175	1945.75
423.398	1935.75
423.621	1958.75
423.843	1959.75
424.066	1960.75
424.288	1964.75
424.511	1902.75
424.733	1925.75
424.956	1921.75
425.178	1854.75
425.401	1891.75
425.623	1867.75
425.846	1859.75
426.068	1861.75
426.291	1841.75
426.513	1780.75
426.735	1808.75
426.958	1812.75
427.18	1774.75
427.402	1773.75
427.625	1763.75
427.847	1710.75
428.069	1758.75
428.292	1740.75
428.514	1723.75
428.736	1720.75
428.958	1742.75
429.181	1689.75
429.403	1679.75
429.625	1662.75
429.847	1674.75
430.069	1664.75
430.292	1686.75
430.514	1677.75
430.736	1665.75
430.958	1700.75
431.18	1687.75
431.402	1740.75
431.624	1687.75
431.846	1701.75
432.068	1755.75
432.29	1745.75
432.512	1712.75
432.734	1723.75
432.956	1733.75
433.178	1743.75
433.4	1727.75
433.622	1710.75
433.844	1774.75
434.066	1766.75
434.287	1806.75
434.509	1787.75
434.731	1856.75
434.953	1911.75
435.175	1866.75
435.397	1879.75
435.618	1791.75
435.84	1774.75
436.062	1738.75
436.284	1746.75
436.505	1713.75
436.727	1691.75
436.949	1690.75
437.17	1702.75
437.392	1670.75
437.614	1668.75
437.835	1613.75
438.057	1627.75
438.278	1651.75
438.5	1637.75
438.721	1658.75
438.943	1660.75
439.165	1664.75
439.386	1667.75
439.608	1709.75
439.829	1673.75
440.05	1692.75
440.272	1691.75
440.493	1695.75
440.715	1696.75
440.936	1752.75
441.158	1721.75
441.379	1765.75
441.6	1883.75
441.822	1872.75
442.043	1859.75
442.264	1832.75
442.486	1796.75
442.707	1795.75
442.928	1783.75
443.149	1827.75
443.371	1854.75
443.592	1858.75
443.813	1827.75
444.034	1847.75
444.255	1923.75
444.476	1987.75
444.698	2065.75
444.919	2121.75
445.14	2196.75
445.361	2039.75
445.582	1933.75
445.803	1833.75
446.024	1799.75
446.245	1742.75
446.466	1748.75
446.687	1682.75
446.908	1716.75
447.129	1683.75
447.35	1628.75
447.571	1630.75
447.792	1607.75
448.013	1604.75
448.234	1584.75
448.455	1546.75
448.675	1549.75
448.896	1534.75
449.117	1493.75
449.338	1524.75
449.559	1531.75
449.779	1468.75
450	1485.75
450.221	1508.75
450.442	1531.75
450.662	1511.75
450.883	1535.75
451.104	1579.75
451.324	1513.75
451.545	1535.75
451.766	1549.75
451.986	1521.75
452.207	1548.75
452.428	1536.75
452.648	1507.75
452.869	1483.75
453.089	1459.75
453.31	1502.75
453.53	1482.75
453.751	1501.75
453.971	1445.75
454.192	1460.75
454.412	1431.75
454.633	1459.75
454.853	1443.75
455.073	1420.75
455.294	1454.75
455.514	1426.75
455.734	1453.75
455.955	1445.75
456.175	1441.75
456.395	1414.75
456.616	1432.75
456.836	1438.75
457.056	1459.75
457.276	1429.75
457.497	1450.75
457.717	1457.75
457.937	1477.75
458.157	1495.75
458.377	1493.75
458.598	1493.75
458.818	1549.75
459.038	1615.75
459.258	1619.75
459.478	1704.75
459.698	1740.75
459.918	1769.75
460.138	1807.75
460.358	1875.75
460.578	1907.75
460.798	1939.75
461.018	1926.75
461.238	1917.75
461.458	1919.75
461.678	1910.75
461.898	1933.75
462.118	1944.75
462.338	2065.75
462.558	2103.75
462.777	2158.75
462.997	2299.75
463.217	2490.75
463.437	2474.75
463.657	2315.75
463.876	2248.75
464.096	2211.75
464.316	2197.75
464.536	2193.75
464.755	2154.75
464.975	2088.75
465.195	2001.75
465.414	1919.75
465.634	1805.75
465.854	1771.75
466.073	1750.75
466.293	1701.75
466.512	1675.75
466.732	1628.75
466.951	1645.75
467.171	1601.75
467.391	1597.75
467.61	1620.75
467.829	1596.75
468.049	1621.75
468.268	1554.75
468.488	1536.75
468.707	1560.75
468.927	1573.75
469.146	1554.75
469.365	1569.75
469.585	1540.75
469.804	1610.75
470.023	1644.75
470.243	1620.75
470.462	1657.75
470.681	1642.75
470.901	1624.75
471.12	1617.75
471.339	1635.75
471.558	1630.75
471.777	1599.75
471.997	1547.75
472.216	1558.75
472.435	1567.75
472.654	1574.75
472.873	1505.75
473.092	1506.75
473.311	1510.75
473.53	1526.75
473.749	1545.75
473.968	1541.75
474.187	1529.75
474.406	1564.75
474.625	1559.75
474.844	1535.75
475.063	1563.75
475.282	1557.75
475.501	1562.75
475.72	1597.75
475.939	1561.75
476.158	1597.75
476.377	1567.75
476.596	1622.75
476.814	1632.75
477.033	1648.75
477.252	1679.75
477.471	1695.75
477.69	1729.75
477.908	1774.75
478.127	1830.75
478.346	1824.75
478.564	1868.75
478.783	1861.75
479.002	1917.75
479.22	1946.75
479.439	1941.75
479.658	1935.75
479.876	1897.75
480.095	1962.75
480.313	2008.75
480.532	2058.75
480.751	2075.75
480.969	2005.75
481.188	1961.75
481.406	1907.75
481.624	1875.75
481.843	1833.75
482.061	1865.75
482.28	1891.75
482.498	1864.75
482.717	1851.75
482.935	1897.75
483.153	1859.75
483.372	1855.75
483.59	1933.75
483.808	1899.75
484.027	1881.75
484.245	1910.75
484.463	1939.75
484.681	1981.75
484.9	1943.75
485.118	1957.75
485.336	1952.75
485.554	2023.75
485.772	1991.75
485.99	1979.75
486.209	2010.75
486.427	2022.75
486.645	1990.75
486.863	2010.75
487.081	1981.75
487.299	1976.75
487.517	1945.75
487.735	1953.75
487.953	1941.75
488.171	1919.75
488.389	1949.75
488.607	1956.75
488.825	1969.75
489.043	1896.75
489.261	1909.75
489.479	1918.75
489.696	1928.75
489.914	1948.75
