Data from NiCl2@0.5M.TitratingCurve.Agarose3%dH2O.NegLispCup.LampEnergy10.LIBS07252019_HRD10591_18-21-25-579.txt Node
Date: Thu Jul 25 18:21:25 EDT 2019
User: cochatt
Spectrometer: HR+D1059
Trigger mode: 1
Integration Time (sec): 1.000000E-1
Scans to average: 1
Electric dark correction enabled: true
Nonlinearity correction enabled: false
Boxcar width: 0
XAxis mode: Wavelengths
Number of Pixels in Spectrum: 2048
>>>>>Begin Spectral Data<<<<<
223.165	-13.06
223.4	-13.06
223.635	-13.06
223.869	2.94
224.104	-20.06
224.338	-18.06
224.573	-15.06
224.808	-11.06
225.042	-10.06
225.277	-12.06
225.511	-12.06
225.746	2.94
225.98	-11.06
226.215	17.94
226.449	8.94
226.683	27.94
226.918	26.94
227.152	34.94
227.387	40.94
227.621	25.94
227.856	45.94
228.09	43.94
228.324	32.94
228.559	48.94
228.793	57.94
229.027	89.94
229.262	91.94
229.496	96.94
229.73	103.94
229.964	116.94
230.199	133.94
230.433	124.94
230.667	147.94
230.901	118.94
231.136	128.94
231.37	128.94
231.604	134.94
231.838	136.94
232.072	148.94
232.306	134.94
232.541	140.94
232.775	147.94
233.009	139.94
233.243	140.94
233.477	134.94
233.711	132.94
233.945	126.94
234.179	141.94
234.413	150.94
234.647	153.94
234.881	157.94
235.115	137.94
235.349	118.94
235.583	130.94
235.817	136.94
236.051	138.94
236.285	138.94
236.519	113.94
236.753	146.94
236.987	138.94
237.221	141.94
237.455	142.94
237.689	143.94
237.922	162.94
238.156	145.94
238.39	152.94
238.624	158.94
238.858	152.94
239.091	161.94
239.325	149.94
239.559	162.94
239.793	154.94
240.027	158.94
240.26	167.94
240.494	172.94
240.728	158.94
240.961	152.94
241.195	162.94
241.429	169.94
241.662	173.94
241.896	183.94
242.13	174.94
242.363	184.94
242.597	172.94
242.83	166.94
243.064	160.94
243.298	194.94
243.531	180.94
243.765	195.94
243.998	184.94
244.232	176.94
244.465	180.94
244.699	167.94
244.932	171.94
245.166	191.94
245.399	198.94
245.633	182.94
245.866	198.94
246.099	197.94
246.333	187.94
246.566	205.94
246.8	209.94
247.033	208.94
247.266	192.94
247.5	213.94
247.733	211.94
247.966	190.94
248.2	201.94
248.433	203.94
248.666	204.94
248.899	204.94
249.133	210.94
249.366	242.94
249.599	212.94
249.832	222.94
250.066	214.94
250.299	206.94
250.532	215.94
250.765	212.94
250.998	232.94
251.231	233.94
251.465	233.94
251.698	224.94
251.931	235.94
252.164	211.94
252.397	222.94
252.63	231.94
252.863	220.94
253.096	245.94
253.329	240.94
253.562	223.94
253.795	227.94
254.028	252.94
254.261	248.94
254.494	235.94
254.727	241.94
254.96	247.94
255.193	241.94
255.426	252.94
255.659	246.94
255.892	253.94
256.124	264.94
256.357	246.94
256.59	228.94
256.823	240.94
257.056	258.94
257.289	269.94
257.521	258.94
257.754	258.94
257.987	257.94
258.22	255.94
258.452	268.94
258.685	272.94
258.918	259.94
259.151	264.94
259.383	281.94
259.616	276.94
259.849	269.94
260.081	291.94
260.314	285.94
260.547	265.94
260.779	256.94
261.012	266.94
261.244	286.94
261.477	277.94
261.71	294.94
261.942	304.94
262.175	288.94
262.407	284.94
262.64	277.94
262.872	289.94
263.105	299.94
263.337	308.94
263.57	302.94
263.802	276.94
264.035	304.94
264.267	276.94
264.499	295.94
264.732	291.94
264.964	273.94
265.197	314.94
265.429	315.94
265.661	294.94
265.894	310.94
266.126	300.94
266.358	329.94
266.591	313.94
266.823	306.94
267.055	310.94
267.287	321.94
267.52	295.94
267.752	324.94
267.984	316.94
268.216	325.94
268.448	316.94
268.681	313.94
268.913	321.94
269.145	324.94
269.377	324.94
269.609	322.94
269.841	317.94
270.073	312.94
270.306	345.94
270.538	342.94
270.77	335.94
271.002	342.94
271.234	330.94
271.466	342.94
271.698	329.94
271.93	317.94
272.162	338.94
272.394	342.94
272.626	341.94
272.858	323.94
273.09	336.94
273.322	334.94
273.553	350.94
273.785	347.94
274.017	349.94
274.249	358.94
274.481	354.94
274.713	334.94
274.945	361.94
275.176	324.94
275.408	337.94
275.64	355.94
275.872	351.94
276.104	375.94
276.335	378.94
276.567	373.94
276.799	354.94
277.031	358.94
277.262	375.94
277.494	374.94
277.726	376.94
277.957	377.94
278.189	397.94
278.421	378.94
278.652	374.94
278.884	394.94
279.115	379.94
279.347	366.94
279.579	380.94
279.81	383.94
280.042	387.94
280.273	375.94
280.505	377.94
280.736	384.94
280.968	394.94
281.199	369.94
281.431	408.94
281.662	387.94
281.894	392.94
282.125	393.94
282.356	430.94
282.588	401.94
282.819	418.94
283.051	414.94
283.282	396.94
283.513	390.94
283.745	413.94
283.976	390.94
284.207	422.94
284.439	416.94
284.67	421.94
284.901	420.94
285.132	403.94
285.364	409.94
285.595	410.94
285.826	423.94
286.057	440.94
286.288	430.94
286.52	427.94
286.751	432.94
286.982	431.94
287.213	434.94
287.444	428.94
287.675	426.94
287.906	427.94
288.138	435.94
288.369	425.94
288.6	444.94
288.831	437.94
289.062	437.94
289.293	450.94
289.524	450.94
289.755	420.94
289.986	443.94
290.217	445.94
290.448	445.94
290.679	485.94
290.91	453.94
291.141	455.94
291.371	450.94
291.602	438.94
291.833	464.94
292.064	452.94
292.295	455.94
292.526	455.94
292.757	471.94
292.987	457.94
293.218	459.94
293.449	458.94
293.68	466.94
293.91	446.94
294.141	463.94
294.372	462.94
294.603	465.94
294.833	491.94
295.064	471.94
295.295	466.94
295.525	450.94
295.756	461.94
295.987	467.94
296.217	452.94
296.448	490.94
296.679	489.94
296.909	468.94
297.14	464.94
297.37	487.94
297.601	488.94
297.831	496.94
298.062	497.94
298.292	521.94
298.523	511.94
298.753	522.94
298.984	502.94
299.214	509.94
299.445	526.94
299.675	513.94
299.905	489.94
300.136	479.94
300.366	502.94
300.597	494.94
300.827	549.94
301.057	522.94
301.288	513.94
301.518	528.94
301.748	538.94
301.979	532.94
302.209	524.94
302.439	541.94
302.669	522.94
302.9	506.94
303.13	521.94
303.36	541.94
303.59	514.94
303.82	530.94
304.051	547.94
304.281	532.94
304.511	539.94
304.741	508.94
304.971	515.94
305.201	539.94
305.431	534.94
305.661	526.94
305.891	521.94
306.121	515.94
306.352	533.94
306.582	507.94
306.812	517.94
307.042	504.94
307.272	513.94
307.502	505.94
307.731	512.94
307.961	522.94
308.191	521.94
308.421	506.94
308.651	512.94
308.881	513.94
309.111	508.94
309.341	521.94
309.571	514.94
309.8	501.94
310.03	504.94
310.26	518.94
310.49	543.94
310.72	524.94
310.949	535.94
311.179	518.94
311.409	528.94
311.639	544.94
311.868	527.94
312.098	520.94
312.328	521.94
312.557	539.94
312.787	526.94
313.017	550.94
313.246	532.94
313.476	578.94
313.706	553.94
313.935	573.94
314.165	533.94
314.394	548.94
314.624	551.94
314.853	548.94
315.083	556.94
315.312	564.94
315.542	580.94
315.771	555.94
316.001	560.94
316.23	533.94
316.46	549.94
316.689	554.94
316.919	551.94
317.148	558.94
317.377	548.94
317.607	530.94
317.836	551.94
318.065	539.94
318.295	544.94
318.524	522.94
318.753	532.94
318.983	555.94
319.212	526.94
319.441	536.94
319.67	546.94
319.9	536.94
320.129	551.94
320.358	570.94
320.587	556.94
320.816	546.94
321.046	578.94
321.275	536.94
321.504	554.94
321.733	547.94
321.962	532.94
322.191	551.94
322.42	573.94
322.649	572.94
322.878	571.94
323.108	556.94
323.337	560.94
323.566	560.94
323.795	584.94
324.024	556.94
324.253	577.94
324.482	540.94
324.71	569.94
324.939	567.94
325.168	564.94
325.397	583.94
325.626	587.94
325.855	596.94
326.084	584.94
326.313	597.94
326.542	596.94
326.77	612.94
326.999	608.94
327.228	595.94
327.457	585.94
327.686	579.94
327.914	592.94
328.143	598.94
328.372	608.94
328.6	594.94
328.829	581.94
329.058	599.94
329.287	591.94
329.515	590.94
329.744	600.94
329.972	598.94
330.201	599.94
330.43	635.94
330.658	606.94
330.887	613.94
331.115	628.94
331.344	644.94
331.572	616.94
331.801	656.94
332.03	651.94
332.258	656.94
332.486	674.94
332.715	697.94
332.943	718.94
333.172	725.94
333.4	753.94
333.629	784.94
333.857	765.94
334.085	774.94
334.314	776.94
334.542	760.94
334.771	776.94
334.999	778.94
335.227	761.94
335.455	738.94
335.684	751.94
335.912	759.94
336.14	738.94
336.369	732.94
336.597	725.94
336.825	733.94
337.053	752.94
337.281	728.94
337.51	694.94
337.738	692.94
337.966	698.94
338.194	682.94
338.422	674.94
338.65	655.94
338.878	653.94
339.106	635.94
339.334	674.94
339.562	658.94
339.79	645.94
340.018	657.94
340.246	629.94
340.474	642.94
340.702	638.94
340.93	647.94
341.158	630.94
341.386	625.94
341.614	650.94
341.842	662.94
342.07	628.94
342.298	634.94
342.526	606.94
342.754	618.94
342.981	624.94
343.209	615.94
343.437	679.94
343.665	720.94
343.893	734.94
344.12	771.94
344.348	743.94
344.576	699.94
344.804	685.94
345.031	666.94
345.259	657.94
345.487	626.94
345.714	635.94
345.942	638.94
346.17	648.94
346.397	642.94
346.625	628.94
346.853	626.94
347.08	590.94
347.308	602.94
347.535	612.94
347.763	595.94
347.99	599.94
348.218	605.94
348.445	605.94
348.673	593.94
348.9	604.94
349.128	612.94
349.355	575.94
349.583	624.94
349.81	584.94
350.037	576.94
350.265	579.94
350.492	580.94
350.72	587.94
350.947	579.94
351.174	577.94
351.402	619.94
351.629	591.94
351.856	594.94
352.083	556.94
352.311	589.94
352.538	617.94
352.765	610.94
352.992	591.94
353.22	566.94
353.447	575.94
353.674	570.94
353.901	544.94
354.128	564.94
354.355	566.94
354.583	572.94
354.81	593.94
355.037	573.94
355.264	577.94
355.491	557.94
355.718	573.94
355.945	566.94
356.172	579.94
356.399	566.94
356.626	584.94
356.853	610.94
357.08	577.94
357.307	589.94
357.534	549.94
357.761	594.94
357.988	594.94
358.215	558.94
358.441	572.94
358.668	566.94
358.895	564.94
359.122	554.94
359.349	551.94
359.576	568.94
359.802	562.94
360.029	581.94
360.256	597.94
360.483	588.94
360.709	570.94
360.936	569.94
361.163	585.94
361.39	581.94
361.616	571.94
361.843	593.94
362.07	621.94
362.296	604.94
362.523	576.94
362.749	564.94
362.976	571.94
363.203	582.94
363.429	567.94
363.656	580.94
363.882	551.94
364.109	550.94
364.335	550.94
364.562	573.94
364.788	581.94
365.015	532.94
365.241	569.94
365.468	571.94
365.694	564.94
365.92	565.94
366.147	553.94
366.373	553.94
366.599	569.94
366.826	566.94
367.052	582.94
367.278	582.94
367.505	566.94
367.731	584.94
367.957	562.94
368.184	566.94
368.41	596.94
368.636	570.94
368.862	584.94
369.089	601.94
369.315	563.94
369.541	567.94
369.767	585.94
369.993	593.94
370.219	580.94
370.445	616.94
370.672	609.94
370.898	589.94
371.124	604.94
371.35	617.94
371.576	626.94
371.802	608.94
372.028	615.94
372.254	626.94
372.48	609.94
372.706	626.94
372.932	638.94
373.158	622.94
373.384	616.94
373.61	619.94
373.835	628.94
374.061	608.94
374.287	611.94
374.513	630.94
374.739	648.94
374.965	648.94
375.191	680.94
375.416	677.94
375.642	627.94
375.868	642.94
376.094	614.94
376.319	624.94
376.545	606.94
376.771	610.94
376.997	606.94
377.222	605.94
377.448	600.94
377.674	634.94
377.899	617.94
378.125	605.94
378.35	602.94
378.576	593.94
378.802	589.94
379.027	620.94
379.253	618.94
379.478	581.94
379.704	605.94
379.929	609.94
380.155	602.94
380.38	605.94
380.606	604.94
380.831	571.94
381.057	603.94
381.282	617.94
381.507	615.94
381.733	638.94
381.958	612.94
382.184	592.94
382.409	611.94
382.634	635.94
382.86	629.94
383.085	645.94
383.31	643.94
383.535	610.94
383.761	662.94
383.986	690.94
384.211	690.94
384.436	681.94
384.662	672.94
384.887	728.94
385.112	713.94
385.337	696.94
385.562	694.94
385.787	702.94
386.013	725.94
386.238	724.94
386.463	722.94
386.688	745.94
386.913	717.94
387.138	705.94
387.363	715.94
387.588	699.94
387.813	682.94
388.038	717.94
388.263	711.94
388.488	705.94
388.713	723.94
388.938	714.94
389.163	683.94
389.387	728.94
389.612	667.94
389.837	699.94
390.062	703.94
390.287	705.94
390.512	702.94
390.736	722.94
390.961	724.94
391.186	732.94
391.411	770.94
391.636	772.94
391.86	779.94
392.085	819.94
392.31	788.94
392.534	793.94
392.759	780.94
392.984	789.94
393.208	753.94
393.433	778.94
393.658	764.94
393.882	785.94
394.107	791.94
394.331	767.94
394.556	757.94
394.78	762.94
395.005	795.94
395.229	764.94
395.454	798.94
395.678	785.94
395.903	811.94
396.127	788.94
396.352	795.94
396.576	781.94
396.801	782.94
397.025	782.94
397.249	796.94
397.474	796.94
397.698	834.94
397.922	838.94
398.147	813.94
398.371	885.94
398.595	862.94
398.82	866.94
399.044	954.94
399.268	1031.94
399.492	1163.94
399.717	1259.94
399.941	1247.94
400.165	1157.94
400.389	1050.94
400.613	1028.94
400.837	967.94
401.062	946.94
401.286	916.94
401.51	886.94
401.734	884.94
401.958	917.94
402.182	906.94
402.406	910.94
402.63	919.94
402.854	934.94
403.078	962.94
403.302	955.94
403.526	987.94
403.75	977.94
403.974	996.94
404.198	1037.94
404.422	1012.94
404.645	992.94
404.869	998.94
405.093	1004.94
405.317	967.94
405.541	983.94
405.765	995.94
405.988	977.94
406.212	981.94
406.436	1008.94
406.66	1010.94
406.883	1021.94
407.107	1082.94
407.331	1144.94
407.555	1132.94
407.778	1130.94
408.002	1120.94
408.226	1079.94
408.449	1078.94
408.673	1022.94
408.896	1018.94
409.12	1013.94
409.344	1027.94
409.567	1001.94
409.791	1046.94
410.014	1024.94
410.238	1001.94
410.461	1003.94
410.685	1005.94
410.908	941.94
411.132	937.94
411.355	932.94
411.578	969.94
411.802	949.94
412.025	944.94
412.249	994.94
412.472	966.94
412.695	931.94
412.919	918.94
413.142	913.94
413.365	922.94
413.589	916.94
413.812	920.94
414.035	938.94
414.258	933.94
414.482	922.94
414.705	897.94
414.928	929.94
415.151	914.94
415.374	911.94
415.597	911.94
415.821	898.94
416.044	906.94
416.267	882.94
416.49	875.94
416.713	854.94
416.936	900.94
417.159	901.94
417.382	920.94
417.605	914.94
417.828	876.94
418.051	910.94
418.274	896.94
418.497	921.94
418.72	914.94
418.943	931.94
419.166	963.94
419.389	1048.94
419.611	1026.94
419.834	966.94
420.057	950.94
420.28	910.94
420.503	889.94
420.726	896.94
420.948	862.94
421.171	901.94
421.394	893.94
421.617	896.94
421.839	894.94
422.062	899.94
422.285	904.94
422.507	928.94
422.73	917.94
422.953	913.94
423.175	918.94
423.398	923.94
423.621	911.94
423.843	947.94
424.066	934.94
424.288	912.94
424.511	918.94
424.733	910.94
424.956	941.94
425.178	953.94
425.401	913.94
425.623	909.94
425.846	871.94
426.068	872.94
426.291	877.94
426.513	864.94
426.735	866.94
426.958	879.94
427.18	850.94
427.402	836.94
427.625	854.94
427.847	849.94
428.069	848.94
428.292	841.94
428.514	822.94
428.736	811.94
428.958	839.94
429.181	816.94
429.403	794.94
429.625	804.94
429.847	826.94
430.069	846.94
430.292	789.94
430.514	805.94
430.736	799.94
430.958	822.94
431.18	806.94
431.402	821.94
431.624	801.94
431.846	824.94
432.068	857.94
432.29	829.94
432.512	826.94
432.734	851.94
432.956	830.94
433.178	838.94
433.4	840.94
433.622	827.94
433.844	854.94
434.066	834.94
434.287	837.94
434.509	857.94
434.731	892.94
434.953	902.94
435.175	930.94
435.397	915.94
435.618	872.94
435.84	894.94
436.062	817.94
436.284	849.94
436.505	819.94
436.727	835.94
436.949	822.94
437.17	841.94
437.392	810.94
437.614	817.94
437.835	824.94
438.057	820.94
438.278	780.94
438.5	805.94
438.721	793.94
438.943	776.94
439.165	814.94
439.386	828.94
439.608	835.94
439.829	817.94
440.05	842.94
440.272	826.94
440.493	826.94
440.715	863.94
440.936	861.94
441.158	863.94
441.379	900.94
441.6	948.94
441.822	913.94
442.043	938.94
442.264	906.94
442.486	914.94
442.707	904.94
442.928	922.94
443.149	910.94
443.371	933.94
443.592	922.94
443.813	934.94
444.034	950.94
444.255	941.94
444.476	1010.94
444.698	1036.94
444.919	1083.94
445.14	1088.94
445.361	1032.94
445.582	929.94
445.803	909.94
446.024	900.94
446.245	898.94
446.466	857.94
446.687	835.94
446.908	885.94
447.129	841.94
447.35	854.94
447.571	811.94
447.792	792.94
448.013	788.94
448.234	780.94
448.455	774.94
448.675	805.94
448.896	773.94
449.117	758.94
449.338	776.94
449.559	786.94
449.779	766.94
450	770.94
450.221	784.94
450.442	772.94
450.662	780.94
450.883	764.94
451.104	781.94
451.324	788.94
451.545	800.94
451.766	789.94
451.986	756.94
452.207	756.94
452.428	771.94
452.648	764.94
452.869	766.94
453.089	742.94
453.31	748.94
453.53	746.94
453.751	747.94
453.971	754.94
454.192	732.94
454.412	713.94
454.633	740.94
454.853	737.94
455.073	710.94
455.294	723.94
455.514	715.94
455.734	731.94
455.955	702.94
456.175	699.94
456.395	707.94
456.616	748.94
456.836	712.94
457.056	713.94
457.276	716.94
457.497	750.94
457.717	717.94
457.937	738.94
458.157	721.94
458.377	756.94
458.598	756.94
458.818	781.94
459.038	808.94
459.258	804.94
459.478	852.94
459.698	867.94
459.918	900.94
460.138	904.94
460.358	936.94
460.578	946.94
460.798	980.94
461.018	980.94
461.238	998.94
461.458	994.94
461.678	991.94
461.898	979.94
462.118	976.94
462.338	1042.94
462.558	1079.94
462.777	1087.94
462.997	1166.94
463.217	1260.94
463.437	1243.94
463.657	1195.94
463.876	1164.94
464.096	1112.94
464.316	1152.94
464.536	1124.94
464.755	1098.94
464.975	1050.94
465.195	1003.94
465.414	949.94
465.634	911.94
465.854	900.94
466.073	867.94
466.293	853.94
466.512	820.94
466.732	828.94
466.951	818.94
467.171	830.94
467.391	810.94
467.61	810.94
467.829	801.94
468.049	803.94
468.268	779.94
468.488	783.94
468.707	755.94
468.927	786.94
469.146	799.94
469.365	782.94
469.585	786.94
469.804	834.94
470.023	812.94
470.243	841.94
470.462	867.94
470.681	831.94
470.901	822.94
471.12	842.94
471.339	807.94
471.558	797.94
471.777	794.94
471.997	783.94
472.216	784.94
472.435	809.94
472.654	782.94
472.873	761.94
473.092	757.94
473.311	747.94
473.53	743.94
473.749	782.94
473.968	779.94
474.187	752.94
474.406	762.94
474.625	774.94
474.844	769.94
475.063	790.94
475.282	751.94
475.501	763.94
475.72	769.94
475.939	790.94
476.158	806.94
476.377	804.94
476.596	800.94
476.814	798.94
477.033	837.94
477.252	818.94
477.471	825.94
477.69	864.94
477.908	888.94
478.127	912.94
478.346	908.94
478.564	928.94
478.783	914.94
479.002	936.94
479.22	965.94
479.439	962.94
479.658	964.94
479.876	946.94
480.095	966.94
480.313	981.94
480.532	976.94
480.751	985.94
480.969	937.94
481.188	948.94
481.406	930.94
481.624	902.94
481.843	868.94
482.061	872.94
482.28	864.94
482.498	883.94
482.717	888.94
482.935	852.94
483.153	873.94
483.372	888.94
483.59	909.94
483.808	900.94
484.027	877.94
484.245	854.94
484.463	884.94
484.681	897.94
484.9	914.94
485.118	919.94
485.336	896.94
485.554	881.94
485.772	903.94
485.99	910.94
486.209	924.94
486.427	908.94
486.645	908.94
486.863	919.94
487.081	940.94
487.299	912.94
487.517	900.94
487.735	922.94
487.953	938.94
488.171	940.94
488.389	921.94
488.607	866.94
488.825	906.94
489.043	909.94
489.261	912.94
489.479	882.94
489.696	916.94
489.914	925.94
490.132	941.94
490.35	917.94
490.568	929.94
490.786	932.94
491.003	910.94
491.221	939.94
491.439	958.94
491.657	920.94
491.874	958.94
492.092	965.94
492.31	961.94
492.527	965.94
492.745	970.94
492.963	941.94
493.18	978.94
493.398	959.94
493.615	971.94
493.833	988.94
494.05	981.94
494.268	959.94
494.485	955.94
494.703	984.94
494.92	978.94
495.138	977.94
495.355	976.94
495.573	965.94
495.79	1002.94
496.008	980.94
496.225	997.94
496.442	1020.94
496.66	1032.94
496.877	1045.94
497.094	1092.94
497.312	1073.94
497.529	1099.94
497.746	1108.94
497.963	1150.94
498.181	1209.94
498.398	1261.94
498.615	1324.94
498.832	1370.94
499.049	1516.94
499.267	1611.94
499.484	1727.94
499.701	1897.94
499.918	2044.94
500.135	2305.94
500.352	2468.94
500.569	2598.94
