Data from NiCl2@0.25M.TitratingCurve.Agarose3%dH2O.NegLispCup.LampEnergy10.LIBS07252019_HRD10591_18-25-46-573.txt Node
Date: Thu Jul 25 18:25:46 EDT 2019
User: cochatt
Spectrometer: HR+D1059
Trigger mode: 1
Integration Time (sec): 1.000000E-1
Scans to average: 1
Electric dark correction enabled: true
Nonlinearity correction enabled: false
Boxcar width: 0
XAxis mode: Wavelengths
Number of Pixels in Spectrum: 2048
>>>>>Begin Spectral Data<<<<<
223.165	0.38
223.4	0.38
223.635	0.38
223.869	-28.62
224.104	-28.62
224.338	-5.62
224.573	-17.62
224.808	-9.62
225.042	-3.62
225.277	-6.62
225.511	-12.62
225.746	0.38
225.98	-9.62
226.215	17.38
226.449	25.38
226.683	12.38
226.918	32.38
227.152	34.38
227.387	27.38
227.621	28.38
227.856	38.38
228.09	48.38
228.324	53.38
228.559	53.38
228.793	65.38
229.027	102.38
229.262	119.38
229.496	137.38
229.73	137.38
229.964	136.38
230.199	123.38
230.433	143.38
230.667	139.38
230.901	145.38
231.136	155.38
231.37	142.38
231.604	152.38
231.838	150.38
232.072	159.38
232.306	153.38
232.541	166.38
232.775	152.38
233.009	164.38
233.243	172.38
233.477	177.38
233.711	175.38
233.945	165.38
234.179	172.38
234.413	169.38
234.647	159.38
234.881	169.38
235.115	179.38
235.349	181.38
235.583	170.38
235.817	163.38
236.051	177.38
236.285	152.38
236.519	163.38
236.753	170.38
236.987	176.38
237.221	178.38
237.455	179.38
237.689	170.38
237.922	194.38
238.156	184.38
238.39	180.38
238.624	177.38
238.858	195.38
239.091	185.38
239.325	204.38
239.559	199.38
239.793	195.38
240.027	203.38
240.26	196.38
240.494	191.38
240.728	203.38
240.961	200.38
241.195	214.38
241.429	212.38
241.662	218.38
241.896	219.38
242.13	204.38
242.363	206.38
242.597	226.38
242.83	253.38
243.064	230.38
243.298	218.38
243.531	232.38
243.765	229.38
243.998	231.38
244.232	227.38
244.465	224.38
244.699	227.38
244.932	240.38
245.166	252.38
245.399	262.38
245.633	255.38
245.866	241.38
246.099	233.38
246.333	239.38
246.566	261.38
246.8	254.38
247.033	255.38
247.266	259.38
247.5	268.38
247.733	255.38
247.966	275.38
248.2	274.38
248.433	258.38
248.666	278.38
248.899	277.38
249.133	267.38
249.366	252.38
249.599	279.38
249.832	278.38
250.066	289.38
250.299	296.38
250.532	292.38
250.765	280.38
250.998	289.38
251.231	299.38
251.465	292.38
251.698	301.38
251.931	313.38
252.164	304.38
252.397	314.38
252.63	320.38
252.863	338.38
253.096	324.38
253.329	315.38
253.562	304.38
253.795	310.38
254.028	334.38
254.261	332.38
254.494	326.38
254.727	316.38
254.96	300.38
255.193	333.38
255.426	326.38
255.659	315.38
255.892	343.38
256.124	329.38
256.357	317.38
256.59	350.38
256.823	339.38
257.056	328.38
257.289	328.38
257.521	354.38
257.754	360.38
257.987	360.38
258.22	357.38
258.452	342.38
258.685	360.38
258.918	366.38
259.151	365.38
259.383	356.38
259.616	355.38
259.849	348.38
260.081	356.38
260.314	376.38
260.547	359.38
260.779	368.38
261.012	378.38
261.244	380.38
261.477	375.38
261.71	373.38
261.942	383.38
262.175	399.38
262.407	389.38
262.64	373.38
262.872	389.38
263.105	389.38
263.337	376.38
263.57	396.38
263.802	400.38
264.035	410.38
264.267	390.38
264.499	391.38
264.732	406.38
264.964	390.38
265.197	408.38
265.429	427.38
265.661	414.38
265.894	402.38
266.126	416.38
266.358	405.38
266.591	407.38
266.823	440.38
267.055	417.38
267.287	431.38
267.52	417.38
267.752	417.38
267.984	425.38
268.216	444.38
268.448	434.38
268.681	432.38
268.913	427.38
269.145	424.38
269.377	431.38
269.609	431.38
269.841	441.38
270.073	430.38
270.306	426.38
270.538	441.38
270.77	445.38
271.002	447.38
271.234	460.38
271.466	450.38
271.698	438.38
271.93	441.38
272.162	466.38
272.394	443.38
272.626	451.38
272.858	439.38
273.09	482.38
273.322	481.38
273.553	469.38
273.785	467.38
274.017	475.38
274.249	462.38
274.481	456.38
274.713	462.38
274.945	458.38
275.176	475.38
275.408	490.38
275.64	490.38
275.872	483.38
276.104	480.38
276.335	473.38
276.567	477.38
276.799	474.38
277.031	493.38
277.262	520.38
277.494	488.38
277.726	526.38
277.957	497.38
278.189	510.38
278.421	519.38
278.652	512.38
278.884	522.38
279.115	512.38
279.347	518.38
279.579	502.38
279.81	504.38
280.042	514.38
280.273	537.38
280.505	517.38
280.736	543.38
280.968	518.38
281.199	515.38
281.431	536.38
281.662	543.38
281.894	554.38
282.125	536.38
282.356	531.38
282.588	561.38
282.819	545.38
283.051	542.38
283.282	545.38
283.513	549.38
283.745	557.38
283.976	547.38
284.207	563.38
284.439	566.38
284.67	558.38
284.901	567.38
285.132	585.38
285.364	576.38
285.595	559.38
285.826	543.38
286.057	570.38
286.288	591.38
286.52	575.38
286.751	588.38
286.982	613.38
287.213	595.38
287.444	584.38
287.675	583.38
287.906	602.38
288.138	595.38
288.369	597.38
288.6	592.38
288.831	595.38
289.062	602.38
289.293	595.38
289.524	621.38
289.755	613.38
289.986	591.38
290.217	611.38
290.448	595.38
290.679	621.38
290.91	601.38
291.141	605.38
291.371	604.38
291.602	613.38
291.833	613.38
292.064	617.38
292.295	629.38
292.526	637.38
292.757	599.38
292.987	607.38
293.218	584.38
293.449	607.38
293.68	614.38
293.91	643.38
294.141	600.38
294.372	596.38
294.603	607.38
294.833	641.38
295.064	631.38
295.295	608.38
295.525	643.38
295.756	632.38
295.987	662.38
296.217	643.38
296.448	643.38
296.679	649.38
296.909	670.38
297.14	637.38
297.37	675.38
297.601	670.38
297.831	647.38
298.062	656.38
298.292	669.38
298.523	673.38
298.753	666.38
298.984	689.38
299.214	654.38
299.445	689.38
299.675	672.38
299.905	681.38
300.136	698.38
300.366	694.38
300.597	671.38
300.827	687.38
301.057	694.38
301.288	706.38
301.518	690.38
301.748	695.38
301.979	712.38
302.209	724.38
302.439	716.38
302.669	709.38
302.9	707.38
303.13	683.38
303.36	694.38
303.59	679.38
303.82	716.38
304.051	707.38
304.281	706.38
304.511	694.38
304.741	694.38
304.971	701.38
305.201	711.38
305.431	689.38
305.661	699.38
305.891	682.38
306.121	680.38
306.352	673.38
306.582	696.38
306.812	695.38
307.042	673.38
307.272	681.38
307.502	694.38
307.731	706.38
307.961	695.38
308.191	667.38
308.421	672.38
308.651	693.38
308.881	675.38
309.111	661.38
309.341	651.38
309.571	682.38
309.8	685.38
310.03	674.38
310.26	683.38
310.49	699.38
310.72	691.38
310.949	676.38
311.179	693.38
311.409	685.38
311.639	710.38
311.868	699.38
312.098	693.38
312.328	713.38
312.557	709.38
312.787	702.38
313.017	696.38
313.246	714.38
313.476	712.38
313.706	745.38
313.935	735.38
314.165	725.38
314.394	696.38
314.624	723.38
314.853	756.38
315.083	703.38
315.312	735.38
315.542	742.38
315.771	731.38
316.001	706.38
316.23	715.38
316.46	716.38
316.689	721.38
316.919	694.38
317.148	748.38
317.377	737.38
317.607	727.38
317.836	733.38
318.065	712.38
318.295	729.38
318.524	696.38
318.753	718.38
318.983	695.38
319.212	703.38
319.441	712.38
319.67	741.38
319.9	738.38
320.129	713.38
320.358	765.38
320.587	744.38
320.816	702.38
321.046	750.38
321.275	724.38
321.504	733.38
321.733	712.38
321.962	722.38
322.191	722.38
322.42	730.38
322.649	727.38
322.878	718.38
323.108	707.38
323.337	740.38
323.566	749.38
323.795	737.38
324.024	737.38
324.253	754.38
324.482	758.38
324.71	766.38
324.939	720.38
325.168	771.38
325.397	772.38
325.626	765.38
325.855	770.38
326.084	779.38
326.313	803.38
326.542	807.38
326.77	816.38
326.999	793.38
327.228	791.38
327.457	802.38
327.686	769.38
327.914	777.38
328.143	812.38
328.372	776.38
328.6	771.38
328.829	801.38
329.058	783.38
329.287	790.38
329.515	784.38
329.744	808.38
329.972	785.38
330.201	830.38
330.43	804.38
330.658	792.38
330.887	814.38
331.115	821.38
331.344	828.38
331.572	833.38
331.801	860.38
332.03	860.38
332.258	883.38
332.486	923.38
332.715	914.38
332.943	954.38
333.172	975.38
333.4	1017.38
333.629	1059.38
333.857	1085.38
334.085	1059.38
334.314	1032.38
334.542	1035.38
334.771	1018.38
334.999	1039.38
335.227	979.38
335.455	1022.38
335.684	986.38
335.912	993.38
336.14	961.38
336.369	982.38
336.597	1016.38
336.825	958.38
337.053	970.38
337.281	923.38
337.51	896.38
337.738	926.38
337.966	889.38
338.194	879.38
338.422	880.38
338.65	872.38
338.878	870.38
339.106	868.38
339.334	871.38
339.562	834.38
339.79	855.38
340.018	810.38
340.246	830.38
340.474	842.38
340.702	831.38
340.93	827.38
341.158	839.38
341.386	832.38
341.614	839.38
341.842	839.38
342.07	830.38
342.298	787.38
342.526	820.38
342.754	816.38
342.981	822.38
343.209	839.38
343.437	882.38
343.665	934.38
343.893	982.38
344.12	1014.38
344.348	974.38
344.576	954.38
344.804	905.38
345.031	877.38
345.259	854.38
345.487	844.38
345.714	825.38
345.942	835.38
346.17	815.38
346.397	818.38
346.625	808.38
346.853	793.38
347.08	785.38
347.308	798.38
347.535	831.38
347.763	824.38
347.99	802.38
348.218	811.38
348.445	809.38
348.673	813.38
348.9	791.38
349.128	779.38
349.355	779.38
349.583	798.38
349.81	793.38
350.037	751.38
350.265	762.38
350.492	774.38
350.72	786.38
350.947	782.38
351.174	742.38
351.402	770.38
351.629	756.38
351.856	767.38
352.083	739.38
352.311	771.38
352.538	769.38
352.765	787.38
352.992	753.38
353.22	729.38
353.447	750.38
353.674	755.38
353.901	750.38
354.128	746.38
354.355	750.38
354.583	760.38
354.81	771.38
355.037	772.38
355.264	753.38
355.491	751.38
355.718	761.38
355.945	777.38
356.172	774.38
356.399	760.38
356.626	785.38
356.853	774.38
357.08	774.38
357.307	755.38
357.534	766.38
357.761	777.38
357.988	774.38
358.215	788.38
358.441	761.38
358.668	763.38
358.895	766.38
359.122	751.38
359.349	771.38
359.576	771.38
359.802	763.38
360.029	745.38
360.256	769.38
360.483	745.38
360.709	746.38
360.936	793.38
361.163	759.38
361.39	776.38
361.616	774.38
361.843	794.38
362.07	781.38
362.296	773.38
362.523	783.38
362.749	770.38
362.976	775.38
363.203	765.38
363.429	744.38
363.656	755.38
363.882	743.38
364.109	757.38
364.335	774.38
364.562	775.38
364.788	755.38
365.015	768.38
365.241	757.38
365.468	766.38
365.694	789.38
365.92	763.38
366.147	744.38
366.373	752.38
366.599	749.38
366.826	740.38
367.052	771.38
367.278	781.38
367.505	768.38
367.731	775.38
367.957	773.38
368.184	773.38
368.41	777.38
368.636	800.38
368.862	765.38
369.089	791.38
369.315	789.38
369.541	819.38
369.767	795.38
369.993	806.38
370.219	800.38
370.445	818.38
370.672	823.38
370.898	797.38
371.124	847.38
371.35	839.38
371.576	837.38
371.802	835.38
372.028	846.38
372.254	855.38
372.48	836.38
372.706	864.38
372.932	864.38
373.158	857.38
373.384	856.38
373.61	831.38
373.835	843.38
374.061	834.38
374.287	882.38
374.513	874.38
374.739	897.38
374.965	893.38
375.191	939.38
375.416	894.38
375.642	909.38
375.868	865.38
376.094	847.38
376.319	879.38
376.545	851.38
376.771	866.38
376.997	824.38
377.222	844.38
377.448	838.38
377.674	830.38
377.899	855.38
378.125	832.38
378.35	791.38
378.576	824.38
378.802	825.38
379.027	843.38
379.253	826.38
379.478	839.38
379.704	840.38
379.929	840.38
380.155	848.38
380.38	861.38
380.606	864.38
380.831	828.38
381.057	844.38
381.282	840.38
381.507	841.38
381.733	849.38
381.958	851.38
382.184	864.38
382.409	901.38
382.634	852.38
382.86	901.38
383.085	879.38
383.31	874.38
383.535	935.38
383.761	911.38
383.986	917.38
384.211	958.38
384.436	967.38
384.662	952.38
384.887	981.38
385.112	991.38
385.337	1017.38
385.562	1008.38
385.787	1011.38
386.013	1000.38
386.238	1043.38
386.463	1045.38
386.688	1039.38
386.913	1001.38
387.138	1019.38
387.363	985.38
387.588	976.38
387.813	995.38
388.038	1015.38
388.263	1003.38
388.488	1041.38
388.713	998.38
388.938	1017.38
389.163	998.38
389.387	981.38
389.612	1006.38
389.837	972.38
390.062	1005.38
390.287	1001.38
390.512	1030.38
390.736	1007.38
390.961	1016.38
391.186	1036.38
391.411	1057.38
391.636	1115.38
391.86	1092.38
392.085	1137.38
392.31	1152.38
392.534	1089.38
392.759	1082.38
392.984	1055.38
393.208	1064.38
393.433	1056.38
393.658	1078.38
393.882	1096.38
394.107	1058.38
394.331	1080.38
394.556	1073.38
394.78	1069.38
395.005	1062.38
395.229	1089.38
395.454	1138.38
395.678	1159.38
395.903	1147.38
396.127	1119.38
396.352	1097.38
396.576	1115.38
396.801	1072.38
397.025	1103.38
397.249	1111.38
397.474	1145.38
397.698	1136.38
397.922	1145.38
398.147	1158.38
398.371	1195.38
398.595	1255.38
398.82	1279.38
399.044	1376.38
399.268	1463.38
399.492	1671.38
399.717	1861.38
399.941	1854.38
400.165	1750.38
400.389	1585.38
400.613	1477.38
400.837	1393.38
401.062	1340.38
401.286	1329.38
401.51	1296.38
401.734	1309.38
401.958	1307.38
402.182	1301.38
402.406	1329.38
402.63	1338.38
402.854	1383.38
403.078	1314.38
403.302	1355.38
403.526	1398.38
403.75	1394.38
403.974	1439.38
404.198	1431.38
404.422	1446.38
404.645	1426.38
404.869	1393.38
405.093	1424.38
405.317	1403.38
405.541	1414.38
405.765	1398.38
405.988	1418.38
406.212	1414.38
406.436	1402.38
406.66	1445.38
406.883	1462.38
407.107	1514.38
407.331	1604.38
407.555	1638.38
407.778	1676.38
408.002	1576.38
408.226	1571.38
408.449	1559.38
408.673	1497.38
408.896	1469.38
409.12	1439.38
409.344	1483.38
409.567	1455.38
409.791	1453.38
410.014	1423.38
410.238	1438.38
410.461	1421.38
410.685	1380.38
410.908	1396.38
411.132	1361.38
411.355	1317.38
411.578	1352.38
411.802	1332.38
412.025	1322.38
412.249	1339.38
412.472	1362.38
412.695	1313.38
412.919	1281.38
413.142	1309.38
413.365	1308.38
413.589	1300.38
413.812	1293.38
414.035	1247.38
414.258	1269.38
414.482	1309.38
414.705	1326.38
414.928	1278.38
415.151	1311.38
415.374	1273.38
415.597	1243.38
415.821	1279.38
416.044	1222.38
416.267	1225.38
416.49	1235.38
416.713	1215.38
416.936	1249.38
417.159	1242.38
417.382	1226.38
417.605	1227.38
417.828	1254.38
418.051	1250.38
418.274	1269.38
418.497	1255.38
418.72	1293.38
418.943	1287.38
419.166	1358.38
419.389	1439.38
419.611	1453.38
419.834	1378.38
420.057	1290.38
420.28	1254.38
420.503	1241.38
420.726	1258.38
420.948	1267.38
421.171	1245.38
421.394	1254.38
421.617	1228.38
421.839	1258.38
422.062	1246.38
422.285	1250.38
422.507	1298.38
422.73	1251.38
422.953	1242.38
423.175	1284.38
423.398	1265.38
423.621	1251.38
423.843	1305.38
424.066	1305.38
424.288	1326.38
424.511	1271.38
424.733	1289.38
424.956	1288.38
425.178	1275.38
425.401	1256.38
425.623	1250.38
425.846	1226.38
426.068	1224.38
426.291	1221.38
426.513	1177.38
426.735	1200.38
426.958	1177.38
427.18	1149.38
427.402	1151.38
427.625	1142.38
427.847	1124.38
428.069	1122.38
428.292	1091.38
428.514	1125.38
428.736	1115.38
428.958	1139.38
429.181	1102.38
429.403	1098.38
429.625	1099.38
429.847	1078.38
430.069	1081.38
430.292	1117.38
430.514	1079.38
430.736	1094.38
430.958	1095.38
431.18	1090.38
431.402	1111.38
431.624	1104.38
431.846	1146.38
432.068	1108.38
432.29	1158.38
432.512	1134.38
432.734	1114.38
432.956	1105.38
433.178	1107.38
433.4	1132.38
433.622	1130.38
433.844	1139.38
434.066	1149.38
434.287	1134.38
434.509	1156.38
434.731	1199.38
434.953	1269.38
435.175	1226.38
435.397	1262.38
435.618	1168.38
435.84	1147.38
436.062	1122.38
436.284	1100.38
436.505	1097.38
436.727	1122.38
436.949	1088.38
437.17	1114.38
437.392	1103.38
437.614	1104.38
437.835	1070.38
438.057	1074.38
438.278	1060.38
438.5	1053.38
438.721	1059.38
438.943	1103.38
439.165	1089.38
439.386	1081.38
439.608	1123.38
439.829	1122.38
440.05	1102.38
440.272	1119.38
440.493	1141.38
440.715	1139.38
440.936	1159.38
441.158	1175.38
441.379	1210.38
441.6	1236.38
441.822	1218.38
442.043	1231.38
442.264	1208.38
442.486	1184.38
442.707	1209.38
442.928	1220.38
443.149	1199.38
443.371	1209.38
443.592	1190.38
443.813	1265.38
444.034	1295.38
444.255	1284.38
444.476	1354.38
444.698	1423.38
444.919	1419.38
445.14	1519.38
445.361	1374.38
445.582	1290.38
445.803	1236.38
446.024	1157.38
446.245	1171.38
446.466	1143.38
446.687	1128.38
446.908	1147.38
447.129	1091.38
447.35	1112.38
447.571	1062.38
447.792	1028.38
448.013	1047.38
448.234	1035.38
448.455	1023.38
448.675	1030.38
448.896	1045.38
449.117	989.38
449.338	1018.38
449.559	991.38
449.779	1021.38
450	998.38
450.221	1012.38
450.442	1025.38
450.662	1026.38
450.883	1035.38
451.104	1049.38
451.324	1046.38
451.545	1040.38
451.766	1039.38
451.986	1027.38
452.207	995.38
452.428	999.38
452.648	1035.38
452.869	1003.38
453.089	973.38
453.31	1015.38
453.53	993.38
453.751	975.38
453.971	971.38
454.192	989.38
454.412	947.38
454.633	959.38
454.853	979.38
455.073	960.38
455.294	999.38
455.514	923.38
455.734	947.38
455.955	935.38
456.175	960.38
456.395	984.38
456.616	957.38
456.836	945.38
457.056	962.38
457.276	932.38
457.497	970.38
457.717	953.38
457.937	982.38
458.157	968.38
458.377	1014.38
458.598	1011.38
458.818	1023.38
459.038	1081.38
459.258	1075.38
459.478	1131.38
459.698	1169.38
459.918	1203.38
460.138	1205.38
460.358	1270.38
460.578	1278.38
460.798	1321.38
461.018	1331.38
461.238	1335.38
461.458	1310.38
461.678	1342.38
461.898	1337.38
462.118	1335.38
462.338	1414.38
462.558	1482.38
462.777	1475.38
462.997	1606.38
463.217	1689.38
463.437	1739.38
463.657	1641.38
463.876	1573.38
464.096	1568.38
464.316	1546.38
464.536	1526.38
464.755	1484.38
464.975	1443.38
465.195	1362.38
465.414	1288.38
465.634	1223.38
465.854	1170.38
466.073	1146.38
466.293	1110.38
466.512	1096.38
466.732	1087.38
466.951	1109.38
467.171	1087.38
467.391	1069.38
467.61	1051.38
467.829	1058.38
468.049	1054.38
468.268	998.38
468.488	1049.38
468.707	1023.38
468.927	1012.38
469.146	1018.38
469.365	1063.38
469.585	1064.38
469.804	1058.38
470.023	1097.38
470.243	1086.38
470.462	1106.38
470.681	1088.38
470.901	1101.38
471.12	1105.38
471.339	1077.38
471.558	1038.38
471.777	1058.38
471.997	1047.38
472.216	1022.38
472.435	1021.38
472.654	1014.38
472.873	1031.38
473.092	1002.38
473.311	1018.38
473.53	1013.38
473.749	994.38
473.968	1017.38
474.187	983.38
474.406	1004.38
474.625	1012.38
474.844	1000.38
475.063	1043.38
475.282	1025.38
475.501	1006.38
475.72	1015.38
475.939	1042.38
476.158	1038.38
476.377	1037.38
476.596	1028.38
476.814	1099.38
477.033	1099.38
477.252	1073.38
477.471	1128.38
477.69	1157.38
477.908	1146.38
478.127	1210.38
478.346	1241.38
478.564	1206.38
478.783	1239.38
479.002	1254.38
479.22	1291.38
479.439	1282.38
479.658	1281.38
479.876	1258.38
480.095	1300.38
480.313	1342.38
480.532	1361.38
480.751	1345.38
480.969	1307.38
481.188	1245.38
481.406	1186.38
481.624	1200.38
481.843	1186.38
482.061	1197.38
482.28	1174.38
482.498	1153.38
482.717	1179.38
482.935	1157.38
483.153	1145.38
483.372	1157.38
483.59	1153.38
483.808	1143.38
484.027	1161.38
484.245	1153.38
484.463	1195.38
484.681	1192.38
484.9	1212.38
485.118	1221.38
485.336	1207.38
485.554	1220.38
485.772	1226.38
485.99	1219.38
486.209	1263.38
486.427	1231.38
486.645	1223.38
486.863	1258.38
487.081	1231.38
487.299	1226.38
487.517	1229.38
487.735	1210.38
487.953	1201.38
488.171	1202.38
488.389	1195.38
488.607	1201.38
488.825	1206.38
489.043	1196.38
489.261	1214.38
489.479	1208.38
489.696	1210.38
489.914	1210.38
490.132	1220.38
490.35	1233.38
490.568	1232.38
490.786	1246.38
491.003	1213.38
491.221	1224.38
491.439	1272.38
491.657	1229.38
491.874	1229.38
492.092	1249.38
492.31	1261.38
492.527	1272.38
492.745	1254.38
492.963	1245.38
493.18	1282.38
493.398	1290.38
493.615	1286.38
493.833	1279.38
494.05	1263.38
494.268	1290.38
494.485	1280.38
494.703	1314.38
494.92	1305.38
495.138	1300.38
495.355	1338.38
