Data from NiCl2@0.0625M.TitratingCurve.Agarose3%dH2O.NegLispCup.LampEnergy10.LIBS07252019_HRD10591_18-34-34-577.txt Node
Date: Thu Jul 25 18:34:34 EDT 2019
User: cochatt
Spectrometer: HR+D1059
Trigger mode: 1
Integration Time (sec): 1.000000E-1
Scans to average: 1
Electric dark correction enabled: true
Nonlinearity correction enabled: false
Boxcar width: 0
XAxis mode: Wavelengths
Number of Pixels in Spectrum: 2048
>>>>>Begin Spectral Data<<<<<
223.165	-19.75
223.4	-19.75
223.635	-19.75
223.869	-12.75
224.104	-17.75
224.338	-9.75
224.573	-5.75
224.808	-19.75
225.042	-11.75
225.277	-8.75
225.511	-4.75
225.746	2.25
225.98	-2.75
226.215	20.25
226.449	12.25
226.683	29.25
226.918	21.25
227.152	28.25
227.387	29.25
227.621	32.25
227.856	50.25
228.09	49.25
228.324	54.25
228.559	54.25
228.793	73.25
229.027	123.25
229.262	140.25
229.496	149.25
229.73	166.25
229.964	168.25
230.199	190.25
230.433	180.25
230.667	173.25
230.901	191.25
231.136	176.25
231.37	173.25
231.604	205.25
231.838	190.25
232.072	182.25
232.306	193.25
232.541	187.25
232.775	186.25
233.009	203.25
233.243	200.25
233.477	182.25
233.711	204.25
233.945	208.25
234.179	226.25
234.413	227.25
234.647	216.25
234.881	219.25
235.115	225.25
235.349	205.25
235.583	205.25
235.817	208.25
236.051	219.25
236.285	234.25
236.519	216.25
236.753	213.25
236.987	229.25
237.221	221.25
237.455	228.25
237.689	232.25
237.922	233.25
238.156	242.25
238.39	225.25
238.624	248.25
238.858	252.25
239.091	244.25
239.325	244.25
239.559	241.25
239.793	268.25
240.027	275.25
240.26	262.25
240.494	255.25
240.728	268.25
240.961	269.25
241.195	266.25
241.429	272.25
241.662	279.25
241.896	288.25
242.13	292.25
242.363	300.25
242.597	297.25
242.83	296.25
243.064	298.25
243.298	282.25
243.531	311.25
243.765	314.25
243.998	305.25
244.232	323.25
244.465	309.25
244.699	313.25
244.932	341.25
245.166	310.25
245.399	316.25
245.633	314.25
245.866	340.25
246.099	329.25
246.333	331.25
246.566	339.25
246.8	332.25
247.033	336.25
247.266	357.25
247.5	353.25
247.733	360.25
247.966	363.25
248.2	374.25
248.433	363.25
248.666	363.25
248.899	373.25
249.133	365.25
249.366	356.25
249.599	381.25
249.832	351.25
250.066	384.25
250.299	388.25
250.532	395.25
250.765	411.25
250.998	382.25
251.231	370.25
251.465	419.25
251.698	409.25
251.931	392.25
252.164	384.25
252.397	424.25
252.63	441.25
252.863	407.25
253.096	421.25
253.329	442.25
253.562	440.25
253.795	435.25
254.028	442.25
254.261	419.25
254.494	462.25
254.727	434.25
254.96	451.25
255.193	436.25
255.426	435.25
255.659	445.25
255.892	445.25
256.124	462.25
256.357	454.25
256.59	455.25
256.823	463.25
257.056	459.25
257.289	467.25
257.521	459.25
257.754	451.25
257.987	476.25
258.22	461.25
258.452	471.25
258.685	476.25
258.918	473.25
259.151	483.25
259.383	504.25
259.616	484.25
259.849	484.25
260.081	493.25
260.314	499.25
260.547	505.25
260.779	528.25
261.012	534.25
261.244	521.25
261.477	516.25
261.71	499.25
261.942	546.25
262.175	525.25
262.407	522.25
262.64	498.25
262.872	539.25
263.105	536.25
263.337	526.25
263.57	537.25
263.802	536.25
264.035	530.25
264.267	537.25
264.499	557.25
264.732	558.25
264.964	560.25
265.197	562.25
265.429	573.25
265.661	552.25
265.894	552.25
266.126	563.25
266.358	566.25
266.591	584.25
266.823	562.25
267.055	571.25
267.287	586.25
267.52	580.25
267.752	596.25
267.984	570.25
268.216	596.25
268.448	614.25
268.681	616.25
268.913	603.25
269.145	597.25
269.377	629.25
269.609	615.25
269.841	624.25
270.073	624.25
270.306	613.25
270.538	609.25
270.77	614.25
271.002	588.25
271.234	628.25
271.466	616.25
271.698	612.25
271.93	606.25
272.162	619.25
272.394	626.25
272.626	644.25
272.858	660.25
273.09	630.25
273.322	634.25
273.553	636.25
273.785	653.25
274.017	657.25
274.249	668.25
274.481	671.25
274.713	664.25
274.945	666.25
275.176	669.25
275.408	655.25
275.64	676.25
275.872	666.25
276.104	692.25
276.335	667.25
276.567	680.25
276.799	680.25
277.031	713.25
277.262	703.25
277.494	699.25
277.726	689.25
277.957	709.25
278.189	704.25
278.421	708.25
278.652	736.25
278.884	712.25
279.115	698.25
279.347	741.25
279.579	726.25
279.81	729.25
280.042	707.25
280.273	727.25
280.505	746.25
280.736	757.25
280.968	745.25
281.199	766.25
281.431	768.25
281.662	756.25
281.894	765.25
282.125	768.25
282.356	790.25
282.588	770.25
282.819	785.25
283.051	769.25
283.282	800.25
283.513	766.25
283.745	776.25
283.976	768.25
284.207	810.25
284.439	805.25
284.67	781.25
284.901	790.25
285.132	793.25
285.364	778.25
285.595	792.25
285.826	809.25
286.057	816.25
286.288	801.25
286.52	813.25
286.751	845.25
286.982	816.25
287.213	824.25
287.444	804.25
287.675	829.25
287.906	813.25
288.138	847.25
288.369	830.25
288.6	848.25
288.831	820.25
289.062	826.25
289.293	828.25
289.524	824.25
289.755	828.25
289.986	833.25
290.217	872.25
290.448	840.25
290.679	849.25
290.91	868.25
291.141	830.25
291.371	856.25
291.602	866.25
291.833	876.25
292.064	871.25
292.295	855.25
292.526	862.25
292.757	860.25
292.987	874.25
293.218	845.25
293.449	888.25
293.68	870.25
293.91	864.25
294.141	870.25
294.372	888.25
294.603	877.25
294.833	871.25
295.064	882.25
295.295	885.25
295.525	883.25
295.756	876.25
295.987	872.25
296.217	907.25
296.448	899.25
296.679	886.25
296.909	892.25
297.14	872.25
297.37	888.25
297.601	928.25
297.831	911.25
298.062	920.25
298.292	952.25
298.523	965.25
298.753	966.25
298.984	935.25
299.214	933.25
299.445	934.25
299.675	957.25
299.905	960.25
300.136	968.25
300.366	933.25
300.597	938.25
300.827	973.25
301.057	994.25
301.288	986.25
301.518	953.25
301.748	970.25
301.979	1004.25
302.209	1009.25
302.439	992.25
302.669	1004.25
302.9	999.25
303.13	968.25
303.36	977.25
303.59	994.25
303.82	939.25
304.051	970.25
304.281	970.25
304.511	961.25
304.741	980.25
304.971	1005.25
305.201	1011.25
305.431	975.25
305.661	993.25
305.891	977.25
306.121	985.25
306.352	957.25
306.582	977.25
306.812	948.25
307.042	985.25
307.272	985.25
307.502	974.25
307.731	940.25
307.961	991.25
308.191	963.25
308.421	971.25
308.651	996.25
308.881	972.25
309.111	982.25
309.341	950.25
309.571	971.25
309.8	954.25
310.03	1014.25
310.26	973.25
310.49	971.25
310.72	996.25
310.949	966.25
311.179	1022.25
311.409	963.25
311.639	979.25
311.868	993.25
312.098	1022.25
312.328	999.25
312.557	1044.25
312.787	1018.25
313.017	1020.25
313.246	1056.25
313.476	1036.25
313.706	1040.25
313.935	1047.25
314.165	1078.25
314.394	1058.25
314.624	1033.25
314.853	1035.25
315.083	1038.25
315.312	1056.25
315.542	1037.25
315.771	1036.25
316.001	1079.25
316.23	1036.25
316.46	1032.25
316.689	1030.25
316.919	1006.25
317.148	1017.25
317.377	1015.25
317.607	1049.25
317.836	1042.25
318.065	1022.25
318.295	1041.25
318.524	1048.25
318.753	1059.25
318.983	1026.25
319.212	1041.25
319.441	1016.25
319.67	1014.25
319.9	1041.25
320.129	1048.25
320.358	1051.25
320.587	1038.25
320.816	1062.25
321.046	1052.25
321.275	1041.25
321.504	1058.25
321.733	1035.25
321.962	1051.25
322.191	1066.25
322.42	1067.25
322.649	1044.25
322.878	1058.25
323.108	1028.25
323.337	1073.25
323.566	1084.25
323.795	1092.25
324.024	1075.25
324.253	1086.25
324.482	1060.25
324.71	1072.25
324.939	1092.25
325.168	1096.25
325.397	1081.25
325.626	1096.25
325.855	1123.25
326.084	1142.25
326.313	1161.25
326.542	1106.25
326.77	1122.25
326.999	1136.25
327.228	1123.25
327.457	1158.25
327.686	1127.25
327.914	1132.25
328.143	1141.25
328.372	1171.25
328.6	1123.25
328.829	1140.25
329.058	1145.25
329.287	1120.25
329.515	1152.25
329.744	1166.25
329.972	1165.25
330.201	1131.25
330.43	1175.25
330.658	1184.25
330.887	1177.25
331.115	1165.25
331.344	1208.25
331.572	1171.25
331.801	1222.25
332.03	1234.25
332.258	1223.25
332.486	1313.25
332.715	1280.25
332.943	1340.25
333.172	1393.25
333.4	1424.25
333.629	1427.25
333.857	1462.25
334.085	1484.25
334.314	1430.25
334.542	1437.25
334.771	1427.25
334.999	1412.25
335.227	1395.25
335.455	1393.25
335.684	1393.25
335.912	1422.25
336.14	1393.25
336.369	1407.25
336.597	1374.25
336.825	1340.25
337.053	1379.25
337.281	1350.25
337.51	1320.25
337.738	1294.25
337.966	1286.25
338.194	1233.25
338.422	1315.25
338.65	1244.25
338.878	1239.25
339.106	1237.25
339.334	1264.25
339.562	1238.25
339.79	1249.25
340.018	1223.25
340.246	1191.25
340.474	1225.25
340.702	1202.25
340.93	1208.25
341.158	1204.25
341.386	1189.25
341.614	1215.25
341.842	1203.25
342.07	1181.25
342.298	1221.25
342.526	1186.25
342.754	1170.25
342.981	1178.25
343.209	1213.25
343.437	1287.25
343.665	1268.25
343.893	1371.25
344.12	1405.25
344.348	1353.25
344.576	1360.25
344.804	1258.25
345.031	1234.25
345.259	1192.25
345.487	1208.25
345.714	1193.25
345.942	1204.25
346.17	1186.25
346.397	1189.25
346.625	1194.25
346.853	1147.25
347.08	1157.25
347.308	1157.25
347.535	1140.25
347.763	1148.25
347.99	1144.25
348.218	1152.25
348.445	1140.25
348.673	1142.25
348.9	1142.25
349.128	1130.25
349.355	1142.25
349.583	1140.25
349.81	1099.25
350.037	1120.25
350.265	1103.25
350.492	1111.25
350.72	1097.25
350.947	1096.25
351.174	1087.25
351.402	1104.25
351.629	1097.25
351.856	1074.25
352.083	1103.25
352.311	1111.25
352.538	1077.25
352.765	1115.25
352.992	1109.25
353.22	1101.25
353.447	1088.25
353.674	1054.25
353.901	1079.25
354.128	1104.25
354.355	1091.25
354.583	1097.25
354.81	1134.25
355.037	1087.25
355.264	1069.25
355.491	1090.25
355.718	1109.25
355.945	1097.25
356.172	1105.25
356.399	1101.25
356.626	1101.25
356.853	1102.25
357.08	1110.25
357.307	1108.25
357.534	1119.25
357.761	1117.25
357.988	1088.25
358.215	1101.25
358.441	1104.25
358.668	1106.25
358.895	1094.25
359.122	1099.25
359.349	1098.25
359.576	1099.25
359.802	1121.25
360.029	1127.25
360.256	1081.25
360.483	1120.25
360.709	1099.25
360.936	1085.25
361.163	1106.25
361.39	1117.25
361.616	1108.25
361.843	1112.25
362.07	1098.25
362.296	1128.25
362.523	1085.25
362.749	1092.25
362.976	1086.25
363.203	1097.25
363.429	1125.25
363.656	1130.25
363.882	1069.25
364.109	1096.25
364.335	1105.25
364.562	1100.25
364.788	1101.25
365.015	1067.25
365.241	1111.25
365.468	1126.25
365.694	1110.25
365.92	1112.25
366.147	1145.25
366.373	1132.25
366.599	1092.25
366.826	1107.25
367.052	1082.25
367.278	1082.25
367.505	1125.25
367.731	1139.25
367.957	1104.25
368.184	1125.25
368.41	1121.25
368.636	1127.25
368.862	1112.25
369.089	1161.25
369.315	1151.25
369.541	1142.25
369.767	1163.25
369.993	1159.25
370.219	1164.25
370.445	1187.25
370.672	1149.25
370.898	1170.25
371.124	1194.25
371.35	1173.25
371.576	1189.25
371.802	1217.25
372.028	1195.25
372.254	1196.25
372.48	1175.25
372.706	1235.25
372.932	1269.25
373.158	1204.25
373.384	1219.25
373.61	1211.25
373.835	1192.25
374.061	1205.25
374.287	1221.25
374.513	1229.25
374.739	1264.25
374.965	1290.25
375.191	1305.25
375.416	1314.25
375.642	1276.25
375.868	1244.25
376.094	1230.25
376.319	1232.25
376.545	1224.25
376.771	1220.25
376.997	1210.25
377.222	1193.25
377.448	1214.25
377.674	1194.25
377.899	1197.25
378.125	1210.25
378.35	1177.25
378.576	1197.25
378.802	1191.25
379.027	1209.25
379.253	1200.25
379.478	1180.25
379.704	1181.25
379.929	1184.25
380.155	1177.25
380.38	1203.25
380.606	1147.25
380.831	1188.25
381.057	1227.25
381.282	1170.25
381.507	1186.25
381.733	1241.25
381.958	1214.25
382.184	1184.25
382.409	1222.25
382.634	1241.25
382.86	1218.25
383.085	1242.25
383.31	1252.25
383.535	1293.25
383.761	1296.25
383.986	1318.25
384.211	1326.25
384.436	1337.25
384.662	1340.25
384.887	1408.25
385.112	1390.25
385.337	1408.25
385.562	1386.25
385.787	1419.25
386.013	1437.25
386.238	1432.25
386.463	1405.25
386.688	1420.25
386.913	1396.25
387.138	1440.25
387.363	1420.25
387.588	1413.25
387.813	1448.25
388.038	1429.25
388.263	1432.25
388.488	1422.25
388.713	1435.25
388.938	1380.25
389.163	1416.25
389.387	1441.25
389.612	1439.25
389.837	1421.25
390.062	1403.25
390.287	1450.25
390.512	1428.25
390.736	1440.25
390.961	1429.25
391.186	1481.25
391.411	1485.25
391.636	1544.25
391.86	1553.25
392.085	1582.25
392.31	1588.25
392.534	1550.25
392.759	1547.25
392.984	1505.25
393.208	1482.25
393.433	1480.25
393.658	1476.25
393.882	1507.25
394.107	1510.25
394.331	1518.25
394.556	1516.25
394.78	1507.25
395.005	1556.25
395.229	1531.25
395.454	1567.25
395.678	1605.25
395.903	1592.25
396.127	1580.25
396.352	1531.25
396.576	1539.25
396.801	1512.25
397.025	1539.25
397.249	1565.25
397.474	1607.25
397.698	1561.25
397.922	1613.25
398.147	1589.25
398.371	1627.25
398.595	1706.25
398.82	1781.25
399.044	1880.25
399.268	2014.25
399.492	2200.25
399.717	2405.25
399.941	2458.25
400.165	2252.25
400.389	2150.25
400.613	2004.25
400.837	1900.25
401.062	1865.25
401.286	1800.25
401.51	1777.25
401.734	1788.25
401.958	1801.25
402.182	1779.25
402.406	1824.25
402.63	1802.25
402.854	1802.25
403.078	1888.25
403.302	1871.25
403.526	1898.25
403.75	1918.25
403.974	1953.25
404.198	1934.25
404.422	1952.25
404.645	1939.25
404.869	1898.25
405.093	1932.25
405.317	1881.25
405.541	1922.25
405.765	1885.25
405.988	1889.25
406.212	1934.25
406.436	1955.25
406.66	1972.25
406.883	1995.25
407.107	2135.25
407.331	2168.25
407.555	2237.25
407.778	2224.25
408.002	2171.25
408.226	2162.25
408.449	2100.25
408.673	2025.25
408.896	2012.25
409.12	1969.25
409.344	1949.25
409.567	1933.25
409.791	1951.25
410.014	1956.25
410.238	1957.25
410.461	1928.25
410.685	1928.25
410.908	1920.25
411.132	1902.25
411.355	1837.25
411.578	1862.25
411.802	1817.25
412.025	1826.25
412.249	1899.25
412.472	1892.25
412.695	1798.25
412.919	1773.25
413.142	1778.25
413.365	1781.25
413.589	1810.25
413.812	1772.25
414.035	1773.25
414.258	1779.25
414.482	1773.25
414.705	1766.25
414.928	1779.25
415.151	1800.25
415.374	1780.25
415.597	1730.25
415.821	1707.25
416.044	1704.25
416.267	1698.25
416.49	1696.25
416.713	1710.25
416.936	1724.25
417.159	1700.25
417.382	1692.25
417.605	1673.25
417.828	1685.25
418.051	1694.25
418.274	1698.25
418.497	1683.25
418.72	1711.25
418.943	1709.25
419.166	1884.25
419.389	1966.25
419.611	1920.25
419.834	1876.25
420.057	1792.25
420.28	1742.25
420.503	1689.25
420.726	1643.25
420.948	1682.25
421.171	1742.25
421.394	1689.25
421.617	1672.25
421.839	1720.25
422.062	1734.25
422.285	1682.25
422.507	1741.25
422.73	1725.25
422.953	1727.25
423.175	1731.25
423.398	1754.25
423.621	1734.25
423.843	1762.25
424.066	1789.25
424.288	1768.25
424.511	1754.25
424.733	1734.25
424.956	1681.25
425.178	1751.25
425.401	1726.25
425.623	1694.25
425.846	1660.25
426.068	1666.25
426.291	1663.25
426.513	1651.25
426.735	1663.25
426.958	1611.25
427.18	1621.25
427.402	1587.25
427.625	1584.25
427.847	1561.25
428.069	1568.25
428.292	1596.25
428.514	1568.25
428.736	1552.25
428.958	1590.25
429.181	1522.25
429.403	1499.25
429.625	1496.25
429.847	1515.25
430.069	1528.25
430.292	1527.25
430.514	1524.25
430.736	1521.25
430.958	1536.25
431.18	1531.25
431.402	1574.25
431.624	1505.25
431.846	1549.25
432.068	1564.25
432.29	1590.25
432.512	1543.25
432.734	1567.25
432.956	1579.25
433.178	1614.25
433.4	1607.25
433.622	1578.25
433.844	1633.25
434.066	1615.25
434.287	1623.25
434.509	1654.25
434.731	1721.25
434.953	1722.25
435.175	1721.25
435.397	1691.25
435.618	1667.25
435.84	1653.25
436.062	1602.25
436.284	1592.25
436.505	1547.25
436.727	1588.25
436.949	1581.25
437.17	1579.25
437.392	1520.25
437.614	1530.25
437.835	1508.25
438.057	1502.25
438.278	1476.25
438.5	1469.25
438.721	1468.25
438.943	1501.25
439.165	1494.25
439.386	1477.25
439.608	1533.25
439.829	1517.25
440.05	1538.25
440.272	1524.25
440.493	1558.25
440.715	1552.25
440.936	1571.25
441.158	1616.25
441.379	1635.25
441.6	1708.25
441.822	1666.25
442.043	1685.25
442.264	1653.25
442.486	1598.25
442.707	1641.25
442.928	1637.25
443.149	1645.25
443.371	1654.25
443.592	1639.25
443.813	1702.25
444.034	1675.25
444.255	1752.25
444.476	1796.25
444.698	1866.25
444.919	1888.25
445.14	2009.25
445.361	1840.25
445.582	1759.25
445.803	1673.25
446.024	1645.25
446.245	1585.25
446.466	1574.25
446.687	1553.25
446.908	1497.25
447.129	1509.25
447.35	1547.25
447.571	1484.25
447.792	1449.25
448.013	1446.25
448.234	1412.25
448.455	1387.25
448.675	1379.25
448.896	1378.25
449.117	1359.25
449.338	1401.25
449.559	1377.25
449.779	1396.25
450	1398.25
450.221	1393.25
450.442	1398.25
450.662	1366.25
450.883	1414.25
451.104	1410.25
451.324	1379.25
451.545	1394.25
451.766	1381.25
451.986	1387.25
452.207	1368.25
452.428	1342.25
452.648	1389.25
452.869	1353.25
453.089	1337.25
453.31	1350.25
453.53	1319.25
453.751	1344.25
453.971	1313.25
454.192	1321.25
454.412	1309.25
454.633	1306.25
454.853	1332.25
455.073	1289.25
455.294	1322.25
455.514	1284.25
455.734	1312.25
455.955	1291.25
456.175	1267.25
456.395	1291.25
456.616	1313.25
456.836	1310.25
457.056	1291.25
457.276	1282.25
457.497	1326.25
457.717	1342.25
457.937	1311.25
458.157	1323.25
458.377	1340.25
458.598	1398.25
458.818	1432.25
459.038	1436.25
459.258	1497.25
459.478	1490.25
459.698	1524.25
459.918	1608.25
460.138	1637.25
460.358	1685.25
460.578	1733.25
460.798	1730.25
461.018	1755.25
461.238	1706.25
461.458	1717.25
461.678	1755.25
461.898	1792.25
462.118	1779.25
462.338	1870.25
462.558	1898.25
462.777	1965.25
462.997	2089.25
463.217	2191.25
463.437	2228.25
463.657	2101.25
463.876	2054.25
464.096	2039.25
464.316	1956.25
464.536	2029.25
464.755	1912.25
464.975	1861.25
465.195	1791.25
465.414	1774.25
465.634	1625.25
465.854	1586.25
466.073	1576.25
466.293	1548.25
466.512	1507.25
466.732	1472.25
466.951	1499.25
467.171	1492.25
467.391	1432.25
467.61	1458.25
467.829	1426.25
468.049	1437.25
468.268	1384.25
468.488	1411.25
468.707	1408.25
468.927	1418.25
469.146	1379.25
469.365	1432.25
469.585	1416.25
469.804	1463.25
470.023	1464.25
470.243	1493.25
470.462	1501.25
470.681	1508.25
470.901	1483.25
471.12	1478.25
471.339	1439.25
471.558	1437.25
471.777	1422.25
471.997	1418.25
472.216	1381.25
472.435	1418.25
472.654	1369.25
472.873	1356.25
473.092	1379.25
473.311	1377.25
473.53	1383.25
473.749	1393.25
473.968	1408.25
474.187	1370.25
474.406	1385.25
474.625	1361.25
474.844	1384.25
475.063	1403.25
475.282	1420.25
475.501	1427.25
475.72	1408.25
475.939	1445.25
476.158	1437.25
476.377	1435.25
476.596	1445.25
476.814	1477.25
477.033	1472.25
477.252	1512.25
477.471	1540.25
477.69	1574.25
477.908	1572.25
478.127	1585.25
478.346	1627.25
478.564	1706.25
478.783	1690.25
479.002	1757.25
479.22	1753.25
479.439	1762.25
479.658	1753.25
479.876	1762.25
480.095	1729.25
480.313	1860.25
480.532	1831.25
480.751	1848.25
480.969	1823.25
481.188	1760.25
481.406	1738.25
481.624	1699.25
481.843	1666.25
482.061	1687.25
482.28	1691.25
482.498	1668.25
482.717	1653.25
482.935	1712.25
483.153	1682.25
483.372	1697.25
483.59	1714.25
483.808	1720.25
484.027	1739.25
484.245	1758.25
484.463	1763.25
484.681	1806.25
484.9	1805.25
485.118	1804.25
485.336	1816.25
485.554	1854.25
485.772	1847.25
485.99	1852.25
486.209	1857.25
486.427	1862.25
486.645	1857.25
486.863	1841.25
487.081	1873.25
487.299	1823.25
487.517	1816.25
487.735	1816.25
487.953	1812.25
488.171	1810.25
488.389	1781.25
488.607	1765.25
488.825	1776.25
489.043	1761.25
489.261	1768.25
489.479	1742.25
489.696	1768.25
489.914	1758.25
490.132	1754.25
490.35	1740.25
490.568	1753.25
