Data from NiCl2@0.5M.TitratingCurve.Agarose3%dH2O.NegLispCup.LampEnergy10.LIBS07252019_HRD10591_18-21-36-571.txt Node
Date: Thu Jul 25 18:21:36 EDT 2019
User: cochatt
Spectrometer: HR+D1059
Trigger mode: 1
Integration Time (sec): 1.000000E-1
Scans to average: 1
Electric dark correction enabled: true
Nonlinearity correction enabled: false
Boxcar width: 0
XAxis mode: Wavelengths
Number of Pixels in Spectrum: 2048
>>>>>Begin Spectral Data<<<<<
223.165	-10.06
223.4	-10.06
223.635	-10.06
223.869	-15.06
224.104	-13.06
224.338	-16.06
224.573	-16.06
224.808	-7.06
225.042	-18.06
225.277	-9.06
225.511	-9.06
225.746	1.94
225.98	12.94
226.215	8.94
226.449	16.94
226.683	17.94
226.918	26.94
227.152	27.94
227.387	35.94
227.621	42.94
227.856	48.94
228.09	48.94
228.324	41.94
228.559	64.94
228.793	61.94
229.027	75.94
229.262	90.94
229.496	96.94
229.73	108.94
229.964	116.94
230.199	110.94
230.433	115.94
230.667	119.94
230.901	110.94
231.136	118.94
231.37	108.94
231.604	122.94
231.838	114.94
232.072	139.94
232.306	125.94
232.541	123.94
232.775	128.94
233.009	116.94
233.243	131.94
233.477	138.94
233.711	123.94
233.945	122.94
234.179	128.94
234.413	118.94
234.647	125.94
234.881	109.94
235.115	111.94
235.349	103.94
235.583	119.94
235.817	111.94
236.051	127.94
236.285	144.94
236.519	124.94
236.753	127.94
236.987	133.94
237.221	144.94
237.455	134.94
237.689	138.94
237.922	129.94
238.156	131.94
238.39	131.94
238.624	129.94
238.858	133.94
239.091	131.94
239.325	128.94
239.559	133.94
239.793	131.94
240.027	135.94
240.26	151.94
240.494	145.94
240.728	139.94
240.961	145.94
241.195	145.94
241.429	145.94
241.662	152.94
241.896	152.94
242.13	152.94
242.363	145.94
242.597	148.94
242.83	166.94
243.064	153.94
243.298	154.94
243.531	147.94
243.765	146.94
243.998	154.94
244.232	166.94
244.465	158.94
244.699	172.94
244.932	165.94
245.166	155.94
245.399	160.94
245.633	153.94
245.866	167.94
246.099	157.94
246.333	168.94
246.566	161.94
246.8	161.94
247.033	160.94
247.266	181.94
247.5	190.94
247.733	177.94
247.966	163.94
248.2	183.94
248.433	177.94
248.666	185.94
248.899	183.94
249.133	178.94
249.366	169.94
249.599	175.94
249.832	181.94
250.066	183.94
250.299	169.94
250.532	168.94
250.765	181.94
250.998	184.94
251.231	175.94
251.465	181.94
251.698	185.94
251.931	181.94
252.164	189.94
252.397	204.94
252.63	199.94
252.863	205.94
253.096	194.94
253.329	185.94
253.562	189.94
253.795	187.94
254.028	208.94
254.261	207.94
254.494	196.94
254.727	206.94
254.96	221.94
255.193	207.94
255.426	207.94
255.659	218.94
255.892	200.94
256.124	206.94
256.357	201.94
256.59	211.94
256.823	220.94
257.056	215.94
257.289	220.94
257.521	218.94
257.754	221.94
257.987	208.94
258.22	224.94
258.452	209.94
258.685	216.94
258.918	227.94
259.151	236.94
259.383	210.94
259.616	229.94
259.849	225.94
260.081	234.94
260.314	226.94
260.547	205.94
260.779	232.94
261.012	246.94
261.244	218.94
261.477	235.94
261.71	243.94
261.942	242.94
262.175	228.94
262.407	220.94
262.64	244.94
262.872	222.94
263.105	223.94
263.337	252.94
263.57	227.94
263.802	240.94
264.035	220.94
264.267	218.94
264.499	235.94
264.732	243.94
264.964	251.94
265.197	237.94
265.429	249.94
265.661	224.94
265.894	231.94
266.126	245.94
266.358	258.94
266.591	253.94
266.823	264.94
267.055	267.94
267.287	263.94
267.52	265.94
267.752	260.94
267.984	248.94
268.216	259.94
268.448	264.94
268.681	253.94
268.913	249.94
269.145	277.94
269.377	264.94
269.609	272.94
269.841	254.94
270.073	269.94
270.306	256.94
270.538	247.94
270.77	264.94
271.002	279.94
271.234	283.94
271.466	280.94
271.698	266.94
271.93	269.94
272.162	282.94
272.394	283.94
272.626	285.94
272.858	298.94
273.09	289.94
273.322	279.94
273.553	269.94
273.785	293.94
274.017	280.94
274.249	284.94
274.481	252.94
274.713	295.94
274.945	289.94
275.176	300.94
275.408	294.94
275.64	281.94
275.872	309.94
276.104	303.94
276.335	296.94
276.567	293.94
276.799	296.94
277.031	289.94
277.262	297.94
277.494	309.94
277.726	293.94
277.957	293.94
278.189	308.94
278.421	299.94
278.652	300.94
278.884	297.94
279.115	305.94
279.347	303.94
279.579	310.94
279.81	334.94
280.042	298.94
280.273	309.94
280.505	323.94
280.736	324.94
280.968	329.94
281.199	318.94
281.431	328.94
281.662	324.94
281.894	323.94
282.125	298.94
282.356	327.94
282.588	332.94
282.819	331.94
283.051	326.94
283.282	324.94
283.513	327.94
283.745	346.94
283.976	326.94
284.207	321.94
284.439	321.94
284.67	341.94
284.901	322.94
285.132	333.94
285.364	345.94
285.595	340.94
285.826	338.94
286.057	353.94
286.288	346.94
286.52	356.94
286.751	344.94
286.982	334.94
287.213	337.94
287.444	365.94
287.675	344.94
287.906	360.94
288.138	342.94
288.369	338.94
288.6	345.94
288.831	351.94
289.062	360.94
289.293	352.94
289.524	362.94
289.755	367.94
289.986	351.94
290.217	362.94
290.448	347.94
290.679	370.94
290.91	381.94
291.141	363.94
291.371	373.94
291.602	373.94
291.833	349.94
292.064	360.94
292.295	356.94
292.526	369.94
292.757	342.94
292.987	348.94
293.218	368.94
293.449	361.94
293.68	372.94
293.91	365.94
294.141	386.94
294.372	359.94
294.603	388.94
294.833	369.94
295.064	362.94
295.295	355.94
295.525	359.94
295.756	379.94
295.987	377.94
296.217	377.94
296.448	383.94
296.679	382.94
296.909	391.94
297.14	407.94
297.37	393.94
297.601	383.94
297.831	400.94
298.062	395.94
298.292	397.94
298.523	408.94
298.753	434.94
298.984	406.94
299.214	405.94
299.445	410.94
299.675	403.94
299.905	402.94
300.136	418.94
300.366	412.94
300.597	416.94
300.827	437.94
301.057	429.94
301.288	431.94
301.518	427.94
301.748	419.94
301.979	459.94
302.209	417.94
302.439	415.94
302.669	417.94
302.9	415.94
303.13	403.94
303.36	423.94
303.59	404.94
303.82	440.94
304.051	404.94
304.281	419.94
304.511	402.94
304.741	420.94
304.971	415.94
305.201	429.94
305.431	426.94
305.661	431.94
305.891	421.94
306.121	396.94
306.352	418.94
306.582	411.94
306.812	405.94
307.042	392.94
307.272	396.94
307.502	404.94
307.731	426.94
307.961	411.94
308.191	422.94
308.421	433.94
308.651	404.94
308.881	418.94
309.111	396.94
309.341	407.94
309.571	409.94
309.8	412.94
310.03	417.94
310.26	417.94
310.49	432.94
310.72	446.94
310.949	440.94
311.179	420.94
311.409	401.94
311.639	425.94
311.868	417.94
312.098	425.94
312.328	435.94
312.557	428.94
312.787	415.94
313.017	427.94
313.246	439.94
313.476	442.94
313.706	464.94
313.935	448.94
314.165	453.94
314.394	433.94
314.624	457.94
314.853	443.94
315.083	451.94
315.312	456.94
315.542	433.94
315.771	461.94
316.001	456.94
316.23	438.94
316.46	410.94
316.689	441.94
316.919	420.94
317.148	447.94
317.377	461.94
317.607	443.94
317.836	460.94
318.065	452.94
318.295	440.94
318.524	413.94
318.753	456.94
318.983	435.94
319.212	438.94
319.441	426.94
319.67	448.94
319.9	443.94
320.129	433.94
320.358	451.94
320.587	425.94
320.816	431.94
321.046	432.94
321.275	453.94
321.504	425.94
321.733	458.94
321.962	435.94
322.191	456.94
322.42	456.94
322.649	456.94
322.878	443.94
323.108	457.94
323.337	467.94
323.566	460.94
323.795	456.94
324.024	464.94
324.253	457.94
324.482	461.94
324.71	440.94
324.939	459.94
325.168	470.94
325.397	465.94
325.626	483.94
325.855	473.94
326.084	475.94
326.313	504.94
326.542	479.94
326.77	484.94
326.999	487.94
327.228	481.94
327.457	484.94
327.686	482.94
327.914	479.94
328.143	483.94
328.372	480.94
328.6	483.94
328.829	469.94
329.058	474.94
329.287	481.94
329.515	456.94
329.744	477.94
329.972	497.94
330.201	496.94
330.43	485.94
330.658	507.94
330.887	499.94
331.115	515.94
331.344	506.94
331.572	512.94
331.801	519.94
332.03	538.94
332.258	520.94
332.486	565.94
332.715	551.94
332.943	572.94
333.172	585.94
333.4	605.94
333.629	635.94
333.857	634.94
334.085	629.94
334.314	614.94
334.542	633.94
334.771	613.94
334.999	574.94
335.227	599.94
335.455	603.94
335.684	581.94
335.912	612.94
336.14	567.94
336.369	582.94
336.597	600.94
336.825	557.94
337.053	591.94
337.281	591.94
337.51	571.94
337.738	562.94
337.966	554.94
338.194	573.94
338.422	547.94
338.65	536.94
338.878	513.94
339.106	520.94
339.334	534.94
339.562	527.94
339.79	514.94
340.018	509.94
340.246	508.94
340.474	495.94
340.702	512.94
340.93	498.94
341.158	515.94
341.386	513.94
341.614	529.94
341.842	491.94
342.07	510.94
342.298	499.94
342.526	508.94
342.754	486.94
342.981	513.94
343.209	525.94
343.437	531.94
343.665	603.94
343.893	581.94
344.12	599.94
344.348	598.94
344.576	569.94
344.804	545.94
345.031	531.94
345.259	520.94
345.487	535.94
345.714	505.94
345.942	501.94
346.17	520.94
346.397	520.94
346.625	490.94
346.853	479.94
347.08	477.94
347.308	480.94
347.535	489.94
347.763	487.94
347.99	486.94
348.218	483.94
348.445	463.94
348.673	487.94
348.9	482.94
349.128	506.94
349.355	490.94
349.583	491.94
349.81	476.94
350.037	462.94
350.265	464.94
350.492	471.94
350.72	482.94
350.947	475.94
351.174	492.94
351.402	459.94
351.629	475.94
351.856	485.94
352.083	460.94
352.311	461.94
352.538	485.94
352.765	477.94
352.992	480.94
353.22	463.94
353.447	427.94
353.674	435.94
353.901	455.94
354.128	440.94
354.355	462.94
354.583	455.94
354.81	471.94
355.037	460.94
355.264	463.94
355.491	467.94
355.718	473.94
355.945	470.94
356.172	472.94
356.399	476.94
356.626	475.94
356.853	487.94
357.08	478.94
357.307	463.94
357.534	457.94
357.761	470.94
357.988	472.94
358.215	463.94
358.441	466.94
358.668	479.94
358.895	473.94
359.122	482.94
359.349	463.94
359.576	469.94
359.802	489.94
360.029	471.94
360.256	456.94
360.483	458.94
360.709	480.94
360.936	461.94
361.163	451.94
361.39	472.94
361.616	466.94
361.843	468.94
362.07	482.94
362.296	467.94
362.523	439.94
362.749	454.94
362.976	469.94
363.203	441.94
363.429	451.94
363.656	444.94
363.882	460.94
364.109	455.94
364.335	454.94
364.562	468.94
364.788	458.94
365.015	437.94
365.241	454.94
365.468	455.94
365.694	469.94
365.92	455.94
366.147	452.94
366.373	467.94
366.599	457.94
366.826	454.94
367.052	443.94
367.278	461.94
367.505	448.94
367.731	437.94
367.957	451.94
368.184	451.94
368.41	436.94
368.636	468.94
368.862	485.94
369.089	485.94
369.315	474.94
369.541	459.94
369.767	486.94
369.993	485.94
370.219	495.94
370.445	465.94
370.672	487.94
370.898	480.94
371.124	491.94
371.35	495.94
371.576	496.94
371.802	500.94
372.028	497.94
372.254	511.94
372.48	511.94
372.706	500.94
372.932	512.94
373.158	504.94
373.384	497.94
373.61	501.94
373.835	517.94
374.061	487.94
374.287	487.94
374.513	521.94
374.739	530.94
374.965	530.94
375.191	537.94
375.416	550.94
375.642	531.94
375.868	516.94
376.094	529.94
376.319	500.94
376.545	490.94
376.771	495.94
376.997	490.94
377.222	484.94
377.448	499.94
377.674	495.94
377.899	475.94
378.125	460.94
378.35	475.94
378.576	483.94
378.802	466.94
379.027	498.94
379.253	480.94
379.478	487.94
379.704	477.94
379.929	493.94
380.155	491.94
380.38	464.94
380.606	488.94
380.831	468.94
381.057	480.94
381.282	477.94
381.507	471.94
381.733	491.94
381.958	486.94
382.184	473.94
382.409	497.94
382.634	500.94
382.86	507.94
383.085	498.94
383.31	528.94
383.535	537.94
383.761	535.94
383.986	514.94
384.211	543.94
384.436	559.94
384.662	575.94
384.887	567.94
385.112	588.94
385.337	581.94
385.562	563.94
385.787	581.94
386.013	576.94
386.238	577.94
386.463	556.94
386.688	583.94
386.913	588.94
387.138	557.94
387.363	546.94
387.588	545.94
387.813	572.94
388.038	564.94
388.263	570.94
388.488	555.94
388.713	545.94
388.938	546.94
389.163	549.94
389.387	575.94
389.612	555.94
389.837	555.94
390.062	562.94
390.287	564.94
390.512	555.94
390.736	570.94
390.961	588.94
391.186	579.94
391.411	582.94
391.636	612.94
391.86	625.94
392.085	650.94
392.31	631.94
392.534	612.94
392.759	625.94
392.984	618.94
393.208	596.94
393.433	604.94
393.658	609.94
393.882	603.94
394.107	616.94
394.331	603.94
394.556	593.94
394.78	631.94
395.005	622.94
395.229	645.94
395.454	641.94
395.678	631.94
395.903	659.94
396.127	653.94
396.352	640.94
396.576	608.94
396.801	614.94
397.025	612.94
397.249	617.94
397.474	640.94
397.698	625.94
397.922	612.94
398.147	651.94
398.371	652.94
398.595	699.94
398.82	706.94
399.044	751.94
399.268	828.94
399.492	931.94
399.717	1046.94
399.941	1031.94
400.165	931.94
400.389	868.94
400.613	799.94
400.837	741.94
401.062	753.94
401.286	724.94
401.51	727.94
401.734	720.94
401.958	735.94
402.182	715.94
402.406	743.94
402.63	751.94
402.854	759.94
403.078	740.94
403.302	785.94
403.526	785.94
403.75	796.94
403.974	816.94
404.198	820.94
404.422	806.94
404.645	815.94
404.869	807.94
405.093	803.94
405.317	790.94
405.541	773.94
405.765	785.94
405.988	783.94
406.212	790.94
406.436	778.94
406.66	819.94
406.883	812.94
407.107	887.94
407.331	872.94
407.555	893.94
407.778	907.94
408.002	900.94
408.226	849.94
408.449	849.94
408.673	838.94
408.896	844.94
409.12	816.94
409.344	833.94
409.567	843.94
409.791	850.94
410.014	824.94
410.238	816.94
410.461	826.94
410.685	799.94
410.908	795.94
411.132	784.94
411.355	748.94
411.578	746.94
411.802	747.94
412.025	736.94
412.249	755.94
412.472	744.94
412.695	718.94
412.919	727.94
413.142	723.94
413.365	720.94
413.589	718.94
413.812	707.94
414.035	755.94
414.258	738.94
414.482	740.94
414.705	734.94
414.928	729.94
415.151	726.94
415.374	723.94
415.597	743.94
415.821	709.94
416.044	694.94
416.267	703.94
416.49	697.94
416.713	703.94
416.936	722.94
417.159	700.94
417.382	685.94
417.605	700.94
417.828	717.94
418.051	716.94
418.274	749.94
418.497	732.94
418.72	724.94
418.943	748.94
419.166	789.94
419.389	831.94
419.611	787.94
419.834	768.94
420.057	749.94
420.28	762.94
420.503	725.94
420.726	723.94
420.948	728.94
421.171	735.94
421.394	719.94
421.617	740.94
421.839	747.94
422.062	734.94
422.285	707.94
422.507	737.94
422.73	732.94
422.953	759.94
423.175	772.94
423.398	743.94
423.621	741.94
423.843	759.94
424.066	767.94
424.288	745.94
424.511	757.94
424.733	747.94
424.956	732.94
425.178	743.94
425.401	715.94
425.623	733.94
425.846	692.94
426.068	722.94
426.291	715.94
426.513	675.94
426.735	694.94
426.958	692.94
427.18	667.94
427.402	665.94
427.625	687.94
427.847	679.94
428.069	645.94
428.292	656.94
428.514	660.94
428.736	673.94
428.958	664.94
429.181	671.94
429.403	664.94
429.625	616.94
429.847	661.94
430.069	652.94
430.292	634.94
430.514	649.94
430.736	652.94
430.958	652.94
431.18	628.94
431.402	650.94
431.624	646.94
431.846	667.94
432.068	665.94
432.29	669.94
432.512	651.94
432.734	678.94
432.956	676.94
433.178	652.94
433.4	633.94
433.622	689.94
433.844	680.94
434.066	677.94
434.287	663.94
434.509	708.94
434.731	698.94
434.953	718.94
435.175	734.94
435.397	752.94
435.618	735.94
435.84	679.94
436.062	680.94
436.284	699.94
436.505	693.94
436.727	676.94
436.949	705.94
437.17	656.94
437.392	646.94
437.614	644.94
437.835	651.94
438.057	656.94
438.278	639.94
438.5	650.94
438.721	662.94
438.943	650.94
439.165	652.94
439.386	649.94
439.608	673.94
439.829	679.94
440.05	669.94
440.272	644.94
440.493	715.94
440.715	687.94
440.936	698.94
441.158	710.94
441.379	699.94
441.6	741.94
441.822	756.94
442.043	745.94
442.264	747.94
442.486	740.94
442.707	747.94
442.928	729.94
443.149	737.94
443.371	740.94
443.592	739.94
443.813	757.94
444.034	754.94
444.255	800.94
444.476	829.94
444.698	860.94
444.919	867.94
445.14	949.94
445.361	872.94
445.582	795.94
445.803	751.94
446.024	714.94
446.245	716.94
446.466	711.94
446.687	689.94
446.908	695.94
447.129	671.94
447.35	649.94
447.571	659.94
447.792	635.94
448.013	653.94
448.234	645.94
448.455	656.94
448.675	633.94
448.896	635.94
449.117	621.94
449.338	633.94
449.559	614.94
449.779	609.94
450	623.94
450.221	617.94
450.442	631.94
450.662	626.94
450.883	655.94
451.104	652.94
451.324	633.94
451.545	626.94
451.766	617.94
451.986	627.94
452.207	637.94
452.428	609.94
452.648	624.94
452.869	617.94
453.089	629.94
453.31	625.94
453.53	612.94
453.751	610.94
453.971	593.94
454.192	585.94
454.412	583.94
454.633	586.94
454.853	584.94
455.073	570.94
455.294	557.94
455.514	580.94
455.734	572.94
455.955	568.94
456.175	574.94
456.395	578.94
456.616	581.94
456.836	588.94
457.056	561.94
457.276	555.94
457.497	592.94
457.717	595.94
457.937	595.94
458.157	580.94
458.377	629.94
458.598	627.94
458.818	645.94
459.038	643.94
459.258	640.94
459.478	665.94
459.698	683.94
459.918	716.94
460.138	763.94
460.358	773.94
460.578	791.94
460.798	783.94
461.018	800.94
461.238	812.94
461.458	793.94
461.678	777.94
461.898	796.94
462.118	820.94
462.338	858.94
462.558	866.94
462.777	861.94
462.997	983.94
463.217	1005.94
463.437	1021.94
463.657	981.94
463.876	927.94
464.096	901.94
464.316	941.94
464.536	951.94
464.755	883.94
464.975	844.94
465.195	815.94
465.414	787.94
465.634	753.94
465.854	703.94
466.073	681.94
466.293	681.94
466.512	670.94
466.732	665.94
466.951	680.94
467.171	672.94
467.391	660.94
467.61	666.94
467.829	654.94
468.049	656.94
468.268	645.94
468.488	653.94
468.707	641.94
468.927	648.94
469.146	639.94
469.365	647.94
469.585	640.94
469.804	668.94
470.023	657.94
470.243	647.94
470.462	661.94
470.681	685.94
470.901	716.94
471.12	663.94
471.339	663.94
471.558	662.94
471.777	634.94
471.997	625.94
472.216	635.94
472.435	639.94
472.654	635.94
472.873	620.94
473.092	630.94
473.311	632.94
473.53	627.94
473.749	623.94
473.968	616.94
474.187	611.94
474.406	632.94
474.625	627.94
474.844	628.94
475.063	612.94
475.282	610.94
475.501	624.94
475.72	642.94
475.939	641.94
476.158	639.94
476.377	654.94
476.596	664.94
476.814	669.94
477.033	646.94
477.252	651.94
477.471	681.94
477.69	689.94
477.908	715.94
478.127	713.94
478.346	735.94
478.564	743.94
478.783	747.94
479.002	770.94
479.22	772.94
479.439	771.94
479.658	758.94
479.876	784.94
480.095	789.94
480.313	804.94
480.532	854.94
480.751	828.94
480.969	755.94
481.188	774.94
481.406	748.94
481.624	723.94
481.843	703.94
482.061	694.94
482.28	700.94
482.498	693.94
482.717	699.94
482.935	712.94
483.153	716.94
483.372	691.94
483.59	710.94
483.808	715.94
484.027	712.94
484.245	716.94
484.463	722.94
484.681	736.94
484.9	748.94
485.118	704.94
485.336	747.94
485.554	723.94
485.772	743.94
485.99	763.94
486.209	763.94
486.427	743.94
486.645	752.94
486.863	775.94
487.081	752.94
487.299	748.94
487.517	731.94
487.735	729.94
487.953	743.94
488.171	764.94
488.389	767.94
488.607	729.94
488.825	746.94
489.043	719.94
489.261	731.94
489.479	736.94
489.696	751.94
489.914	749.94
490.132	754.94
490.35	757.94
490.568	763.94
490.786	752.94
491.003	737.94
491.221	756.94
491.439	769.94
491.657	745.94
491.874	739.94
492.092	786.94
492.31	795.94
492.527	789.94
492.745	770.94
492.963	792.94
493.18	791.94
493.398	788.94
493.615	784.94
493.833	803.94
494.05	800.94
494.268	785.94
494.485	809.94
494.703	791.94
494.92	805.94
495.138	771.94
495.355	773.94
495.573	793.94
495.79	825.94
496.008	791.94
496.225	795.94
496.442	808.94
496.66	854.94
496.877	850.94
497.094	858.94
497.312	859.94
497.529	875.94
497.746	898.94
497.963	915.94
498.181	993.94
498.398	1006.94
498.615	1017.94
498.832	1136.94
499.049	1179.94
499.267	1279.94
499.484	1397.94
499.701	1553.94
499.918	1672.94
500.135	1916.94
500.352	2078.94
500.569	2207.94
500.786	2165.94
501.003	2033.94
501.22	1861.94
501.437	1655.94
