Data from NiCl2@0.25M.TitratingCurve.Agarose3%dH2O.NegLispCup.LampEnergy10.LIBS07252019_HRD10591_18-22-35-572.txt Node
Date: Thu Jul 25 18:22:35 EDT 2019
User: cochatt
Spectrometer: HR+D1059
Trigger mode: 1
Integration Time (sec): 1.000000E-1
Scans to average: 1
Electric dark correction enabled: true
Nonlinearity correction enabled: false
Boxcar width: 0
XAxis mode: Wavelengths
Number of Pixels in Spectrum: 2048
>>>>>Begin Spectral Data<<<<<
223.165	-10.25
223.4	-10.25
223.635	-10.25
223.869	-17.25
224.104	-22.25
224.338	-15.25
224.573	-10.25
224.808	-6.25
225.042	-11.25
225.277	-1.25
225.511	-12.25
225.746	16.75
225.98	-1.25
226.215	3.75
226.449	6.75
226.683	18.75
226.918	24.75
227.152	36.75
227.387	11.75
227.621	42.75
227.856	42.75
228.09	42.75
228.324	61.75
228.559	52.75
228.793	72.75
229.027	122.75
229.262	143.75
229.496	131.75
229.73	134.75
229.964	166.75
230.199	192.75
230.433	166.75
230.667	181.75
230.901	166.75
231.136	157.75
231.37	171.75
231.604	185.75
231.838	184.75
232.072	185.75
232.306	201.75
232.541	191.75
232.775	198.75
233.009	181.75
233.243	172.75
233.477	178.75
233.711	173.75
233.945	180.75
234.179	176.75
234.413	176.75
234.647	190.75
234.881	190.75
235.115	188.75
235.349	201.75
235.583	192.75
235.817	179.75
236.051	189.75
236.285	188.75
236.519	186.75
236.753	192.75
236.987	199.75
237.221	197.75
237.455	202.75
237.689	195.75
237.922	191.75
238.156	200.75
238.39	209.75
238.624	207.75
238.858	204.75
239.091	211.75
239.325	204.75
239.559	235.75
239.793	214.75
240.027	234.75
240.26	219.75
240.494	218.75
240.728	246.75
240.961	227.75
241.195	227.75
241.429	230.75
241.662	242.75
241.896	238.75
242.13	260.75
242.363	243.75
242.597	243.75
242.83	249.75
243.064	237.75
243.298	245.75
243.531	265.75
243.765	227.75
243.998	258.75
244.232	256.75
244.465	263.75
244.699	275.75
244.932	280.75
245.166	270.75
245.399	259.75
245.633	280.75
245.866	262.75
246.099	270.75
246.333	274.75
246.566	294.75
246.8	293.75
247.033	286.75
247.266	284.75
247.5	290.75
247.733	294.75
247.966	314.75
248.2	293.75
248.433	306.75
248.666	316.75
248.899	287.75
249.133	308.75
249.366	330.75
249.599	304.75
249.832	320.75
250.066	323.75
250.299	335.75
250.532	334.75
250.765	339.75
250.998	329.75
251.231	312.75
251.465	337.75
251.698	340.75
251.931	331.75
252.164	342.75
252.397	344.75
252.63	341.75
252.863	338.75
253.096	359.75
253.329	353.75
253.562	341.75
253.795	352.75
254.028	368.75
254.261	367.75
254.494	340.75
254.727	353.75
254.96	353.75
255.193	374.75
255.426	368.75
255.659	374.75
255.892	356.75
256.124	371.75
256.357	380.75
256.59	378.75
256.823	371.75
257.056	380.75
257.289	378.75
257.521	376.75
257.754	377.75
257.987	386.75
258.22	386.75
258.452	385.75
258.685	393.75
258.918	385.75
259.151	396.75
259.383	387.75
259.616	390.75
259.849	407.75
260.081	419.75
260.314	413.75
260.547	408.75
260.779	415.75
261.012	414.75
261.244	406.75
261.477	418.75
261.71	414.75
261.942	438.75
262.175	420.75
262.407	419.75
262.64	423.75
262.872	426.75
263.105	440.75
263.337	434.75
263.57	430.75
263.802	437.75
264.035	442.75
264.267	429.75
264.499	432.75
264.732	447.75
264.964	431.75
265.197	438.75
265.429	456.75
265.661	442.75
265.894	463.75
266.126	455.75
266.358	477.75
266.591	455.75
266.823	473.75
267.055	466.75
267.287	473.75
267.52	491.75
267.752	477.75
267.984	474.75
268.216	491.75
268.448	473.75
268.681	498.75
268.913	463.75
269.145	496.75
269.377	487.75
269.609	502.75
269.841	496.75
270.073	466.75
270.306	500.75
270.538	487.75
270.77	466.75
271.002	482.75
271.234	479.75
271.466	489.75
271.698	514.75
271.93	497.75
272.162	511.75
272.394	522.75
272.626	494.75
272.858	505.75
273.09	501.75
273.322	528.75
273.553	530.75
273.785	502.75
274.017	528.75
274.249	523.75
274.481	535.75
274.713	523.75
274.945	547.75
275.176	543.75
275.408	547.75
275.64	558.75
275.872	562.75
276.104	532.75
276.335	563.75
276.567	548.75
276.799	559.75
277.031	555.75
277.262	555.75
277.494	556.75
277.726	571.75
277.957	582.75
278.189	575.75
278.421	555.75
278.652	576.75
278.884	554.75
279.115	588.75
279.347	578.75
279.579	579.75
279.81	593.75
280.042	585.75
280.273	583.75
280.505	612.75
280.736	608.75
280.968	595.75
281.199	607.75
281.431	605.75
281.662	621.75
281.894	641.75
282.125	615.75
282.356	632.75
282.588	630.75
282.819	635.75
283.051	624.75
283.282	628.75
283.513	653.75
283.745	634.75
283.976	615.75
284.207	631.75
284.439	632.75
284.67	630.75
284.901	652.75
285.132	641.75
285.364	645.75
285.595	656.75
285.826	630.75
286.057	646.75
286.288	659.75
286.52	647.75
286.751	653.75
286.982	654.75
287.213	670.75
287.444	688.75
287.675	681.75
287.906	705.75
288.138	691.75
288.369	678.75
288.6	658.75
288.831	661.75
289.062	661.75
289.293	683.75
289.524	670.75
289.755	683.75
289.986	693.75
290.217	694.75
290.448	695.75
290.679	678.75
290.91	691.75
291.141	699.75
291.371	697.75
291.602	700.75
291.833	669.75
292.064	704.75
292.295	690.75
292.526	700.75
292.757	708.75
292.987	735.75
293.218	691.75
293.449	702.75
293.68	672.75
293.91	706.75
294.141	720.75
294.372	691.75
294.603	693.75
294.833	710.75
295.064	726.75
295.295	726.75
295.525	680.75
295.756	726.75
295.987	725.75
296.217	728.75
296.448	728.75
296.679	729.75
296.909	722.75
297.14	747.75
297.37	733.75
297.601	738.75
297.831	726.75
298.062	747.75
298.292	757.75
298.523	762.75
298.753	745.75
298.984	754.75
299.214	768.75
299.445	726.75
299.675	731.75
299.905	788.75
300.136	784.75
300.366	777.75
300.597	804.75
300.827	811.75
301.057	816.75
301.288	802.75
301.518	849.75
301.748	812.75
301.979	784.75
302.209	824.75
302.439	816.75
302.669	817.75
302.9	774.75
303.13	792.75
303.36	818.75
303.59	800.75
303.82	820.75
304.051	798.75
304.281	818.75
304.511	779.75
304.741	792.75
304.971	830.75
305.201	811.75
305.431	844.75
305.661	826.75
305.891	815.75
306.121	807.75
306.352	806.75
306.582	788.75
306.812	774.75
307.042	770.75
307.272	801.75
307.502	766.75
307.731	781.75
307.961	802.75
308.191	791.75
308.421	806.75
308.651	805.75
308.881	782.75
309.111	774.75
309.341	802.75
309.571	807.75
309.8	783.75
310.03	817.75
310.26	832.75
310.49	822.75
310.72	799.75
310.949	800.75
311.179	814.75
311.409	798.75
311.639	787.75
311.868	790.75
312.098	805.75
312.328	810.75
312.557	804.75
312.787	829.75
313.017	818.75
313.246	809.75
313.476	844.75
313.706	859.75
313.935	869.75
314.165	870.75
314.394	827.75
314.624	857.75
314.853	841.75
315.083	883.75
315.312	856.75
315.542	842.75
315.771	856.75
316.001	857.75
316.23	862.75
316.46	829.75
316.689	860.75
316.919	832.75
317.148	822.75
317.377	811.75
317.607	828.75
317.836	827.75
318.065	838.75
318.295	837.75
318.524	803.75
318.753	847.75
318.983	827.75
319.212	822.75
319.441	851.75
319.67	822.75
319.9	836.75
320.129	835.75
320.358	849.75
320.587	827.75
320.816	848.75
321.046	835.75
321.275	845.75
321.504	858.75
321.733	856.75
321.962	866.75
322.191	850.75
322.42	844.75
322.649	873.75
322.878	864.75
323.108	856.75
323.337	841.75
323.566	896.75
323.795	898.75
324.024	881.75
324.253	892.75
324.482	889.75
324.71	853.75
324.939	888.75
325.168	876.75
325.397	894.75
325.626	888.75
325.855	906.75
326.084	878.75
326.313	917.75
326.542	922.75
326.77	934.75
326.999	936.75
327.228	910.75
327.457	918.75
327.686	896.75
327.914	923.75
328.143	942.75
328.372	906.75
328.6	917.75
328.829	941.75
329.058	933.75
329.287	930.75
329.515	930.75
329.744	940.75
329.972	953.75
330.201	966.75
330.43	976.75
330.658	955.75
330.887	943.75
331.115	938.75
331.344	1008.75
331.572	995.75
331.801	1016.75
332.03	1033.75
332.258	1040.75
332.486	1036.75
332.715	1097.75
332.943	1080.75
333.172	1135.75
333.4	1220.75
333.629	1203.75
333.857	1231.75
334.085	1225.75
334.314	1184.75
334.542	1221.75
334.771	1185.75
334.999	1168.75
335.227	1138.75
335.455	1174.75
335.684	1180.75
335.912	1168.75
336.14	1160.75
336.369	1130.75
336.597	1134.75
336.825	1139.75
337.053	1138.75
337.281	1110.75
337.51	1087.75
337.738	1071.75
337.966	1080.75
338.194	1098.75
338.422	1066.75
338.65	1020.75
338.878	1022.75
339.106	1015.75
339.334	1026.75
339.562	1079.75
339.79	1001.75
340.018	970.75
340.246	980.75
340.474	997.75
340.702	967.75
340.93	993.75
341.158	1011.75
341.386	1001.75
341.614	1056.75
341.842	1020.75
342.07	968.75
342.298	982.75
342.526	967.75
342.754	998.75
342.981	988.75
343.209	1006.75
343.437	1055.75
343.665	1104.75
343.893	1127.75
344.12	1197.75
344.348	1140.75
344.576	1099.75
344.804	1086.75
345.031	1070.75
345.259	1040.75
345.487	984.75
345.714	1009.75
345.942	998.75
346.17	1011.75
346.397	989.75
346.625	922.75
346.853	956.75
347.08	946.75
347.308	949.75
347.535	952.75
347.763	915.75
347.99	949.75
348.218	930.75
348.445	916.75
348.673	932.75
348.9	923.75
349.128	936.75
349.355	946.75
349.583	962.75
349.81	910.75
350.037	930.75
350.265	923.75
350.492	930.75
350.72	922.75
350.947	919.75
351.174	912.75
351.402	958.75
351.629	953.75
351.856	955.75
352.083	922.75
352.311	931.75
352.538	960.75
352.765	957.75
352.992	907.75
353.22	906.75
353.447	899.75
353.674	892.75
353.901	896.75
354.128	868.75
354.355	870.75
354.583	880.75
354.81	912.75
355.037	890.75
355.264	890.75
355.491	896.75
355.718	899.75
355.945	898.75
356.172	884.75
356.399	906.75
356.626	927.75
356.853	955.75
357.08	932.75
357.307	888.75
357.534	903.75
357.761	912.75
357.988	899.75
358.215	907.75
358.441	903.75
358.668	875.75
358.895	903.75
359.122	892.75
359.349	916.75
359.576	911.75
359.802	883.75
360.029	893.75
360.256	870.75
360.483	908.75
360.709	908.75
360.936	937.75
361.163	911.75
361.39	887.75
361.616	918.75
361.843	938.75
362.07	947.75
362.296	937.75
362.523	918.75
362.749	914.75
362.976	911.75
363.203	897.75
363.429	884.75
363.656	879.75
363.882	913.75
364.109	905.75
364.335	892.75
364.562	885.75
364.788	878.75
365.015	876.75
365.241	889.75
365.468	907.75
365.694	896.75
365.92	873.75
366.147	904.75
366.373	891.75
366.599	918.75
366.826	871.75
367.052	907.75
367.278	898.75
367.505	908.75
367.731	934.75
367.957	920.75
368.184	915.75
368.41	898.75
368.636	922.75
368.862	909.75
369.089	926.75
369.315	927.75
369.541	931.75
369.767	963.75
369.993	920.75
370.219	906.75
370.445	946.75
370.672	950.75
370.898	946.75
371.124	953.75
371.35	982.75
371.576	982.75
371.802	978.75
372.028	976.75
372.254	960.75
372.48	956.75
372.706	989.75
372.932	1007.75
373.158	995.75
373.384	997.75
373.61	962.75
373.835	971.75
374.061	987.75
374.287	972.75
374.513	993.75
374.739	1016.75
374.965	1060.75
375.191	1057.75
375.416	1055.75
375.642	1049.75
375.868	1014.75
376.094	969.75
376.319	998.75
376.545	971.75
376.771	991.75
376.997	1003.75
377.222	986.75
377.448	988.75
377.674	979.75
377.899	959.75
378.125	946.75
378.35	966.75
378.576	972.75
378.802	967.75
379.027	986.75
379.253	975.75
379.478	964.75
379.704	951.75
379.929	972.75
380.155	985.75
380.38	961.75
380.606	963.75
380.831	951.75
381.057	981.75
381.282	967.75
381.507	969.75
381.733	971.75
381.958	1011.75
382.184	1009.75
382.409	1040.75
382.634	1052.75
382.86	1048.75
383.085	1035.75
383.31	1050.75
383.535	1044.75
383.761	1052.75
383.986	1076.75
384.211	1091.75
384.436	1127.75
384.662	1118.75
384.887	1174.75
385.112	1111.75
385.337	1163.75
385.562	1163.75
385.787	1196.75
386.013	1199.75
386.238	1190.75
386.463	1163.75
386.688	1187.75
386.913	1168.75
387.138	1162.75
387.363	1174.75
387.588	1194.75
387.813	1163.75
388.038	1168.75
388.263	1183.75
388.488	1199.75
388.713	1191.75
388.938	1163.75
389.163	1167.75
389.387	1147.75
389.612	1152.75
389.837	1110.75
390.062	1129.75
390.287	1142.75
390.512	1128.75
390.736	1191.75
390.961	1201.75
391.186	1246.75
391.411	1237.75
391.636	1269.75
391.86	1350.75
392.085	1328.75
392.31	1333.75
392.534	1276.75
392.759	1290.75
392.984	1255.75
393.208	1295.75
393.433	1264.75
393.658	1286.75
393.882	1231.75
394.107	1240.75
394.331	1281.75
394.556	1244.75
394.78	1240.75
395.005	1263.75
395.229	1274.75
395.454	1299.75
395.678	1302.75
395.903	1328.75
396.127	1305.75
396.352	1258.75
396.576	1292.75
396.801	1298.75
397.025	1281.75
397.249	1297.75
397.474	1333.75
397.698	1333.75
397.922	1366.75
398.147	1331.75
398.371	1384.75
398.595	1408.75
398.82	1459.75
399.044	1590.75
399.268	1731.75
399.492	1898.75
399.717	2067.75
399.941	2068.75
400.165	1945.75
400.389	1810.75
400.613	1694.75
400.837	1584.75
401.062	1546.75
401.286	1501.75
401.51	1525.75
401.734	1496.75
401.958	1494.75
402.182	1494.75
402.406	1498.75
402.63	1518.75
402.854	1560.75
403.078	1600.75
403.302	1594.75
403.526	1588.75
403.75	1639.75
403.974	1631.75
404.198	1616.75
404.422	1630.75
404.645	1617.75
404.869	1587.75
405.093	1645.75
405.317	1584.75
405.541	1614.75
405.765	1600.75
405.988	1607.75
406.212	1610.75
406.436	1608.75
406.66	1700.75
406.883	1645.75
407.107	1766.75
407.331	1814.75
407.555	1842.75
407.778	1860.75
408.002	1816.75
408.226	1808.75
408.449	1724.75
408.673	1665.75
408.896	1668.75
409.12	1635.75
409.344	1672.75
409.567	1674.75
409.791	1657.75
410.014	1605.75
410.238	1634.75
410.461	1610.75
410.685	1622.75
410.908	1560.75
411.132	1563.75
411.355	1520.75
411.578	1516.75
411.802	1527.75
412.025	1518.75
412.249	1520.75
412.472	1576.75
412.695	1478.75
412.919	1470.75
413.142	1459.75
413.365	1490.75
413.589	1489.75
413.812	1471.75
414.035	1436.75
414.258	1482.75
414.482	1475.75
414.705	1499.75
414.928	1486.75
415.151	1470.75
415.374	1475.75
415.597	1436.75
415.821	1392.75
416.044	1474.75
416.267	1428.75
416.49	1432.75
416.713	1443.75
416.936	1429.75
417.159	1396.75
417.382	1433.75
417.605	1401.75
417.828	1405.75
418.051	1430.75
418.274	1444.75
418.497	1451.75
418.72	1454.75
418.943	1465.75
419.166	1548.75
419.389	1635.75
419.611	1639.75
419.834	1542.75
420.057	1521.75
420.28	1457.75
420.503	1441.75
420.726	1408.75
420.948	1420.75
421.171	1401.75
421.394	1407.75
421.617	1446.75
421.839	1452.75
422.062	1426.75
422.285	1440.75
422.507	1442.75
422.73	1420.75
422.953	1426.75
423.175	1447.75
423.398	1463.75
423.621	1489.75
423.843	1469.75
424.066	1483.75
424.288	1450.75
424.511	1485.75
424.733	1470.75
424.956	1463.75
425.178	1418.75
425.401	1454.75
425.623	1431.75
425.846	1399.75
426.068	1410.75
426.291	1409.75
426.513	1381.75
426.735	1364.75
426.958	1356.75
427.18	1323.75
427.402	1324.75
427.625	1321.75
427.847	1314.75
428.069	1284.75
428.292	1324.75
428.514	1296.75
428.736	1300.75
428.958	1283.75
429.181	1276.75
429.403	1232.75
429.625	1276.75
429.847	1269.75
430.069	1266.75
430.292	1247.75
430.514	1189.75
430.736	1254.75
430.958	1275.75
431.18	1296.75
431.402	1244.75
431.624	1265.75
431.846	1266.75
432.068	1320.75
432.29	1323.75
432.512	1276.75
432.734	1307.75
432.956	1291.75
433.178	1266.75
433.4	1288.75
433.622	1296.75
433.844	1318.75
434.066	1323.75
434.287	1334.75
434.509	1360.75
434.731	1381.75
434.953	1430.75
435.175	1428.75
435.397	1433.75
435.618	1365.75
435.84	1340.75
436.062	1280.75
436.284	1270.75
436.505	1266.75
436.727	1263.75
436.949	1254.75
437.17	1305.75
437.392	1249.75
437.614	1239.75
437.835	1235.75
438.057	1267.75
438.278	1228.75
438.5	1237.75
438.721	1224.75
438.943	1236.75
439.165	1199.75
439.386	1214.75
439.608	1253.75
439.829	1257.75
440.05	1272.75
440.272	1271.75
440.493	1282.75
440.715	1276.75
440.936	1308.75
441.158	1322.75
441.379	1348.75
441.6	1396.75
441.822	1422.75
442.043	1410.75
442.264	1388.75
442.486	1366.75
442.707	1402.75
442.928	1361.75
443.149	1379.75
443.371	1388.75
443.592	1428.75
443.813	1410.75
444.034	1448.75
444.255	1463.75
444.476	1495.75
444.698	1575.75
444.919	1635.75
445.14	1704.75
445.361	1566.75
445.582	1461.75
445.803	1402.75
446.024	1359.75
446.245	1377.75
446.466	1304.75
446.687	1272.75
446.908	1300.75
447.129	1252.75
447.35	1225.75
447.571	1234.75
447.792	1187.75
448.013	1208.75
448.234	1155.75
448.455	1158.75
448.675	1195.75
448.896	1136.75
449.117	1130.75
449.338	1124.75
449.559	1156.75
449.779	1139.75
450	1154.75
450.221	1132.75
450.442	1148.75
450.662	1148.75
450.883	1169.75
451.104	1160.75
451.324	1166.75
451.545	1163.75
451.766	1169.75
451.986	1159.75
452.207	1152.75
452.428	1159.75
452.648	1142.75
452.869	1138.75
453.089	1098.75
453.31	1120.75
453.53	1130.75
453.751	1097.75
453.971	1101.75
454.192	1096.75
454.412	1078.75
454.633	1072.75
454.853	1100.75
455.073	1114.75
455.294	1095.75
455.514	1085.75
455.734	1104.75
455.955	1090.75
456.175	1104.75
456.395	1059.75
456.616	1074.75
456.836	1083.75
457.056	1091.75
457.276	1072.75
457.497	1105.75
457.717	1118.75
457.937	1097.75
458.157	1135.75
458.377	1119.75
458.598	1161.75
458.818	1162.75
459.038	1196.75
459.258	1223.75
459.478	1311.75
459.698	1377.75
459.918	1372.75
460.138	1378.75
460.358	1434.75
460.578	1475.75
460.798	1487.75
461.018	1530.75
461.238	1454.75
461.458	1441.75
461.678	1435.75
461.898	1499.75
462.118	1554.75
462.338	1571.75
462.558	1627.75
462.777	1680.75
462.997	1819.75
463.217	1893.75
463.437	1887.75
463.657	1851.75
463.876	1731.75
464.096	1713.75
464.316	1708.75
464.536	1682.75
464.755	1658.75
464.975	1555.75
465.195	1531.75
465.414	1438.75
465.634	1350.75
465.854	1318.75
466.073	1310.75
466.293	1272.75
466.512	1247.75
466.732	1204.75
466.951	1217.75
467.171	1219.75
467.391	1227.75
467.61	1209.75
467.829	1234.75
468.049	1208.75
468.268	1170.75
468.488	1165.75
468.707	1179.75
468.927	1174.75
469.146	1168.75
469.365	1190.75
469.585	1225.75
469.804	1207.75
470.023	1219.75
470.243	1248.75
470.462	1231.75
470.681	1240.75
470.901	1238.75
471.12	1251.75
471.339	1242.75
471.558	1226.75
471.777	1219.75
471.997	1164.75
472.216	1180.75
472.435	1163.75
472.654	1158.75
472.873	1159.75
473.092	1136.75
473.311	1138.75
473.53	1129.75
473.749	1147.75
473.968	1159.75
474.187	1161.75
474.406	1131.75
474.625	1095.75
474.844	1162.75
475.063	1146.75
475.282	1152.75
475.501	1130.75
475.72	1185.75
475.939	1192.75
476.158	1227.75
476.377	1189.75
476.596	1211.75
476.814	1213.75
477.033	1234.75
477.252	1286.75
477.471	1269.75
477.69	1316.75
477.908	1326.75
478.127	1326.75
478.346	1382.75
478.564	1386.75
478.783	1395.75
479.002	1432.75
479.22	1494.75
479.439	1432.75
479.658	1456.75
479.876	1436.75
480.095	1459.75
480.313	1510.75
480.532	1511.75
480.751	1490.75
480.969	1486.75
481.188	1431.75
481.406	1425.75
481.624	1378.75
481.843	1390.75
482.061	1306.75
482.28	1355.75
482.498	1366.75
482.717	1345.75
482.935	1345.75
483.153	1324.75
483.372	1373.75
483.59	1374.75
483.808	1334.75
484.027	1318.75
484.245	1352.75
484.463	1348.75
484.681	1388.75
484.9	1398.75
485.118	1399.75
485.336	1368.75
485.554	1412.75
485.772	1378.75
485.99	1413.75
486.209	1374.75
486.427	1406.75
486.645	1385.75
486.863	1402.75
487.081	1391.75
487.299	1395.75
487.517	1362.75
487.735	1394.75
487.953	1364.75
488.171	1404.75
488.389	1406.75
488.607	1362.75
488.825	1393.75
489.043	1340.75
489.261	1330.75
489.479	1399.75
489.696	1392.75
489.914	1400.75
490.132	1370.75
490.35	1392.75
490.568	1383.75
490.786	1400.75
491.003	1422.75
491.221	1419.75
491.439	1394.75
491.657	1409.75
491.874	1427.75
492.092	1413.75
492.31	1443.75
492.527	1426.75
492.745	1447.75
492.963	1419.75
493.18	1441.75
493.398	1435.75
493.615	1458.75
493.833	1439.75
