Data from NiCl2@0.125M.TitratingCurve.Agarose3%dH2O.NegLispCup.LampEnergy10.LIBS07252019_HRD10591_18-27-23-575.txt Node
Date: Thu Jul 25 18:27:23 EDT 2019
User: cochatt
Spectrometer: HR+D1059
Trigger mode: 1
Integration Time (sec): 1.000000E-1
Scans to average: 1
Electric dark correction enabled: true
Nonlinearity correction enabled: false
Boxcar width: 0
XAxis mode: Wavelengths
Number of Pixels in Spectrum: 2048
>>>>>Begin Spectral Data<<<<<
223.165	3.19
223.4	3.19
223.635	3.19
223.869	-20.81
224.104	-18.81
224.338	-17.81
224.573	-15.81
224.808	-3.81
225.042	-10.81
225.277	0.19
225.511	-8.81
225.746	-14.81
225.98	6.19
226.215	3.19
226.449	16.19
226.683	17.19
226.918	33.19
227.152	32.19
227.387	40.19
227.621	40.19
227.856	36.19
228.09	51.19
228.324	49.19
228.559	49.19
228.793	68.19
229.027	107.19
229.262	126.19
229.496	129.19
229.73	124.19
229.964	137.19
230.199	134.19
230.433	125.19
230.667	149.19
230.901	144.19
231.136	146.19
231.37	134.19
231.604	134.19
231.838	139.19
232.072	156.19
232.306	157.19
232.541	157.19
232.775	164.19
233.009	157.19
233.243	165.19
233.477	166.19
233.711	161.19
233.945	155.19
234.179	148.19
234.413	152.19
234.647	162.19
234.881	171.19
235.115	156.19
235.349	157.19
235.583	178.19
235.817	157.19
236.051	161.19
236.285	152.19
236.519	160.19
236.753	177.19
236.987	185.19
237.221	177.19
237.455	168.19
237.689	179.19
237.922	183.19
238.156	169.19
238.39	172.19
238.624	183.19
238.858	178.19
239.091	176.19
239.325	181.19
239.559	192.19
239.793	197.19
240.027	205.19
240.26	212.19
240.494	175.19
240.728	191.19
240.961	212.19
241.195	216.19
241.429	203.19
241.662	211.19
241.896	205.19
242.13	188.19
242.363	200.19
242.597	220.19
242.83	206.19
243.064	204.19
243.298	233.19
243.531	212.19
243.765	225.19
243.998	221.19
244.232	240.19
244.465	233.19
244.699	235.19
244.932	229.19
245.166	241.19
245.399	231.19
245.633	245.19
245.866	242.19
246.099	240.19
246.333	239.19
246.566	261.19
246.8	233.19
247.033	236.19
247.266	253.19
247.5	253.19
247.733	258.19
247.966	249.19
248.2	251.19
248.433	261.19
248.666	266.19
248.899	263.19
249.133	262.19
249.366	273.19
249.599	267.19
249.832	272.19
250.066	277.19
250.299	275.19
250.532	273.19
250.765	278.19
250.998	267.19
251.231	287.19
251.465	304.19
251.698	300.19
251.931	298.19
252.164	280.19
252.397	291.19
252.63	301.19
252.863	314.19
253.096	297.19
253.329	291.19
253.562	315.19
253.795	320.19
254.028	307.19
254.261	300.19
254.494	283.19
254.727	300.19
254.96	308.19
255.193	295.19
255.426	317.19
255.659	311.19
255.892	331.19
256.124	320.19
256.357	333.19
256.59	339.19
256.823	320.19
257.056	323.19
257.289	342.19
257.521	341.19
257.754	325.19
257.987	323.19
258.22	340.19
258.452	319.19
258.685	344.19
258.918	328.19
259.151	326.19
259.383	352.19
259.616	339.19
259.849	337.19
260.081	354.19
260.314	341.19
260.547	352.19
260.779	342.19
261.012	369.19
261.244	342.19
261.477	347.19
261.71	356.19
261.942	355.19
262.175	368.19
262.407	383.19
262.64	379.19
262.872	363.19
263.105	362.19
263.337	367.19
263.57	376.19
263.802	377.19
264.035	383.19
264.267	376.19
264.499	379.19
264.732	364.19
264.964	383.19
265.197	384.19
265.429	386.19
265.661	375.19
265.894	389.19
266.126	383.19
266.358	410.19
266.591	386.19
266.823	384.19
267.055	394.19
267.287	400.19
267.52	418.19
267.752	412.19
267.984	412.19
268.216	418.19
268.448	417.19
268.681	395.19
268.913	398.19
269.145	408.19
269.377	403.19
269.609	409.19
269.841	425.19
270.073	414.19
270.306	405.19
270.538	401.19
270.77	428.19
271.002	411.19
271.234	415.19
271.466	443.19
271.698	441.19
271.93	451.19
272.162	451.19
272.394	436.19
272.626	446.19
272.858	439.19
273.09	441.19
273.322	437.19
273.553	463.19
273.785	443.19
274.017	449.19
274.249	444.19
274.481	465.19
274.713	438.19
274.945	467.19
275.176	422.19
275.408	427.19
275.64	446.19
275.872	459.19
276.104	483.19
276.335	478.19
276.567	472.19
276.799	471.19
277.031	464.19
277.262	468.19
277.494	476.19
277.726	488.19
277.957	494.19
278.189	469.19
278.421	489.19
278.652	501.19
278.884	476.19
279.115	495.19
279.347	476.19
279.579	491.19
279.81	499.19
280.042	510.19
280.273	523.19
280.505	487.19
280.736	504.19
280.968	497.19
281.199	499.19
281.431	498.19
281.662	503.19
281.894	500.19
282.125	529.19
282.356	526.19
282.588	527.19
282.819	525.19
283.051	502.19
283.282	525.19
283.513	534.19
283.745	533.19
283.976	519.19
284.207	514.19
284.439	567.19
284.67	541.19
284.901	529.19
285.132	562.19
285.364	538.19
285.595	567.19
285.826	537.19
286.057	559.19
286.288	552.19
286.52	559.19
286.751	545.19
286.982	549.19
287.213	573.19
287.444	555.19
287.675	574.19
287.906	569.19
288.138	567.19
288.369	567.19
288.6	575.19
288.831	571.19
289.062	579.19
289.293	582.19
289.524	597.19
289.755	594.19
289.986	587.19
290.217	586.19
290.448	599.19
290.679	581.19
290.91	572.19
291.141	587.19
291.371	567.19
291.602	585.19
291.833	589.19
292.064	583.19
292.295	554.19
292.526	580.19
292.757	597.19
292.987	605.19
293.218	600.19
293.449	620.19
293.68	606.19
293.91	614.19
294.141	586.19
294.372	607.19
294.603	593.19
294.833	594.19
295.064	593.19
295.295	597.19
295.525	596.19
295.756	616.19
295.987	618.19
296.217	631.19
296.448	614.19
296.679	623.19
296.909	598.19
297.14	597.19
297.37	610.19
297.601	615.19
297.831	644.19
298.062	618.19
298.292	657.19
298.523	667.19
298.753	679.19
298.984	650.19
299.214	663.19
299.445	633.19
299.675	635.19
299.905	653.19
300.136	641.19
300.366	666.19
300.597	655.19
300.827	659.19
301.057	683.19
301.288	691.19
301.518	650.19
301.748	679.19
301.979	690.19
302.209	687.19
302.439	653.19
302.669	672.19
302.9	660.19
303.13	693.19
303.36	680.19
303.59	657.19
303.82	696.19
304.051	651.19
304.281	679.19
304.511	661.19
304.741	679.19
304.971	659.19
305.201	653.19
305.431	688.19
305.661	665.19
305.891	674.19
306.121	650.19
306.352	662.19
306.582	643.19
306.812	633.19
307.042	660.19
307.272	625.19
307.502	639.19
307.731	643.19
307.961	667.19
308.191	657.19
308.421	660.19
308.651	650.19
308.881	665.19
309.111	654.19
309.341	659.19
309.571	652.19
309.8	656.19
310.03	669.19
310.26	666.19
310.49	672.19
310.72	649.19
310.949	688.19
311.179	672.19
311.409	646.19
311.639	666.19
311.868	674.19
312.098	689.19
312.328	712.19
312.557	695.19
312.787	682.19
313.017	689.19
313.246	681.19
313.476	684.19
313.706	709.19
313.935	697.19
314.165	708.19
314.394	702.19
314.624	699.19
314.853	696.19
315.083	704.19
315.312	731.19
315.542	742.19
315.771	695.19
316.001	705.19
316.23	726.19
316.46	711.19
316.689	700.19
316.919	701.19
317.148	723.19
317.377	692.19
317.607	699.19
317.836	713.19
318.065	682.19
318.295	697.19
318.524	677.19
318.753	703.19
318.983	697.19
319.212	672.19
319.441	705.19
319.67	712.19
319.9	692.19
320.129	687.19
320.358	706.19
320.587	709.19
320.816	690.19
321.046	702.19
321.275	709.19
321.504	705.19
321.733	702.19
321.962	708.19
322.191	696.19
322.42	710.19
322.649	712.19
322.878	689.19
323.108	712.19
323.337	726.19
323.566	701.19
323.795	746.19
324.024	723.19
324.253	734.19
324.482	720.19
324.71	716.19
324.939	741.19
325.168	743.19
325.397	720.19
325.626	762.19
325.855	731.19
326.084	773.19
326.313	748.19
326.542	769.19
326.77	775.19
326.999	777.19
327.228	762.19
327.457	751.19
327.686	758.19
327.914	779.19
328.143	749.19
328.372	775.19
328.6	774.19
328.829	772.19
329.058	751.19
329.287	767.19
329.515	777.19
329.744	763.19
329.972	795.19
330.201	773.19
330.43	784.19
330.658	795.19
330.887	772.19
331.115	801.19
331.344	819.19
331.572	797.19
331.801	804.19
332.03	864.19
332.258	842.19
332.486	870.19
332.715	927.19
332.943	929.19
333.172	959.19
333.4	997.19
333.629	992.19
333.857	1011.19
334.085	1013.19
334.314	1008.19
334.542	993.19
334.771	983.19
334.999	976.19
335.227	963.19
335.455	935.19
335.684	947.19
335.912	920.19
336.14	946.19
336.369	921.19
336.597	923.19
336.825	906.19
337.053	912.19
337.281	915.19
337.51	894.19
337.738	883.19
337.966	880.19
338.194	854.19
338.422	861.19
338.65	819.19
338.878	843.19
339.106	852.19
339.334	860.19
339.562	823.19
339.79	829.19
340.018	791.19
340.246	798.19
340.474	792.19
340.702	798.19
340.93	832.19
341.158	815.19
341.386	823.19
341.614	808.19
341.842	793.19
342.07	774.19
342.298	785.19
342.526	798.19
342.754	799.19
342.981	792.19
343.209	829.19
343.437	840.19
343.665	901.19
343.893	947.19
344.12	979.19
344.348	917.19
344.576	903.19
344.804	877.19
345.031	817.19
345.259	835.19
345.487	810.19
345.714	802.19
345.942	804.19
346.17	777.19
346.397	771.19
346.625	782.19
346.853	780.19
347.08	773.19
347.308	785.19
347.535	783.19
347.763	753.19
347.99	759.19
348.218	784.19
348.445	744.19
348.673	792.19
348.9	777.19
349.128	766.19
349.355	759.19
349.583	771.19
349.81	766.19
350.037	745.19
350.265	746.19
350.492	791.19
350.72	762.19
350.947	743.19
351.174	722.19
351.402	757.19
351.629	739.19
351.856	753.19
352.083	752.19
352.311	720.19
352.538	728.19
352.765	721.19
352.992	727.19
353.22	743.19
353.447	736.19
353.674	738.19
353.901	723.19
354.128	753.19
354.355	732.19
354.583	733.19
354.81	748.19
355.037	750.19
355.264	763.19
355.491	771.19
355.718	766.19
355.945	756.19
356.172	740.19
356.399	745.19
356.626	765.19
356.853	759.19
357.08	754.19
357.307	758.19
357.534	740.19
357.761	774.19
357.988	763.19
358.215	746.19
358.441	761.19
358.668	738.19
358.895	751.19
359.122	755.19
359.349	768.19
359.576	776.19
359.802	754.19
360.029	756.19
360.256	751.19
360.483	769.19
360.709	744.19
360.936	774.19
361.163	733.19
361.39	755.19
361.616	761.19
361.843	726.19
362.07	752.19
362.296	752.19
362.523	737.19
362.749	746.19
362.976	737.19
363.203	739.19
363.429	735.19
363.656	758.19
363.882	745.19
364.109	754.19
364.335	741.19
364.562	741.19
364.788	727.19
365.015	752.19
365.241	769.19
365.468	748.19
365.694	708.19
365.92	754.19
366.147	739.19
366.373	747.19
366.599	755.19
366.826	742.19
367.052	748.19
367.278	755.19
367.505	739.19
367.731	759.19
367.957	769.19
368.184	758.19
368.41	731.19
368.636	785.19
368.862	778.19
369.089	767.19
369.315	777.19
369.541	771.19
369.767	775.19
369.993	771.19
370.219	767.19
370.445	779.19
370.672	800.19
370.898	797.19
371.124	799.19
371.35	812.19
371.576	827.19
371.802	815.19
372.028	807.19
372.254	810.19
372.48	822.19
372.706	852.19
372.932	881.19
373.158	819.19
373.384	823.19
373.61	811.19
373.835	818.19
374.061	858.19
374.287	821.19
374.513	847.19
374.739	866.19
374.965	891.19
375.191	915.19
375.416	901.19
375.642	854.19
375.868	850.19
376.094	831.19
376.319	827.19
376.545	844.19
376.771	820.19
376.997	823.19
377.222	850.19
377.448	845.19
377.674	837.19
377.899	794.19
378.125	801.19
378.35	807.19
378.576	810.19
378.802	766.19
379.027	808.19
379.253	801.19
379.478	811.19
379.704	788.19
379.929	808.19
380.155	811.19
380.38	796.19
380.606	793.19
380.831	799.19
381.057	819.19
381.282	799.19
381.507	832.19
381.733	829.19
381.958	817.19
382.184	845.19
382.409	852.19
382.634	863.19
382.86	863.19
383.085	852.19
383.31	879.19
383.535	888.19
383.761	888.19
383.986	924.19
384.211	943.19
384.436	935.19
384.662	939.19
384.887	971.19
385.112	962.19
385.337	1005.19
385.562	979.19
385.787	956.19
386.013	997.19
386.238	987.19
386.463	994.19
386.688	972.19
386.913	996.19
387.138	983.19
387.363	990.19
387.588	988.19
387.813	964.19
388.038	969.19
388.263	957.19
388.488	991.19
388.713	990.19
388.938	957.19
389.163	952.19
389.387	964.19
389.612	969.19
389.837	965.19
390.062	945.19
390.287	962.19
390.512	973.19
390.736	974.19
390.961	1025.19
391.186	982.19
391.411	1045.19
391.636	1053.19
391.86	1091.19
392.085	1103.19
392.31	1099.19
392.534	1087.19
392.759	1044.19
392.984	1027.19
393.208	1010.19
393.433	1039.19
393.658	1063.19
393.882	1038.19
394.107	1030.19
394.331	1054.19
394.556	1044.19
394.78	1052.19
395.005	1044.19
395.229	1043.19
395.454	1074.19
395.678	1126.19
395.903	1161.19
396.127	1097.19
396.352	1087.19
396.576	1078.19
396.801	1061.19
397.025	1066.19
397.249	1100.19
397.474	1100.19
397.698	1114.19
397.922	1105.19
398.147	1113.19
398.371	1122.19
398.595	1182.19
398.82	1228.19
399.044	1298.19
399.268	1407.19
399.492	1557.19
399.717	1768.19
399.941	1810.19
400.165	1612.19
400.389	1488.19
400.613	1400.19
400.837	1316.19
401.062	1291.19
401.286	1254.19
401.51	1265.19
401.734	1233.19
401.958	1244.19
402.182	1221.19
402.406	1238.19
402.63	1269.19
402.854	1319.19
403.078	1315.19
403.302	1350.19
403.526	1367.19
403.75	1365.19
403.974	1398.19
404.198	1393.19
404.422	1398.19
404.645	1412.19
404.869	1353.19
405.093	1361.19
405.317	1325.19
405.541	1353.19
405.765	1345.19
405.988	1336.19
406.212	1335.19
406.436	1361.19
406.66	1380.19
406.883	1395.19
407.107	1503.19
407.331	1514.19
407.555	1560.19
407.778	1560.19
408.002	1534.19
408.226	1479.19
408.449	1451.19
408.673	1429.19
408.896	1429.19
409.12	1375.19
409.344	1411.19
409.567	1336.19
409.791	1403.19
410.014	1359.19
410.238	1333.19
410.461	1317.19
410.685	1328.19
410.908	1335.19
411.132	1302.19
411.355	1261.19
411.578	1287.19
411.802	1283.19
412.025	1285.19
412.249	1319.19
412.472	1292.19
412.695	1278.19
412.919	1235.19
413.142	1239.19
413.365	1254.19
413.589	1244.19
413.812	1208.19
414.035	1218.19
414.258	1210.19
414.482	1244.19
414.705	1255.19
414.928	1249.19
415.151	1238.19
415.374	1221.19
415.597	1223.19
415.821	1179.19
416.044	1200.19
416.267	1164.19
416.49	1206.19
416.713	1183.19
416.936	1213.19
417.159	1194.19
417.382	1196.19
417.605	1202.19
417.828	1195.19
418.051	1183.19
418.274	1204.19
418.497	1181.19
418.72	1241.19
418.943	1245.19
419.166	1299.19
419.389	1382.19
419.611	1358.19
419.834	1304.19
420.057	1273.19
420.28	1216.19
420.503	1196.19
420.726	1192.19
420.948	1180.19
421.171	1223.19
421.394	1236.19
421.617	1180.19
421.839	1218.19
422.062	1215.19
422.285	1206.19
422.507	1228.19
422.73	1208.19
422.953	1225.19
423.175	1253.19
423.398	1261.19
423.621	1248.19
423.843	1283.19
424.066	1293.19
424.288	1269.19
424.511	1239.19
424.733	1251.19
424.956	1217.19
425.178	1210.19
425.401	1195.19
425.623	1203.19
425.846	1214.19
426.068	1185.19
426.291	1158.19
426.513	1152.19
426.735	1138.19
426.958	1138.19
427.18	1135.19
427.402	1117.19
427.625	1146.19
427.847	1098.19
428.069	1108.19
428.292	1099.19
428.514	1076.19
428.736	1084.19
428.958	1084.19
429.181	1071.19
429.403	1056.19
429.625	1053.19
429.847	1071.19
430.069	1037.19
430.292	1054.19
430.514	1067.19
430.736	1069.19
430.958	1093.19
431.18	1077.19
431.402	1073.19
431.624	1061.19
431.846	1105.19
432.068	1089.19
432.29	1087.19
432.512	1086.19
432.734	1105.19
432.956	1083.19
433.178	1105.19
433.4	1089.19
433.622	1071.19
433.844	1129.19
434.066	1096.19
434.287	1121.19
434.509	1144.19
434.731	1173.19
434.953	1241.19
435.175	1224.19
435.397	1182.19
435.618	1107.19
435.84	1112.19
436.062	1088.19
436.284	1096.19
436.505	1078.19
436.727	1068.19
436.949	1090.19
437.17	1081.19
437.392	1072.19
437.614	1061.19
437.835	1030.19
438.057	1042.19
438.278	1020.19
438.5	1037.19
438.721	1044.19
438.943	1057.19
439.165	1057.19
439.386	1051.19
439.608	1082.19
439.829	1052.19
440.05	1063.19
440.272	1085.19
440.493	1096.19
440.715	1103.19
440.936	1114.19
441.158	1113.19
441.379	1202.19
441.6	1179.19
441.822	1228.19
442.043	1168.19
442.264	1201.19
442.486	1168.19
442.707	1196.19
442.928	1152.19
443.149	1186.19
443.371	1172.19
443.592	1184.19
443.813	1197.19
444.034	1220.19
444.255	1269.19
444.476	1300.19
444.698	1384.19
444.919	1423.19
445.14	1523.19
445.361	1343.19
445.582	1305.19
445.803	1229.19
446.024	1174.19
446.245	1184.19
446.466	1134.19
446.687	1116.19
446.908	1109.19
447.129	1073.19
447.35	1067.19
447.571	1043.19
447.792	1006.19
448.013	1043.19
448.234	990.19
448.455	995.19
448.675	1008.19
448.896	1001.19
449.117	974.19
449.338	972.19
449.559	984.19
449.779	983.19
450	997.19
450.221	998.19
450.442	1004.19
450.662	995.19
450.883	1000.19
451.104	1010.19
451.324	1023.19
451.545	1026.19
451.766	997.19
451.986	971.19
452.207	986.19
452.428	968.19
452.648	988.19
452.869	970.19
453.089	985.19
453.31	980.19
453.53	962.19
453.751	955.19
453.971	963.19
454.192	967.19
454.412	929.19
454.633	930.19
454.853	932.19
455.073	931.19
455.294	939.19
455.514	933.19
455.734	903.19
455.955	915.19
456.175	923.19
456.395	892.19
456.616	911.19
456.836	913.19
457.056	944.19
457.276	917.19
457.497	937.19
457.717	931.19
457.937	931.19
458.157	936.19
458.377	948.19
458.598	987.19
458.818	990.19
459.038	1047.19
459.258	1081.19
459.478	1094.19
459.698	1144.19
459.918	1155.19
460.138	1166.19
460.358	1240.19
460.578	1265.19
460.798	1285.19
461.018	1267.19
461.238	1274.19
461.458	1249.19
461.678	1256.19
461.898	1312.19
462.118	1327.19
462.338	1368.19
462.558	1393.19
462.777	1447.19
462.997	1588.19
463.217	1643.19
463.437	1637.19
463.657	1560.19
463.876	1475.19
464.096	1498.19
464.316	1455.19
464.536	1436.19
464.755	1417.19
464.975	1359.19
465.195	1283.19
465.414	1240.19
465.634	1173.19
465.854	1143.19
466.073	1121.19
466.293	1094.19
466.512	1062.19
466.732	1049.19
466.951	1060.19
467.171	1031.19
467.391	1037.19
467.61	1037.19
467.829	1017.19
468.049	998.19
468.268	1001.19
468.488	1016.19
468.707	1000.19
468.927	1007.19
469.146	989.19
469.365	993.19
469.585	1001.19
469.804	1004.19
470.023	1065.19
470.243	1087.19
470.462	1063.19
470.681	1087.19
470.901	1077.19
471.12	1064.19
471.339	1050.19
471.558	1021.19
471.777	1017.19
471.997	1045.19
472.216	1008.19
472.435	975.19
472.654	998.19
472.873	952.19
473.092	984.19
473.311	969.19
473.53	970.19
473.749	980.19
473.968	961.19
474.187	978.19
474.406	965.19
474.625	969.19
474.844	964.19
475.063	992.19
475.282	961.19
475.501	1010.19
475.72	1019.19
475.939	1004.19
476.158	1029.19
476.377	1033.19
476.596	1033.19
476.814	1036.19
477.033	1060.19
477.252	1057.19
477.471	1062.19
477.69	1104.19
477.908	1131.19
478.127	1143.19
478.346	1159.19
478.564	1176.19
478.783	1196.19
479.002	1213.19
479.22	1213.19
479.439	1228.19
479.658	1176.19
479.876	1209.19
480.095	1242.19
480.313	1286.19
480.532	1292.19
480.751	1266.19
480.969	1253.19
481.188	1216.19
481.406	1186.19
481.624	1140.19
481.843	1136.19
482.061	1156.19
482.28	1104.19
482.498	1107.19
482.717	1099.19
482.935	1103.19
483.153	1111.19
483.372	1128.19
483.59	1135.19
483.808	1138.19
484.027	1143.19
484.245	1161.19
484.463	1130.19
484.681	1160.19
484.9	1156.19
485.118	1174.19
485.336	1140.19
485.554	1182.19
485.772	1161.19
485.99	1181.19
486.209	1175.19
486.427	1166.19
486.645	1178.19
486.863	1187.19
487.081	1197.19
487.299	1141.19
487.517	1161.19
487.735	1164.19
487.953	1202.19
488.171	1179.19
488.389	1165.19
488.607	1153.19
488.825	1151.19
489.043	1148.19
489.261	1155.19
489.479	1139.19
489.696	1172.19
489.914	1179.19
490.132	1188.19
490.35	1204.19
490.568	1196.19
490.786	1161.19
491.003	1190.19
491.221	1198.19
491.439	1188.19
491.657	1181.19
491.874	1210.19
492.092	1200.19
492.31	1191.19
492.527	1212.19
492.745	1218.19
492.963	1192.19
493.18	1206.19
493.398	1223.19
493.615	1225.19
493.833	1247.19
494.05	1238.19
494.268	1239.19
494.485	1235.19
494.703	1228.19
494.92	1263.19
495.138	1232.19
495.355	1239.19
495.573	1237.19
495.79	1229.19
496.008	1266.19
