Data from NiCl2@0.25M.TitratingCurve.Agarose3%dH2O.NegLispCup.LampEnergy10.LIBS07252019_HRD10591_18-23-24-572.txt Node
Date: Thu Jul 25 18:23:24 EDT 2019
User: cochatt
Spectrometer: HR+D1059
Trigger mode: 1
Integration Time (sec): 1.000000E-1
Scans to average: 1
Electric dark correction enabled: true
Nonlinearity correction enabled: false
Boxcar width: 0
XAxis mode: Wavelengths
Number of Pixels in Spectrum: 2048
>>>>>Begin Spectral Data<<<<<
223.165	-22.88
223.4	-22.88
223.635	-22.88
223.869	-21.88
224.104	1.12
224.338	2.12
224.573	-20.88
224.808	-10.88
225.042	-11.88
225.277	-19.88
225.511	-10.88
225.746	0.12
225.98	18.12
226.215	15.12
226.449	15.12
226.683	19.12
226.918	22.12
227.152	26.12
227.387	38.12
227.621	51.12
227.856	42.12
228.09	49.12
228.324	70.12
228.559	62.12
228.793	69.12
229.027	90.12
229.262	91.12
229.496	103.12
229.73	122.12
229.964	103.12
230.199	118.12
230.433	119.12
230.667	123.12
230.901	135.12
231.136	128.12
231.37	124.12
231.604	132.12
231.838	134.12
232.072	130.12
232.306	139.12
232.541	118.12
232.775	139.12
233.009	120.12
233.243	142.12
233.477	137.12
233.711	149.12
233.945	146.12
234.179	134.12
234.413	132.12
234.647	133.12
234.881	144.12
235.115	143.12
235.349	162.12
235.583	141.12
235.817	126.12
236.051	143.12
236.285	140.12
236.519	148.12
236.753	140.12
236.987	137.12
237.221	137.12
237.455	149.12
237.689	143.12
237.922	131.12
238.156	160.12
238.39	165.12
238.624	155.12
238.858	152.12
239.091	149.12
239.325	136.12
239.559	162.12
239.793	155.12
240.027	162.12
240.26	170.12
240.494	150.12
240.728	179.12
240.961	168.12
241.195	166.12
241.429	179.12
241.662	172.12
241.896	187.12
242.13	175.12
242.363	185.12
242.597	170.12
242.83	177.12
243.064	193.12
243.298	193.12
243.531	169.12
243.765	181.12
243.998	202.12
244.232	191.12
244.465	185.12
244.699	181.12
244.932	174.12
245.166	195.12
245.399	186.12
245.633	202.12
245.866	188.12
246.099	189.12
246.333	187.12
246.566	183.12
246.8	195.12
247.033	197.12
247.266	195.12
247.5	196.12
247.733	204.12
247.966	208.12
248.2	217.12
248.433	206.12
248.666	217.12
248.899	209.12
249.133	225.12
249.366	224.12
249.599	222.12
249.832	209.12
250.066	215.12
250.299	218.12
250.532	224.12
250.765	212.12
250.998	218.12
251.231	238.12
251.465	234.12
251.698	242.12
251.931	217.12
252.164	235.12
252.397	227.12
252.63	231.12
252.863	236.12
253.096	219.12
253.329	230.12
253.562	225.12
253.795	227.12
254.028	233.12
254.261	251.12
254.494	242.12
254.727	245.12
254.96	257.12
255.193	247.12
255.426	232.12
255.659	245.12
255.892	242.12
256.124	250.12
256.357	265.12
256.59	243.12
256.823	260.12
257.056	263.12
257.289	255.12
257.521	265.12
257.754	251.12
257.987	243.12
258.22	269.12
258.452	262.12
258.685	270.12
258.918	266.12
259.151	266.12
259.383	274.12
259.616	267.12
259.849	269.12
260.081	277.12
260.314	278.12
260.547	268.12
260.779	278.12
261.012	286.12
261.244	287.12
261.477	271.12
261.71	276.12
261.942	262.12
262.175	278.12
262.407	285.12
262.64	312.12
262.872	280.12
263.105	287.12
263.337	295.12
263.57	292.12
263.802	290.12
264.035	301.12
264.267	300.12
264.499	296.12
264.732	285.12
264.964	304.12
265.197	293.12
265.429	300.12
265.661	303.12
265.894	319.12
266.126	295.12
266.358	302.12
266.591	294.12
266.823	318.12
267.055	329.12
267.287	315.12
267.52	305.12
267.752	322.12
267.984	312.12
268.216	313.12
268.448	327.12
268.681	304.12
268.913	317.12
269.145	322.12
269.377	325.12
269.609	331.12
269.841	348.12
270.073	313.12
270.306	300.12
270.538	317.12
270.77	311.12
271.002	334.12
271.234	335.12
271.466	338.12
271.698	340.12
271.93	338.12
272.162	334.12
272.394	346.12
272.626	358.12
272.858	358.12
273.09	364.12
273.322	354.12
273.553	347.12
273.785	334.12
274.017	357.12
274.249	355.12
274.481	339.12
274.713	341.12
274.945	344.12
275.176	347.12
275.408	375.12
275.64	379.12
275.872	350.12
276.104	387.12
276.335	383.12
276.567	359.12
276.799	387.12
277.031	360.12
277.262	369.12
277.494	358.12
277.726	362.12
277.957	366.12
278.189	375.12
278.421	361.12
278.652	363.12
278.884	384.12
279.115	382.12
279.347	380.12
279.579	382.12
279.81	386.12
280.042	382.12
280.273	385.12
280.505	397.12
280.736	372.12
280.968	400.12
281.199	403.12
281.431	402.12
281.662	399.12
281.894	409.12
282.125	403.12
282.356	427.12
282.588	395.12
282.819	409.12
283.051	413.12
283.282	410.12
283.513	425.12
283.745	428.12
283.976	424.12
284.207	411.12
284.439	430.12
284.67	405.12
284.901	403.12
285.132	431.12
285.364	421.12
285.595	405.12
285.826	429.12
286.057	440.12
286.288	427.12
286.52	421.12
286.751	435.12
286.982	436.12
287.213	451.12
287.444	456.12
287.675	433.12
287.906	442.12
288.138	429.12
288.369	437.12
288.6	432.12
288.831	428.12
289.062	437.12
289.293	455.12
289.524	453.12
289.755	437.12
289.986	444.12
290.217	473.12
290.448	444.12
290.679	427.12
290.91	460.12
291.141	463.12
291.371	469.12
291.602	451.12
291.833	459.12
292.064	462.12
292.295	464.12
292.526	455.12
292.757	449.12
292.987	463.12
293.218	467.12
293.449	462.12
293.68	452.12
293.91	482.12
294.141	462.12
294.372	456.12
294.603	473.12
294.833	460.12
295.064	456.12
295.295	467.12
295.525	481.12
295.756	465.12
295.987	469.12
296.217	465.12
296.448	472.12
296.679	476.12
296.909	474.12
297.14	502.12
297.37	460.12
297.601	485.12
297.831	484.12
298.062	495.12
298.292	470.12
298.523	501.12
298.753	501.12
298.984	481.12
299.214	479.12
299.445	489.12
299.675	479.12
299.905	488.12
300.136	513.12
300.366	505.12
300.597	517.12
300.827	516.12
301.057	510.12
301.288	513.12
301.518	517.12
301.748	530.12
301.979	525.12
302.209	523.12
302.439	509.12
302.669	519.12
302.9	520.12
303.13	507.12
303.36	519.12
303.59	509.12
303.82	531.12
304.051	529.12
304.281	515.12
304.511	495.12
304.741	533.12
304.971	542.12
305.201	523.12
305.431	517.12
305.661	526.12
305.891	525.12
306.121	517.12
306.352	517.12
306.582	495.12
306.812	519.12
307.042	508.12
307.272	497.12
307.502	515.12
307.731	492.12
307.961	526.12
308.191	500.12
308.421	517.12
308.651	494.12
308.881	507.12
309.111	493.12
309.341	519.12
309.571	523.12
309.8	524.12
310.03	533.12
310.26	527.12
310.49	501.12
310.72	526.12
310.949	518.12
311.179	517.12
311.409	543.12
311.639	526.12
311.868	531.12
312.098	542.12
312.328	535.12
312.557	553.12
312.787	553.12
313.017	566.12
313.246	554.12
313.476	545.12
313.706	562.12
313.935	530.12
314.165	580.12
314.394	550.12
314.624	567.12
314.853	529.12
315.083	563.12
315.312	558.12
315.542	563.12
315.771	563.12
316.001	559.12
316.23	563.12
316.46	551.12
316.689	550.12
316.919	547.12
317.148	540.12
317.377	557.12
317.607	555.12
317.836	571.12
318.065	553.12
318.295	549.12
318.524	550.12
318.753	541.12
318.983	524.12
319.212	535.12
319.441	549.12
319.67	563.12
319.9	542.12
320.129	553.12
320.358	551.12
320.587	531.12
320.816	542.12
321.046	536.12
321.275	542.12
321.504	553.12
321.733	546.12
321.962	547.12
322.191	558.12
322.42	569.12
322.649	575.12
322.878	569.12
323.108	573.12
323.337	547.12
323.566	555.12
323.795	579.12
324.024	580.12
324.253	573.12
324.482	565.12
324.71	569.12
324.939	570.12
325.168	577.12
325.397	570.12
325.626	571.12
325.855	600.12
326.084	590.12
326.313	583.12
326.542	589.12
326.77	578.12
326.999	603.12
327.228	585.12
327.457	600.12
327.686	606.12
327.914	591.12
328.143	577.12
328.372	587.12
328.6	600.12
328.829	606.12
329.058	602.12
329.287	606.12
329.515	617.12
329.744	612.12
329.972	603.12
330.201	625.12
330.43	606.12
330.658	612.12
330.887	633.12
331.115	647.12
331.344	646.12
331.572	649.12
331.801	663.12
332.03	652.12
332.258	681.12
332.486	686.12
332.715	718.12
332.943	761.12
333.172	756.12
333.4	782.12
333.629	810.12
333.857	813.12
334.085	805.12
334.314	786.12
334.542	733.12
334.771	767.12
334.999	782.12
335.227	775.12
335.455	753.12
335.684	741.12
335.912	744.12
336.14	732.12
336.369	725.12
336.597	739.12
336.825	721.12
337.053	710.12
337.281	724.12
337.51	678.12
337.738	689.12
337.966	678.12
338.194	655.12
338.422	646.12
338.65	669.12
338.878	642.12
339.106	657.12
339.334	675.12
339.562	656.12
339.79	617.12
340.018	613.12
340.246	636.12
340.474	642.12
340.702	648.12
340.93	628.12
341.158	665.12
341.386	638.12
341.614	629.12
341.842	634.12
342.07	649.12
342.298	637.12
342.526	617.12
342.754	622.12
342.981	615.12
343.209	654.12
343.437	681.12
343.665	719.12
343.893	756.12
344.12	805.12
344.348	745.12
344.576	712.12
344.804	682.12
345.031	676.12
345.259	671.12
345.487	639.12
345.714	658.12
345.942	612.12
346.17	641.12
346.397	623.12
346.625	626.12
346.853	611.12
347.08	599.12
347.308	610.12
347.535	617.12
347.763	588.12
347.99	591.12
348.218	615.12
348.445	591.12
348.673	609.12
348.9	585.12
349.128	601.12
349.355	617.12
349.583	587.12
349.81	596.12
350.037	590.12
350.265	593.12
350.492	599.12
350.72	579.12
350.947	579.12
351.174	601.12
351.402	598.12
351.629	604.12
351.856	580.12
352.083	578.12
352.311	599.12
352.538	582.12
352.765	602.12
352.992	581.12
353.22	579.12
353.447	571.12
353.674	585.12
353.901	571.12
354.128	601.12
354.355	589.12
354.583	599.12
354.81	579.12
355.037	566.12
355.264	594.12
355.491	591.12
355.718	583.12
355.945	588.12
356.172	569.12
356.399	598.12
356.626	575.12
356.853	600.12
357.08	603.12
357.307	618.12
357.534	570.12
357.761	604.12
357.988	588.12
358.215	597.12
358.441	580.12
358.668	573.12
358.895	594.12
359.122	593.12
359.349	596.12
359.576	597.12
359.802	603.12
360.029	574.12
360.256	594.12
360.483	586.12
360.709	587.12
360.936	599.12
361.163	618.12
361.39	606.12
361.616	595.12
361.843	601.12
362.07	601.12
362.296	587.12
362.523	596.12
362.749	586.12
362.976	600.12
363.203	592.12
363.429	595.12
363.656	571.12
363.882	583.12
364.109	591.12
364.335	595.12
364.562	597.12
364.788	574.12
365.015	591.12
365.241	603.12
365.468	575.12
365.694	586.12
365.92	581.12
366.147	577.12
366.373	605.12
366.599	610.12
366.826	582.12
367.052	597.12
367.278	582.12
367.505	577.12
367.731	598.12
367.957	586.12
368.184	597.12
368.41	607.12
368.636	610.12
368.862	602.12
369.089	606.12
369.315	609.12
369.541	616.12
369.767	624.12
369.993	608.12
370.219	613.12
370.445	628.12
370.672	622.12
370.898	612.12
371.124	614.12
371.35	644.12
371.576	645.12
371.802	653.12
372.028	638.12
372.254	625.12
372.48	644.12
372.706	670.12
372.932	715.12
373.158	666.12
373.384	674.12
373.61	675.12
373.835	656.12
374.061	637.12
374.287	658.12
374.513	654.12
374.739	679.12
374.965	713.12
375.191	707.12
375.416	705.12
375.642	673.12
375.868	690.12
376.094	665.12
376.319	637.12
376.545	649.12
376.771	675.12
376.997	648.12
377.222	645.12
377.448	647.12
377.674	626.12
377.899	623.12
378.125	641.12
378.35	650.12
378.576	634.12
378.802	620.12
379.027	639.12
379.253	641.12
379.478	618.12
379.704	629.12
379.929	604.12
380.155	631.12
380.38	643.12
380.606	654.12
380.831	638.12
381.057	635.12
381.282	638.12
381.507	657.12
381.733	637.12
381.958	643.12
382.184	661.12
382.409	659.12
382.634	652.12
382.86	675.12
383.085	708.12
383.31	681.12
383.535	722.12
383.761	723.12
383.986	729.12
384.211	755.12
384.436	754.12
384.662	739.12
384.887	769.12
385.112	747.12
385.337	771.12
385.562	789.12
385.787	780.12
386.013	787.12
386.238	798.12
386.463	776.12
386.688	777.12
386.913	744.12
387.138	771.12
387.363	750.12
387.588	757.12
387.813	757.12
388.038	765.12
388.263	781.12
388.488	769.12
388.713	761.12
388.938	758.12
389.163	749.12
389.387	763.12
389.612	769.12
389.837	750.12
390.062	766.12
390.287	735.12
390.512	761.12
390.736	739.12
390.961	771.12
391.186	803.12
391.411	802.12
391.636	829.12
391.86	868.12
392.085	886.12
392.31	872.12
392.534	845.12
392.759	845.12
392.984	799.12
393.208	836.12
393.433	805.12
393.658	801.12
393.882	796.12
394.107	835.12
394.331	826.12
394.556	828.12
394.78	839.12
395.005	840.12
395.229	833.12
395.454	856.12
395.678	872.12
395.903	887.12
396.127	841.12
396.352	823.12
396.576	798.12
396.801	813.12
397.025	815.12
397.249	864.12
397.474	868.12
397.698	854.12
397.922	877.12
398.147	876.12
398.371	886.12
398.595	907.12
398.82	947.12
399.044	1019.12
399.268	1157.12
399.492	1333.12
399.717	1461.12
399.941	1409.12
400.165	1265.12
400.389	1133.12
400.613	1069.12
400.837	1012.12
401.062	967.12
401.286	958.12
401.51	980.12
401.734	952.12
401.958	954.12
402.182	982.12
402.406	992.12
402.63	1026.12
402.854	1043.12
403.078	1062.12
403.302	1089.12
403.526	1070.12
403.75	1115.12
403.974	1135.12
404.198	1113.12
404.422	1098.12
404.645	1083.12
404.869	1085.12
405.093	1071.12
405.317	1068.12
405.541	1071.12
405.765	1044.12
405.988	1079.12
406.212	1084.12
406.436	1013.12
406.66	1110.12
406.883	1098.12
407.107	1171.12
407.331	1187.12
407.555	1223.12
407.778	1214.12
408.002	1179.12
408.226	1181.12
408.449	1156.12
408.673	1086.12
408.896	1092.12
409.12	1069.12
409.344	1077.12
409.567	1082.12
409.791	1077.12
410.014	1067.12
410.238	1021.12
410.461	1055.12
410.685	1039.12
410.908	1046.12
411.132	1019.12
411.355	998.12
411.578	983.12
411.802	1006.12
412.025	975.12
412.249	988.12
412.472	995.12
412.695	970.12
412.919	958.12
413.142	947.12
413.365	947.12
413.589	969.12
413.812	959.12
414.035	967.12
414.258	975.12
414.482	945.12
414.705	981.12
414.928	970.12
415.151	979.12
415.374	962.12
415.597	966.12
415.821	946.12
416.044	921.12
416.267	939.12
416.49	933.12
416.713	933.12
416.936	942.12
417.159	951.12
417.382	949.12
417.605	937.12
417.828	938.12
418.051	950.12
418.274	949.12
418.497	946.12
418.72	988.12
418.943	983.12
419.166	1060.12
419.389	1086.12
419.611	1077.12
419.834	1028.12
420.057	996.12
420.28	987.12
420.503	948.12
420.726	940.12
420.948	931.12
421.171	954.12
421.394	947.12
421.617	933.12
421.839	931.12
422.062	966.12
422.285	939.12
422.507	962.12
422.73	990.12
422.953	1005.12
423.175	990.12
423.398	1009.12
423.621	1001.12
423.843	1012.12
424.066	999.12
424.288	993.12
424.511	973.12
424.733	968.12
424.956	962.12
425.178	956.12
425.401	957.12
425.623	958.12
425.846	909.12
426.068	908.12
426.291	914.12
426.513	908.12
426.735	910.12
426.958	878.12
427.18	891.12
427.402	885.12
427.625	897.12
427.847	871.12
428.069	854.12
428.292	860.12
428.514	830.12
428.736	847.12
428.958	817.12
429.181	847.12
429.403	824.12
429.625	820.12
429.847	814.12
430.069	783.12
430.292	826.12
430.514	813.12
430.736	817.12
430.958	814.12
431.18	848.12
431.402	820.12
431.624	833.12
431.846	845.12
432.068	863.12
432.29	852.12
432.512	835.12
432.734	849.12
432.956	857.12
433.178	877.12
433.4	823.12
433.622	876.12
433.844	869.12
434.066	856.12
434.287	889.12
434.509	917.12
434.731	911.12
434.953	950.12
435.175	959.12
435.397	949.12
435.618	875.12
435.84	875.12
436.062	866.12
436.284	857.12
436.505	842.12
436.727	865.12
436.949	830.12
437.17	846.12
437.392	820.12
437.614	837.12
437.835	808.12
438.057	817.12
438.278	790.12
438.5	802.12
438.721	819.12
438.943	802.12
439.165	815.12
439.386	842.12
439.608	829.12
439.829	837.12
440.05	841.12
440.272	842.12
440.493	855.12
440.715	846.12
440.936	862.12
441.158	895.12
441.379	902.12
441.6	926.12
441.822	946.12
442.043	934.12
442.264	924.12
442.486	902.12
442.707	922.12
442.928	889.12
443.149	945.12
443.371	951.12
443.592	927.12
443.813	916.12
444.034	976.12
444.255	1011.12
444.476	1021.12
444.698	1122.12
444.919	1115.12
445.14	1199.12
445.361	1086.12
445.582	982.12
445.803	930.12
446.024	885.12
446.245	891.12
446.466	860.12
446.687	826.12
446.908	866.12
447.129	859.12
447.35	821.12
447.571	808.12
447.792	789.12
448.013	808.12
448.234	810.12
448.455	803.12
448.675	787.12
448.896	812.12
449.117	751.12
449.338	775.12
449.559	762.12
449.779	753.12
450	731.12
450.221	754.12
450.442	804.12
450.662	769.12
450.883	775.12
451.104	772.12
451.324	777.12
451.545	777.12
451.766	778.12
451.986	785.12
452.207	773.12
452.428	784.12
452.648	756.12
452.869	723.12
453.089	731.12
453.31	737.12
453.53	750.12
453.751	737.12
453.971	720.12
454.192	740.12
454.412	734.12
454.633	728.12
454.853	725.12
455.073	743.12
455.294	721.12
455.514	716.12
455.734	722.12
455.955	706.12
456.175	711.12
456.395	724.12
456.616	707.12
456.836	728.12
457.056	703.12
457.276	715.12
457.497	717.12
457.717	702.12
457.937	731.12
458.157	733.12
458.377	746.12
458.598	741.12
458.818	774.12
459.038	771.12
459.258	808.12
459.478	854.12
459.698	869.12
459.918	882.12
460.138	943.12
460.358	966.12
460.578	975.12
460.798	994.12
461.018	987.12
461.238	968.12
461.458	992.12
461.678	993.12
461.898	1017.12
462.118	1014.12
462.338	1070.12
462.558	1086.12
462.777	1091.12
462.997	1231.12
463.217	1340.12
463.437	1285.12
463.657	1235.12
463.876	1139.12
464.096	1114.12
464.316	1168.12
464.536	1157.12
464.755	1097.12
464.975	1057.12
465.195	1007.12
465.414	967.12
465.634	897.12
465.854	892.12
466.073	844.12
466.293	866.12
466.512	843.12
466.732	821.12
466.951	814.12
467.171	801.12
467.391	820.12
467.61	793.12
467.829	795.12
468.049	814.12
468.268	780.12
468.488	757.12
468.707	768.12
468.927	762.12
469.146	775.12
469.365	805.12
469.585	772.12
469.804	817.12
470.023	851.12
470.243	806.12
470.462	848.12
470.681	837.12
470.901	819.12
471.12	839.12
471.339	804.12
471.558	804.12
471.777	795.12
471.997	808.12
472.216	791.12
472.435	791.12
472.654	766.12
472.873	777.12
473.092	745.12
473.311	749.12
473.53	754.12
473.749	762.12
473.968	756.12
474.187	756.12
474.406	782.12
474.625	764.12
474.844	732.12
475.063	771.12
475.282	766.12
475.501	747.12
475.72	783.12
475.939	773.12
476.158	776.12
476.377	809.12
476.596	810.12
476.814	785.12
477.033	788.12
477.252	838.12
477.471	839.12
477.69	854.12
477.908	879.12
478.127	899.12
478.346	921.12
478.564	917.12
478.783	939.12
479.002	949.12
479.22	951.12
479.439	934.12
479.658	949.12
479.876	941.12
480.095	946.12
480.313	989.12
480.532	1004.12
480.751	1006.12
480.969	971.12
481.188	934.12
481.406	900.12
481.624	902.12
481.843	900.12
482.061	885.12
482.28	879.12
482.498	862.12
482.717	866.12
482.935	893.12
483.153	870.12
483.372	877.12
483.59	901.12
483.808	877.12
484.027	861.12
484.245	884.12
484.463	878.12
484.681	877.12
484.9	888.12
485.118	889.12
485.336	882.12
485.554	903.12
485.772	916.12
485.99	936.12
486.209	930.12
486.427	893.12
486.645	878.12
486.863	895.12
487.081	936.12
487.299	910.12
487.517	929.12
487.735	911.12
487.953	899.12
488.171	923.12
488.389	903.12
488.607	909.12
488.825	883.12
489.043	879.12
489.261	912.12
489.479	896.12
489.696	918.12
489.914	923.12
490.132	921.12
490.35	905.12
490.568	925.12
490.786	925.12
491.003	908.12
491.221	942.12
491.439	909.12
491.657	914.12
491.874	915.12
492.092	935.12
492.31	911.12
492.527	934.12
492.745	939.12
492.963	921.12
493.18	965.12
493.398	963.12
493.615	959.12
493.833	950.12
494.05	981.12
494.268	983.12
494.485	974.12
494.703	1002.12
494.92	985.12
495.138	996.12
495.355	973.12
495.573	988.12
495.79	1007.12
496.008	990.12
496.225	980.12
496.442	1011.12
496.66	1031.12
496.877	1056.12
497.094	1052.12
497.312	1080.12
497.529	1090.12
497.746	1127.12
497.963	1155.12
498.181	1194.12
498.398	1239.12
498.615	1323.12
498.832	1428.12
499.049	1503.12
499.267	1629.12
499.484	1762.12
499.701	1919.12
499.918	2129.12
500.135	2422.12
