Data from NiCl2@0.25M.TitratingCurve.Agarose3%dH2O.NegLispCup.LampEnergy10.LIBS07252019_HRD10591_18-23-22-572.txt Node
Date: Thu Jul 25 18:23:22 EDT 2019
User: cochatt
Spectrometer: HR+D1059
Trigger mode: 1
Integration Time (sec): 1.000000E-1
Scans to average: 1
Electric dark correction enabled: true
Nonlinearity correction enabled: false
Boxcar width: 0
XAxis mode: Wavelengths
Number of Pixels in Spectrum: 2048
>>>>>Begin Spectral Data<<<<<
223.165	-23.94
223.4	-23.94
223.635	-23.94
223.869	-32.94
224.104	-17.94
224.338	-10.94
224.573	-0.94
224.808	-8.94
225.042	3.06
225.277	-0.94
225.511	-0.94
225.746	-4.94
225.98	13.06
226.215	13.06
226.449	17.06
226.683	30.06
226.918	8.06
227.152	18.06
227.387	34.06
227.621	42.06
227.856	51.06
228.09	47.06
228.324	36.06
228.559	37.06
228.793	66.06
229.027	89.06
229.262	91.06
229.496	119.06
229.73	111.06
229.964	121.06
230.199	120.06
230.433	124.06
230.667	134.06
230.901	131.06
231.136	122.06
231.37	125.06
231.604	128.06
231.838	126.06
232.072	131.06
232.306	150.06
232.541	141.06
232.775	133.06
233.009	131.06
233.243	127.06
233.477	132.06
233.711	124.06
233.945	142.06
234.179	125.06
234.413	125.06
234.647	129.06
234.881	140.06
235.115	136.06
235.349	134.06
235.583	125.06
235.817	143.06
236.051	131.06
236.285	138.06
236.519	139.06
236.753	132.06
236.987	149.06
237.221	139.06
237.455	146.06
237.689	151.06
237.922	139.06
238.156	138.06
238.39	148.06
238.624	145.06
238.858	161.06
239.091	135.06
239.325	145.06
239.559	149.06
239.793	157.06
240.027	147.06
240.26	154.06
240.494	165.06
240.728	153.06
240.961	151.06
241.195	147.06
241.429	159.06
241.662	165.06
241.896	164.06
242.13	171.06
242.363	159.06
242.597	179.06
242.83	173.06
243.064	176.06
243.298	174.06
243.531	180.06
243.765	172.06
243.998	170.06
244.232	167.06
244.465	176.06
244.699	179.06
244.932	177.06
245.166	179.06
245.399	183.06
245.633	179.06
245.866	185.06
246.099	187.06
246.333	195.06
246.566	192.06
246.8	193.06
247.033	201.06
247.266	183.06
247.5	193.06
247.733	187.06
247.966	209.06
248.2	187.06
248.433	199.06
248.666	183.06
248.899	186.06
249.133	208.06
249.366	204.06
249.599	214.06
249.832	204.06
250.066	196.06
250.299	218.06
250.532	217.06
250.765	215.06
250.998	219.06
251.231	227.06
251.465	216.06
251.698	233.06
251.931	225.06
252.164	205.06
252.397	226.06
252.63	241.06
252.863	225.06
253.096	233.06
253.329	226.06
253.562	236.06
253.795	234.06
254.028	223.06
254.261	227.06
254.494	232.06
254.727	243.06
254.96	230.06
255.193	234.06
255.426	236.06
255.659	240.06
255.892	239.06
256.124	228.06
256.357	226.06
256.59	233.06
256.823	247.06
257.056	259.06
257.289	240.06
257.521	260.06
257.754	242.06
257.987	259.06
258.22	250.06
258.452	264.06
258.685	260.06
258.918	250.06
259.151	263.06
259.383	239.06
259.616	253.06
259.849	261.06
260.081	270.06
260.314	277.06
260.547	259.06
260.779	259.06
261.012	266.06
261.244	267.06
261.477	285.06
261.71	276.06
261.942	265.06
262.175	282.06
262.407	285.06
262.64	292.06
262.872	268.06
263.105	262.06
263.337	280.06
263.57	292.06
263.802	293.06
264.035	292.06
264.267	289.06
264.499	313.06
264.732	283.06
264.964	296.06
265.197	299.06
265.429	281.06
265.661	290.06
265.894	295.06
266.126	293.06
266.358	276.06
266.591	305.06
266.823	288.06
267.055	297.06
267.287	315.06
267.52	306.06
267.752	304.06
267.984	309.06
268.216	315.06
268.448	318.06
268.681	314.06
268.913	314.06
269.145	296.06
269.377	317.06
269.609	296.06
269.841	308.06
270.073	319.06
270.306	332.06
270.538	330.06
270.77	326.06
271.002	314.06
271.234	308.06
271.466	340.06
271.698	308.06
271.93	313.06
272.162	328.06
272.394	331.06
272.626	333.06
272.858	334.06
273.09	338.06
273.322	316.06
273.553	341.06
273.785	329.06
274.017	345.06
274.249	328.06
274.481	323.06
274.713	343.06
274.945	335.06
275.176	324.06
275.408	325.06
275.64	348.06
275.872	344.06
276.104	344.06
276.335	351.06
276.567	365.06
276.799	330.06
277.031	365.06
277.262	363.06
277.494	340.06
277.726	342.06
277.957	359.06
278.189	356.06
278.421	356.06
278.652	359.06
278.884	360.06
279.115	358.06
279.347	369.06
279.579	364.06
279.81	385.06
280.042	374.06
280.273	386.06
280.505	374.06
280.736	377.06
280.968	375.06
281.199	387.06
281.431	366.06
281.662	373.06
281.894	387.06
282.125	385.06
282.356	380.06
282.588	412.06
282.819	394.06
283.051	388.06
283.282	411.06
283.513	385.06
283.745	377.06
283.976	383.06
284.207	413.06
284.439	397.06
284.67	404.06
284.901	392.06
285.132	398.06
285.364	416.06
285.595	404.06
285.826	408.06
286.057	441.06
286.288	423.06
286.52	431.06
286.751	428.06
286.982	417.06
287.213	419.06
287.444	420.06
287.675	405.06
287.906	424.06
288.138	432.06
288.369	425.06
288.6	434.06
288.831	405.06
289.062	420.06
289.293	439.06
289.524	419.06
289.755	405.06
289.986	423.06
290.217	444.06
290.448	409.06
290.679	436.06
290.91	447.06
291.141	435.06
291.371	412.06
291.602	437.06
291.833	447.06
292.064	445.06
292.295	428.06
292.526	448.06
292.757	421.06
292.987	435.06
293.218	426.06
293.449	438.06
293.68	439.06
293.91	431.06
294.141	441.06
294.372	420.06
294.603	418.06
294.833	462.06
295.064	459.06
295.295	435.06
295.525	430.06
295.756	449.06
295.987	432.06
296.217	460.06
296.448	456.06
296.679	455.06
296.909	453.06
297.14	444.06
297.37	480.06
297.601	495.06
297.831	468.06
298.062	480.06
298.292	486.06
298.523	482.06
298.753	471.06
298.984	496.06
299.214	472.06
299.445	456.06
299.675	472.06
299.905	472.06
300.136	490.06
300.366	475.06
300.597	485.06
300.827	512.06
301.057	488.06
301.288	511.06
301.518	498.06
301.748	492.06
301.979	495.06
302.209	507.06
302.439	492.06
302.669	485.06
302.9	497.06
303.13	475.06
303.36	503.06
303.59	482.06
303.82	518.06
304.051	483.06
304.281	504.06
304.511	473.06
304.741	507.06
304.971	515.06
305.201	517.06
305.431	503.06
305.661	515.06
305.891	487.06
306.121	511.06
306.352	485.06
306.582	488.06
306.812	457.06
307.042	480.06
307.272	469.06
307.502	480.06
307.731	501.06
307.961	481.06
308.191	513.06
308.421	487.06
308.651	479.06
308.881	476.06
309.111	480.06
309.341	487.06
309.571	477.06
309.8	486.06
310.03	495.06
310.26	500.06
310.49	498.06
310.72	521.06
310.949	496.06
311.179	495.06
311.409	513.06
311.639	493.06
311.868	507.06
312.098	486.06
312.328	507.06
312.557	516.06
312.787	501.06
313.017	521.06
313.246	517.06
313.476	513.06
313.706	531.06
313.935	548.06
314.165	534.06
314.394	539.06
314.624	512.06
314.853	504.06
315.083	525.06
315.312	524.06
315.542	526.06
315.771	515.06
316.001	531.06
316.23	520.06
316.46	531.06
316.689	553.06
316.919	515.06
317.148	536.06
317.377	511.06
317.607	500.06
317.836	514.06
318.065	546.06
318.295	537.06
318.524	527.06
318.753	533.06
318.983	526.06
319.212	503.06
319.441	513.06
319.67	517.06
319.9	513.06
320.129	529.06
320.358	523.06
320.587	536.06
320.816	543.06
321.046	518.06
321.275	529.06
321.504	534.06
321.733	555.06
321.962	527.06
322.191	519.06
322.42	547.06
322.649	537.06
322.878	529.06
323.108	514.06
323.337	535.06
323.566	537.06
323.795	535.06
324.024	550.06
324.253	548.06
324.482	541.06
324.71	536.06
324.939	556.06
325.168	554.06
325.397	543.06
325.626	548.06
325.855	566.06
326.084	569.06
326.313	574.06
326.542	564.06
326.77	581.06
326.999	572.06
327.228	568.06
327.457	564.06
327.686	572.06
327.914	557.06
328.143	566.06
328.372	588.06
328.6	537.06
328.829	584.06
329.058	563.06
329.287	579.06
329.515	589.06
329.744	596.06
329.972	563.06
330.201	597.06
330.43	584.06
330.658	575.06
330.887	593.06
331.115	617.06
331.344	607.06
331.572	624.06
331.801	631.06
332.03	636.06
332.258	620.06
332.486	675.06
332.715	664.06
332.943	693.06
333.172	725.06
333.4	769.06
333.629	743.06
333.857	763.06
334.085	755.06
334.314	748.06
334.542	721.06
334.771	708.06
334.999	721.06
335.227	699.06
335.455	715.06
335.684	707.06
335.912	717.06
336.14	696.06
336.369	681.06
336.597	695.06
336.825	684.06
337.053	666.06
337.281	694.06
337.51	671.06
337.738	671.06
337.966	666.06
338.194	643.06
338.422	627.06
338.65	625.06
338.878	615.06
339.106	641.06
339.334	633.06
339.562	621.06
339.79	605.06
340.018	608.06
340.246	592.06
340.474	595.06
340.702	604.06
340.93	617.06
341.158	612.06
341.386	613.06
341.614	631.06
341.842	600.06
342.07	588.06
342.298	599.06
342.526	585.06
342.754	627.06
342.981	589.06
343.209	626.06
343.437	645.06
343.665	672.06
343.893	699.06
344.12	745.06
344.348	697.06
344.576	652.06
344.804	648.06
345.031	630.06
345.259	620.06
345.487	614.06
345.714	629.06
345.942	614.06
346.17	620.06
346.397	576.06
346.625	559.06
346.853	584.06
347.08	581.06
347.308	581.06
347.535	559.06
347.763	555.06
347.99	576.06
348.218	568.06
348.445	577.06
348.673	574.06
348.9	579.06
349.128	577.06
349.355	584.06
349.583	575.06
349.81	565.06
350.037	588.06
350.265	560.06
350.492	552.06
350.72	558.06
350.947	559.06
351.174	563.06
351.402	547.06
351.629	587.06
351.856	577.06
352.083	557.06
352.311	571.06
352.538	576.06
352.765	569.06
352.992	560.06
353.22	572.06
353.447	537.06
353.674	560.06
353.901	559.06
354.128	543.06
354.355	551.06
354.583	542.06
354.81	557.06
355.037	570.06
355.264	587.06
355.491	563.06
355.718	568.06
355.945	570.06
356.172	572.06
356.399	554.06
356.626	568.06
356.853	554.06
357.08	572.06
357.307	570.06
357.534	541.06
357.761	548.06
357.988	568.06
358.215	547.06
358.441	557.06
358.668	546.06
358.895	568.06
359.122	557.06
359.349	575.06
359.576	555.06
359.802	583.06
360.029	568.06
360.256	577.06
360.483	556.06
360.709	569.06
360.936	579.06
361.163	561.06
361.39	555.06
361.616	550.06
361.843	583.06
362.07	567.06
362.296	604.06
362.523	545.06
362.749	584.06
362.976	570.06
363.203	571.06
363.429	554.06
363.656	549.06
363.882	552.06
364.109	564.06
364.335	566.06
364.562	569.06
364.788	554.06
365.015	559.06
365.241	554.06
365.468	571.06
365.694	569.06
365.92	555.06
366.147	563.06
366.373	551.06
366.599	564.06
366.826	559.06
367.052	552.06
367.278	568.06
367.505	563.06
367.731	572.06
367.957	549.06
368.184	577.06
368.41	602.06
368.636	567.06
368.862	598.06
369.089	592.06
369.315	593.06
369.541	574.06
369.767	585.06
369.993	602.06
370.219	576.06
370.445	569.06
370.672	598.06
370.898	599.06
371.124	617.06
371.35	625.06
371.576	601.06
371.802	617.06
372.028	599.06
372.254	617.06
372.48	596.06
372.706	622.06
372.932	627.06
373.158	639.06
373.384	632.06
373.61	613.06
373.835	645.06
374.061	617.06
374.287	609.06
374.513	648.06
374.739	632.06
374.965	671.06
375.191	691.06
375.416	665.06
375.642	648.06
375.868	637.06
376.094	622.06
376.319	639.06
376.545	632.06
376.771	614.06
376.997	595.06
377.222	606.06
377.448	593.06
377.674	606.06
377.899	585.06
378.125	597.06
378.35	613.06
378.576	600.06
378.802	583.06
379.027	584.06
379.253	604.06
379.478	593.06
379.704	587.06
379.929	600.06
380.155	567.06
380.38	593.06
380.606	629.06
380.831	606.06
381.057	597.06
381.282	610.06
381.507	603.06
381.733	611.06
381.958	635.06
382.184	628.06
382.409	607.06
382.634	611.06
382.86	620.06
383.085	645.06
383.31	645.06
383.535	681.06
383.761	657.06
383.986	670.06
384.211	687.06
384.436	695.06
384.662	723.06
384.887	731.06
385.112	718.06
385.337	724.06
385.562	748.06
385.787	751.06
386.013	735.06
386.238	738.06
386.463	717.06
386.688	723.06
386.913	730.06
387.138	740.06
387.363	734.06
387.588	721.06
387.813	710.06
388.038	697.06
388.263	720.06
388.488	736.06
388.713	722.06
388.938	725.06
389.163	706.06
389.387	685.06
389.612	719.06
389.837	733.06
390.062	724.06
390.287	719.06
390.512	695.06
390.736	695.06
390.961	726.06
391.186	724.06
391.411	760.06
391.636	787.06
391.86	815.06
392.085	844.06
392.31	827.06
392.534	799.06
392.759	780.06
392.984	761.06
393.208	764.06
393.433	752.06
393.658	790.06
393.882	756.06
394.107	758.06
394.331	760.06
394.556	767.06
394.78	781.06
395.005	775.06
395.229	767.06
395.454	807.06
395.678	797.06
395.903	803.06
396.127	787.06
396.352	772.06
396.576	752.06
396.801	778.06
397.025	770.06
397.249	795.06
397.474	813.06
397.698	812.06
397.922	804.06
398.147	801.06
398.371	849.06
398.595	864.06
398.82	908.06
399.044	961.06
399.268	1085.06
399.492	1222.06
399.717	1350.06
399.941	1319.06
400.165	1189.06
400.389	1087.06
400.613	1046.06
400.837	968.06
401.062	937.06
401.286	936.06
401.51	915.06
401.734	909.06
401.958	931.06
402.182	933.06
402.406	937.06
402.63	955.06
402.854	968.06
403.078	973.06
403.302	1000.06
403.526	996.06
403.75	1029.06
403.974	1021.06
404.198	1014.06
404.422	1035.06
404.645	1012.06
404.869	1021.06
405.093	1010.06
405.317	980.06
405.541	1015.06
405.765	968.06
405.988	979.06
406.212	972.06
406.436	966.06
406.66	1019.06
406.883	1023.06
407.107	1123.06
407.331	1123.06
407.555	1172.06
407.778	1162.06
408.002	1123.06
408.226	1097.06
408.449	1096.06
408.673	1058.06
408.896	1013.06
409.12	1018.06
409.344	1016.06
409.567	1012.06
409.791	1028.06
410.014	1004.06
410.238	1008.06
410.461	1045.06
410.685	1007.06
410.908	985.06
411.132	946.06
411.355	947.06
411.578	944.06
411.802	921.06
412.025	954.06
412.249	970.06
412.472	948.06
412.695	930.06
412.919	931.06
413.142	925.06
413.365	920.06
413.589	904.06
413.812	895.06
414.035	874.06
414.258	909.06
414.482	938.06
414.705	942.06
414.928	903.06
415.151	918.06
415.374	915.06
415.597	891.06
415.821	897.06
416.044	884.06
416.267	889.06
416.49	884.06
416.713	883.06
416.936	897.06
417.159	896.06
417.382	885.06
417.605	886.06
417.828	889.06
418.051	908.06
418.274	918.06
418.497	896.06
418.72	926.06
418.943	945.06
419.166	991.06
419.389	1037.06
419.611	995.06
419.834	984.06
420.057	951.06
420.28	884.06
420.503	869.06
420.726	883.06
420.948	863.06
421.171	891.06
421.394	908.06
421.617	881.06
421.839	879.06
422.062	929.06
422.285	899.06
422.507	915.06
422.73	911.06
422.953	899.06
423.175	901.06
423.398	910.06
423.621	928.06
423.843	939.06
424.066	943.06
424.288	940.06
424.511	953.06
424.733	935.06
424.956	916.06
425.178	903.06
425.401	887.06
425.623	885.06
425.846	844.06
426.068	887.06
426.291	864.06
426.513	866.06
426.735	844.06
426.958	860.06
427.18	797.06
427.402	828.06
427.625	834.06
427.847	788.06
428.069	820.06
428.292	821.06
428.514	804.06
428.736	800.06
428.958	808.06
429.181	811.06
429.403	806.06
429.625	784.06
429.847	808.06
430.069	785.06
430.292	776.06
430.514	779.06
430.736	777.06
430.958	779.06
431.18	794.06
431.402	788.06
431.624	801.06
431.846	809.06
432.068	808.06
432.29	837.06
432.512	794.06
432.734	808.06
432.956	789.06
433.178	832.06
433.4	805.06
433.622	804.06
433.844	790.06
434.066	834.06
434.287	833.06
434.509	833.06
434.731	882.06
434.953	913.06
435.175	887.06
435.397	895.06
435.618	859.06
435.84	800.06
436.062	827.06
436.284	800.06
436.505	803.06
436.727	821.06
436.949	809.06
437.17	790.06
437.392	797.06
437.614	799.06
437.835	748.06
438.057	741.06
438.278	760.06
438.5	767.06
438.721	745.06
438.943	799.06
439.165	758.06
439.386	774.06
439.608	781.06
439.829	787.06
440.05	788.06
440.272	782.06
440.493	808.06
440.715	829.06
440.936	821.06
441.158	833.06
441.379	866.06
441.6	902.06
441.822	896.06
442.043	892.06
442.264	870.06
442.486	868.06
442.707	875.06
442.928	855.06
443.149	858.06
443.371	861.06
443.592	897.06
443.813	891.06
444.034	909.06
444.255	947.06
444.476	975.06
444.698	999.06
444.919	1044.06
445.14	1134.06
445.361	1025.06
445.582	909.06
445.803	887.06
446.024	837.06
446.245	853.06
446.466	841.06
446.687	833.06
446.908	816.06
447.129	771.06
447.35	788.06
447.571	795.06
447.792	748.06
448.013	756.06
448.234	733.06
448.455	756.06
448.675	734.06
448.896	728.06
449.117	725.06
449.338	741.06
449.559	728.06
449.779	707.06
450	720.06
450.221	714.06
450.442	731.06
450.662	742.06
450.883	742.06
451.104	744.06
451.324	742.06
451.545	750.06
451.766	739.06
451.986	737.06
452.207	750.06
452.428	721.06
452.648	697.06
452.869	713.06
453.089	695.06
453.31	726.06
453.53	705.06
453.751	699.06
453.971	693.06
454.192	716.06
454.412	688.06
454.633	708.06
454.853	703.06
455.073	689.06
455.294	701.06
455.514	681.06
455.734	716.06
455.955	678.06
456.175	684.06
456.395	683.06
456.616	687.06
456.836	707.06
457.056	695.06
457.276	662.06
457.497	679.06
457.717	699.06
457.937	724.06
458.157	714.06
458.377	689.06
458.598	725.06
458.818	744.06
459.038	796.06
459.258	786.06
459.478	807.06
459.698	832.06
459.918	839.06
460.138	884.06
460.358	915.06
460.578	963.06
460.798	973.06
461.018	951.06
461.238	927.06
461.458	949.06
461.678	966.06
461.898	965.06
462.118	955.06
462.338	994.06
462.558	1042.06
462.777	1059.06
462.997	1153.06
463.217	1217.06
463.437	1237.06
463.657	1154.06
463.876	1109.06
464.096	1096.06
464.316	1091.06
464.536	1090.06
464.755	1051.06
464.975	999.06
465.195	971.06
465.414	927.06
465.634	865.06
465.854	838.06
466.073	861.06
466.293	825.06
466.512	784.06
466.732	796.06
466.951	783.06
467.171	780.06
467.391	773.06
467.61	793.06
467.829	731.06
468.049	753.06
468.268	765.06
468.488	735.06
468.707	733.06
468.927	746.06
469.146	741.06
469.365	771.06
469.585	733.06
469.804	792.06
470.023	777.06
470.243	782.06
470.462	810.06
470.681	805.06
470.901	818.06
471.12	780.06
471.339	782.06
471.558	769.06
471.777	784.06
471.997	756.06
472.216	755.06
472.435	738.06
472.654	739.06
472.873	744.06
473.092	737.06
473.311	718.06
473.53	707.06
473.749	705.06
473.968	717.06
474.187	721.06
474.406	712.06
474.625	719.06
474.844	748.06
475.063	728.06
475.282	731.06
475.501	723.06
475.72	743.06
475.939	757.06
476.158	768.06
476.377	783.06
476.596	768.06
476.814	756.06
477.033	771.06
477.252	773.06
477.471	804.06
477.69	832.06
477.908	810.06
478.127	866.06
478.346	857.06
478.564	855.06
478.783	904.06
479.002	901.06
479.22	916.06
479.439	914.06
479.658	921.06
479.876	934.06
480.095	916.06
480.313	950.06
480.532	961.06
480.751	967.06
480.969	943.06
481.188	899.06
481.406	861.06
481.624	865.06
481.843	826.06
482.061	848.06
482.28	831.06
482.498	820.06
482.717	823.06
482.935	828.06
483.153	822.06
483.372	840.06
483.59	845.06
483.808	871.06
484.027	843.06
484.245	857.06
484.463	857.06
484.681	873.06
484.9	845.06
485.118	861.06
485.336	865.06
485.554	874.06
485.772	864.06
485.99	861.06
486.209	907.06
486.427	861.06
486.645	880.06
486.863	874.06
487.081	868.06
487.299	875.06
487.517	872.06
487.735	887.06
487.953	895.06
488.171	879.06
488.389	887.06
488.607	856.06
488.825	833.06
489.043	872.06
489.261	876.06
489.479	872.06
489.696	884.06
489.914	884.06
490.132	892.06
490.35	874.06
490.568	854.06
490.786	853.06
491.003	863.06
491.221	887.06
491.439	903.06
491.657	895.06
491.874	897.06
492.092	892.06
492.31	909.06
492.527	919.06
492.745	901.06
492.963	931.06
493.18	896.06
493.398	919.06
493.615	915.06
493.833	898.06
494.05	928.06
494.268	951.06
494.485	970.06
494.703	937.06
494.92	953.06
495.138	948.06
495.355	938.06
495.573	932.06
495.79	956.06
496.008	927.06
496.225	945.06
496.442	969.06
496.66	984.06
496.877	1007.06
497.094	1027.06
497.312	1013.06
497.529	1077.06
497.746	1063.06
497.963	1092.06
498.181	1137.06
498.398	1195.06
498.615	1265.06
498.832	1333.06
499.049	1443.06
499.267	1568.06
499.484	1713.06
499.701	1859.06
499.918	2093.06
500.135	2335.06
500.352	2588.06
500.569	2703.06
500.786	2685.06
