Data from NiCl2@0.0625M.TitratingCurve.Agarose3%dH2O.NegLispCup.LampEnergy10.LIBS07252019_HRD10591_18-33-56-577.txt Node
Date: Thu Jul 25 18:33:56 EDT 2019
User: cochatt
Spectrometer: HR+D1059
Trigger mode: 1
Integration Time (sec): 1.000000E-1
Scans to average: 1
Electric dark correction enabled: true
Nonlinearity correction enabled: false
Boxcar width: 0
XAxis mode: Wavelengths
Number of Pixels in Spectrum: 2048
>>>>>Begin Spectral Data<<<<<
223.165	-28.5
223.4	-28.5
223.635	-28.5
223.869	-10.5
224.104	-9.5
224.338	-14.5
224.573	-11.5
224.808	-1.5
225.042	-6.5
225.277	-13.5
225.511	-4.5
225.746	1.5
225.98	2.5
226.215	18.5
226.449	17.5
226.683	24.5
226.918	6.5
227.152	29.5
227.387	36.5
227.621	45.5
227.856	45.5
228.09	51.5
228.324	44.5
228.559	59.5
228.793	88.5
229.027	147.5
229.262	160.5
229.496	154.5
229.73	133.5
229.964	169.5
230.199	198.5
230.433	176.5
230.667	192.5
230.901	183.5
231.136	183.5
231.37	185.5
231.604	184.5
231.838	185.5
232.072	197.5
232.306	208.5
232.541	195.5
232.775	196.5
233.009	186.5
233.243	192.5
233.477	202.5
233.711	210.5
233.945	234.5
234.179	200.5
234.413	208.5
234.647	206.5
234.881	221.5
235.115	208.5
235.349	190.5
235.583	208.5
235.817	226.5
236.051	216.5
236.285	224.5
236.519	250.5
236.753	227.5
236.987	236.5
237.221	232.5
237.455	229.5
237.689	248.5
237.922	249.5
238.156	240.5
238.39	234.5
238.624	232.5
238.858	265.5
239.091	242.5
239.325	252.5
239.559	276.5
239.793	256.5
240.027	280.5
240.26	250.5
240.494	277.5
240.728	274.5
240.961	273.5
241.195	268.5
241.429	279.5
241.662	280.5
241.896	309.5
242.13	304.5
242.363	299.5
242.597	299.5
242.83	311.5
243.064	295.5
243.298	301.5
243.531	308.5
243.765	325.5
243.998	325.5
244.232	330.5
244.465	311.5
244.699	317.5
244.932	352.5
245.166	341.5
245.399	334.5
245.633	339.5
245.866	328.5
246.099	336.5
246.333	344.5
246.566	357.5
246.8	343.5
247.033	352.5
247.266	353.5
247.5	355.5
247.733	372.5
247.966	362.5
248.2	388.5
248.433	371.5
248.666	384.5
248.899	378.5
249.133	388.5
249.366	365.5
249.599	382.5
249.832	396.5
250.066	392.5
250.299	400.5
250.532	386.5
250.765	412.5
250.998	401.5
251.231	412.5
251.465	413.5
251.698	430.5
251.931	424.5
252.164	430.5
252.397	421.5
252.63	432.5
252.863	409.5
253.096	430.5
253.329	445.5
253.562	432.5
253.795	426.5
254.028	434.5
254.261	448.5
254.494	445.5
254.727	443.5
254.96	431.5
255.193	475.5
255.426	467.5
255.659	465.5
255.892	466.5
256.124	477.5
256.357	469.5
256.59	471.5
256.823	461.5
257.056	450.5
257.289	472.5
257.521	470.5
257.754	493.5
257.987	488.5
258.22	490.5
258.452	499.5
258.685	483.5
258.918	503.5
259.151	522.5
259.383	500.5
259.616	501.5
259.849	501.5
260.081	536.5
260.314	524.5
260.547	512.5
260.779	517.5
261.012	535.5
261.244	518.5
261.477	522.5
261.71	548.5
261.942	534.5
262.175	526.5
262.407	508.5
262.64	541.5
262.872	547.5
263.105	537.5
263.337	560.5
263.57	562.5
263.802	562.5
264.035	538.5
264.267	566.5
264.499	550.5
264.732	581.5
264.964	584.5
265.197	580.5
265.429	584.5
265.661	558.5
265.894	590.5
266.126	591.5
266.358	568.5
266.591	608.5
266.823	594.5
267.055	606.5
267.287	599.5
267.52	625.5
267.752	605.5
267.984	615.5
268.216	619.5
268.448	632.5
268.681	600.5
268.913	610.5
269.145	603.5
269.377	617.5
269.609	628.5
269.841	630.5
270.073	633.5
270.306	636.5
270.538	634.5
270.77	635.5
271.002	635.5
271.234	647.5
271.466	656.5
271.698	655.5
271.93	663.5
272.162	637.5
272.394	678.5
272.626	674.5
272.858	664.5
273.09	666.5
273.322	672.5
273.553	656.5
273.785	676.5
274.017	661.5
274.249	681.5
274.481	688.5
274.713	688.5
274.945	673.5
275.176	701.5
275.408	700.5
275.64	708.5
275.872	707.5
276.104	703.5
276.335	693.5
276.567	705.5
276.799	733.5
277.031	727.5
277.262	713.5
277.494	698.5
277.726	740.5
277.957	703.5
278.189	713.5
278.421	727.5
278.652	753.5
278.884	752.5
279.115	738.5
279.347	722.5
279.579	749.5
279.81	750.5
280.042	743.5
280.273	773.5
280.505	753.5
280.736	754.5
280.968	763.5
281.199	770.5
281.431	800.5
281.662	785.5
281.894	788.5
282.125	758.5
282.356	788.5
282.588	792.5
282.819	782.5
283.051	800.5
283.282	818.5
283.513	829.5
283.745	807.5
283.976	810.5
284.207	806.5
284.439	820.5
284.67	830.5
284.901	826.5
285.132	833.5
285.364	816.5
285.595	816.5
285.826	829.5
286.057	824.5
286.288	818.5
286.52	808.5
286.751	863.5
286.982	828.5
287.213	850.5
287.444	845.5
287.675	871.5
287.906	867.5
288.138	869.5
288.369	885.5
288.6	841.5
288.831	839.5
289.062	873.5
289.293	869.5
289.524	865.5
289.755	874.5
289.986	873.5
290.217	870.5
290.448	858.5
290.679	874.5
290.91	888.5
291.141	872.5
291.371	876.5
291.602	891.5
291.833	865.5
292.064	893.5
292.295	896.5
292.526	888.5
292.757	890.5
292.987	855.5
293.218	882.5
293.449	928.5
293.68	906.5
293.91	885.5
294.141	866.5
294.372	888.5
294.603	894.5
294.833	906.5
295.064	895.5
295.295	893.5
295.525	899.5
295.756	876.5
295.987	869.5
296.217	922.5
296.448	934.5
296.679	920.5
296.909	911.5
297.14	914.5
297.37	920.5
297.601	962.5
297.831	957.5
298.062	948.5
298.292	957.5
298.523	978.5
298.753	964.5
298.984	968.5
299.214	958.5
299.445	935.5
299.675	971.5
299.905	987.5
300.136	956.5
300.366	944.5
300.597	966.5
300.827	997.5
301.057	984.5
301.288	993.5
301.518	986.5
301.748	994.5
301.979	1015.5
302.209	1044.5
302.439	1008.5
302.669	1007.5
302.9	989.5
303.13	1038.5
303.36	1030.5
303.59	1000.5
303.82	998.5
304.051	1016.5
304.281	1024.5
304.511	1022.5
304.741	1006.5
304.971	1018.5
305.201	994.5
305.431	1002.5
305.661	1014.5
305.891	990.5
306.121	989.5
306.352	1024.5
306.582	1010.5
306.812	1005.5
307.042	995.5
307.272	1001.5
307.502	1012.5
307.731	996.5
307.961	1007.5
308.191	973.5
308.421	988.5
308.651	1026.5
308.881	1009.5
309.111	1004.5
309.341	1001.5
309.571	985.5
309.8	995.5
310.03	992.5
310.26	1005.5
310.49	1010.5
310.72	1010.5
310.949	1010.5
311.179	1026.5
311.409	1032.5
311.639	1014.5
311.868	1023.5
312.098	1014.5
312.328	1038.5
312.557	1046.5
312.787	1045.5
313.017	1061.5
313.246	1056.5
313.476	1060.5
313.706	1075.5
313.935	1060.5
314.165	1068.5
314.394	1064.5
314.624	1114.5
314.853	1067.5
315.083	1099.5
315.312	1063.5
315.542	1085.5
315.771	1065.5
316.001	1088.5
316.23	1080.5
316.46	1080.5
316.689	1100.5
316.919	1059.5
317.148	1083.5
317.377	1055.5
317.607	1069.5
317.836	1064.5
318.065	1051.5
318.295	1072.5
318.524	1072.5
318.753	1070.5
318.983	1063.5
319.212	1059.5
319.441	1063.5
319.67	1092.5
319.9	1064.5
320.129	1060.5
320.358	1098.5
320.587	1057.5
320.816	1086.5
321.046	1092.5
321.275	1070.5
321.504	1082.5
321.733	1063.5
321.962	1069.5
322.191	1089.5
322.42	1090.5
322.649	1076.5
322.878	1084.5
323.108	1078.5
323.337	1095.5
323.566	1123.5
323.795	1132.5
324.024	1119.5
324.253	1105.5
324.482	1095.5
324.71	1144.5
324.939	1137.5
325.168	1117.5
325.397	1141.5
325.626	1139.5
325.855	1149.5
326.084	1184.5
326.313	1192.5
326.542	1174.5
326.77	1198.5
326.999	1127.5
327.228	1184.5
327.457	1170.5
327.686	1159.5
327.914	1172.5
328.143	1191.5
328.372	1164.5
328.6	1178.5
328.829	1176.5
329.058	1177.5
329.287	1185.5
329.515	1205.5
329.744	1149.5
329.972	1211.5
330.201	1172.5
330.43	1198.5
330.658	1202.5
330.887	1220.5
331.115	1239.5
331.344	1206.5
331.572	1236.5
331.801	1282.5
332.03	1299.5
332.258	1287.5
332.486	1330.5
332.715	1311.5
332.943	1360.5
333.172	1421.5
333.4	1451.5
333.629	1465.5
333.857	1492.5
334.085	1520.5
334.314	1501.5
334.542	1486.5
334.771	1485.5
334.999	1436.5
335.227	1454.5
335.455	1464.5
335.684	1435.5
335.912	1458.5
336.14	1441.5
336.369	1412.5
336.597	1437.5
336.825	1432.5
337.053	1401.5
337.281	1377.5
337.51	1403.5
337.738	1328.5
337.966	1324.5
338.194	1310.5
338.422	1306.5
338.65	1283.5
338.878	1270.5
339.106	1272.5
339.334	1274.5
339.562	1262.5
339.79	1268.5
340.018	1282.5
340.246	1278.5
340.474	1240.5
340.702	1257.5
340.93	1236.5
341.158	1203.5
341.386	1264.5
341.614	1242.5
341.842	1244.5
342.07	1180.5
342.298	1241.5
342.526	1222.5
342.754	1232.5
342.981	1208.5
343.209	1276.5
343.437	1295.5
343.665	1358.5
343.893	1377.5
344.12	1435.5
344.348	1414.5
344.576	1362.5
344.804	1308.5
345.031	1321.5
345.259	1292.5
345.487	1242.5
345.714	1229.5
345.942	1236.5
346.17	1208.5
346.397	1216.5
346.625	1170.5
346.853	1191.5
347.08	1173.5
347.308	1179.5
347.535	1198.5
347.763	1198.5
347.99	1181.5
348.218	1184.5
348.445	1154.5
348.673	1170.5
348.9	1182.5
349.128	1151.5
349.355	1164.5
349.583	1166.5
349.81	1165.5
350.037	1156.5
350.265	1187.5
350.492	1146.5
350.72	1160.5
350.947	1164.5
351.174	1179.5
351.402	1146.5
351.629	1154.5
351.856	1146.5
352.083	1157.5
352.311	1130.5
352.538	1164.5
352.765	1122.5
352.992	1104.5
353.22	1160.5
353.447	1121.5
353.674	1128.5
353.901	1123.5
354.128	1131.5
354.355	1163.5
354.583	1132.5
354.81	1113.5
355.037	1109.5
355.264	1133.5
355.491	1119.5
355.718	1138.5
355.945	1152.5
356.172	1143.5
356.399	1113.5
356.626	1148.5
356.853	1159.5
357.08	1131.5
357.307	1125.5
357.534	1133.5
357.761	1140.5
357.988	1162.5
358.215	1121.5
358.441	1160.5
358.668	1150.5
358.895	1138.5
359.122	1125.5
359.349	1133.5
359.576	1136.5
359.802	1115.5
360.029	1136.5
360.256	1140.5
360.483	1132.5
360.709	1105.5
360.936	1126.5
361.163	1129.5
361.39	1138.5
361.616	1138.5
361.843	1152.5
362.07	1161.5
362.296	1127.5
362.523	1129.5
362.749	1145.5
362.976	1150.5
363.203	1134.5
363.429	1129.5
363.656	1138.5
363.882	1150.5
364.109	1172.5
364.335	1140.5
364.562	1149.5
364.788	1155.5
365.015	1143.5
365.241	1162.5
365.468	1147.5
365.694	1152.5
365.92	1130.5
366.147	1142.5
366.373	1148.5
366.599	1147.5
366.826	1157.5
367.052	1160.5
367.278	1157.5
367.505	1145.5
367.731	1156.5
367.957	1140.5
368.184	1169.5
368.41	1169.5
368.636	1188.5
368.862	1183.5
369.089	1150.5
369.315	1211.5
369.541	1204.5
369.767	1163.5
369.993	1174.5
370.219	1176.5
370.445	1215.5
370.672	1212.5
370.898	1200.5
371.124	1233.5
371.35	1253.5
371.576	1239.5
371.802	1280.5
372.028	1256.5
372.254	1247.5
372.48	1249.5
372.706	1284.5
372.932	1314.5
373.158	1256.5
373.384	1280.5
373.61	1268.5
373.835	1253.5
374.061	1251.5
374.287	1277.5
374.513	1273.5
374.739	1340.5
374.965	1354.5
375.191	1361.5
375.416	1335.5
375.642	1325.5
375.868	1320.5
376.094	1294.5
376.319	1290.5
376.545	1257.5
376.771	1251.5
376.997	1238.5
377.222	1218.5
377.448	1231.5
377.674	1233.5
377.899	1247.5
378.125	1217.5
378.35	1204.5
378.576	1220.5
378.802	1193.5
379.027	1227.5
379.253	1202.5
379.478	1202.5
379.704	1197.5
379.929	1229.5
380.155	1225.5
380.38	1221.5
380.606	1253.5
380.831	1221.5
381.057	1202.5
381.282	1235.5
381.507	1237.5
381.733	1246.5
381.958	1264.5
382.184	1256.5
382.409	1266.5
382.634	1271.5
382.86	1306.5
383.085	1298.5
383.31	1303.5
383.535	1357.5
383.761	1309.5
383.986	1346.5
384.211	1350.5
384.436	1417.5
384.662	1438.5
384.887	1409.5
385.112	1403.5
385.337	1454.5
385.562	1456.5
385.787	1446.5
386.013	1482.5
386.238	1501.5
386.463	1491.5
386.688	1474.5
386.913	1472.5
387.138	1466.5
387.363	1463.5
387.588	1468.5
387.813	1443.5
388.038	1445.5
388.263	1470.5
388.488	1466.5
388.713	1478.5
388.938	1480.5
389.163	1443.5
389.387	1444.5
389.612	1477.5
389.837	1443.5
390.062	1441.5
390.287	1466.5
390.512	1458.5
390.736	1473.5
390.961	1524.5
391.186	1498.5
391.411	1548.5
391.636	1568.5
391.86	1586.5
392.085	1662.5
392.31	1649.5
392.534	1615.5
392.759	1619.5
392.984	1590.5
393.208	1534.5
393.433	1548.5
393.658	1577.5
393.882	1540.5
394.107	1526.5
394.331	1540.5
394.556	1555.5
394.78	1602.5
395.005	1575.5
395.229	1533.5
395.454	1595.5
395.678	1642.5
395.903	1633.5
396.127	1627.5
396.352	1585.5
396.576	1556.5
396.801	1558.5
397.025	1614.5
397.249	1629.5
397.474	1656.5
397.698	1658.5
397.922	1671.5
398.147	1620.5
398.371	1715.5
398.595	1741.5
398.82	1803.5
399.044	1896.5
399.268	2093.5
399.492	2314.5
399.717	2489.5
399.941	2562.5
400.165	2343.5
400.389	2180.5
400.613	2012.5
400.837	1903.5
401.062	1894.5
401.286	1863.5
401.51	1833.5
401.734	1777.5
401.958	1846.5
402.182	1823.5
402.406	1858.5
402.63	1862.5
402.854	1884.5
403.078	1913.5
403.302	1952.5
403.526	1977.5
403.75	1981.5
403.974	2010.5
404.198	1969.5
404.422	2021.5
404.645	1974.5
404.869	1998.5
405.093	2004.5
405.317	2002.5
405.541	1951.5
405.765	1959.5
405.988	1942.5
406.212	1982.5
406.436	1960.5
406.66	2013.5
406.883	2056.5
407.107	2157.5
407.331	2228.5
407.555	2306.5
407.778	2326.5
408.002	2226.5
408.226	2258.5
408.449	2198.5
408.673	2074.5
408.896	2066.5
409.12	2035.5
409.344	2046.5
409.567	2004.5
409.791	2039.5
410.014	2061.5
410.238	2014.5
410.461	2022.5
410.685	2011.5
410.908	1947.5
411.132	1942.5
411.355	1929.5
411.578	1899.5
411.802	1894.5
412.025	1948.5
412.249	1930.5
412.472	1889.5
412.695	1866.5
412.919	1908.5
413.142	1852.5
413.365	1833.5
413.589	1864.5
413.812	1838.5
414.035	1787.5
414.258	1836.5
414.482	1808.5
414.705	1846.5
414.928	1831.5
415.151	1832.5
415.374	1811.5
415.597	1784.5
415.821	1776.5
416.044	1754.5
416.267	1731.5
416.49	1731.5
416.713	1706.5
416.936	1748.5
417.159	1763.5
417.382	1732.5
417.605	1733.5
417.828	1728.5
418.051	1802.5
418.274	1769.5
418.497	1737.5
418.72	1807.5
418.943	1742.5
419.166	1898.5
419.389	2006.5
419.611	1992.5
419.834	1931.5
420.057	1892.5
420.28	1765.5
420.503	1730.5
420.726	1761.5
420.948	1730.5
421.171	1733.5
421.394	1758.5
421.617	1706.5
421.839	1753.5
422.062	1792.5
422.285	1745.5
422.507	1764.5
422.73	1772.5
422.953	1783.5
423.175	1800.5
423.398	1828.5
423.621	1773.5
423.843	1798.5
424.066	1816.5
424.288	1781.5
424.511	1786.5
424.733	1761.5
424.956	1792.5
425.178	1778.5
425.401	1745.5
425.623	1772.5
425.846	1721.5
426.068	1720.5
426.291	1668.5
426.513	1712.5
426.735	1694.5
426.958	1702.5
427.18	1623.5
427.402	1648.5
427.625	1661.5
427.847	1602.5
428.069	1617.5
428.292	1587.5
428.514	1629.5
428.736	1596.5
428.958	1616.5
429.181	1568.5
429.403	1599.5
429.625	1569.5
429.847	1593.5
430.069	1590.5
430.292	1533.5
430.514	1547.5
430.736	1553.5
430.958	1587.5
431.18	1576.5
431.402	1574.5
431.624	1601.5
431.846	1600.5
432.068	1617.5
432.29	1624.5
432.512	1600.5
432.734	1603.5
432.956	1600.5
433.178	1660.5
433.4	1615.5
433.622	1629.5
433.844	1675.5
434.066	1657.5
434.287	1654.5
434.509	1683.5
434.731	1723.5
434.953	1797.5
435.175	1795.5
435.397	1791.5
435.618	1718.5
435.84	1662.5
436.062	1596.5
436.284	1614.5
436.505	1609.5
436.727	1589.5
436.949	1621.5
437.17	1590.5
437.392	1571.5
437.614	1576.5
437.835	1522.5
438.057	1549.5
438.278	1503.5
438.5	1514.5
438.721	1511.5
438.943	1566.5
439.165	1520.5
439.386	1514.5
439.608	1573.5
439.829	1582.5
440.05	1574.5
440.272	1563.5
440.493	1600.5
440.715	1624.5
440.936	1595.5
441.158	1665.5
441.379	1652.5
441.6	1749.5
441.822	1756.5
442.043	1767.5
442.264	1689.5
442.486	1673.5
442.707	1712.5
442.928	1714.5
443.149	1680.5
443.371	1689.5
443.592	1688.5
443.813	1706.5
444.034	1748.5
444.255	1780.5
444.476	1816.5
444.698	1898.5
444.919	1992.5
445.14	2043.5
445.361	1866.5
445.582	1812.5
445.803	1703.5
446.024	1651.5
446.245	1682.5
446.466	1641.5
446.687	1596.5
446.908	1590.5
447.129	1535.5
447.35	1488.5
447.571	1521.5
447.792	1502.5
448.013	1490.5
448.234	1469.5
448.455	1472.5
448.675	1439.5
448.896	1437.5
449.117	1410.5
449.338	1448.5
449.559	1401.5
449.779	1401.5
450	1385.5
450.221	1397.5
450.442	1439.5
450.662	1409.5
450.883	1414.5
451.104	1430.5
451.324	1469.5
451.545	1421.5
451.766	1432.5
451.986	1411.5
452.207	1375.5
452.428	1397.5
452.648	1356.5
452.869	1352.5
453.089	1385.5
453.31	1392.5
453.53	1389.5
453.751	1366.5
453.971	1380.5
454.192	1351.5
454.412	1380.5
454.633	1341.5
454.853	1328.5
455.073	1300.5
455.294	1333.5
455.514	1347.5
455.734	1334.5
455.955	1301.5
456.175	1311.5
456.395	1349.5
456.616	1332.5
456.836	1373.5
457.056	1375.5
457.276	1329.5
457.497	1364.5
457.717	1346.5
457.937	1366.5
458.157	1377.5
458.377	1396.5
458.598	1434.5
458.818	1469.5
459.038	1463.5
459.258	1546.5
459.478	1570.5
459.698	1615.5
459.918	1633.5
460.138	1661.5
460.358	1746.5
460.578	1796.5
460.798	1766.5
461.018	1785.5
461.238	1810.5
461.458	1812.5
461.678	1787.5
461.898	1813.5
462.118	1809.5
462.338	1892.5
462.558	1941.5
462.777	2002.5
462.997	2151.5
463.217	2272.5
463.437	2288.5
463.657	2190.5
463.876	2121.5
464.096	2052.5
464.316	2040.5
464.536	2032.5
464.755	2033.5
464.975	1945.5
465.195	1838.5
465.414	1763.5
465.634	1678.5
465.854	1620.5
466.073	1625.5
466.293	1577.5
466.512	1561.5
466.732	1515.5
466.951	1499.5
467.171	1496.5
467.391	1539.5
467.61	1493.5
467.829	1476.5
468.049	1482.5
468.268	1422.5
468.488	1426.5
468.707	1453.5
468.927	1467.5
469.146	1440.5
469.365	1456.5
469.585	1463.5
469.804	1498.5
470.023	1534.5
470.243	1529.5
470.462	1519.5
470.681	1526.5
470.901	1554.5
471.12	1507.5
471.339	1520.5
471.558	1482.5
471.777	1513.5
471.997	1451.5
472.216	1487.5
472.435	1494.5
472.654	1425.5
472.873	1428.5
473.092	1439.5
473.311	1432.5
473.53	1448.5
473.749	1423.5
473.968	1441.5
474.187	1414.5
474.406	1436.5
474.625	1458.5
474.844	1415.5
475.063	1423.5
475.282	1474.5
475.501	1475.5
475.72	1484.5
475.939	1496.5
476.158	1482.5
476.377	1501.5
476.596	1477.5
476.814	1507.5
477.033	1540.5
477.252	1568.5
477.471	1577.5
477.69	1621.5
477.908	1653.5
478.127	1699.5
478.346	1715.5
478.564	1742.5
478.783	1715.5
479.002	1778.5
479.22	1800.5
479.439	1774.5
479.658	1796.5
479.876	1831.5
480.095	1869.5
480.313	1932.5
480.532	1917.5
480.751	1912.5
480.969	1844.5
481.188	1774.5
481.406	1786.5
481.624	1778.5
481.843	1756.5
482.061	1742.5
482.28	1750.5
482.498	1779.5
482.717	1755.5
482.935	1802.5
483.153	1766.5
483.372	1717.5
483.59	1813.5
483.808	1800.5
484.027	1785.5
484.245	1824.5
484.463	1848.5
484.681	1870.5
484.9	1905.5
485.118	1950.5
485.336	1898.5
485.554	1930.5
485.772	1940.5
485.99	1957.5
486.209	1968.5
486.427	1931.5
486.645	1942.5
486.863	1946.5
487.081	1920.5
487.299	1929.5
487.517	1913.5
487.735	1875.5
487.953	1932.5
488.171	1856.5
488.389	1879.5
488.607	1855.5
488.825	1818.5
489.043	1835.5
489.261	1818.5
489.479	1828.5
489.696	1851.5
489.914	1864.5
490.132	1813.5
490.35	1832.5
490.568	1804.5
490.786	1806.5
491.003	1787.5
491.221	1822.5
491.439	1822.5
491.657	1806.5
491.874	1815.5
492.092	1805.5
492.31	1808.5
492.527	1798.5
492.745	1841.5
492.963	1852.5
493.18	1808.5
493.398	1845.5
493.615	1830.5
493.833	1839.5
494.05	1796.5
494.268	1882.5
494.485	1866.5
494.703	1891.5
494.92	1823.5
495.138	1826.5
495.355	1849.5
495.573	1869.5
495.79	1862.5
496.008	1889.5
496.225	1886.5
496.442	1852.5
496.66	1892.5
496.877	1917.5
497.094	1977.5
497.312	2036.5
497.529	2025.5
497.746	2038.5
497.963	2163.5
498.181	2175.5
498.398	2337.5
498.615	2424.5
498.832	2580.5
499.049	2661.5
499.267	2900.5
499.484	3149.5
499.701	3388.5
499.918	3661.5
500.135	4012.5
500.352	4434.5
500.569	4552.5
500.786	4509.5
501.003	4356.5
501.22	4002.5
501.437	3669.5
501.654	3304.5
501.871	3051.5
502.088	2836.5
502.305	2704.5
502.522	2531.5
502.739	2474.5
502.956	2368.5
503.172	2266.5
503.389	2162.5
503.606	2085.5
503.823	2050.5
504.04	2046.5
504.256	2053.5
504.473	2121.5
504.69	2076.5
504.907	2002.5
505.123	1947.5
505.34	1869.5
505.557	1780.5
505.773	1718.5
505.99	1729.5
506.207	1712.5
506.423	1656.5
