Data from NiCl2@0.125M.TitratingCurve.Agarose3%dH2O.NegLispCup.LampEnergy10.LIBS07252019_HRD10591_18-28-10-575.txt Node
Date: Thu Jul 25 18:28:10 EDT 2019
User: cochatt
Spectrometer: HR+D1059
Trigger mode: 1
Integration Time (sec): 1.000000E-1
Scans to average: 1
Electric dark correction enabled: true
Nonlinearity correction enabled: false
Boxcar width: 0
XAxis mode: Wavelengths
Number of Pixels in Spectrum: 2048
>>>>>Begin Spectral Data<<<<<
223.165	-27.69
223.4	-27.69
223.635	-27.69
223.869	-20.69
224.104	-18.69
224.338	-20.69
224.573	-9.69
224.808	-14.69
225.042	8.31
225.277	4.31
225.511	-10.69
225.746	-9.69
225.98	1.31
226.215	26.31
226.449	17.31
226.683	19.31
226.918	19.31
227.152	36.31
227.387	29.31
227.621	42.31
227.856	48.31
228.09	43.31
228.324	53.31
228.559	49.31
228.793	70.31
229.027	102.31
229.262	109.31
229.496	103.31
229.73	129.31
229.964	115.31
230.199	114.31
230.433	126.31
230.667	145.31
230.901	140.31
231.136	133.31
231.37	136.31
231.604	147.31
231.838	140.31
232.072	153.31
232.306	158.31
232.541	131.31
232.775	129.31
233.009	152.31
233.243	154.31
233.477	133.31
233.711	132.31
233.945	140.31
234.179	141.31
234.413	134.31
234.647	143.31
234.881	155.31
235.115	161.31
235.349	151.31
235.583	153.31
235.817	145.31
236.051	148.31
236.285	148.31
236.519	137.31
236.753	148.31
236.987	165.31
237.221	144.31
237.455	161.31
237.689	158.31
237.922	153.31
238.156	155.31
238.39	161.31
238.624	163.31
238.858	155.31
239.091	154.31
239.325	163.31
239.559	168.31
239.793	165.31
240.027	167.31
240.26	174.31
240.494	165.31
240.728	177.31
240.961	159.31
241.195	182.31
241.429	185.31
241.662	198.31
241.896	186.31
242.13	185.31
242.363	181.31
242.597	171.31
242.83	197.31
243.064	185.31
243.298	181.31
243.531	185.31
243.765	181.31
243.998	197.31
244.232	206.31
244.465	190.31
244.699	189.31
244.932	205.31
245.166	193.31
245.399	206.31
245.633	205.31
245.866	204.31
246.099	206.31
246.333	215.31
246.566	205.31
246.8	201.31
247.033	212.31
247.266	204.31
247.5	208.31
247.733	217.31
247.966	211.31
248.2	225.31
248.433	226.31
248.666	218.31
248.899	235.31
249.133	222.31
249.366	230.31
249.599	198.31
249.832	237.31
250.066	246.31
250.299	251.31
250.532	236.31
250.765	229.31
250.998	233.31
251.231	225.31
251.465	235.31
251.698	258.31
251.931	259.31
252.164	235.31
252.397	237.31
252.63	246.31
252.863	249.31
253.096	249.31
253.329	247.31
253.562	260.31
253.795	264.31
254.028	247.31
254.261	262.31
254.494	242.31
254.727	252.31
254.96	258.31
255.193	265.31
255.426	275.31
255.659	278.31
255.892	278.31
256.124	257.31
256.357	255.31
256.59	270.31
256.823	268.31
257.056	266.31
257.289	278.31
257.521	296.31
257.754	280.31
257.987	267.31
258.22	269.31
258.452	281.31
258.685	281.31
258.918	293.31
259.151	293.31
259.383	283.31
259.616	289.31
259.849	317.31
260.081	290.31
260.314	322.31
260.547	285.31
260.779	280.31
261.012	292.31
261.244	312.31
261.477	306.31
261.71	285.31
261.942	311.31
262.175	293.31
262.407	307.31
262.64	285.31
262.872	305.31
263.105	299.31
263.337	316.31
263.57	312.31
263.802	311.31
264.035	319.31
264.267	327.31
264.499	297.31
264.732	318.31
264.964	326.31
265.197	332.31
265.429	324.31
265.661	314.31
265.894	328.31
266.126	342.31
266.358	333.31
266.591	295.31
266.823	331.31
267.055	323.31
267.287	318.31
267.52	325.31
267.752	326.31
267.984	330.31
268.216	342.31
268.448	346.31
268.681	342.31
268.913	349.31
269.145	338.31
269.377	345.31
269.609	342.31
269.841	339.31
270.073	341.31
270.306	329.31
270.538	338.31
270.77	329.31
271.002	364.31
271.234	373.31
271.466	336.31
271.698	353.31
271.93	350.31
272.162	360.31
272.394	372.31
272.626	385.31
272.858	355.31
273.09	369.31
273.322	373.31
273.553	358.31
273.785	374.31
274.017	355.31
274.249	357.31
274.481	373.31
274.713	360.31
274.945	383.31
275.176	385.31
275.408	369.31
275.64	366.31
275.872	382.31
276.104	393.31
276.335	391.31
276.567	383.31
276.799	383.31
277.031	405.31
277.262	398.31
277.494	397.31
277.726	386.31
277.957	410.31
278.189	418.31
278.421	415.31
278.652	411.31
278.884	411.31
279.115	406.31
279.347	414.31
279.579	419.31
279.81	396.31
280.042	418.31
280.273	416.31
280.505	427.31
280.736	413.31
280.968	427.31
281.199	426.31
281.431	414.31
281.662	421.31
281.894	407.31
282.125	456.31
282.356	419.31
282.588	413.31
282.819	433.31
283.051	443.31
283.282	430.31
283.513	439.31
283.745	426.31
283.976	458.31
284.207	458.31
284.439	457.31
284.67	446.31
284.901	449.31
285.132	447.31
285.364	445.31
285.595	445.31
285.826	457.31
286.057	449.31
286.288	444.31
286.52	464.31
286.751	446.31
286.982	447.31
287.213	461.31
287.444	451.31
287.675	460.31
287.906	482.31
288.138	470.31
288.369	454.31
288.6	465.31
288.831	460.31
289.062	475.31
289.293	480.31
289.524	483.31
289.755	477.31
289.986	463.31
290.217	478.31
290.448	467.31
290.679	470.31
290.91	474.31
291.141	483.31
291.371	482.31
291.602	480.31
291.833	475.31
292.064	490.31
292.295	477.31
292.526	484.31
292.757	473.31
292.987	458.31
293.218	463.31
293.449	458.31
293.68	477.31
293.91	487.31
294.141	482.31
294.372	471.31
294.603	479.31
294.833	497.31
295.064	518.31
295.295	505.31
295.525	498.31
295.756	499.31
295.987	494.31
296.217	496.31
296.448	476.31
296.679	507.31
296.909	517.31
297.14	527.31
297.37	522.31
297.601	543.31
297.831	527.31
298.062	524.31
298.292	532.31
298.523	552.31
298.753	542.31
298.984	521.31
299.214	523.31
299.445	528.31
299.675	523.31
299.905	515.31
300.136	533.31
300.366	534.31
300.597	534.31
300.827	527.31
301.057	533.31
301.288	540.31
301.518	561.31
301.748	563.31
301.979	565.31
302.209	566.31
302.439	535.31
302.669	556.31
302.9	541.31
303.13	527.31
303.36	542.31
303.59	542.31
303.82	554.31
304.051	538.31
304.281	536.31
304.511	520.31
304.741	532.31
304.971	542.31
305.201	543.31
305.431	570.31
305.661	552.31
305.891	560.31
306.121	558.31
306.352	537.31
306.582	540.31
306.812	516.31
307.042	532.31
307.272	526.31
307.502	566.31
307.731	551.31
307.961	534.31
308.191	540.31
308.421	530.31
308.651	537.31
308.881	529.31
309.111	510.31
309.341	555.31
309.571	553.31
309.8	539.31
310.03	526.31
310.26	543.31
310.49	538.31
310.72	541.31
310.949	547.31
311.179	543.31
311.409	570.31
311.639	553.31
311.868	547.31
312.098	568.31
312.328	545.31
312.557	554.31
312.787	542.31
313.017	559.31
313.246	558.31
313.476	568.31
313.706	578.31
313.935	573.31
314.165	565.31
314.394	568.31
314.624	555.31
314.853	564.31
315.083	581.31
315.312	587.31
315.542	601.31
315.771	553.31
316.001	568.31
316.23	547.31
316.46	583.31
316.689	572.31
316.919	563.31
317.148	588.31
317.377	543.31
317.607	582.31
317.836	567.31
318.065	581.31
318.295	567.31
318.524	574.31
318.753	581.31
318.983	562.31
319.212	554.31
319.441	568.31
319.67	569.31
319.9	574.31
320.129	565.31
320.358	577.31
320.587	578.31
320.816	545.31
321.046	582.31
321.275	593.31
321.504	579.31
321.733	552.31
321.962	556.31
322.191	583.31
322.42	578.31
322.649	556.31
322.878	586.31
323.108	589.31
323.337	575.31
323.566	567.31
323.795	588.31
324.024	571.31
324.253	593.31
324.482	569.31
324.71	578.31
324.939	585.31
325.168	583.31
325.397	577.31
325.626	565.31
325.855	605.31
326.084	623.31
326.313	597.31
326.542	606.31
326.77	634.31
326.999	598.31
327.228	587.31
327.457	616.31
327.686	611.31
327.914	627.31
328.143	616.31
328.372	630.31
328.6	627.31
328.829	597.31
329.058	612.31
329.287	623.31
329.515	627.31
329.744	651.31
329.972	621.31
330.201	630.31
330.43	627.31
330.658	617.31
330.887	641.31
331.115	639.31
331.344	648.31
331.572	665.31
331.801	670.31
332.03	683.31
332.258	679.31
332.486	687.31
332.715	712.31
332.943	763.31
333.172	781.31
333.4	797.31
333.629	821.31
333.857	827.31
334.085	826.31
334.314	828.31
334.542	803.31
334.771	800.31
334.999	791.31
335.227	798.31
335.455	762.31
335.684	773.31
335.912	782.31
336.14	738.31
336.369	744.31
336.597	733.31
336.825	759.31
337.053	773.31
337.281	720.31
337.51	719.31
337.738	678.31
337.966	721.31
338.194	677.31
338.422	689.31
338.65	678.31
338.878	650.31
339.106	671.31
339.334	691.31
339.562	680.31
339.79	643.31
340.018	639.31
340.246	655.31
340.474	666.31
340.702	661.31
340.93	651.31
341.158	643.31
341.386	673.31
341.614	643.31
341.842	636.31
342.07	651.31
342.298	648.31
342.526	635.31
342.754	639.31
342.981	650.31
343.209	655.31
343.437	662.31
343.665	721.31
343.893	779.31
344.12	824.31
344.348	776.31
344.576	758.31
344.804	737.31
345.031	665.31
345.259	660.31
345.487	668.31
345.714	655.31
345.942	655.31
346.17	652.31
346.397	639.31
346.625	636.31
346.853	635.31
347.08	653.31
347.308	630.31
347.535	631.31
347.763	665.31
347.99	664.31
348.218	631.31
348.445	659.31
348.673	627.31
348.9	626.31
349.128	656.31
349.355	641.31
349.583	625.31
349.81	619.31
350.037	627.31
350.265	628.31
350.492	629.31
350.72	632.31
350.947	620.31
351.174	611.31
351.402	612.31
351.629	610.31
351.856	608.31
352.083	610.31
352.311	617.31
352.538	615.31
352.765	604.31
352.992	620.31
353.22	581.31
353.447	608.31
353.674	602.31
353.901	592.31
354.128	597.31
354.355	623.31
354.583	606.31
354.81	627.31
355.037	618.31
355.264	599.31
355.491	619.31
355.718	582.31
355.945	620.31
356.172	607.31
356.399	603.31
356.626	615.31
356.853	620.31
357.08	600.31
357.307	621.31
357.534	615.31
357.761	619.31
357.988	613.31
358.215	602.31
358.441	596.31
358.668	614.31
358.895	631.31
359.122	604.31
359.349	613.31
359.576	609.31
359.802	599.31
360.029	596.31
360.256	603.31
360.483	604.31
360.709	621.31
360.936	616.31
361.163	627.31
361.39	609.31
361.616	623.31
361.843	610.31
362.07	622.31
362.296	621.31
362.523	607.31
362.749	633.31
362.976	611.31
363.203	612.31
363.429	592.31
363.656	613.31
363.882	593.31
364.109	596.31
364.335	612.31
364.562	616.31
364.788	611.31
365.015	597.31
365.241	595.31
365.468	600.31
365.694	619.31
365.92	596.31
366.147	594.31
366.373	577.31
366.599	620.31
366.826	615.31
367.052	619.31
367.278	631.31
367.505	615.31
367.731	619.31
367.957	607.31
368.184	589.31
368.41	610.31
368.636	626.31
368.862	617.31
369.089	612.31
369.315	645.31
369.541	622.31
369.767	657.31
369.993	637.31
370.219	614.31
370.445	638.31
370.672	640.31
370.898	622.31
371.124	639.31
371.35	642.31
371.576	651.31
371.802	673.31
372.028	659.31
372.254	653.31
372.48	656.31
372.706	685.31
372.932	687.31
373.158	689.31
373.384	657.31
373.61	651.31
373.835	661.31
374.061	676.31
374.287	672.31
374.513	683.31
374.739	706.31
374.965	705.31
375.191	705.31
375.416	719.31
375.642	710.31
375.868	707.31
376.094	707.31
376.319	704.31
376.545	709.31
376.771	668.31
376.997	660.31
377.222	660.31
377.448	676.31
377.674	667.31
377.899	651.31
378.125	658.31
378.35	645.31
378.576	661.31
378.802	631.31
379.027	653.31
379.253	655.31
379.478	660.31
379.704	653.31
379.929	653.31
380.155	644.31
380.38	652.31
380.606	647.31
380.831	656.31
381.057	683.31
381.282	650.31
381.507	648.31
381.733	652.31
381.958	680.31
382.184	673.31
382.409	677.31
382.634	689.31
382.86	678.31
383.085	708.31
383.31	707.31
383.535	735.31
383.761	724.31
383.986	728.31
384.211	753.31
384.436	753.31
384.662	792.31
384.887	821.31
385.112	806.31
385.337	809.31
385.562	794.31
385.787	811.31
386.013	804.31
386.238	800.31
386.463	799.31
386.688	787.31
386.913	791.31
387.138	794.31
387.363	802.31
387.588	791.31
387.813	801.31
388.038	781.31
388.263	793.31
388.488	843.31
388.713	817.31
388.938	794.31
389.163	793.31
389.387	791.31
389.612	801.31
389.837	787.31
390.062	771.31
390.287	807.31
390.512	781.31
390.736	799.31
390.961	814.31
391.186	797.31
391.411	847.31
391.636	877.31
391.86	883.31
392.085	889.31
392.31	903.31
392.534	876.31
392.759	862.31
392.984	822.31
393.208	867.31
393.433	870.31
393.658	840.31
393.882	839.31
394.107	844.31
394.331	832.31
394.556	809.31
394.78	844.31
395.005	862.31
395.229	849.31
395.454	892.31
395.678	899.31
395.903	907.31
396.127	896.31
396.352	852.31
396.576	860.31
396.801	847.31
397.025	860.31
397.249	878.31
397.474	920.31
397.698	927.31
397.922	914.31
398.147	904.31
398.371	911.31
398.595	949.31
398.82	991.31
399.044	1069.31
399.268	1186.31
399.492	1300.31
399.717	1462.31
399.941	1491.31
400.165	1369.31
400.389	1246.31
400.613	1156.31
400.837	1112.31
401.062	1086.31
401.286	1038.31
401.51	1025.31
401.734	1021.31
401.958	1048.31
402.182	1027.31
402.406	1012.31
402.63	1034.31
402.854	1043.31
403.078	1081.31
403.302	1091.31
403.526	1101.31
403.75	1121.31
403.974	1139.31
404.198	1163.31
404.422	1142.31
404.645	1120.31
404.869	1108.31
405.093	1147.31
405.317	1100.31
405.541	1111.31
405.765	1095.31
405.988	1120.31
406.212	1127.31
406.436	1131.31
406.66	1118.31
406.883	1156.31
407.107	1182.31
407.331	1239.31
407.555	1308.31
407.778	1288.31
408.002	1272.31
408.226	1236.31
408.449	1203.31
408.673	1179.31
408.896	1171.31
409.12	1134.31
409.344	1127.31
409.567	1135.31
409.791	1123.31
410.014	1147.31
410.238	1100.31
410.461	1114.31
410.685	1107.31
410.908	1096.31
411.132	1083.31
411.355	1042.31
411.578	1062.31
411.802	1047.31
412.025	1043.31
412.249	1069.31
412.472	1061.31
412.695	1030.31
412.919	1042.31
413.142	1037.31
413.365	1013.31
413.589	984.31
413.812	983.31
414.035	1005.31
414.258	985.31
414.482	1001.31
414.705	1031.31
414.928	1017.31
415.151	1014.31
415.374	1027.31
415.597	1016.31
415.821	984.31
416.044	998.31
416.267	975.31
416.49	961.31
416.713	945.31
416.936	983.31
417.159	972.31
417.382	957.31
417.605	957.31
417.828	982.31
418.051	971.31
418.274	981.31
418.497	981.31
418.72	1017.31
418.943	1029.31
419.166	1069.31
419.389	1131.31
419.611	1147.31
419.834	1116.31
420.057	1037.31
420.28	1003.31
420.503	996.31
420.726	973.31
420.948	979.31
421.171	939.31
421.394	982.31
421.617	970.31
421.839	1005.31
422.062	1001.31
422.285	975.31
422.507	1015.31
422.73	1030.31
422.953	994.31
423.175	1031.31
423.398	1008.31
423.621	1004.31
423.843	1071.31
424.066	1075.31
424.288	1058.31
424.511	1052.31
424.733	1010.31
424.956	995.31
425.178	1027.31
425.401	1009.31
425.623	1018.31
425.846	975.31
426.068	971.31
426.291	973.31
426.513	967.31
426.735	963.31
426.958	967.31
427.18	938.31
427.402	912.31
427.625	931.31
427.847	902.31
428.069	908.31
428.292	909.31
428.514	909.31
428.736	893.31
428.958	904.31
429.181	875.31
429.403	870.31
429.625	881.31
429.847	891.31
430.069	867.31
430.292	885.31
430.514	891.31
430.736	891.31
430.958	876.31
431.18	889.31
431.402	872.31
431.624	907.31
431.846	915.31
432.068	914.31
432.29	917.31
432.512	907.31
432.734	911.31
432.956	907.31
433.178	917.31
433.4	910.31
433.622	939.31
433.844	917.31
434.066	909.31
434.287	917.31
434.509	965.31
434.731	985.31
434.953	988.31
435.175	1003.31
435.397	1014.31
435.618	991.31
435.84	937.31
436.062	909.31
436.284	910.31
436.505	874.31
436.727	903.31
436.949	903.31
437.17	891.31
437.392	869.31
437.614	871.31
437.835	865.31
438.057	884.31
438.278	867.31
438.5	883.31
438.721	887.31
438.943	870.31
439.165	861.31
439.386	885.31
439.608	929.31
439.829	894.31
440.05	901.31
440.272	915.31
440.493	879.31
440.715	922.31
440.936	933.31
441.158	949.31
441.379	1005.31
441.6	1016.31
441.822	1045.31
442.043	1012.31
442.264	1002.31
442.486	960.31
442.707	1017.31
442.928	983.31
443.149	1009.31
443.371	973.31
443.592	1022.31
443.813	987.31
444.034	1009.31
444.255	1042.31
444.476	1086.31
444.698	1193.31
444.919	1179.31
445.14	1306.31
445.361	1156.31
445.582	1095.31
445.803	1018.31
446.024	981.31
446.245	973.31
446.466	942.31
446.687	917.31
446.908	930.31
447.129	899.31
447.35	889.31
447.571	878.31
447.792	864.31
448.013	843.31
448.234	853.31
448.455	827.31
448.675	822.31
448.896	853.31
449.117	835.31
449.338	833.31
449.559	820.31
449.779	804.31
450	825.31
450.221	843.31
450.442	820.31
450.662	842.31
450.883	838.31
451.104	857.31
451.324	847.31
451.545	840.31
451.766	830.31
451.986	840.31
452.207	839.31
452.428	822.31
452.648	819.31
452.869	821.31
453.089	807.31
453.31	811.31
453.53	793.31
453.751	834.31
453.971	811.31
454.192	812.31
454.412	812.31
454.633	801.31
454.853	767.31
455.073	768.31
455.294	794.31
455.514	775.31
455.734	803.31
455.955	787.31
456.175	781.31
456.395	759.31
456.616	780.31
456.836	803.31
457.056	770.31
457.276	753.31
457.497	804.31
457.717	802.31
457.937	788.31
458.157	805.31
458.377	788.31
458.598	832.31
458.818	837.31
459.038	865.31
459.258	883.31
459.478	926.31
459.698	943.31
459.918	992.31
460.138	1032.31
460.358	1058.31
460.578	1063.31
460.798	1102.31
461.018	1100.31
461.238	1069.31
461.458	1059.31
461.678	1081.31
461.898	1101.31
462.118	1084.31
462.338	1153.31
462.558	1185.31
462.777	1230.31
462.997	1292.31
463.217	1368.31
463.437	1437.31
463.657	1363.31
463.876	1282.31
464.096	1297.31
464.316	1240.31
464.536	1272.31
464.755	1235.31
464.975	1175.31
465.195	1110.31
465.414	1098.31
465.634	986.31
465.854	960.31
466.073	929.31
466.293	951.31
466.512	916.31
466.732	883.31
466.951	915.31
467.171	902.31
467.391	917.31
467.61	900.31
467.829	875.31
468.049	898.31
468.268	841.31
468.488	844.31
468.707	855.31
468.927	836.31
469.146	860.31
469.365	858.31
469.585	874.31
469.804	880.31
470.023	888.31
470.243	902.31
470.462	924.31
470.681	887.31
470.901	925.31
471.12	896.31
471.339	885.31
471.558	877.31
471.777	863.31
471.997	856.31
472.216	855.31
472.435	858.31
472.654	832.31
472.873	835.31
473.092	833.31
473.311	847.31
473.53	826.31
473.749	823.31
473.968	795.31
474.187	830.31
474.406	824.31
474.625	842.31
474.844	853.31
475.063	819.31
475.282	843.31
475.501	830.31
475.72	838.31
475.939	846.31
476.158	837.31
476.377	862.31
476.596	869.31
476.814	878.31
477.033	893.31
477.252	888.31
477.471	923.31
477.69	955.31
477.908	927.31
478.127	991.31
478.346	976.31
478.564	1005.31
478.783	1040.31
479.002	1029.31
479.22	1055.31
479.439	1066.31
479.658	1050.31
479.876	1041.31
480.095	1067.31
480.313	1082.31
480.532	1120.31
480.751	1094.31
480.969	1067.31
481.188	1045.31
481.406	1001.31
481.624	991.31
481.843	951.31
482.061	979.31
482.28	952.31
482.498	940.31
482.717	953.31
482.935	963.31
483.153	958.31
483.372	927.31
483.59	965.31
483.808	974.31
484.027	963.31
484.245	981.31
484.463	986.31
484.681	1000.31
484.9	977.31
485.118	983.31
485.336	991.31
485.554	982.31
485.772	1027.31
485.99	1013.31
486.209	1011.31
486.427	1021.31
486.645	1003.31
486.863	1002.31
487.081	1028.31
487.299	1013.31
487.517	986.31
487.735	988.31
487.953	1008.31
488.171	987.31
488.389	990.31
488.607	1007.31
488.825	1023.31
489.043	1000.31
489.261	974.31
489.479	999.31
489.696	1003.31
489.914	1013.31
490.132	1014.31
490.35	1034.31
490.568	1002.31
490.786	1017.31
491.003	1009.31
491.221	1033.31
491.439	1022.31
491.657	1039.31
491.874	1022.31
492.092	1033.31
492.31	1037.31
492.527	1030.31
492.745	1054.31
492.963	1033.31
493.18	1065.31
493.398	1039.31
493.615	1049.31
493.833	1050.31
494.05	1044.31
494.268	1077.31
494.485	1062.31
494.703	1068.31
494.92	1070.31
495.138	1055.31
495.355	1090.31
495.573	1067.31
495.79	1068.31
496.008	1116.31
496.225	1098.31
496.442	1093.31
496.66	1092.31
496.877	1131.31
497.094	1129.31
497.312	1139.31
497.529	1153.31
497.746	1219.31
497.963	1254.31
498.181	1313.31
498.398	1337.31
498.615	1427.31
498.832	1529.31
