Data from NiCl2@0.125M.TitratingCurve.Agarose3%dH2O.NegLispCup.LampEnergy10.LIBS07252019_HRD10591_18-27-15-574.txt Node
Date: Thu Jul 25 18:27:15 EDT 2019
User: cochatt
Spectrometer: HR+D1059
Trigger mode: 1
Integration Time (sec): 1.000000E-1
Scans to average: 1
Electric dark correction enabled: true
Nonlinearity correction enabled: false
Boxcar width: 0
XAxis mode: Wavelengths
Number of Pixels in Spectrum: 2048
>>>>>Begin Spectral Data<<<<<
223.165	-13.62
223.4	-13.62
223.635	-13.62
223.869	-20.62
224.104	-10.62
224.338	-15.62
224.573	-22.62
224.808	-18.62
225.042	13.38
225.277	-3.62
225.511	-4.62
225.746	8.38
225.98	13.38
226.215	3.38
226.449	14.38
226.683	14.38
226.918	12.38
227.152	30.38
227.387	27.38
227.621	29.38
227.856	55.38
228.09	41.38
228.324	48.38
228.559	56.38
228.793	72.38
229.027	116.38
229.262	112.38
229.496	123.38
229.73	141.38
229.964	124.38
230.199	144.38
230.433	155.38
230.667	141.38
230.901	146.38
231.136	148.38
231.37	161.38
231.604	165.38
231.838	166.38
232.072	171.38
232.306	170.38
232.541	160.38
232.775	163.38
233.009	169.38
233.243	177.38
233.477	170.38
233.711	164.38
233.945	162.38
234.179	162.38
234.413	176.38
234.647	162.38
234.881	181.38
235.115	176.38
235.349	182.38
235.583	171.38
235.817	181.38
236.051	182.38
236.285	164.38
236.519	155.38
236.753	169.38
236.987	169.38
237.221	179.38
237.455	158.38
237.689	181.38
237.922	186.38
238.156	201.38
238.39	198.38
238.624	205.38
238.858	191.38
239.091	187.38
239.325	196.38
239.559	186.38
239.793	209.38
240.027	213.38
240.26	196.38
240.494	206.38
240.728	209.38
240.961	209.38
241.195	212.38
241.429	218.38
241.662	223.38
241.896	220.38
242.13	231.38
242.363	209.38
242.597	201.38
242.83	228.38
243.064	233.38
243.298	237.38
243.531	227.38
243.765	249.38
243.998	236.38
244.232	252.38
244.465	242.38
244.699	226.38
244.932	247.38
245.166	240.38
245.399	274.38
245.633	268.38
245.866	252.38
246.099	249.38
246.333	259.38
246.566	257.38
246.8	265.38
247.033	240.38
247.266	264.38
247.5	256.38
247.733	268.38
247.966	282.38
248.2	291.38
248.433	274.38
248.666	275.38
248.899	277.38
249.133	267.38
249.366	296.38
249.599	275.38
249.832	281.38
250.066	302.38
250.299	279.38
250.532	296.38
250.765	294.38
250.998	300.38
251.231	305.38
251.465	296.38
251.698	316.38
251.931	320.38
252.164	304.38
252.397	327.38
252.63	317.38
252.863	326.38
253.096	317.38
253.329	314.38
253.562	322.38
253.795	324.38
254.028	320.38
254.261	326.38
254.494	327.38
254.727	334.38
254.96	318.38
255.193	310.38
255.426	337.38
255.659	321.38
255.892	331.38
256.124	322.38
256.357	341.38
256.59	310.38
256.823	352.38
257.056	348.38
257.289	356.38
257.521	344.38
257.754	359.38
257.987	339.38
258.22	353.38
258.452	367.38
258.685	377.38
258.918	362.38
259.151	371.38
259.383	354.38
259.616	357.38
259.849	365.38
260.081	376.38
260.314	368.38
260.547	364.38
260.779	402.38
261.012	365.38
261.244	384.38
261.477	400.38
261.71	378.38
261.942	392.38
262.175	397.38
262.407	398.38
262.64	396.38
262.872	399.38
263.105	402.38
263.337	377.38
263.57	397.38
263.802	402.38
264.035	382.38
264.267	407.38
264.499	397.38
264.732	398.38
264.964	396.38
265.197	405.38
265.429	409.38
265.661	396.38
265.894	411.38
266.126	413.38
266.358	403.38
266.591	425.38
266.823	412.38
267.055	428.38
267.287	442.38
267.52	434.38
267.752	413.38
267.984	434.38
268.216	445.38
268.448	426.38
268.681	434.38
268.913	441.38
269.145	425.38
269.377	441.38
269.609	437.38
269.841	445.38
270.073	423.38
270.306	437.38
270.538	463.38
270.77	445.38
271.002	444.38
271.234	449.38
271.466	448.38
271.698	468.38
271.93	458.38
272.162	460.38
272.394	445.38
272.626	467.38
272.858	472.38
273.09	486.38
273.322	464.38
273.553	481.38
273.785	500.38
274.017	461.38
274.249	484.38
274.481	475.38
274.713	485.38
274.945	482.38
275.176	487.38
275.408	504.38
275.64	493.38
275.872	470.38
276.104	488.38
276.335	500.38
276.567	500.38
276.799	508.38
277.031	516.38
277.262	507.38
277.494	501.38
277.726	494.38
277.957	503.38
278.189	518.38
278.421	508.38
278.652	512.38
278.884	522.38
279.115	523.38
279.347	502.38
279.579	517.38
279.81	553.38
280.042	522.38
280.273	543.38
280.505	540.38
280.736	534.38
280.968	561.38
281.199	540.38
281.431	538.38
281.662	531.38
281.894	570.38
282.125	554.38
282.356	557.38
282.588	543.38
282.819	556.38
283.051	573.38
283.282	568.38
283.513	544.38
283.745	573.38
283.976	569.38
284.207	561.38
284.439	571.38
284.67	560.38
284.901	591.38
285.132	602.38
285.364	577.38
285.595	582.38
285.826	571.38
286.057	592.38
286.288	588.38
286.52	600.38
286.751	601.38
286.982	585.38
287.213	615.38
287.444	610.38
287.675	600.38
287.906	607.38
288.138	603.38
288.369	601.38
288.6	646.38
288.831	628.38
289.062	621.38
289.293	607.38
289.524	606.38
289.755	631.38
289.986	636.38
290.217	625.38
290.448	602.38
290.679	620.38
290.91	643.38
291.141	642.38
291.371	620.38
291.602	632.38
291.833	624.38
292.064	632.38
292.295	623.38
292.526	632.38
292.757	629.38
292.987	618.38
293.218	642.38
293.449	652.38
293.68	629.38
293.91	614.38
294.141	611.38
294.372	622.38
294.603	619.38
294.833	643.38
295.064	634.38
295.295	635.38
295.525	640.38
295.756	634.38
295.987	636.38
296.217	651.38
296.448	657.38
296.679	660.38
296.909	642.38
297.14	649.38
297.37	684.38
297.601	658.38
297.831	654.38
298.062	685.38
298.292	677.38
298.523	678.38
298.753	704.38
298.984	683.38
299.214	677.38
299.445	673.38
299.675	676.38
299.905	689.38
300.136	688.38
300.366	690.38
300.597	701.38
300.827	691.38
301.057	703.38
301.288	714.38
301.518	717.38
301.748	725.38
301.979	738.38
302.209	702.38
302.439	698.38
302.669	696.38
302.9	692.38
303.13	710.38
303.36	729.38
303.59	714.38
303.82	731.38
304.051	698.38
304.281	731.38
304.511	717.38
304.741	705.38
304.971	723.38
305.201	730.38
305.431	723.38
305.661	689.38
305.891	701.38
306.121	704.38
306.352	720.38
306.582	707.38
306.812	693.38
307.042	697.38
307.272	684.38
307.502	695.38
307.731	691.38
307.961	712.38
308.191	698.38
308.421	677.38
308.651	718.38
308.881	677.38
309.111	702.38
309.341	676.38
309.571	708.38
309.8	709.38
310.03	703.38
310.26	702.38
310.49	713.38
310.72	697.38
310.949	702.38
311.179	732.38
311.409	709.38
311.639	736.38
311.868	718.38
312.098	756.38
312.328	714.38
312.557	744.38
312.787	727.38
313.017	746.38
313.246	737.38
313.476	777.38
313.706	766.38
313.935	754.38
314.165	764.38
314.394	747.38
314.624	744.38
314.853	756.38
315.083	733.38
315.312	758.38
315.542	740.38
315.771	744.38
316.001	752.38
316.23	768.38
316.46	747.38
316.689	714.38
316.919	781.38
317.148	770.38
317.377	787.38
317.607	744.38
317.836	768.38
318.065	748.38
318.295	737.38
318.524	764.38
318.753	732.38
318.983	769.38
319.212	736.38
319.441	746.38
319.67	749.38
319.9	776.38
320.129	759.38
320.358	759.38
320.587	736.38
320.816	754.38
321.046	768.38
321.275	746.38
321.504	768.38
321.733	767.38
321.962	777.38
322.191	773.38
322.42	763.38
322.649	745.38
322.878	758.38
323.108	778.38
323.337	792.38
323.566	756.38
323.795	772.38
324.024	774.38
324.253	777.38
324.482	797.38
324.71	790.38
324.939	811.38
325.168	803.38
325.397	809.38
325.626	791.38
325.855	802.38
326.084	828.38
326.313	831.38
326.542	798.38
326.77	857.38
326.999	809.38
327.228	807.38
327.457	837.38
327.686	806.38
327.914	828.38
328.143	812.38
328.372	851.38
328.6	845.38
328.829	844.38
329.058	796.38
329.287	846.38
329.515	831.38
329.744	841.38
329.972	829.38
330.201	835.38
330.43	845.38
330.658	860.38
330.887	852.38
331.115	860.38
331.344	860.38
331.572	900.38
331.801	912.38
332.03	911.38
332.258	933.38
332.486	941.38
332.715	986.38
332.943	981.38
333.172	1040.38
333.4	1041.38
333.629	1061.38
333.857	1092.38
334.085	1076.38
334.314	1098.38
334.542	1068.38
334.771	1021.38
334.999	1027.38
335.227	1028.38
335.455	1029.38
335.684	1031.38
335.912	1000.38
336.14	980.38
336.369	1008.38
336.597	997.38
336.825	1033.38
337.053	996.38
337.281	966.38
337.51	967.38
337.738	973.38
337.966	955.38
338.194	909.38
338.422	918.38
338.65	910.38
338.878	952.38
339.106	904.38
339.334	910.38
339.562	893.38
339.79	906.38
340.018	884.38
340.246	884.38
340.474	893.38
340.702	888.38
340.93	877.38
341.158	910.38
341.386	902.38
341.614	892.38
341.842	908.38
342.07	882.38
342.298	869.38
342.526	862.38
342.754	890.38
342.981	906.38
343.209	884.38
343.437	907.38
343.665	980.38
343.893	1020.38
344.12	1076.38
344.348	1005.38
344.576	976.38
344.804	950.38
345.031	909.38
345.259	917.38
345.487	915.38
345.714	870.38
345.942	860.38
346.17	877.38
346.397	875.38
346.625	868.38
346.853	829.38
347.08	849.38
347.308	857.38
347.535	816.38
347.763	835.38
347.99	817.38
348.218	830.38
348.445	813.38
348.673	831.38
348.9	840.38
349.128	828.38
349.355	846.38
349.583	839.38
349.81	837.38
350.037	852.38
350.265	828.38
350.492	837.38
350.72	825.38
350.947	797.38
351.174	786.38
351.402	830.38
351.629	824.38
351.856	809.38
352.083	822.38
352.311	817.38
352.538	841.38
352.765	818.38
352.992	808.38
353.22	809.38
353.447	797.38
353.674	814.38
353.901	791.38
354.128	784.38
354.355	793.38
354.583	807.38
354.81	791.38
355.037	803.38
355.264	818.38
355.491	828.38
355.718	800.38
355.945	801.38
356.172	809.38
356.399	833.38
356.626	826.38
356.853	825.38
357.08	802.38
357.307	789.38
357.534	807.38
357.761	822.38
357.988	820.38
358.215	828.38
358.441	825.38
358.668	831.38
358.895	843.38
359.122	820.38
359.349	788.38
359.576	792.38
359.802	806.38
360.029	821.38
360.256	832.38
360.483	830.38
360.709	833.38
360.936	822.38
361.163	798.38
361.39	800.38
361.616	806.38
361.843	822.38
362.07	802.38
362.296	852.38
362.523	812.38
362.749	855.38
362.976	816.38
363.203	815.38
363.429	816.38
363.656	828.38
363.882	831.38
364.109	816.38
364.335	845.38
364.562	797.38
364.788	811.38
365.015	789.38
365.241	820.38
365.468	824.38
365.694	822.38
365.92	834.38
366.147	807.38
366.373	807.38
366.599	825.38
366.826	825.38
367.052	809.38
367.278	814.38
367.505	819.38
367.731	813.38
367.957	801.38
368.184	845.38
368.41	838.38
368.636	835.38
368.862	860.38
369.089	853.38
369.315	850.38
369.541	822.38
369.767	861.38
369.993	849.38
370.219	855.38
370.445	851.38
370.672	871.38
370.898	866.38
371.124	862.38
371.35	883.38
371.576	896.38
371.802	893.38
372.028	894.38
372.254	903.38
372.48	877.38
372.706	914.38
372.932	892.38
373.158	896.38
373.384	902.38
373.61	892.38
373.835	869.38
374.061	879.38
374.287	892.38
374.513	905.38
374.739	938.38
374.965	941.38
375.191	982.38
375.416	976.38
375.642	952.38
375.868	911.38
376.094	902.38
376.319	907.38
376.545	900.38
376.771	917.38
376.997	893.38
377.222	882.38
377.448	874.38
377.674	880.38
377.899	863.38
378.125	901.38
378.35	878.38
378.576	883.38
378.802	866.38
379.027	870.38
379.253	873.38
379.478	875.38
379.704	882.38
379.929	880.38
380.155	891.38
380.38	896.38
380.606	932.38
380.831	900.38
381.057	858.38
381.282	901.38
381.507	900.38
381.733	894.38
381.958	888.38
382.184	906.38
382.409	901.38
382.634	898.38
382.86	932.38
383.085	942.38
383.31	938.38
383.535	973.38
383.761	990.38
383.986	991.38
384.211	995.38
384.436	995.38
384.662	990.38
384.887	1032.38
385.112	1046.38
385.337	1068.38
385.562	1049.38
385.787	1060.38
386.013	1073.38
386.238	1118.38
386.463	1084.38
386.688	1077.38
386.913	1077.38
387.138	1074.38
387.363	1083.38
387.588	1051.38
387.813	1068.38
388.038	1078.38
388.263	1067.38
388.488	1082.38
388.713	1066.38
388.938	1057.38
389.163	1055.38
389.387	1045.38
389.612	1033.38
389.837	1044.38
390.062	1061.38
390.287	1074.38
390.512	1046.38
390.736	1105.38
390.961	1110.38
391.186	1101.38
391.411	1127.38
391.636	1149.38
391.86	1191.38
392.085	1218.38
392.31	1216.38
392.534	1225.38
392.759	1162.38
392.984	1124.38
393.208	1147.38
393.433	1164.38
393.658	1154.38
393.882	1110.38
394.107	1163.38
394.331	1136.38
394.556	1150.38
394.78	1193.38
395.005	1152.38
395.229	1171.38
395.454	1157.38
395.678	1215.38
395.903	1208.38
396.127	1233.38
396.352	1176.38
396.576	1181.38
396.801	1153.38
397.025	1194.38
397.249	1212.38
397.474	1213.38
397.698	1230.38
397.922	1248.38
398.147	1200.38
398.371	1242.38
398.595	1276.38
398.82	1360.38
399.044	1419.38
399.268	1546.38
399.492	1734.38
399.717	1871.38
399.941	1895.38
400.165	1798.38
400.389	1624.38
400.613	1536.38
400.837	1469.38
401.062	1401.38
401.286	1414.38
401.51	1396.38
401.734	1367.38
401.958	1388.38
402.182	1387.38
402.406	1381.38
402.63	1398.38
402.854	1400.38
403.078	1427.38
403.302	1444.38
403.526	1447.38
403.75	1484.38
403.974	1512.38
404.198	1501.38
404.422	1479.38
404.645	1489.38
404.869	1484.38
405.093	1487.38
405.317	1464.38
405.541	1454.38
405.765	1484.38
405.988	1433.38
406.212	1456.38
406.436	1490.38
406.66	1505.38
406.883	1541.38
407.107	1579.38
407.331	1629.38
407.555	1678.38
407.778	1673.38
408.002	1637.38
408.226	1617.38
408.449	1601.38
408.673	1563.38
408.896	1531.38
409.12	1504.38
409.344	1527.38
409.567	1500.38
409.791	1488.38
410.014	1472.38
410.238	1433.38
410.461	1479.38
410.685	1492.38
410.908	1432.38
411.132	1425.38
411.355	1382.38
411.578	1402.38
411.802	1414.38
412.025	1373.38
412.249	1466.38
412.472	1411.38
412.695	1390.38
412.919	1362.38
413.142	1362.38
413.365	1357.38
413.589	1359.38
413.812	1366.38
414.035	1334.38
414.258	1340.38
414.482	1388.38
414.705	1376.38
414.928	1368.38
415.151	1357.38
415.374	1354.38
415.597	1356.38
415.821	1334.38
416.044	1323.38
416.267	1312.38
416.49	1322.38
416.713	1292.38
416.936	1316.38
417.159	1291.38
417.382	1304.38
417.605	1307.38
417.828	1341.38
418.051	1315.38
418.274	1319.38
418.497	1319.38
418.72	1344.38
418.943	1300.38
419.166	1404.38
419.389	1517.38
419.611	1454.38
419.834	1420.38
420.057	1404.38
420.28	1330.38
420.503	1296.38
420.726	1306.38
420.948	1285.38
421.171	1300.38
421.394	1294.38
421.617	1342.38
421.839	1298.38
422.062	1333.38
422.285	1311.38
422.507	1349.38
422.73	1341.38
422.953	1325.38
423.175	1333.38
423.398	1352.38
423.621	1353.38
423.843	1368.38
424.066	1333.38
424.288	1393.38
424.511	1339.38
424.733	1354.38
424.956	1334.38
425.178	1292.38
425.401	1316.38
425.623	1315.38
425.846	1320.38
426.068	1320.38
426.291	1284.38
426.513	1259.38
426.735	1250.38
426.958	1273.38
427.18	1242.38
427.402	1234.38
427.625	1238.38
427.847	1217.38
428.069	1212.38
428.292	1216.38
428.514	1192.38
428.736	1205.38
428.958	1204.38
429.181	1175.38
429.403	1164.38
429.625	1144.38
429.847	1169.38
430.069	1153.38
430.292	1157.38
430.514	1169.38
430.736	1153.38
430.958	1178.38
431.18	1165.38
431.402	1184.38
431.624	1158.38
431.846	1184.38
432.068	1165.38
432.29	1206.38
432.512	1206.38
432.734	1219.38
432.956	1174.38
433.178	1196.38
433.4	1213.38
433.622	1223.38
433.844	1245.38
434.066	1252.38
434.287	1224.38
434.509	1262.38
434.731	1283.38
434.953	1321.38
435.175	1323.38
435.397	1291.38
435.618	1297.38
435.84	1257.38
436.062	1194.38
436.284	1203.38
436.505	1151.38
436.727	1229.38
436.949	1195.38
437.17	1174.38
437.392	1178.38
437.614	1171.38
437.835	1133.38
438.057	1152.38
438.278	1137.38
438.5	1148.38
438.721	1148.38
438.943	1171.38
439.165	1134.38
439.386	1166.38
439.608	1162.38
439.829	1164.38
440.05	1189.38
440.272	1188.38
440.493	1207.38
440.715	1193.38
440.936	1204.38
441.158	1220.38
441.379	1257.38
441.6	1312.38
441.822	1331.38
442.043	1329.38
442.264	1297.38
442.486	1279.38
442.707	1292.38
442.928	1264.38
443.149	1309.38
443.371	1297.38
443.592	1282.38
443.813	1325.38
444.034	1333.38
444.255	1394.38
444.476	1424.38
444.698	1450.38
444.919	1501.38
445.14	1589.38
445.361	1437.38
445.582	1363.38
445.803	1328.38
446.024	1253.38
446.245	1245.38
446.466	1256.38
446.687	1220.38
446.908	1212.38
447.129	1179.38
447.35	1167.38
447.571	1152.38
447.792	1132.38
448.013	1093.38
448.234	1150.38
448.455	1104.38
448.675	1095.38
448.896	1094.38
449.117	1064.38
449.338	1072.38
449.559	1078.38
449.779	1079.38
450	1092.38
450.221	1064.38
450.442	1094.38
450.662	1062.38
450.883	1073.38
451.104	1113.38
451.324	1113.38
451.545	1097.38
451.766	1084.38
451.986	1069.38
452.207	1067.38
452.428	1079.38
452.648	1062.38
452.869	1037.38
453.089	1003.38
453.31	1045.38
453.53	1031.38
453.751	1029.38
453.971	1039.38
454.192	1040.38
454.412	1020.38
454.633	1026.38
454.853	1030.38
455.073	1024.38
455.294	1037.38
455.514	1031.38
455.734	1017.38
455.955	1014.38
456.175	1019.38
456.395	1002.38
456.616	1003.38
456.836	998.38
457.056	1030.38
457.276	996.38
457.497	999.38
457.717	1038.38
457.937	1022.38
458.157	1023.38
458.377	1027.38
458.598	1093.38
458.818	1108.38
459.038	1120.38
459.258	1163.38
459.478	1189.38
459.698	1220.38
459.918	1216.38
460.138	1298.38
460.358	1326.38
460.578	1379.38
460.798	1392.38
461.018	1398.38
461.238	1355.38
461.458	1367.38
461.678	1378.38
461.898	1403.38
462.118	1384.38
462.338	1470.38
462.558	1490.38
462.777	1524.38
462.997	1639.38
463.217	1732.38
463.437	1756.38
463.657	1628.38
463.876	1591.38
464.096	1572.38
464.316	1571.38
464.536	1561.38
464.755	1515.38
464.975	1465.38
465.195	1433.38
465.414	1366.38
465.634	1264.38
465.854	1242.38
466.073	1188.38
466.293	1182.38
466.512	1167.38
466.732	1146.38
466.951	1174.38
467.171	1140.38
467.391	1125.38
467.61	1130.38
467.829	1151.38
468.049	1147.38
468.268	1086.38
468.488	1069.38
468.707	1098.38
468.927	1114.38
469.146	1112.38
469.365	1106.38
469.585	1124.38
469.804	1150.38
470.023	1162.38
470.243	1152.38
470.462	1142.38
470.681	1184.38
470.901	1196.38
471.12	1142.38
471.339	1128.38
471.558	1126.38
471.777	1117.38
471.997	1124.38
472.216	1136.38
472.435	1123.38
472.654	1093.38
472.873	1055.38
473.092	1088.38
473.311	1109.38
473.53	1115.38
473.749	1113.38
473.968	1083.38
474.187	1093.38
474.406	1098.38
474.625	1049.38
474.844	1074.38
475.063	1089.38
475.282	1070.38
475.501	1093.38
475.72	1087.38
475.939	1091.38
476.158	1134.38
476.377	1130.38
476.596	1108.38
476.814	1164.38
477.033	1113.38
477.252	1154.38
477.471	1160.38
477.69	1214.38
477.908	1252.38
478.127	1290.38
478.346	1297.38
478.564	1322.38
478.783	1314.38
479.002	1338.38
479.22	1334.38
479.439	1377.38
479.658	1338.38
479.876	1380.38
480.095	1389.38
480.313	1406.38
480.532	1380.38
480.751	1410.38
480.969	1391.38
481.188	1339.38
481.406	1323.38
481.624	1304.38
481.843	1277.38
482.061	1263.38
482.28	1223.38
482.498	1264.38
482.717	1245.38
482.935	1255.38
483.153	1280.38
483.372	1256.38
483.59	1300.38
483.808	1272.38
484.027	1247.38
484.245	1286.38
484.463	1308.38
484.681	1303.38
484.9	1305.38
485.118	1309.38
485.336	1306.38
485.554	1357.38
485.772	1332.38
485.99	1303.38
486.209	1304.38
486.427	1349.38
486.645	1326.38
486.863	1300.38
487.081	1304.38
487.299	1338.38
487.517	1332.38
487.735	1332.38
487.953	1303.38
488.171	1351.38
488.389	1308.38
488.607	1321.38
488.825	1257.38
489.043	1298.38
489.261	1306.38
489.479	1309.38
489.696	1349.38
489.914	1302.38
490.132	1306.38
490.35	1334.38
490.568	1354.38
490.786	1324.38
491.003	1335.38
491.221	1325.38
491.439	1312.38
491.657	1340.38
491.874	1398.38
492.092	1345.38
492.31	1352.38
492.527	1355.38
492.745	1369.38
492.963	1357.38
493.18	1365.38
493.398	1366.38
493.615	1349.38
493.833	1366.38
494.05	1376.38
494.268	1343.38
494.485	1407.38
