Data from NiCl2@0.25M.TitratingCurve.Agarose3%dH2O.NegLispCup.LampEnergy10.LIBS07252019_HRD10591_18-23-57-573.txt Node
Date: Thu Jul 25 18:23:57 EDT 2019
User: cochatt
Spectrometer: HR+D1059
Trigger mode: 1
Integration Time (sec): 1.000000E-1
Scans to average: 1
Electric dark correction enabled: true
Nonlinearity correction enabled: false
Boxcar width: 0
XAxis mode: Wavelengths
Number of Pixels in Spectrum: 2048
>>>>>Begin Spectral Data<<<<<
223.165	-21.94
223.4	-21.94
223.635	-21.94
223.869	-29.94
224.104	-13.94
224.338	-14.94
224.573	-18.94
224.808	-16.94
225.042	-1.94
225.277	-16.94
225.511	-1.94
225.746	2.06
225.98	17.06
226.215	8.06
226.449	23.06
226.683	23.06
226.918	34.06
227.152	30.06
227.387	29.06
227.621	31.06
227.856	39.06
228.09	41.06
228.324	57.06
228.559	62.06
228.793	70.06
229.027	105.06
229.262	127.06
229.496	119.06
229.73	129.06
229.964	125.06
230.199	124.06
230.433	134.06
230.667	151.06
230.901	147.06
231.136	152.06
231.37	159.06
231.604	152.06
231.838	152.06
232.072	151.06
232.306	154.06
232.541	168.06
232.775	184.06
233.009	164.06
233.243	177.06
233.477	159.06
233.711	167.06
233.945	166.06
234.179	187.06
234.413	175.06
234.647	157.06
234.881	174.06
235.115	167.06
235.349	168.06
235.583	170.06
235.817	160.06
236.051	185.06
236.285	175.06
236.519	188.06
236.753	183.06
236.987	178.06
237.221	194.06
237.455	188.06
237.689	179.06
237.922	199.06
238.156	184.06
238.39	198.06
238.624	197.06
238.858	185.06
239.091	203.06
239.325	194.06
239.559	203.06
239.793	200.06
240.027	212.06
240.26	206.06
240.494	212.06
240.728	212.06
240.961	219.06
241.195	212.06
241.429	223.06
241.662	205.06
241.896	232.06
242.13	205.06
242.363	239.06
242.597	246.06
242.83	226.06
243.064	221.06
243.298	236.06
243.531	262.06
243.765	235.06
243.998	240.06
244.232	262.06
244.465	241.06
244.699	245.06
244.932	261.06
245.166	251.06
245.399	261.06
245.633	260.06
245.866	256.06
246.099	252.06
246.333	274.06
246.566	268.06
246.8	259.06
247.033	270.06
247.266	272.06
247.5	263.06
247.733	272.06
247.966	266.06
248.2	283.06
248.433	299.06
248.666	280.06
248.899	280.06
249.133	280.06
249.366	276.06
249.599	304.06
249.832	304.06
250.066	285.06
250.299	312.06
250.532	284.06
250.765	311.06
250.998	305.06
251.231	304.06
251.465	303.06
251.698	321.06
251.931	310.06
252.164	315.06
252.397	312.06
252.63	323.06
252.863	325.06
253.096	339.06
253.329	328.06
253.562	327.06
253.795	337.06
254.028	336.06
254.261	347.06
254.494	329.06
254.727	357.06
254.96	319.06
255.193	353.06
255.426	362.06
255.659	353.06
255.892	354.06
256.124	372.06
256.357	358.06
256.59	371.06
256.823	345.06
257.056	351.06
257.289	370.06
257.521	365.06
257.754	375.06
257.987	362.06
258.22	367.06
258.452	362.06
258.685	367.06
258.918	358.06
259.151	383.06
259.383	396.06
259.616	380.06
259.849	370.06
260.081	379.06
260.314	381.06
260.547	390.06
260.779	381.06
261.012	384.06
261.244	386.06
261.477	401.06
261.71	383.06
261.942	390.06
262.175	390.06
262.407	392.06
262.64	382.06
262.872	401.06
263.105	426.06
263.337	425.06
263.57	409.06
263.802	417.06
264.035	417.06
264.267	420.06
264.499	405.06
264.732	419.06
264.964	422.06
265.197	411.06
265.429	434.06
265.661	427.06
265.894	433.06
266.126	439.06
266.358	433.06
266.591	424.06
266.823	437.06
267.055	439.06
267.287	443.06
267.52	453.06
267.752	460.06
267.984	444.06
268.216	453.06
268.448	451.06
268.681	452.06
268.913	452.06
269.145	448.06
269.377	469.06
269.609	463.06
269.841	450.06
270.073	448.06
270.306	471.06
270.538	456.06
270.77	463.06
271.002	460.06
271.234	477.06
271.466	473.06
271.698	462.06
271.93	473.06
272.162	473.06
272.394	482.06
272.626	463.06
272.858	490.06
273.09	485.06
273.322	490.06
273.553	476.06
273.785	474.06
274.017	495.06
274.249	525.06
274.481	492.06
274.713	501.06
274.945	495.06
275.176	499.06
275.408	507.06
275.64	511.06
275.872	519.06
276.104	522.06
276.335	508.06
276.567	539.06
276.799	512.06
277.031	531.06
277.262	537.06
277.494	513.06
277.726	514.06
277.957	548.06
278.189	535.06
278.421	530.06
278.652	532.06
278.884	538.06
279.115	561.06
279.347	560.06
279.579	554.06
279.81	551.06
280.042	550.06
280.273	564.06
280.505	569.06
280.736	527.06
280.968	552.06
281.199	580.06
281.431	581.06
281.662	579.06
281.894	600.06
282.125	584.06
282.356	579.06
282.588	590.06
282.819	603.06
283.051	600.06
283.282	584.06
283.513	592.06
283.745	593.06
283.976	593.06
284.207	618.06
284.439	617.06
284.67	607.06
284.901	613.06
285.132	598.06
285.364	609.06
285.595	615.06
285.826	593.06
286.057	625.06
286.288	615.06
286.52	592.06
286.751	618.06
286.982	630.06
287.213	635.06
287.444	643.06
287.675	632.06
287.906	623.06
288.138	637.06
288.369	625.06
288.6	624.06
288.831	649.06
289.062	642.06
289.293	638.06
289.524	649.06
289.755	652.06
289.986	637.06
290.217	628.06
290.448	650.06
290.679	647.06
290.91	656.06
291.141	652.06
291.371	648.06
291.602	662.06
291.833	637.06
292.064	666.06
292.295	659.06
292.526	657.06
292.757	670.06
292.987	681.06
293.218	651.06
293.449	671.06
293.68	663.06
293.91	642.06
294.141	681.06
294.372	648.06
294.603	666.06
294.833	660.06
295.064	669.06
295.295	673.06
295.525	654.06
295.756	664.06
295.987	651.06
296.217	693.06
296.448	685.06
296.679	694.06
296.909	673.06
297.14	700.06
297.37	685.06
297.601	691.06
297.831	701.06
298.062	699.06
298.292	696.06
298.523	720.06
298.753	717.06
298.984	710.06
299.214	730.06
299.445	719.06
299.675	715.06
299.905	726.06
300.136	703.06
300.366	739.06
300.597	732.06
300.827	748.06
301.057	743.06
301.288	792.06
301.518	757.06
301.748	747.06
301.979	772.06
302.209	773.06
302.439	776.06
302.669	766.06
302.9	748.06
303.13	763.06
303.36	758.06
303.59	771.06
303.82	760.06
304.051	747.06
304.281	727.06
304.511	757.06
304.741	747.06
304.971	725.06
305.201	759.06
305.431	768.06
305.661	760.06
305.891	715.06
306.121	751.06
306.352	733.06
306.582	731.06
306.812	716.06
307.042	737.06
307.272	713.06
307.502	717.06
307.731	738.06
307.961	722.06
308.191	724.06
308.421	740.06
308.651	731.06
308.881	730.06
309.111	752.06
309.341	727.06
309.571	712.06
309.8	746.06
310.03	738.06
310.26	737.06
310.49	751.06
310.72	751.06
310.949	731.06
311.179	753.06
311.409	732.06
311.639	751.06
311.868	764.06
312.098	743.06
312.328	785.06
312.557	777.06
312.787	786.06
313.017	781.06
313.246	793.06
313.476	783.06
313.706	780.06
313.935	780.06
314.165	779.06
314.394	810.06
314.624	798.06
314.853	797.06
315.083	771.06
315.312	789.06
315.542	793.06
315.771	800.06
316.001	744.06
316.23	760.06
316.46	809.06
316.689	771.06
316.919	771.06
317.148	767.06
317.377	771.06
317.607	779.06
317.836	786.06
318.065	757.06
318.295	771.06
318.524	769.06
318.753	755.06
318.983	767.06
319.212	743.06
319.441	757.06
319.67	793.06
319.9	804.06
320.129	788.06
320.358	792.06
320.587	790.06
320.816	794.06
321.046	767.06
321.275	785.06
321.504	774.06
321.733	795.06
321.962	764.06
322.191	780.06
322.42	793.06
322.649	795.06
322.878	781.06
323.108	792.06
323.337	817.06
323.566	806.06
323.795	813.06
324.024	800.06
324.253	802.06
324.482	808.06
324.71	809.06
324.939	813.06
325.168	817.06
325.397	828.06
325.626	836.06
325.855	836.06
326.084	824.06
326.313	859.06
326.542	869.06
326.77	883.06
326.999	839.06
327.228	834.06
327.457	815.06
327.686	841.06
327.914	835.06
328.143	838.06
328.372	844.06
328.6	837.06
328.829	838.06
329.058	856.06
329.287	855.06
329.515	842.06
329.744	860.06
329.972	870.06
330.201	878.06
330.43	859.06
330.658	860.06
330.887	871.06
331.115	893.06
331.344	889.06
331.572	899.06
331.801	927.06
332.03	958.06
332.258	977.06
332.486	985.06
332.715	1033.06
332.943	1103.06
333.172	1111.06
333.4	1160.06
333.629	1183.06
333.857	1209.06
334.085	1212.06
334.314	1128.06
334.542	1136.06
334.771	1123.06
334.999	1111.06
335.227	1127.06
335.455	1118.06
335.684	1077.06
335.912	1075.06
336.14	1079.06
336.369	1043.06
336.597	1080.06
336.825	1028.06
337.053	1028.06
337.281	1038.06
337.51	995.06
337.738	979.06
337.966	981.06
338.194	956.06
338.422	970.06
338.65	948.06
338.878	921.06
339.106	945.06
339.334	930.06
339.562	939.06
339.79	924.06
340.018	908.06
340.246	900.06
340.474	887.06
340.702	891.06
340.93	891.06
341.158	890.06
341.386	896.06
341.614	893.06
341.842	899.06
342.07	874.06
342.298	890.06
342.526	895.06
342.754	859.06
342.981	919.06
343.209	933.06
343.437	969.06
343.665	1010.06
343.893	1087.06
344.12	1140.06
344.348	1077.06
344.576	1035.06
344.804	1008.06
345.031	947.06
345.259	924.06
345.487	881.06
345.714	897.06
345.942	868.06
346.17	907.06
346.397	887.06
346.625	871.06
346.853	857.06
347.08	868.06
347.308	869.06
347.535	863.06
347.763	868.06
347.99	850.06
348.218	853.06
348.445	837.06
348.673	833.06
348.9	842.06
349.128	847.06
349.355	855.06
349.583	861.06
349.81	857.06
350.037	850.06
350.265	815.06
350.492	844.06
350.72	825.06
350.947	812.06
351.174	835.06
351.402	819.06
351.629	823.06
351.856	830.06
352.083	822.06
352.311	832.06
352.538	858.06
352.765	840.06
352.992	816.06
353.22	815.06
353.447	826.06
353.674	799.06
353.901	822.06
354.128	822.06
354.355	817.06
354.583	812.06
354.81	823.06
355.037	834.06
355.264	804.06
355.491	819.06
355.718	845.06
355.945	829.06
356.172	835.06
356.399	860.06
356.626	823.06
356.853	835.06
357.08	809.06
357.307	841.06
357.534	824.06
357.761	830.06
357.988	837.06
358.215	814.06
358.441	834.06
358.668	824.06
358.895	831.06
359.122	826.06
359.349	840.06
359.576	815.06
359.802	839.06
360.029	855.06
360.256	852.06
360.483	868.06
360.709	846.06
360.936	826.06
361.163	851.06
361.39	822.06
361.616	819.06
361.843	826.06
362.07	849.06
362.296	839.06
362.523	828.06
362.749	841.06
362.976	807.06
363.203	828.06
363.429	813.06
363.656	839.06
363.882	824.06
364.109	807.06
364.335	822.06
364.562	810.06
364.788	825.06
365.015	817.06
365.241	804.06
365.468	817.06
365.694	817.06
365.92	805.06
366.147	837.06
366.373	822.06
366.599	784.06
366.826	828.06
367.052	823.06
367.278	833.06
367.505	832.06
367.731	832.06
367.957	823.06
368.184	857.06
368.41	848.06
368.636	835.06
368.862	847.06
369.089	870.06
369.315	841.06
369.541	837.06
369.767	856.06
369.993	845.06
370.219	870.06
370.445	845.06
370.672	853.06
370.898	903.06
371.124	900.06
371.35	887.06
371.576	863.06
371.802	899.06
372.028	880.06
372.254	928.06
372.48	895.06
372.706	925.06
372.932	931.06
373.158	950.06
373.384	917.06
373.61	935.06
373.835	935.06
374.061	895.06
374.287	897.06
374.513	931.06
374.739	975.06
374.965	992.06
375.191	1006.06
375.416	993.06
375.642	949.06
375.868	967.06
376.094	934.06
376.319	925.06
376.545	893.06
376.771	909.06
376.997	933.06
377.222	899.06
377.448	901.06
377.674	893.06
377.899	879.06
378.125	899.06
378.35	885.06
378.576	879.06
378.802	908.06
379.027	887.06
379.253	871.06
379.478	869.06
379.704	878.06
379.929	915.06
380.155	885.06
380.38	918.06
380.606	887.06
380.831	877.06
381.057	903.06
381.282	885.06
381.507	900.06
381.733	872.06
381.958	915.06
382.184	917.06
382.409	943.06
382.634	957.06
382.86	961.06
383.085	959.06
383.31	1004.06
383.535	1001.06
383.761	986.06
383.986	1007.06
384.211	1037.06
384.436	1044.06
384.662	1064.06
384.887	1103.06
385.112	1114.06
385.337	1128.06
385.562	1105.06
385.787	1085.06
386.013	1124.06
386.238	1136.06
386.463	1135.06
386.688	1126.06
386.913	1109.06
387.138	1081.06
387.363	1115.06
387.588	1088.06
387.813	1083.06
388.038	1108.06
388.263	1072.06
388.488	1098.06
388.713	1094.06
388.938	1067.06
389.163	1069.06
389.387	1106.06
389.612	1084.06
389.837	1060.06
390.062	1092.06
390.287	1087.06
390.512	1077.06
390.736	1114.06
390.961	1148.06
391.186	1148.06
391.411	1191.06
391.636	1180.06
391.86	1271.06
392.085	1279.06
392.31	1296.06
392.534	1219.06
392.759	1215.06
392.984	1173.06
393.208	1207.06
393.433	1170.06
393.658	1152.06
393.882	1165.06
394.107	1185.06
394.331	1189.06
394.556	1202.06
394.78	1179.06
395.005	1202.06
395.229	1181.06
395.454	1239.06
395.678	1269.06
395.903	1244.06
396.127	1258.06
396.352	1223.06
396.576	1180.06
396.801	1185.06
397.025	1184.06
397.249	1221.06
397.474	1255.06
397.698	1281.06
397.922	1275.06
398.147	1279.06
398.371	1282.06
398.595	1324.06
398.82	1410.06
399.044	1510.06
399.268	1698.06
399.492	1916.06
399.717	2168.06
399.941	2175.06
400.165	2017.06
400.389	1761.06
400.613	1624.06
400.837	1545.06
401.062	1470.06
401.286	1432.06
401.51	1441.06
401.734	1437.06
401.958	1441.06
402.182	1467.06
402.406	1486.06
402.63	1496.06
402.854	1530.06
403.078	1491.06
403.302	1549.06
403.526	1592.06
403.75	1615.06
403.974	1660.06
404.198	1653.06
404.422	1624.06
404.645	1634.06
404.869	1618.06
405.093	1617.06
405.317	1581.06
405.541	1574.06
405.765	1539.06
405.988	1574.06
406.212	1601.06
406.436	1596.06
406.66	1609.06
406.883	1649.06
407.107	1736.06
407.331	1813.06
407.555	1891.06
407.778	1851.06
408.002	1805.06
408.226	1749.06
408.449	1768.06
408.673	1660.06
408.896	1595.06
409.12	1553.06
409.344	1610.06
409.567	1561.06
409.791	1594.06
410.014	1535.06
410.238	1548.06
410.461	1549.06
410.685	1531.06
410.908	1537.06
411.132	1480.06
411.355	1445.06
411.578	1474.06
411.802	1460.06
412.025	1473.06
412.249	1505.06
412.472	1497.06
412.695	1426.06
412.919	1420.06
413.142	1395.06
413.365	1435.06
413.589	1439.06
413.812	1388.06
414.035	1395.06
414.258	1399.06
414.482	1453.06
414.705	1444.06
414.928	1429.06
415.151	1447.06
415.374	1401.06
415.597	1431.06
415.821	1354.06
416.044	1370.06
416.267	1352.06
416.49	1387.06
416.713	1357.06
416.936	1364.06
417.159	1380.06
417.382	1390.06
417.605	1374.06
417.828	1377.06
418.051	1404.06
418.274	1374.06
418.497	1364.06
418.72	1423.06
418.943	1407.06
419.166	1536.06
419.389	1615.06
419.611	1571.06
419.834	1511.06
420.057	1431.06
420.28	1424.06
420.503	1425.06
420.726	1378.06
420.948	1387.06
421.171	1364.06
421.394	1399.06
421.617	1381.06
421.839	1415.06
422.062	1396.06
422.285	1362.06
422.507	1421.06
422.73	1391.06
422.953	1419.06
423.175	1453.06
423.398	1449.06
423.621	1435.06
423.843	1443.06
424.066	1468.06
424.288	1458.06
424.511	1459.06
424.733	1464.06
424.956	1418.06
425.178	1437.06
425.401	1401.06
425.623	1394.06
425.846	1353.06
426.068	1386.06
426.291	1360.06
426.513	1349.06
426.735	1293.06
426.958	1281.06
427.18	1272.06
427.402	1255.06
427.625	1220.06
427.847	1241.06
428.069	1257.06
428.292	1244.06
428.514	1199.06
428.736	1221.06
428.958	1218.06
429.181	1185.06
429.403	1194.06
429.625	1189.06
429.847	1181.06
430.069	1184.06
430.292	1188.06
430.514	1172.06
430.736	1187.06
430.958	1206.06
431.18	1190.06
431.402	1190.06
431.624	1202.06
431.846	1230.06
432.068	1208.06
432.29	1248.06
432.512	1196.06
432.734	1256.06
432.956	1184.06
433.178	1231.06
433.4	1223.06
433.622	1231.06
433.844	1226.06
434.066	1236.06
434.287	1261.06
434.509	1265.06
434.731	1340.06
434.953	1369.06
435.175	1384.06
435.397	1365.06
435.618	1284.06
435.84	1248.06
436.062	1215.06
436.284	1202.06
436.505	1227.06
436.727	1208.06
436.949	1230.06
437.17	1176.06
437.392	1183.06
437.614	1189.06
437.835	1180.06
438.057	1169.06
438.278	1145.06
438.5	1164.06
438.721	1153.06
438.943	1203.06
439.165	1126.06
439.386	1174.06
439.608	1178.06
439.829	1215.06
440.05	1175.06
440.272	1207.06
440.493	1210.06
440.715	1216.06
440.936	1248.06
441.158	1268.06
441.379	1326.06
441.6	1373.06
441.822	1409.06
442.043	1421.06
442.264	1351.06
442.486	1339.06
442.707	1339.06
442.928	1350.06
443.149	1313.06
443.371	1318.06
443.592	1330.06
443.813	1359.06
444.034	1364.06
444.255	1424.06
444.476	1480.06
444.698	1569.06
444.919	1656.06
445.14	1713.06
445.361	1553.06
445.582	1445.06
445.803	1313.06
446.024	1327.06
446.245	1274.06
446.466	1254.06
446.687	1200.06
446.908	1213.06
447.129	1190.06
447.35	1171.06
447.571	1198.06
447.792	1144.06
448.013	1159.06
448.234	1129.06
448.455	1114.06
448.675	1089.06
448.896	1147.06
449.117	1072.06
449.338	1091.06
449.559	1063.06
449.779	1059.06
450	1076.06
450.221	1126.06
450.442	1095.06
450.662	1075.06
450.883	1093.06
451.104	1106.06
451.324	1127.06
451.545	1128.06
451.766	1105.06
451.986	1096.06
452.207	1109.06
452.428	1074.06
452.648	1065.06
452.869	1064.06
453.089	1075.06
453.31	1096.06
453.53	1061.06
453.751	1043.06
453.971	1058.06
454.192	1069.06
454.412	1055.06
454.633	1073.06
454.853	1035.06
455.073	1044.06
455.294	1041.06
455.514	998.06
455.734	1030.06
455.955	1017.06
456.175	985.06
456.395	1012.06
456.616	1021.06
456.836	1004.06
457.056	1014.06
457.276	1015.06
457.497	1022.06
457.717	997.06
457.937	1043.06
458.157	1033.06
458.377	1056.06
458.598	1100.06
458.818	1134.06
459.038	1145.06
459.258	1184.06
459.478	1221.06
459.698	1242.06
459.918	1300.06
460.138	1352.06
460.358	1427.06
460.578	1458.06
460.798	1452.06
461.018	1493.06
461.238	1435.06
461.458	1496.06
461.678	1435.06
461.898	1497.06
462.118	1475.06
462.338	1541.06
462.558	1609.06
462.777	1672.06
462.997	1812.06
463.217	1919.06
463.437	1947.06
463.657	1813.06
463.876	1711.06
464.096	1756.06
464.316	1670.06
464.536	1677.06
464.755	1647.06
464.975	1554.06
465.195	1509.06
465.414	1430.06
465.634	1297.06
465.854	1273.06
466.073	1205.06
466.293	1224.06
466.512	1200.06
466.732	1163.06
466.951	1143.06
467.171	1114.06
467.391	1171.06
467.61	1157.06
467.829	1103.06
468.049	1156.06
468.268	1117.06
468.488	1099.06
468.707	1094.06
468.927	1096.06
469.146	1082.06
469.365	1099.06
469.585	1129.06
469.804	1143.06
470.023	1191.06
470.243	1188.06
470.462	1191.06
470.681	1185.06
470.901	1191.06
471.12	1181.06
471.339	1143.06
471.558	1121.06
471.777	1145.06
471.997	1153.06
472.216	1126.06
472.435	1100.06
472.654	1098.06
472.873	1062.06
473.092	1068.06
473.311	1061.06
473.53	1079.06
473.749	1085.06
473.968	1066.06
474.187	1063.06
474.406	1076.06
474.625	1074.06
474.844	1095.06
475.063	1060.06
475.282	1071.06
475.501	1105.06
475.72	1097.06
475.939	1111.06
476.158	1091.06
476.377	1121.06
476.596	1121.06
476.814	1161.06
477.033	1152.06
477.252	1164.06
477.471	1192.06
477.69	1197.06
477.908	1266.06
478.127	1285.06
478.346	1265.06
478.564	1282.06
478.783	1354.06
479.002	1378.06
479.22	1358.06
479.439	1355.06
479.658	1341.06
479.876	1407.06
480.095	1377.06
480.313	1439.06
480.532	1452.06
480.751	1478.06
480.969	1404.06
481.188	1348.06
481.406	1308.06
481.624	1265.06
481.843	1250.06
482.061	1229.06
482.28	1234.06
482.498	1232.06
482.717	1203.06
482.935	1252.06
483.153	1226.06
483.372	1202.06
483.59	1220.06
483.808	1199.06
484.027	1224.06
484.245	1234.06
484.463	1226.06
484.681	1239.06
484.9	1251.06
485.118	1245.06
485.336	1257.06
485.554	1289.06
485.772	1301.06
485.99	1267.06
486.209	1319.06
486.427	1327.06
486.645	1288.06
486.863	1290.06
487.081	1251.06
487.299	1274.06
487.517	1309.06
487.735	1295.06
487.953	1283.06
488.171	1300.06
488.389	1259.06
488.607	1270.06
488.825	1285.06
489.043	1276.06
489.261	1264.06
489.479	1283.06
489.696	1283.06
489.914	1235.06
490.132	1266.06
490.35	1308.06
490.568	1304.06
490.786	1283.06
491.003	1267.06
491.221	1313.06
491.439	1299.06
491.657	1299.06
491.874	1298.06
492.092	1291.06
492.31	1302.06
492.527	1317.06
492.745	1331.06
492.963	1313.06
493.18	1342.06
493.398	1293.06
493.615	1342.06
493.833	1364.06
494.05	1365.06
494.268	1359.06
494.485	1373.06
