Data from NiCl2@0.25M.TitratingCurve.Agarose3%dH2O.NegLispCup.LampEnergy10.LIBS07252019_HRD10591_18-24-52-574.txt Node
Date: Thu Jul 25 18:24:52 EDT 2019
User: cochatt
Spectrometer: HR+D1059
Trigger mode: 1
Integration Time (sec): 1.000000E-1
Scans to average: 1
Electric dark correction enabled: true
Nonlinearity correction enabled: false
Boxcar width: 0
XAxis mode: Wavelengths
Number of Pixels in Spectrum: 2048
>>>>>Begin Spectral Data<<<<<
223.165	-12.94
223.4	-12.94
223.635	-12.94
223.869	-25.94
224.104	-25.94
224.338	-16.94
224.573	0.06
224.808	-8.94
225.042	7.06
225.277	-14.94
225.511	1.06
225.746	-2.94
225.98	6.06
226.215	-5.94
226.449	19.06
226.683	23.06
226.918	21.06
227.152	37.06
227.387	49.06
227.621	47.06
227.856	52.06
228.09	44.06
228.324	35.06
228.559	52.06
228.793	79.06
229.027	113.06
229.262	125.06
229.496	127.06
229.73	129.06
229.964	159.06
230.199	153.06
230.433	140.06
230.667	148.06
230.901	154.06
231.136	149.06
231.37	162.06
231.604	161.06
231.838	153.06
232.072	165.06
232.306	166.06
232.541	181.06
232.775	175.06
233.009	185.06
233.243	192.06
233.477	165.06
233.711	179.06
233.945	175.06
234.179	182.06
234.413	179.06
234.647	191.06
234.881	205.06
235.115	185.06
235.349	199.06
235.583	183.06
235.817	181.06
236.051	184.06
236.285	192.06
236.519	178.06
236.753	210.06
236.987	195.06
237.221	205.06
237.455	190.06
237.689	200.06
237.922	208.06
238.156	206.06
238.39	205.06
238.624	203.06
238.858	202.06
239.091	221.06
239.325	217.06
239.559	200.06
239.793	217.06
240.027	213.06
240.26	222.06
240.494	220.06
240.728	218.06
240.961	226.06
241.195	211.06
241.429	245.06
241.662	225.06
241.896	243.06
242.13	244.06
242.363	243.06
242.597	246.06
242.83	253.06
243.064	257.06
243.298	263.06
243.531	262.06
243.765	258.06
243.998	249.06
244.232	261.06
244.465	255.06
244.699	275.06
244.932	283.06
245.166	271.06
245.399	268.06
245.633	261.06
245.866	284.06
246.099	275.06
246.333	268.06
246.566	300.06
246.8	286.06
247.033	296.06
247.266	285.06
247.5	298.06
247.733	293.06
247.966	307.06
248.2	299.06
248.433	291.06
248.666	295.06
248.899	301.06
249.133	304.06
249.366	324.06
249.599	328.06
249.832	300.06
250.066	325.06
250.299	325.06
250.532	336.06
250.765	327.06
250.998	325.06
251.231	336.06
251.465	340.06
251.698	340.06
251.931	352.06
252.164	351.06
252.397	340.06
252.63	362.06
252.863	363.06
253.096	360.06
253.329	355.06
253.562	355.06
253.795	365.06
254.028	380.06
254.261	355.06
254.494	375.06
254.727	369.06
254.96	358.06
255.193	371.06
255.426	383.06
255.659	378.06
255.892	375.06
256.124	368.06
256.357	383.06
256.59	389.06
256.823	381.06
257.056	389.06
257.289	406.06
257.521	392.06
257.754	380.06
257.987	412.06
258.22	389.06
258.452	396.06
258.685	383.06
258.918	403.06
259.151	408.06
259.383	409.06
259.616	402.06
259.849	428.06
260.081	435.06
260.314	395.06
260.547	406.06
260.779	394.06
261.012	410.06
261.244	437.06
261.477	429.06
261.71	412.06
261.942	427.06
262.175	411.06
262.407	425.06
262.64	416.06
262.872	436.06
263.105	439.06
263.337	462.06
263.57	447.06
263.802	447.06
264.035	439.06
264.267	456.06
264.499	477.06
264.732	467.06
264.964	447.06
265.197	469.06
265.429	461.06
265.661	449.06
265.894	461.06
266.126	457.06
266.358	461.06
266.591	486.06
266.823	482.06
267.055	484.06
267.287	476.06
267.52	474.06
267.752	481.06
267.984	505.06
268.216	474.06
268.448	489.06
268.681	501.06
268.913	495.06
269.145	493.06
269.377	489.06
269.609	497.06
269.841	499.06
270.073	489.06
270.306	476.06
270.538	507.06
270.77	507.06
271.002	512.06
271.234	488.06
271.466	526.06
271.698	519.06
271.93	519.06
272.162	534.06
272.394	528.06
272.626	511.06
272.858	511.06
273.09	524.06
273.322	541.06
273.553	540.06
273.785	542.06
274.017	539.06
274.249	546.06
274.481	517.06
274.713	548.06
274.945	545.06
275.176	566.06
275.408	546.06
275.64	541.06
275.872	539.06
276.104	579.06
276.335	569.06
276.567	574.06
276.799	569.06
277.031	594.06
277.262	573.06
277.494	572.06
277.726	564.06
277.957	581.06
278.189	586.06
278.421	579.06
278.652	587.06
278.884	592.06
279.115	603.06
279.347	619.06
279.579	579.06
279.81	610.06
280.042	579.06
280.273	599.06
280.505	585.06
280.736	605.06
280.968	596.06
281.199	616.06
281.431	648.06
281.662	611.06
281.894	637.06
282.125	641.06
282.356	634.06
282.588	624.06
282.819	645.06
283.051	637.06
283.282	649.06
283.513	646.06
283.745	646.06
283.976	667.06
284.207	639.06
284.439	653.06
284.67	650.06
284.901	655.06
285.132	671.06
285.364	677.06
285.595	661.06
285.826	671.06
286.057	657.06
286.288	686.06
286.52	677.06
286.751	663.06
286.982	680.06
287.213	691.06
287.444	674.06
287.675	687.06
287.906	688.06
288.138	704.06
288.369	691.06
288.6	679.06
288.831	684.06
289.062	687.06
289.293	682.06
289.524	701.06
289.755	697.06
289.986	711.06
290.217	688.06
290.448	711.06
290.679	689.06
290.91	705.06
291.141	703.06
291.371	727.06
291.602	697.06
291.833	716.06
292.064	697.06
292.295	719.06
292.526	693.06
292.757	700.06
292.987	686.06
293.218	732.06
293.449	725.06
293.68	686.06
293.91	714.06
294.141	683.06
294.372	717.06
294.603	747.06
294.833	727.06
295.064	709.06
295.295	728.06
295.525	729.06
295.756	747.06
295.987	737.06
296.217	751.06
296.448	747.06
296.679	773.06
296.909	761.06
297.14	746.06
297.37	785.06
297.601	780.06
297.831	725.06
298.062	757.06
298.292	789.06
298.523	780.06
298.753	790.06
298.984	799.06
299.214	760.06
299.445	791.06
299.675	786.06
299.905	739.06
300.136	772.06
300.366	775.06
300.597	788.06
300.827	813.06
301.057	792.06
301.288	803.06
301.518	824.06
301.748	827.06
301.979	802.06
302.209	820.06
302.439	839.06
302.669	815.06
302.9	829.06
303.13	812.06
303.36	822.06
303.59	795.06
303.82	801.06
304.051	817.06
304.281	790.06
304.511	799.06
304.741	794.06
304.971	819.06
305.201	817.06
305.431	809.06
305.661	816.06
305.891	772.06
306.121	774.06
306.352	793.06
306.582	806.06
306.812	802.06
307.042	801.06
307.272	802.06
307.502	778.06
307.731	779.06
307.961	770.06
308.191	789.06
308.421	784.06
308.651	795.06
308.881	776.06
309.111	800.06
309.341	778.06
309.571	779.06
309.8	799.06
310.03	801.06
310.26	788.06
310.49	793.06
310.72	811.06
310.949	800.06
311.179	785.06
311.409	793.06
311.639	818.06
311.868	793.06
312.098	813.06
312.328	833.06
312.557	830.06
312.787	815.06
313.017	852.06
313.246	840.06
313.476	836.06
313.706	824.06
313.935	846.06
314.165	867.06
314.394	844.06
314.624	881.06
314.853	839.06
315.083	869.06
315.312	881.06
315.542	833.06
315.771	831.06
316.001	865.06
316.23	841.06
316.46	854.06
316.689	858.06
316.919	860.06
317.148	852.06
317.377	849.06
317.607	827.06
317.836	818.06
318.065	817.06
318.295	831.06
318.524	825.06
318.753	830.06
318.983	821.06
319.212	805.06
319.441	876.06
319.67	842.06
319.9	826.06
320.129	826.06
320.358	839.06
320.587	850.06
320.816	851.06
321.046	865.06
321.275	840.06
321.504	857.06
321.733	825.06
321.962	845.06
322.191	881.06
322.42	869.06
322.649	837.06
322.878	856.06
323.108	864.06
323.337	852.06
323.566	856.06
323.795	860.06
324.024	882.06
324.253	875.06
324.482	863.06
324.71	826.06
324.939	884.06
325.168	871.06
325.397	851.06
325.626	875.06
325.855	903.06
326.084	922.06
326.313	897.06
326.542	933.06
326.77	910.06
326.999	911.06
327.228	895.06
327.457	913.06
327.686	929.06
327.914	920.06
328.143	933.06
328.372	896.06
328.6	938.06
328.829	925.06
329.058	900.06
329.287	919.06
329.515	930.06
329.744	908.06
329.972	962.06
330.201	936.06
330.43	960.06
330.658	951.06
330.887	935.06
331.115	932.06
331.344	985.06
331.572	1003.06
331.801	1029.06
332.03	1011.06
332.258	1054.06
332.486	1083.06
332.715	1083.06
332.943	1132.06
333.172	1170.06
333.4	1229.06
333.629	1238.06
333.857	1291.06
334.085	1282.06
334.314	1258.06
334.542	1251.06
334.771	1225.06
334.999	1181.06
335.227	1195.06
335.455	1156.06
335.684	1164.06
335.912	1148.06
336.14	1138.06
336.369	1114.06
336.597	1125.06
336.825	1093.06
337.053	1126.06
337.281	1140.06
337.51	1067.06
337.738	1076.06
337.966	1025.06
338.194	1042.06
338.422	1033.06
338.65	999.06
338.878	1013.06
339.106	1011.06
339.334	1010.06
339.562	1014.06
339.79	976.06
340.018	957.06
340.246	940.06
340.474	972.06
340.702	958.06
340.93	969.06
341.158	977.06
341.386	962.06
341.614	966.06
341.842	986.06
342.07	943.06
342.298	933.06
342.526	959.06
342.754	956.06
342.981	973.06
343.209	969.06
343.437	1018.06
343.665	1073.06
343.893	1168.06
344.12	1215.06
344.348	1163.06
344.576	1124.06
344.804	1081.06
345.031	1027.06
345.259	984.06
345.487	957.06
345.714	951.06
345.942	936.06
346.17	929.06
346.397	929.06
346.625	919.06
346.853	906.06
347.08	909.06
347.308	943.06
347.535	916.06
347.763	929.06
347.99	939.06
348.218	948.06
348.445	935.06
348.673	917.06
348.9	893.06
349.128	889.06
349.355	904.06
349.583	900.06
349.81	919.06
350.037	886.06
350.265	890.06
350.492	894.06
350.72	904.06
350.947	898.06
351.174	893.06
351.402	878.06
351.629	886.06
351.856	879.06
352.083	861.06
352.311	880.06
352.538	887.06
352.765	889.06
352.992	865.06
353.22	865.06
353.447	856.06
353.674	909.06
353.901	885.06
354.128	883.06
354.355	868.06
354.583	889.06
354.81	920.06
355.037	897.06
355.264	879.06
355.491	870.06
355.718	889.06
355.945	890.06
356.172	917.06
356.399	875.06
356.626	880.06
356.853	879.06
357.08	882.06
357.307	897.06
357.534	893.06
357.761	888.06
357.988	907.06
358.215	898.06
358.441	875.06
358.668	884.06
358.895	900.06
359.122	866.06
359.349	884.06
359.576	913.06
359.802	881.06
360.029	880.06
360.256	920.06
360.483	906.06
360.709	899.06
360.936	901.06
361.163	863.06
361.39	890.06
361.616	876.06
361.843	906.06
362.07	894.06
362.296	876.06
362.523	862.06
362.749	885.06
362.976	889.06
363.203	904.06
363.429	861.06
363.656	895.06
363.882	885.06
364.109	893.06
364.335	886.06
364.562	866.06
364.788	871.06
365.015	889.06
365.241	890.06
365.468	901.06
365.694	893.06
365.92	863.06
366.147	858.06
366.373	889.06
366.599	865.06
366.826	888.06
367.052	899.06
367.278	885.06
367.505	872.06
367.731	897.06
367.957	902.06
368.184	874.06
368.41	889.06
368.636	865.06
368.862	921.06
369.089	913.06
369.315	910.06
369.541	880.06
369.767	917.06
369.993	930.06
370.219	946.06
370.445	920.06
370.672	938.06
370.898	953.06
371.124	963.06
371.35	979.06
371.576	965.06
371.802	981.06
372.028	969.06
372.254	950.06
372.48	969.06
372.706	984.06
372.932	1000.06
373.158	1009.06
373.384	991.06
373.61	992.06
373.835	972.06
374.061	1011.06
374.287	981.06
374.513	1004.06
374.739	1036.06
374.965	1059.06
375.191	1115.06
375.416	1088.06
375.642	1055.06
375.868	1019.06
376.094	1026.06
376.319	978.06
376.545	1016.06
376.771	992.06
376.997	992.06
377.222	999.06
377.448	971.06
377.674	967.06
377.899	985.06
378.125	957.06
378.35	945.06
378.576	953.06
378.802	944.06
379.027	961.06
379.253	958.06
379.478	943.06
379.704	970.06
379.929	948.06
380.155	939.06
380.38	957.06
380.606	970.06
380.831	951.06
381.057	949.06
381.282	936.06
381.507	954.06
381.733	973.06
381.958	971.06
382.184	986.06
382.409	1012.06
382.634	1013.06
382.86	1011.06
383.085	1009.06
383.31	1056.06
383.535	1044.06
383.761	1048.06
383.986	1091.06
384.211	1106.06
384.436	1123.06
384.662	1151.06
384.887	1163.06
385.112	1156.06
385.337	1174.06
385.562	1173.06
385.787	1183.06
386.013	1194.06
386.238	1214.06
386.463	1180.06
386.688	1209.06
386.913	1151.06
387.138	1145.06
387.363	1195.06
387.588	1167.06
387.813	1171.06
388.038	1187.06
388.263	1165.06
388.488	1211.06
388.713	1163.06
388.938	1177.06
389.163	1164.06
389.387	1158.06
389.612	1155.06
389.837	1156.06
390.062	1181.06
390.287	1138.06
390.512	1157.06
390.736	1173.06
390.961	1197.06
391.186	1242.06
391.411	1252.06
391.636	1279.06
391.86	1323.06
392.085	1348.06
392.31	1356.06
392.534	1294.06
392.759	1325.06
392.984	1257.06
393.208	1244.06
393.433	1275.06
393.658	1250.06
393.882	1263.06
394.107	1292.06
394.331	1239.06
394.556	1271.06
394.78	1272.06
395.005	1284.06
395.229	1291.06
395.454	1313.06
395.678	1351.06
395.903	1349.06
396.127	1315.06
396.352	1314.06
396.576	1261.06
396.801	1283.06
397.025	1273.06
397.249	1300.06
397.474	1354.06
397.698	1361.06
397.922	1390.06
398.147	1327.06
398.371	1375.06
398.595	1431.06
398.82	1507.06
399.044	1621.06
399.268	1768.06
399.492	2032.06
399.717	2239.06
399.941	2271.06
400.165	2059.06
400.389	1904.06
400.613	1745.06
400.837	1657.06
401.062	1580.06
401.286	1551.06
401.51	1529.06
401.734	1525.06
401.958	1540.06
402.182	1553.06
402.406	1591.06
402.63	1573.06
402.854	1617.06
403.078	1613.06
403.302	1647.06
403.526	1673.06
403.75	1691.06
403.974	1706.06
404.198	1755.06
404.422	1731.06
404.645	1725.06
404.869	1716.06
405.093	1728.06
405.317	1698.06
405.541	1689.06
405.765	1655.06
405.988	1674.06
406.212	1683.06
406.436	1657.06
406.66	1674.06
406.883	1740.06
407.107	1889.06
407.331	1920.06
407.555	1988.06
407.778	1954.06
408.002	1931.06
408.226	1878.06
408.449	1818.06
408.673	1742.06
408.896	1686.06
409.12	1674.06
409.344	1704.06
409.567	1690.06
409.791	1739.06
410.014	1725.06
410.238	1660.06
410.461	1683.06
410.685	1633.06
410.908	1621.06
411.132	1596.06
411.355	1488.06
411.578	1556.06
411.802	1572.06
412.025	1612.06
412.249	1629.06
412.472	1594.06
412.695	1541.06
412.919	1527.06
413.142	1543.06
413.365	1505.06
413.589	1523.06
413.812	1476.06
414.035	1467.06
414.258	1494.06
414.482	1534.06
414.705	1534.06
414.928	1520.06
415.151	1541.06
415.374	1533.06
415.597	1519.06
415.821	1499.06
416.044	1436.06
416.267	1419.06
416.49	1443.06
416.713	1444.06
416.936	1437.06
417.159	1449.06
417.382	1460.06
417.605	1499.06
417.828	1472.06
418.051	1482.06
418.274	1454.06
418.497	1469.06
418.72	1544.06
418.943	1500.06
419.166	1621.06
419.389	1715.06
419.611	1669.06
419.834	1610.06
420.057	1587.06
420.28	1523.06
420.503	1455.06
420.726	1463.06
420.948	1463.06
421.171	1471.06
421.394	1488.06
421.617	1471.06
421.839	1495.06
422.062	1481.06
422.285	1476.06
422.507	1513.06
422.73	1505.06
422.953	1512.06
423.175	1503.06
423.398	1529.06
423.621	1525.06
423.843	1553.06
424.066	1552.06
424.288	1567.06
424.511	1521.06
424.733	1528.06
424.956	1506.06
425.178	1488.06
425.401	1556.06
425.623	1490.06
425.846	1413.06
426.068	1456.06
426.291	1434.06
426.513	1418.06
426.735	1408.06
426.958	1400.06
427.18	1340.06
427.402	1371.06
427.625	1337.06
427.847	1319.06
428.069	1282.06
428.292	1332.06
428.514	1292.06
428.736	1315.06
428.958	1305.06
429.181	1249.06
429.403	1261.06
429.625	1271.06
429.847	1253.06
430.069	1283.06
430.292	1256.06
430.514	1272.06
430.736	1271.06
430.958	1238.06
431.18	1263.06
431.402	1299.06
431.624	1269.06
431.846	1284.06
432.068	1307.06
432.29	1314.06
432.512	1308.06
432.734	1351.06
432.956	1299.06
433.178	1277.06
433.4	1298.06
433.622	1300.06
433.844	1314.06
434.066	1295.06
434.287	1316.06
434.509	1363.06
434.731	1436.06
434.953	1454.06
435.175	1486.06
435.397	1449.06
435.618	1377.06
435.84	1361.06
436.062	1311.06
436.284	1300.06
436.505	1269.06
436.727	1303.06
436.949	1310.06
437.17	1281.06
437.392	1244.06
437.614	1285.06
437.835	1254.06
438.057	1260.06
438.278	1234.06
438.5	1241.06
438.721	1240.06
438.943	1219.06
439.165	1235.06
439.386	1259.06
439.608	1249.06
439.829	1301.06
440.05	1275.06
440.272	1292.06
440.493	1324.06
440.715	1337.06
440.936	1367.06
441.158	1361.06
441.379	1404.06
441.6	1498.06
441.822	1455.06
442.043	1478.06
442.264	1423.06
442.486	1385.06
442.707	1432.06
442.928	1428.06
443.149	1415.06
443.371	1441.06
443.592	1435.06
443.813	1477.06
444.034	1470.06
444.255	1506.06
444.476	1585.06
444.698	1681.06
444.919	1730.06
445.14	1825.06
445.361	1675.06
445.582	1564.06
445.803	1466.06
446.024	1384.06
446.245	1377.06
446.466	1335.06
446.687	1303.06
446.908	1303.06
447.129	1234.06
447.35	1250.06
447.571	1282.06
447.792	1194.06
448.013	1209.06
448.234	1207.06
448.455	1206.06
448.675	1207.06
448.896	1180.06
449.117	1164.06
449.338	1146.06
449.559	1167.06
449.779	1157.06
450	1157.06
450.221	1174.06
450.442	1168.06
450.662	1159.06
450.883	1192.06
451.104	1181.06
451.324	1187.06
451.545	1207.06
451.766	1199.06
451.986	1136.06
452.207	1178.06
452.428	1159.06
452.648	1157.06
452.869	1153.06
453.089	1140.06
453.31	1151.06
453.53	1149.06
453.751	1136.06
453.971	1097.06
454.192	1129.06
454.412	1096.06
454.633	1126.06
454.853	1127.06
455.073	1082.06
455.294	1106.06
455.514	1072.06
455.734	1064.06
455.955	1089.06
456.175	1117.06
456.395	1100.06
456.616	1106.06
456.836	1097.06
457.056	1105.06
457.276	1071.06
457.497	1114.06
457.717	1094.06
457.937	1097.06
458.157	1108.06
458.377	1133.06
458.598	1180.06
458.818	1208.06
459.038	1257.06
459.258	1256.06
459.478	1330.06
459.698	1314.06
459.918	1384.06
460.138	1455.06
460.358	1500.06
460.578	1546.06
460.798	1536.06
461.018	1579.06
461.238	1568.06
461.458	1578.06
461.678	1550.06
461.898	1590.06
462.118	1573.06
462.338	1653.06
462.558	1719.06
462.777	1769.06
462.997	1924.06
463.217	2031.06
463.437	2063.06
463.657	1932.06
463.876	1812.06
464.096	1809.06
464.316	1816.06
464.536	1799.06
464.755	1776.06
464.975	1697.06
465.195	1594.06
465.414	1496.06
465.634	1430.06
465.854	1347.06
466.073	1327.06
466.293	1318.06
466.512	1291.06
466.732	1238.06
466.951	1260.06
467.171	1263.06
467.391	1249.06
467.61	1216.06
467.829	1201.06
468.049	1226.06
468.268	1196.06
468.488	1161.06
468.707	1165.06
468.927	1183.06
469.146	1208.06
469.365	1205.06
469.585	1205.06
469.804	1231.06
470.023	1270.06
470.243	1262.06
470.462	1280.06
470.681	1273.06
470.901	1305.06
471.12	1253.06
471.339	1271.06
471.558	1214.06
471.777	1215.06
471.997	1192.06
472.216	1194.06
472.435	1156.06
472.654	1128.06
472.873	1155.06
473.092	1152.06
473.311	1155.06
473.53	1159.06
473.749	1163.06
473.968	1093.06
474.187	1127.06
474.406	1136.06
474.625	1141.06
474.844	1132.06
475.063	1127.06
475.282	1144.06
475.501	1154.06
475.72	1157.06
475.939	1177.06
476.158	1215.06
476.377	1200.06
476.596	1232.06
476.814	1249.06
477.033	1231.06
477.252	1270.06
477.471	1292.06
477.69	1329.06
477.908	1324.06
478.127	1343.06
478.346	1380.06
478.564	1403.06
478.783	1441.06
479.002	1487.06
479.22	1448.06
479.439	1462.06
479.658	1435.06
479.876	1499.06
480.095	1464.06
480.313	1545.06
480.532	1567.06
480.751	1558.06
480.969	1537.06
481.188	1455.06
481.406	1417.06
481.624	1411.06
481.843	1341.06
482.061	1334.06
482.28	1343.06
482.498	1319.06
482.717	1292.06
482.935	1286.06
483.153	1328.06
483.372	1325.06
483.59	1321.06
483.808	1324.06
484.027	1303.06
484.245	1351.06
484.463	1329.06
484.681	1315.06
484.9	1358.06
485.118	1329.06
485.336	1354.06
485.554	1347.06
485.772	1377.06
485.99	1398.06
486.209	1378.06
486.427	1392.06
486.645	1383.06
486.863	1399.06
487.081	1363.06
487.299	1405.06
487.517	1356.06
487.735	1361.06
487.953	1379.06
488.171	1367.06
488.389	1382.06
488.607	1359.06
488.825	1376.06
489.043	1355.06
489.261	1346.06
489.479	1356.06
489.696	1373.06
489.914	1359.06
490.132	1392.06
490.35	1401.06
490.568	1415.06
490.786	1400.06
491.003	1363.06
491.221	1414.06
491.439	1391.06
491.657	1420.06
491.874	1410.06
492.092	1397.06
492.31	1433.06
492.527	1424.06
492.745	1416.06
492.963	1416.06
493.18	1464.06
493.398	1424.06
493.615	1417.06
493.833	1418.06
494.05	1458.06
