Data from NiCl2@0.0625M.TitratingCurve.Agarose3%dH2O.NegLispCup.LampEnergy10.LIBS07252019_HRD10591_18-35-25-577.txt Node
Date: Thu Jul 25 18:35:25 EDT 2019
User: cochatt
Spectrometer: HR+D1059
Trigger mode: 1
Integration Time (sec): 1.000000E-1
Scans to average: 1
Electric dark correction enabled: true
Nonlinearity correction enabled: false
Boxcar width: 0
XAxis mode: Wavelengths
Number of Pixels in Spectrum: 2048
>>>>>Begin Spectral Data<<<<<
223.165	-25.38
223.4	-25.38
223.635	-25.38
223.869	-10.38
224.104	-30.38
224.338	-19.38
224.573	-12.38
224.808	-11.38
225.042	-5.38
225.277	10.62
225.511	-1.38
225.746	6.62
225.98	12.62
226.215	11.62
226.449	19.62
226.683	13.62
226.918	17.62
227.152	23.62
227.387	32.62
227.621	23.62
227.856	38.62
228.09	39.62
228.324	53.62
228.559	55.62
228.793	62.62
229.027	148.62
229.262	138.62
229.496	144.62
229.73	153.62
229.964	158.62
230.199	179.62
230.433	153.62
230.667	180.62
230.901	180.62
231.136	176.62
231.37	177.62
231.604	173.62
231.838	177.62
232.072	185.62
232.306	185.62
232.541	195.62
232.775	203.62
233.009	187.62
233.243	202.62
233.477	194.62
233.711	209.62
233.945	197.62
234.179	200.62
234.413	191.62
234.647	210.62
234.881	216.62
235.115	205.62
235.349	193.62
235.583	209.62
235.817	199.62
236.051	213.62
236.285	207.62
236.519	213.62
236.753	212.62
236.987	214.62
237.221	237.62
237.455	237.62
237.689	230.62
237.922	228.62
238.156	236.62
238.39	232.62
238.624	239.62
238.858	221.62
239.091	232.62
239.325	243.62
239.559	247.62
239.793	241.62
240.027	256.62
240.26	252.62
240.494	246.62
240.728	243.62
240.961	266.62
241.195	282.62
241.429	279.62
241.662	274.62
241.896	280.62
242.13	277.62
242.363	278.62
242.597	279.62
242.83	299.62
243.064	278.62
243.298	283.62
243.531	294.62
243.765	303.62
243.998	319.62
244.232	308.62
244.465	313.62
244.699	312.62
244.932	324.62
245.166	319.62
245.399	308.62
245.633	327.62
245.866	340.62
246.099	322.62
246.333	315.62
246.566	300.62
246.8	319.62
247.033	311.62
247.266	342.62
247.5	340.62
247.733	355.62
247.966	348.62
248.2	335.62
248.433	354.62
248.666	342.62
248.899	342.62
249.133	355.62
249.366	364.62
249.599	381.62
249.832	363.62
250.066	377.62
250.299	397.62
250.532	364.62
250.765	387.62
250.998	373.62
251.231	399.62
251.465	381.62
251.698	391.62
251.931	396.62
252.164	418.62
252.397	395.62
252.63	406.62
252.863	411.62
253.096	419.62
253.329	412.62
253.562	406.62
253.795	435.62
254.028	439.62
254.261	431.62
254.494	437.62
254.727	411.62
254.96	409.62
255.193	426.62
255.426	431.62
255.659	438.62
255.892	435.62
256.124	445.62
256.357	433.62
256.59	454.62
256.823	439.62
257.056	443.62
257.289	460.62
257.521	484.62
257.754	462.62
257.987	470.62
258.22	464.62
258.452	451.62
258.685	479.62
258.918	474.62
259.151	469.62
259.383	488.62
259.616	477.62
259.849	476.62
260.081	475.62
260.314	487.62
260.547	493.62
260.779	513.62
261.012	486.62
261.244	523.62
261.477	520.62
261.71	504.62
261.942	518.62
262.175	513.62
262.407	509.62
262.64	495.62
262.872	529.62
263.105	522.62
263.337	535.62
263.57	529.62
263.802	544.62
264.035	548.62
264.267	545.62
264.499	534.62
264.732	546.62
264.964	533.62
265.197	524.62
265.429	532.62
265.661	561.62
265.894	561.62
266.126	564.62
266.358	567.62
266.591	577.62
266.823	560.62
267.055	548.62
267.287	569.62
267.52	581.62
267.752	577.62
267.984	591.62
268.216	599.62
268.448	591.62
268.681	563.62
268.913	578.62
269.145	590.62
269.377	582.62
269.609	626.62
269.841	593.62
270.073	600.62
270.306	585.62
270.538	593.62
270.77	617.62
271.002	605.62
271.234	593.62
271.466	636.62
271.698	611.62
271.93	595.62
272.162	608.62
272.394	620.62
272.626	634.62
272.858	610.62
273.09	629.62
273.322	648.62
273.553	633.62
273.785	664.62
274.017	623.62
274.249	659.62
274.481	656.62
274.713	629.62
274.945	653.62
275.176	658.62
275.408	677.62
275.64	672.62
275.872	672.62
276.104	653.62
276.335	668.62
276.567	683.62
276.799	683.62
277.031	696.62
277.262	674.62
277.494	677.62
277.726	669.62
277.957	699.62
278.189	669.62
278.421	685.62
278.652	695.62
278.884	697.62
279.115	704.62
279.347	710.62
279.579	753.62
279.81	740.62
280.042	711.62
280.273	721.62
280.505	705.62
280.736	719.62
280.968	717.62
281.199	723.62
281.431	732.62
281.662	732.62
281.894	740.62
282.125	744.62
282.356	753.62
282.588	746.62
282.819	719.62
283.051	741.62
283.282	743.62
283.513	765.62
283.745	775.62
283.976	775.62
284.207	765.62
284.439	769.62
284.67	782.62
284.901	820.62
285.132	809.62
285.364	783.62
285.595	787.62
285.826	799.62
286.057	806.62
286.288	794.62
286.52	808.62
286.751	811.62
286.982	823.62
287.213	827.62
287.444	806.62
287.675	779.62
287.906	815.62
288.138	851.62
288.369	809.62
288.6	806.62
288.831	827.62
289.062	837.62
289.293	855.62
289.524	823.62
289.755	844.62
289.986	851.62
290.217	825.62
290.448	826.62
290.679	868.62
290.91	841.62
291.141	845.62
291.371	858.62
291.602	845.62
291.833	800.62
292.064	853.62
292.295	819.62
292.526	855.62
292.757	846.62
292.987	856.62
293.218	863.62
293.449	852.62
293.68	863.62
293.91	852.62
294.141	844.62
294.372	844.62
294.603	846.62
294.833	855.62
295.064	880.62
295.295	863.62
295.525	871.62
295.756	884.62
295.987	877.62
296.217	893.62
296.448	864.62
296.679	881.62
296.909	868.62
297.14	895.62
297.37	900.62
297.601	921.62
297.831	902.62
298.062	921.62
298.292	924.62
298.523	920.62
298.753	931.62
298.984	916.62
299.214	899.62
299.445	888.62
299.675	911.62
299.905	935.62
300.136	915.62
300.366	921.62
300.597	933.62
300.827	985.62
301.057	953.62
301.288	958.62
301.518	983.62
301.748	972.62
301.979	985.62
302.209	972.62
302.439	971.62
302.669	979.62
302.9	966.62
303.13	963.62
303.36	957.62
303.59	954.62
303.82	948.62
304.051	1003.62
304.281	969.62
304.511	927.62
304.741	980.62
304.971	967.62
305.201	977.62
305.431	966.62
305.661	990.62
305.891	943.62
306.121	972.62
306.352	999.62
306.582	959.62
306.812	963.62
307.042	952.62
307.272	931.62
307.502	937.62
307.731	955.62
307.961	927.62
308.191	951.62
308.421	945.62
308.651	976.62
308.881	944.62
309.111	961.62
309.341	961.62
309.571	948.62
309.8	951.62
310.03	947.62
310.26	968.62
310.49	963.62
310.72	965.62
310.949	955.62
311.179	983.62
311.409	973.62
311.639	953.62
311.868	974.62
312.098	1003.62
312.328	998.62
312.557	1021.62
312.787	1015.62
313.017	988.62
313.246	1028.62
313.476	1009.62
313.706	1031.62
313.935	1050.62
314.165	1035.62
314.394	1011.62
314.624	1034.62
314.853	1030.62
315.083	1037.62
315.312	1014.62
315.542	1034.62
315.771	1030.62
316.001	1019.62
316.23	1025.62
316.46	1034.62
316.689	1047.62
316.919	1046.62
317.148	1021.62
317.377	1016.62
317.607	1028.62
317.836	1028.62
318.065	1011.62
318.295	1040.62
318.524	1029.62
318.753	1014.62
318.983	1009.62
319.212	1003.62
319.441	1021.62
319.67	986.62
319.9	993.62
320.129	1027.62
320.358	1021.62
320.587	1005.62
320.816	1029.62
321.046	1049.62
321.275	1015.62
321.504	1023.62
321.733	1050.62
321.962	1040.62
322.191	1029.62
322.42	1027.62
322.649	1036.62
322.878	1059.62
323.108	1045.62
323.337	1051.62
323.566	1032.62
323.795	1061.62
324.024	1050.62
324.253	1060.62
324.482	1067.62
324.71	1058.62
324.939	1068.62
325.168	1080.62
325.397	1095.62
325.626	1058.62
325.855	1085.62
326.084	1110.62
326.313	1081.62
326.542	1099.62
326.77	1152.62
326.999	1115.62
327.228	1098.62
327.457	1097.62
327.686	1089.62
327.914	1110.62
328.143	1099.62
328.372	1118.62
328.6	1118.62
328.829	1101.62
329.058	1099.62
329.287	1113.62
329.515	1151.62
329.744	1151.62
329.972	1114.62
330.201	1135.62
330.43	1143.62
330.658	1143.62
330.887	1150.62
331.115	1188.62
331.344	1165.62
331.572	1169.62
331.801	1191.62
332.03	1232.62
332.258	1234.62
332.486	1269.62
332.715	1280.62
332.943	1298.62
333.172	1341.62
333.4	1381.62
333.629	1408.62
333.857	1422.62
334.085	1438.62
334.314	1452.62
334.542	1403.62
334.771	1375.62
334.999	1411.62
335.227	1398.62
335.455	1391.62
335.684	1383.62
335.912	1363.62
336.14	1376.62
336.369	1321.62
336.597	1355.62
336.825	1330.62
337.053	1351.62
337.281	1329.62
337.51	1293.62
337.738	1255.62
337.966	1248.62
338.194	1247.62
338.422	1236.62
338.65	1257.62
338.878	1215.62
339.106	1218.62
339.334	1206.62
339.562	1188.62
339.79	1192.62
340.018	1179.62
340.246	1174.62
340.474	1183.62
340.702	1184.62
340.93	1200.62
341.158	1219.62
341.386	1217.62
341.614	1176.62
341.842	1163.62
342.07	1151.62
342.298	1191.62
342.526	1175.62
342.754	1152.62
342.981	1181.62
343.209	1207.62
343.437	1215.62
343.665	1267.62
343.893	1361.62
344.12	1409.62
344.348	1359.62
344.576	1331.62
344.804	1284.62
345.031	1215.62
345.259	1197.62
345.487	1179.62
345.714	1215.62
345.942	1143.62
346.17	1179.62
346.397	1130.62
346.625	1159.62
346.853	1140.62
347.08	1127.62
347.308	1145.62
347.535	1129.62
347.763	1137.62
347.99	1115.62
348.218	1099.62
348.445	1132.62
348.673	1119.62
348.9	1091.62
349.128	1126.62
349.355	1110.62
349.583	1124.62
349.81	1090.62
350.037	1099.62
350.265	1094.62
350.492	1119.62
350.72	1097.62
350.947	1087.62
351.174	1069.62
351.402	1112.62
351.629	1096.62
351.856	1068.62
352.083	1075.62
352.311	1085.62
352.538	1105.62
352.765	1087.62
352.992	1079.62
353.22	1072.62
353.447	1063.62
353.674	1068.62
353.901	1074.62
354.128	1069.62
354.355	1068.62
354.583	1055.62
354.81	1062.62
355.037	1074.62
355.264	1071.62
355.491	1082.62
355.718	1064.62
355.945	1061.62
356.172	1078.62
356.399	1088.62
356.626	1102.62
356.853	1127.62
357.08	1113.62
357.307	1097.62
357.534	1096.62
357.761	1081.62
357.988	1094.62
358.215	1061.62
358.441	1046.62
358.668	1092.62
358.895	1088.62
359.122	1092.62
359.349	1059.62
359.576	1104.62
359.802	1087.62
360.029	1075.62
360.256	1069.62
360.483	1105.62
360.709	1080.62
360.936	1094.62
361.163	1092.62
361.39	1081.62
361.616	1077.62
361.843	1077.62
362.07	1101.62
362.296	1101.62
362.523	1091.62
362.749	1097.62
362.976	1087.62
363.203	1119.62
363.429	1071.62
363.656	1080.62
363.882	1075.62
364.109	1098.62
364.335	1066.62
364.562	1074.62
364.788	1090.62
365.015	1114.62
365.241	1095.62
365.468	1088.62
365.694	1064.62
365.92	1077.62
366.147	1071.62
366.373	1076.62
366.599	1112.62
366.826	1109.62
367.052	1093.62
367.278	1086.62
367.505	1102.62
367.731	1096.62
367.957	1084.62
368.184	1084.62
368.41	1115.62
368.636	1106.62
368.862	1117.62
369.089	1122.62
369.315	1106.62
369.541	1121.62
369.767	1135.62
369.993	1108.62
370.219	1148.62
370.445	1171.62
370.672	1164.62
370.898	1180.62
371.124	1195.62
371.35	1200.62
371.576	1194.62
371.802	1165.62
372.028	1169.62
372.254	1190.62
372.48	1193.62
372.706	1210.62
372.932	1215.62
373.158	1206.62
373.384	1221.62
373.61	1197.62
373.835	1212.62
374.061	1190.62
374.287	1224.62
374.513	1205.62
374.739	1248.62
374.965	1255.62
375.191	1292.62
375.416	1299.62
375.642	1222.62
375.868	1261.62
376.094	1215.62
376.319	1213.62
376.545	1171.62
376.771	1191.62
376.997	1155.62
377.222	1194.62
377.448	1176.62
377.674	1167.62
377.899	1183.62
378.125	1167.62
378.35	1154.62
378.576	1181.62
378.802	1146.62
379.027	1168.62
379.253	1179.62
379.478	1157.62
379.704	1180.62
379.929	1178.62
380.155	1148.62
380.38	1141.62
380.606	1192.62
380.831	1166.62
381.057	1182.62
381.282	1145.62
381.507	1111.62
381.733	1159.62
381.958	1160.62
382.184	1216.62
382.409	1202.62
382.634	1203.62
382.86	1214.62
383.085	1241.62
383.31	1214.62
383.535	1266.62
383.761	1252.62
383.986	1307.62
384.211	1337.62
384.436	1333.62
384.662	1349.62
384.887	1365.62
385.112	1364.62
385.337	1351.62
385.562	1385.62
385.787	1414.62
386.013	1389.62
386.238	1387.62
386.463	1396.62
386.688	1409.62
386.913	1360.62
387.138	1365.62
387.363	1399.62
387.588	1399.62
387.813	1393.62
388.038	1376.62
388.263	1391.62
388.488	1433.62
388.713	1388.62
388.938	1391.62
389.163	1401.62
389.387	1391.62
389.612	1370.62
389.837	1410.62
390.062	1377.62
390.287	1405.62
390.512	1388.62
390.736	1388.62
390.961	1421.62
391.186	1435.62
391.411	1457.62
391.636	1514.62
391.86	1557.62
392.085	1575.62
392.31	1527.62
392.534	1556.62
392.759	1499.62
392.984	1497.62
393.208	1435.62
393.433	1495.62
393.658	1489.62
393.882	1448.62
394.107	1438.62
394.331	1463.62
394.556	1456.62
394.78	1499.62
395.005	1493.62
395.229	1511.62
395.454	1535.62
395.678	1565.62
395.903	1538.62
396.127	1573.62
396.352	1519.62
396.576	1461.62
396.801	1498.62
397.025	1508.62
397.249	1540.62
397.474	1583.62
397.698	1565.62
397.922	1596.62
398.147	1589.62
398.371	1634.62
398.595	1683.62
398.82	1715.62
399.044	1835.62
399.268	2002.62
399.492	2182.62
399.717	2393.62
399.941	2426.62
400.165	2228.62
400.389	2101.62
400.613	1935.62
400.837	1861.62
401.062	1808.62
401.286	1764.62
401.51	1783.62
401.734	1759.62
401.958	1794.62
402.182	1744.62
402.406	1800.62
402.63	1776.62
402.854	1819.62
403.078	1795.62
403.302	1813.62
403.526	1874.62
403.75	1883.62
403.974	1916.62
404.198	1893.62
404.422	1895.62
404.645	1916.62
404.869	1906.62
405.093	1890.62
405.317	1888.62
405.541	1920.62
405.765	1923.62
405.988	1875.62
406.212	1911.62
406.436	1943.62
406.66	1933.62
406.883	1923.62
407.107	2022.62
407.331	2105.62
407.555	2179.62
407.778	2177.62
408.002	2142.62
408.226	2135.62
408.449	2056.62
408.673	2007.62
408.896	1978.62
409.12	1921.62
409.344	1980.62
409.567	1962.62
409.791	1969.62
410.014	1907.62
410.238	1908.62
410.461	1893.62
410.685	1909.62
410.908	1857.62
411.132	1857.62
411.355	1801.62
411.578	1817.62
411.802	1816.62
412.025	1803.62
412.249	1807.62
412.472	1840.62
412.695	1804.62
412.919	1769.62
413.142	1775.62
413.365	1744.62
413.589	1777.62
413.812	1769.62
414.035	1697.62
414.258	1739.62
414.482	1750.62
414.705	1701.62
414.928	1766.62
415.151	1749.62
415.374	1739.62
415.597	1719.62
415.821	1702.62
416.044	1681.62
416.267	1677.62
416.49	1673.62
416.713	1673.62
416.936	1721.62
417.159	1694.62
417.382	1659.62
417.605	1661.62
417.828	1656.62
418.051	1696.62
418.274	1667.62
418.497	1665.62
418.72	1695.62
418.943	1703.62
419.166	1827.62
419.389	1959.62
419.611	1895.62
419.834	1804.62
420.057	1762.62
420.28	1695.62
420.503	1685.62
420.726	1669.62
420.948	1684.62
421.171	1651.62
421.394	1687.62
421.617	1663.62
421.839	1681.62
422.062	1667.62
422.285	1668.62
422.507	1686.62
422.73	1711.62
422.953	1696.62
423.175	1729.62
423.398	1744.62
423.621	1682.62
423.843	1733.62
424.066	1740.62
424.288	1713.62
424.511	1729.62
424.733	1708.62
424.956	1701.62
425.178	1709.62
425.401	1712.62
425.623	1672.62
425.846	1640.62
426.068	1693.62
426.291	1603.62
426.513	1580.62
426.735	1622.62
426.958	1598.62
427.18	1571.62
427.402	1583.62
427.625	1579.62
427.847	1519.62
428.069	1529.62
428.292	1529.62
428.514	1526.62
428.736	1539.62
428.958	1539.62
429.181	1505.62
429.403	1481.62
429.625	1485.62
429.847	1450.62
430.069	1444.62
430.292	1527.62
430.514	1460.62
430.736	1535.62
430.958	1508.62
431.18	1476.62
431.402	1474.62
431.624	1500.62
431.846	1546.62
432.068	1560.62
432.29	1587.62
432.512	1521.62
432.734	1549.62
432.956	1545.62
433.178	1512.62
433.4	1565.62
433.622	1557.62
433.844	1572.62
434.066	1583.62
434.287	1600.62
434.509	1616.62
434.731	1678.62
434.953	1676.62
435.175	1734.62
435.397	1691.62
435.618	1619.62
435.84	1625.62
436.062	1515.62
436.284	1518.62
436.505	1523.62
436.727	1548.62
436.949	1577.62
437.17	1519.62
437.392	1510.62
437.614	1476.62
437.835	1451.62
438.057	1443.62
438.278	1440.62
438.5	1468.62
438.721	1476.62
438.943	1472.62
439.165	1451.62
439.386	1468.62
439.608	1523.62
439.829	1480.62
440.05	1515.62
440.272	1493.62
440.493	1489.62
440.715	1521.62
440.936	1575.62
441.158	1580.62
441.379	1615.62
441.6	1661.62
441.822	1671.62
442.043	1613.62
442.264	1627.62
442.486	1603.62
442.707	1642.62
442.928	1598.62
443.149	1654.62
443.371	1618.62
443.592	1645.62
443.813	1654.62
444.034	1645.62
444.255	1691.62
444.476	1801.62
444.698	1860.62
444.919	1855.62
445.14	1942.62
445.361	1816.62
445.582	1724.62
445.803	1648.62
446.024	1618.62
446.245	1572.62
446.466	1563.62
446.687	1507.62
446.908	1575.62
447.129	1473.62
447.35	1427.62
447.571	1471.62
447.792	1407.62
448.013	1416.62
448.234	1427.62
448.455	1401.62
448.675	1413.62
448.896	1375.62
449.117	1352.62
449.338	1371.62
449.559	1369.62
449.779	1331.62
450	1347.62
450.221	1363.62
450.442	1365.62
450.662	1347.62
450.883	1380.62
451.104	1382.62
451.324	1362.62
451.545	1384.62
451.766	1375.62
451.986	1348.62
452.207	1376.62
452.428	1372.62
452.648	1326.62
452.869	1300.62
453.089	1295.62
453.31	1304.62
453.53	1324.62
453.751	1299.62
453.971	1293.62
454.192	1329.62
454.412	1290.62
454.633	1297.62
454.853	1290.62
455.073	1271.62
455.294	1287.62
455.514	1289.62
455.734	1288.62
455.955	1261.62
456.175	1291.62
456.395	1276.62
456.616	1291.62
456.836	1293.62
457.056	1298.62
457.276	1244.62
457.497	1303.62
457.717	1283.62
457.937	1294.62
458.157	1315.62
458.377	1294.62
458.598	1340.62
458.818	1393.62
459.038	1422.62
459.258	1465.62
459.478	1491.62
459.698	1543.62
459.918	1578.62
460.138	1625.62
460.358	1691.62
460.578	1719.62
460.798	1746.62
461.018	1718.62
461.238	1699.62
461.458	1691.62
461.678	1725.62
461.898	1760.62
462.118	1772.62
462.338	1851.62
462.558	1867.62
462.777	1912.62
462.997	2047.62
463.217	2215.62
463.437	2184.62
463.657	2083.62
463.876	2015.62
464.096	1979.62
464.316	1977.62
464.536	1935.62
464.755	1884.62
464.975	1856.62
465.195	1793.62
465.414	1720.62
465.634	1577.62
465.854	1585.62
466.073	1542.62
466.293	1493.62
466.512	1463.62
466.732	1402.62
466.951	1442.62
467.171	1439.62
467.391	1425.62
467.61	1411.62
467.829	1401.62
468.049	1420.62
468.268	1359.62
468.488	1363.62
468.707	1351.62
468.927	1373.62
469.146	1365.62
469.365	1396.62
469.585	1409.62
469.804	1408.62
470.023	1435.62
470.243	1466.62
470.462	1436.62
470.681	1511.62
470.901	1461.62
471.12	1430.62
471.339	1439.62
471.558	1410.62
471.777	1406.62
471.997	1380.62
472.216	1373.62
472.435	1398.62
472.654	1400.62
472.873	1368.62
473.092	1372.62
473.311	1363.62
473.53	1374.62
473.749	1366.62
473.968	1361.62
474.187	1338.62
474.406	1354.62
474.625	1361.62
474.844	1338.62
475.063	1366.62
475.282	1392.62
475.501	1403.62
475.72	1397.62
475.939	1425.62
476.158	1388.62
476.377	1439.62
476.596	1415.62
476.814	1446.62
477.033	1479.62
477.252	1480.62
477.471	1504.62
477.69	1532.62
477.908	1592.62
478.127	1573.62
478.346	1625.62
478.564	1692.62
478.783	1683.62
479.002	1716.62
479.22	1695.62
479.439	1697.62
479.658	1692.62
479.876	1697.62
480.095	1742.62
480.313	1796.62
480.532	1776.62
480.751	1790.62
480.969	1795.62
481.188	1719.62
481.406	1711.62
481.624	1681.62
481.843	1671.62
482.061	1661.62
482.28	1669.62
482.498	1618.62
482.717	1659.62
482.935	1699.62
483.153	1667.62
483.372	1675.62
483.59	1706.62
483.808	1692.62
484.027	1689.62
484.245	1733.62
484.463	1711.62
484.681	1745.62
484.9	1785.62
485.118	1808.62
485.336	1793.62
485.554	1805.62
485.772	1855.62
485.99	1786.62
486.209	1808.62
486.427	1833.62
486.645	1799.62
486.863	1801.62
487.081	1778.62
487.299	1787.62
487.517	1789.62
487.735	1754.62
487.953	1736.62
488.171	1756.62
488.389	1744.62
488.607	1726.62
488.825	1737.62
489.043	1713.62
489.261	1720.62
489.479	1724.62
489.696	1703.62
489.914	1755.62
490.132	1718.62
490.35	1705.62
490.568	1693.62
