Data from NiCl2@0.0625M.TitratingCurve.Agarose3%dH2O.NegLispCup.LampEnergy10.LIBS07252019_HRD10591_18-34-55-577.txt Node
Date: Thu Jul 25 18:34:55 EDT 2019
User: cochatt
Spectrometer: HR+D1059
Trigger mode: 1
Integration Time (sec): 1.000000E-1
Scans to average: 1
Electric dark correction enabled: true
Nonlinearity correction enabled: false
Boxcar width: 0
XAxis mode: Wavelengths
Number of Pixels in Spectrum: 2048
>>>>>Begin Spectral Data<<<<<
223.165	-22
223.4	-22
223.635	-22
223.869	-8
224.104	-16
224.338	-22
224.573	-10
224.808	-26
225.042	7
225.277	6
225.511	-3
225.746	-1
225.98	11
226.215	3
226.449	8
226.683	21
226.918	27
227.152	25
227.387	26
227.621	51
227.856	55
228.09	41
228.324	54
228.559	64
228.793	59
229.027	113
229.262	105
229.496	134
229.73	124
229.964	155
230.199	155
230.433	152
230.667	177
230.901	161
231.136	164
231.37	154
231.604	162
231.838	173
232.072	192
232.306	179
232.541	164
232.775	176
233.009	184
233.243	164
233.477	187
233.711	177
233.945	190
234.179	186
234.413	185
234.647	188
234.881	170
235.115	182
235.349	184
235.583	186
235.817	188
236.051	194
236.285	192
236.519	195
236.753	201
236.987	197
237.221	205
237.455	198
237.689	193
237.922	206
238.156	224
238.39	228
238.624	213
238.858	207
239.091	208
239.325	214
239.559	209
239.793	214
240.027	243
240.26	232
240.494	248
240.728	229
240.961	238
241.195	240
241.429	260
241.662	248
241.896	249
242.13	260
242.363	257
242.597	256
242.83	252
243.064	257
243.298	266
243.531	265
243.765	285
243.998	295
244.232	286
244.465	275
244.699	277
244.932	273
245.166	286
245.399	290
245.633	294
245.866	296
246.099	292
246.333	294
246.566	287
246.8	300
247.033	292
247.266	281
247.5	299
247.733	304
247.966	304
248.2	309
248.433	316
248.666	328
248.899	302
249.133	317
249.366	326
249.599	328
249.832	322
250.066	318
250.299	345
250.532	333
250.765	349
250.998	348
251.231	348
251.465	352
251.698	357
251.931	354
252.164	372
252.397	359
252.63	366
252.863	381
253.096	375
253.329	359
253.562	369
253.795	380
254.028	398
254.261	383
254.494	378
254.727	393
254.96	380
255.193	392
255.426	379
255.659	407
255.892	414
256.124	402
256.357	425
256.59	423
256.823	401
257.056	410
257.289	391
257.521	413
257.754	424
257.987	423
258.22	426
258.452	420
258.685	409
258.918	435
259.151	416
259.383	436
259.616	424
259.849	434
260.081	441
260.314	442
260.547	451
260.779	439
261.012	432
261.244	419
261.477	436
261.71	470
261.942	461
262.175	442
262.407	482
262.64	455
262.872	450
263.105	458
263.337	490
263.57	479
263.802	480
264.035	472
264.267	453
264.499	466
264.732	485
264.964	485
265.197	492
265.429	512
265.661	486
265.894	498
266.126	490
266.358	507
266.591	494
266.823	513
267.055	492
267.287	504
267.52	507
267.752	517
267.984	521
268.216	496
268.448	527
268.681	490
268.913	525
269.145	526
269.377	521
269.609	537
269.841	550
270.073	540
270.306	525
270.538	516
270.77	530
271.002	539
271.234	545
271.466	526
271.698	545
271.93	552
272.162	541
272.394	565
272.626	573
272.858	562
273.09	562
273.322	558
273.553	564
273.785	562
274.017	588
274.249	595
274.481	589
274.713	584
274.945	592
275.176	574
275.408	601
275.64	604
275.872	593
276.104	616
276.335	610
276.567	595
276.799	613
277.031	627
277.262	606
277.494	600
277.726	619
277.957	612
278.189	604
278.421	612
278.652	616
278.884	633
279.115	640
279.347	639
279.579	621
279.81	658
280.042	629
280.273	655
280.505	659
280.736	659
280.968	651
281.199	641
281.431	667
281.662	649
281.894	677
282.125	676
282.356	667
282.588	661
282.819	660
283.051	681
283.282	683
283.513	672
283.745	685
283.976	679
284.207	691
284.439	709
284.67	685
284.901	680
285.132	692
285.364	694
285.595	703
285.826	706
286.057	707
286.288	710
286.52	703
286.751	696
286.982	730
287.213	714
287.444	725
287.675	744
287.906	728
288.138	720
288.369	730
288.6	765
288.831	718
289.062	730
289.293	737
289.524	718
289.755	722
289.986	744
290.217	772
290.448	724
290.679	737
290.91	738
291.141	742
291.371	733
291.602	723
291.833	765
292.064	754
292.295	730
292.526	754
292.757	762
292.987	724
293.218	736
293.449	779
293.68	764
293.91	766
294.141	747
294.372	760
294.603	739
294.833	743
295.064	773
295.295	749
295.525	746
295.756	752
295.987	748
296.217	788
296.448	757
296.679	791
296.909	768
297.14	777
297.37	799
297.601	804
297.831	802
298.062	814
298.292	800
298.523	817
298.753	834
298.984	827
299.214	796
299.445	817
299.675	796
299.905	827
300.136	830
300.366	818
300.597	830
300.827	847
301.057	846
301.288	833
301.518	832
301.748	856
301.979	870
302.209	858
302.439	861
302.669	874
302.9	861
303.13	868
303.36	852
303.59	852
303.82	848
304.051	889
304.281	858
304.511	824
304.741	865
304.971	853
305.201	873
305.431	854
305.661	851
305.891	876
306.121	860
306.352	846
306.582	841
306.812	822
307.042	854
307.272	855
307.502	819
307.731	852
307.961	869
308.191	822
308.421	822
308.651	844
308.881	846
309.111	848
309.341	848
309.571	842
309.8	849
310.03	853
310.26	853
310.49	829
310.72	852
310.949	862
311.179	860
311.409	833
311.639	860
311.868	870
312.098	877
312.328	871
312.557	872
312.787	868
313.017	880
313.246	890
313.476	908
313.706	881
313.935	886
314.165	898
314.394	913
314.624	887
314.853	900
315.083	918
315.312	920
315.542	891
315.771	886
316.001	905
316.23	902
316.46	901
316.689	924
316.919	903
317.148	886
317.377	879
317.607	887
317.836	898
318.065	902
318.295	900
318.524	902
318.753	925
318.983	897
319.212	894
319.441	894
319.67	903
319.9	912
320.129	895
320.358	896
320.587	904
320.816	897
321.046	923
321.275	889
321.504	915
321.733	897
321.962	929
322.191	909
322.42	896
322.649	904
322.878	924
323.108	899
323.337	950
323.566	927
323.795	921
324.024	948
324.253	904
324.482	902
324.71	928
324.939	959
325.168	952
325.397	927
325.626	922
325.855	950
326.084	995
326.313	977
326.542	987
326.77	983
326.999	976
327.228	943
327.457	972
327.686	982
327.914	986
328.143	971
328.372	984
328.6	998
328.829	973
329.058	983
329.287	978
329.515	986
329.744	980
329.972	1011
330.201	996
330.43	1002
330.658	975
330.887	1016
331.115	1009
331.344	1008
331.572	1042
331.801	1032
332.03	1073
332.258	1091
332.486	1052
332.715	1085
332.943	1109
333.172	1175
333.4	1204
333.629	1230
333.857	1255
334.085	1267
334.314	1218
334.542	1214
334.771	1244
334.999	1219
335.227	1203
335.455	1183
335.684	1190
335.912	1229
336.14	1152
336.369	1216
336.597	1161
336.825	1178
337.053	1176
337.281	1138
337.51	1122
337.738	1178
337.966	1118
338.194	1090
338.422	1060
338.65	1077
338.878	1070
339.106	1059
339.334	1062
339.562	1094
339.79	1057
340.018	1037
340.246	1009
340.474	1012
340.702	1030
340.93	1009
341.158	1056
341.386	1034
341.614	1030
341.842	995
342.07	993
342.298	1001
342.526	1010
342.754	1000
342.981	1052
343.209	1052
343.437	1072
343.665	1107
343.893	1145
344.12	1166
344.348	1177
344.576	1140
344.804	1082
345.031	1068
345.259	1064
345.487	1059
345.714	1043
345.942	1037
346.17	1034
346.397	985
346.625	990
346.853	978
347.08	973
347.308	987
347.535	1009
347.763	971
347.99	978
348.218	971
348.445	986
348.673	980
348.9	1002
349.128	956
349.355	979
349.583	987
349.81	976
350.037	962
350.265	969
350.492	960
350.72	972
350.947	935
351.174	950
351.402	961
351.629	931
351.856	972
352.083	918
352.311	954
352.538	920
352.765	957
352.992	930
353.22	927
353.447	922
353.674	934
353.901	949
354.128	944
354.355	966
354.583	972
354.81	924
355.037	931
355.264	943
355.491	939
355.718	964
355.945	960
356.172	960
356.399	950
356.626	939
356.853	944
357.08	974
357.307	939
357.534	950
357.761	940
357.988	983
358.215	973
358.441	930
358.668	936
358.895	936
359.122	954
359.349	962
359.576	955
359.802	922
360.029	937
360.256	948
360.483	946
360.709	977
360.936	966
361.163	958
361.39	971
361.616	960
361.843	952
362.07	952
362.296	966
362.523	927
362.749	960
362.976	945
363.203	943
363.429	942
363.656	933
363.882	930
364.109	962
364.335	954
364.562	942
364.788	937
365.015	949
365.241	947
365.468	973
365.694	967
365.92	947
366.147	941
366.373	957
366.599	959
366.826	931
367.052	953
367.278	966
367.505	971
367.731	980
367.957	946
368.184	983
368.41	980
368.636	964
368.862	992
369.089	986
369.315	970
369.541	1014
369.767	999
369.993	1016
370.219	991
370.445	999
370.672	982
370.898	1015
371.124	1010
371.35	1025
371.576	1031
371.802	1039
372.028	1009
372.254	1026
372.48	1032
372.706	1064
372.932	1052
373.158	1077
373.384	1049
373.61	1059
373.835	1039
374.061	1038
374.287	1038
374.513	1067
374.739	1062
374.965	1100
375.191	1128
375.416	1126
375.642	1079
375.868	1091
376.094	1108
376.319	1063
376.545	1072
376.771	1030
376.997	1029
377.222	1077
377.448	1021
377.674	1018
377.899	1036
378.125	1045
378.35	1035
378.576	1002
378.802	1045
379.027	1041
379.253	1014
379.478	998
379.704	1007
379.929	1046
380.155	998
380.38	1011
380.606	1031
380.831	990
381.057	1007
381.282	1046
381.507	1036
381.733	1033
381.958	1042
382.184	1068
382.409	1049
382.634	1066
382.86	1059
383.085	1096
383.31	1120
383.535	1092
383.761	1100
383.986	1115
384.211	1144
384.436	1138
384.662	1186
384.887	1205
385.112	1221
385.337	1172
385.562	1213
385.787	1213
386.013	1214
386.238	1228
386.463	1245
386.688	1229
386.913	1188
387.138	1217
387.363	1206
387.588	1188
387.813	1212
388.038	1211
388.263	1195
388.488	1222
388.713	1197
388.938	1200
389.163	1232
389.387	1199
389.612	1201
389.837	1208
390.062	1207
390.287	1212
390.512	1220
390.736	1237
390.961	1268
391.186	1276
391.411	1286
391.636	1322
391.86	1342
392.085	1341
392.31	1339
392.534	1363
392.759	1333
392.984	1320
393.208	1298
393.433	1288
393.658	1292
393.882	1279
394.107	1282
394.331	1280
394.556	1272
394.78	1307
395.005	1299
395.229	1268
395.454	1315
395.678	1348
395.903	1360
396.127	1359
396.352	1341
396.576	1322
396.801	1314
397.025	1341
397.249	1341
397.474	1349
397.698	1397
397.922	1370
398.147	1363
398.371	1407
398.595	1407
398.82	1477
399.044	1580
399.268	1664
399.492	1885
399.717	2048
399.941	2056
400.165	1940
400.389	1792
400.613	1693
400.837	1612
401.062	1567
401.286	1528
401.51	1523
401.734	1494
401.958	1538
402.182	1536
402.406	1522
402.63	1571
402.854	1538
403.078	1545
403.302	1555
403.526	1602
403.75	1632
403.974	1673
404.198	1624
404.422	1670
404.645	1631
404.869	1629
405.093	1637
405.317	1610
405.541	1691
405.765	1656
405.988	1620
406.212	1612
406.436	1620
406.66	1651
406.883	1672
407.107	1772
407.331	1861
407.555	1915
407.778	1891
408.002	1848
408.226	1835
408.449	1793
408.673	1742
408.896	1662
409.12	1688
409.344	1731
409.567	1657
409.791	1660
410.014	1654
410.238	1607
410.461	1630
410.685	1637
410.908	1619
411.132	1620
411.355	1549
411.578	1569
411.802	1527
412.025	1577
412.249	1606
412.472	1601
412.695	1556
412.919	1515
413.142	1538
413.365	1499
413.589	1524
413.812	1521
414.035	1493
414.258	1500
414.482	1528
414.705	1534
414.928	1504
415.151	1502
415.374	1501
415.597	1494
415.821	1469
416.044	1464
416.267	1431
416.49	1472
416.713	1440
416.936	1449
417.159	1413
417.382	1406
417.605	1465
417.828	1461
418.051	1457
418.274	1485
418.497	1441
418.72	1467
418.943	1486
419.166	1569
419.389	1700
419.611	1645
419.834	1544
420.057	1522
420.28	1469
420.503	1463
420.726	1442
420.948	1453
421.171	1458
421.394	1438
421.617	1460
421.839	1414
422.062	1465
422.285	1437
422.507	1500
422.73	1462
422.953	1476
423.175	1512
423.398	1486
423.621	1473
423.843	1478
424.066	1494
424.288	1471
424.511	1495
424.733	1470
424.956	1442
425.178	1470
425.401	1469
425.623	1448
425.846	1429
426.068	1426
426.291	1413
426.513	1397
426.735	1383
426.958	1377
427.18	1364
427.402	1352
427.625	1372
427.847	1346
428.069	1326
428.292	1360
428.514	1338
428.736	1331
428.958	1372
429.181	1318
429.403	1314
429.625	1305
429.847	1281
430.069	1308
430.292	1310
430.514	1313
430.736	1330
430.958	1348
431.18	1286
431.402	1308
431.624	1321
431.846	1318
432.068	1358
432.29	1321
432.512	1328
432.734	1366
432.956	1314
433.178	1359
433.4	1346
433.622	1353
433.844	1352
434.066	1389
434.287	1404
434.509	1400
434.731	1454
434.953	1498
435.175	1460
435.397	1482
435.618	1391
435.84	1411
436.062	1384
436.284	1351
436.505	1341
436.727	1316
436.949	1328
437.17	1307
437.392	1343
437.614	1302
437.835	1265
438.057	1283
438.278	1299
438.5	1298
438.721	1290
438.943	1287
439.165	1270
439.386	1284
439.608	1307
439.829	1300
440.05	1277
440.272	1323
440.493	1328
440.715	1334
440.936	1346
441.158	1360
441.379	1371
441.6	1435
441.822	1477
442.043	1464
442.264	1432
442.486	1440
442.707	1422
442.928	1427
443.149	1398
443.371	1397
443.592	1401
443.813	1446
444.034	1436
444.255	1448
444.476	1536
444.698	1604
444.919	1596
445.14	1702
445.361	1573
445.582	1453
445.803	1429
446.024	1364
446.245	1354
446.466	1366
446.687	1301
446.908	1304
447.129	1255
447.35	1244
447.571	1255
447.792	1237
448.013	1278
448.234	1220
448.455	1226
448.675	1173
448.896	1206
449.117	1187
449.338	1197
449.559	1147
449.779	1158
450	1168
450.221	1214
450.442	1192
450.662	1186
450.883	1193
451.104	1213
451.324	1205
451.545	1210
451.766	1218
451.986	1150
452.207	1178
452.428	1136
452.648	1173
452.869	1142
453.089	1158
453.31	1154
453.53	1145
453.751	1142
453.971	1130
454.192	1149
454.412	1128
454.633	1122
454.853	1133
455.073	1089
455.294	1134
455.514	1106
455.734	1125
455.955	1077
456.175	1118
456.395	1092
456.616	1123
456.836	1117
457.056	1104
457.276	1099
457.497	1162
457.717	1133
457.937	1120
458.157	1180
458.377	1159
458.598	1180
458.818	1218
459.038	1232
459.258	1271
459.478	1315
459.698	1372
459.918	1350
460.138	1380
460.358	1432
460.578	1462
460.798	1449
461.018	1524
461.238	1498
461.458	1492
461.678	1447
461.898	1500
462.118	1537
462.338	1574
462.558	1631
462.777	1695
462.997	1761
463.217	1861
463.437	1888
463.657	1794
463.876	1732
464.096	1677
464.316	1685
464.536	1685
464.755	1674
464.975	1660
465.195	1538
465.414	1486
465.634	1387
465.854	1363
466.073	1309
466.293	1281
466.512	1227
466.732	1282
466.951	1274
467.171	1269
467.391	1264
467.61	1245
467.829	1204
468.049	1220
468.268	1198
468.488	1196
468.707	1206
468.927	1172
469.146	1189
469.365	1240
469.585	1241
469.804	1238
470.023	1238
470.243	1247
470.462	1276
470.681	1255
470.901	1276
471.12	1253
471.339	1247
471.558	1253
471.777	1242
471.997	1236
472.216	1230
472.435	1192
472.654	1181
472.873	1152
473.092	1204
473.311	1182
473.53	1200
473.749	1165
473.968	1178
474.187	1168
474.406	1209
474.625	1204
474.844	1217
475.063	1195
475.282	1209
475.501	1241
475.72	1194
475.939	1238
476.158	1256
476.377	1262
476.596	1257
476.814	1251
477.033	1299
477.252	1290
477.471	1330
477.69	1345
477.908	1387
478.127	1410
478.346	1432
478.564	1421
478.783	1438
479.002	1491
479.22	1509
479.439	1493
479.658	1499
479.876	1506
480.095	1523
480.313	1540
480.532	1605
480.751	1552
480.969	1544
481.188	1485
481.406	1469
481.624	1484
481.843	1498
482.061	1426
482.28	1449
482.498	1430
482.717	1431
482.935	1452
483.153	1451
483.372	1443
483.59	1469
483.808	1453
484.027	1453
484.245	1481
484.463	1509
484.681	1556
484.9	1516
485.118	1548
485.336	1556
485.554	1588
485.772	1592
485.99	1603
486.209	1581
486.427	1596
486.645	1564
486.863	1569
487.081	1574
487.299	1550
487.517	1592
487.735	1569
487.953	1555
488.171	1551
488.389	1566
488.607	1525
488.825	1489
489.043	1500
489.261	1485
489.479	1510
489.696	1514
489.914	1477
490.132	1542
490.35	1483
490.568	1482
490.786	1498
491.003	1497
491.221	1487
491.439	1492
491.657	1516
491.874	1461
492.092	1468
492.31	1513
492.527	1495
492.745	1519
492.963	1489
493.18	1555
493.398	1506
493.615	1486
493.833	1532
494.05	1528
494.268	1520
494.485	1541
494.703	1550
494.92	1565
495.138	1544
495.355	1531
495.573	1593
495.79	1539
496.008	1530
496.225	1528
496.442	1599
496.66	1625
496.877	1633
497.094	1627
497.312	1676
497.529	1666
497.746	1724
497.963	1800
498.181	1858
498.398	1940
498.615	2016
498.832	2126
499.049	2183
499.267	2378
499.484	2585
499.701	2807
499.918	3027
500.135	3278
500.352	3640
500.569	3663
500.786	3765
501.003	3528
501.22	3224
501.437	2971
501.654	2696
501.871	2478
502.088	2338
502.305	2184
502.522	2118
502.739	2015
502.956	1918
503.172	1867
503.389	1792
503.606	1804
503.823	1738
504.04	1736
504.256	1731
504.473	1722
504.69	1704
504.907	1676
505.123	1628
505.34	1574
505.557	1476
505.773	1444
505.99	1421
506.207	1404
506.423	1392
506.64	1350
506.856	1333
507.073	1350
507.289	1324
507.506	1364
507.722	1306
507.939	1277
508.155	1316
508.372	1288
508.588	1279
508.805	1242
509.021	1219
509.238	1212
509.454	1231
509.67	1222
509.887	1233
510.103	1180
510.319	1186
510.536	1210
510.752	1175
510.968	1194
511.184	1172
511.401	1166
511.617	1171
511.833	1197
512.049	1166
512.265	1173
512.481	1185
512.698	1142
512.914	1151
513.13	1186
513.346	1182
513.562	1193
513.778	1206
513.994	1195
514.21	1185
514.426	1211
514.642	1206
514.858	1204
515.074	1221
515.29	1252
515.506	1237
515.721	1267
515.937	1275
516.153	1274
516.369	1323
516.585	1345
516.801	1354
517.016	1409
517.232	1474
517.448	1465
517.664	1539
517.879	1532
518.095	1541
518.311	1544
518.527	1433
518.742	1450
518.958	1372
519.173	1355
519.389	1298
519.605	1302
519.82	1261
520.036	1248
520.251	1210
520.467	1195
520.682	1162
520.898	1202
521.113	1148
521.329	1148
521.544	1100
521.76	1118
521.975	1121
522.19	1133
522.406	1113
522.621	1107
522.836	1090
523.052	1110
523.267	1125
523.482	1087
523.698	1062
523.913	1081
524.128	1108
524.343	1067
524.559	1104
524.774	1083
524.989	1093
525.204	1088
525.419	1072
525.634	1065
525.849	1032
526.064	1069
526.28	1069
526.495	1058
526.71	1048
526.925	1068
527.14	1028
527.355	1036
527.57	1085
527.785	1046
527.999	1054
528.214	1076
528.429	1056
528.644	1034
528.859	1044
529.074	1082
529.289	1042
529.503	1035
529.718	1042
529.933	1034
530.148	1049
530.363	1039
530.577	1006
530.792	1033
531.007	1012
531.221	1046
531.436	1038
531.651	1034
531.865	1013
532.08	1026
532.295	1003
532.509	998
532.724	1058
532.938	1022
533.153	1040
533.367	1047
533.582	1061
533.796	1043
534.011	1029
534.225	1052
534.44	1006
534.654	990
534.868	1021
535.083	1026
535.297	1030
535.511	995
535.726	1006
535.94	996
536.154	985
536.369	966
536.583	990
536.797	986
537.011	954
537.225	970
537.44	982
537.654	979
537.868	946
538.082	939
538.296	944
538.51	936
538.724	952
538.938	940
539.153	952
539.367	928
539.581	940
539.795	947
540.009	950
540.222	922
540.436	927
540.65	896
540.864	901
541.078	898
541.292	908
541.506	949
541.72	924
541.934	916
542.147	939
542.361	907
542.575	895
542.789	903
543.002	901
543.216	902
543.43	908
543.644	889
543.857	912
544.071	910
544.285	959
544.498	943
544.712	939
544.925	944
545.139	952
545.352	935
545.566	916
545.779	928
545.993	925
546.206	931
546.42	916
546.633	926
546.847	948
547.06	931
547.274	932
547.487	946
547.7	951
547.914	933
548.127	916
548.34	925
548.554	923
548.767	943
548.98	922
549.193	931
549.407	967
549.62	962
549.833	964
