Data from NiCl2@0.5M.TitratingCurve.Agarose3%dH2O.NegLispCup.LampEnergy10.LIBS07252019_HRD10591_18-19-18-571.txt Node
Date: Thu Jul 25 18:19:18 EDT 2019
User: cochatt
Spectrometer: HR+D1059
Trigger mode: 1
Integration Time (sec): 1.000000E-1
Scans to average: 1
Electric dark correction enabled: true
Nonlinearity correction enabled: false
Boxcar width: 0
XAxis mode: Wavelengths
Number of Pixels in Spectrum: 2048
>>>>>Begin Spectral Data<<<<<
223.165	-15.94
223.4	-15.94
223.635	-15.94
223.869	-5.94
224.104	-16.94
224.338	-38.94
224.573	-19.94
224.808	-9.94
225.042	-4.94
225.277	7.06
225.511	8.06
225.746	2.06
225.98	-1.94
226.215	10.06
226.449	12.06
226.683	15.06
226.918	16.06
227.152	44.06
227.387	34.06
227.621	43.06
227.856	53.06
228.09	61.06
228.324	59.06
228.559	35.06
228.793	68.06
229.027	90.06
229.262	102.06
229.496	114.06
229.73	110.06
229.964	107.06
230.199	120.06
230.433	130.06
230.667	97.06
230.901	121.06
231.136	120.06
231.37	116.06
231.604	119.06
231.838	114.06
232.072	135.06
232.306	135.06
232.541	131.06
232.775	127.06
233.009	139.06
233.243	124.06
233.477	131.06
233.711	139.06
233.945	143.06
234.179	130.06
234.413	114.06
234.647	124.06
234.881	125.06
235.115	128.06
235.349	124.06
235.583	122.06
235.817	124.06
236.051	145.06
236.285	138.06
236.519	138.06
236.753	108.06
236.987	123.06
237.221	119.06
237.455	142.06
237.689	152.06
237.922	140.06
238.156	135.06
238.39	132.06
238.624	136.06
238.858	150.06
239.091	150.06
239.325	133.06
239.559	148.06
239.793	160.06
240.027	144.06
240.26	149.06
240.494	155.06
240.728	142.06
240.961	144.06
241.195	163.06
241.429	158.06
241.662	155.06
241.896	152.06
242.13	165.06
242.363	174.06
242.597	144.06
242.83	162.06
243.064	143.06
243.298	158.06
243.531	160.06
243.765	145.06
243.998	171.06
244.232	164.06
244.465	175.06
244.699	164.06
244.932	175.06
245.166	182.06
245.399	179.06
245.633	183.06
245.866	158.06
246.099	164.06
246.333	173.06
246.566	170.06
246.8	171.06
247.033	154.06
247.266	162.06
247.5	188.06
247.733	178.06
247.966	184.06
248.2	179.06
248.433	178.06
248.666	185.06
248.899	173.06
249.133	173.06
249.366	190.06
249.599	188.06
249.832	197.06
250.066	200.06
250.299	197.06
250.532	186.06
250.765	212.06
250.998	185.06
251.231	192.06
251.465	189.06
251.698	207.06
251.931	198.06
252.164	218.06
252.397	205.06
252.63	198.06
252.863	188.06
253.096	208.06
253.329	205.06
253.562	217.06
253.795	210.06
254.028	220.06
254.261	200.06
254.494	213.06
254.727	231.06
254.96	233.06
255.193	213.06
255.426	232.06
255.659	215.06
255.892	231.06
256.124	227.06
256.357	222.06
256.59	238.06
256.823	214.06
257.056	231.06
257.289	227.06
257.521	227.06
257.754	222.06
257.987	223.06
258.22	216.06
258.452	251.06
258.685	233.06
258.918	250.06
259.151	236.06
259.383	234.06
259.616	215.06
259.849	237.06
260.081	230.06
260.314	245.06
260.547	242.06
260.779	233.06
261.012	221.06
261.244	230.06
261.477	246.06
261.71	259.06
261.942	232.06
262.175	246.06
262.407	257.06
262.64	244.06
262.872	243.06
263.105	262.06
263.337	256.06
263.57	242.06
263.802	215.06
264.035	247.06
264.267	239.06
264.499	238.06
264.732	259.06
264.964	266.06
265.197	260.06
265.429	262.06
265.661	272.06
265.894	257.06
266.126	267.06
266.358	275.06
266.591	262.06
266.823	260.06
267.055	256.06
267.287	275.06
267.52	273.06
267.752	274.06
267.984	261.06
268.216	271.06
268.448	284.06
268.681	270.06
268.913	283.06
269.145	279.06
269.377	267.06
269.609	286.06
269.841	282.06
270.073	306.06
270.306	280.06
270.538	280.06
270.77	291.06
271.002	289.06
271.234	277.06
271.466	278.06
271.698	286.06
271.93	298.06
272.162	287.06
272.394	284.06
272.626	298.06
272.858	282.06
273.09	299.06
273.322	307.06
273.553	300.06
273.785	299.06
274.017	306.06
274.249	292.06
274.481	283.06
274.713	328.06
274.945	306.06
275.176	291.06
275.408	306.06
275.64	299.06
275.872	287.06
276.104	311.06
276.335	312.06
276.567	325.06
276.799	314.06
277.031	310.06
277.262	316.06
277.494	317.06
277.726	309.06
277.957	330.06
278.189	358.06
278.421	306.06
278.652	315.06
278.884	317.06
279.115	328.06
279.347	326.06
279.579	346.06
279.81	336.06
280.042	316.06
280.273	347.06
280.505	333.06
280.736	331.06
280.968	343.06
281.199	344.06
281.431	358.06
281.662	349.06
281.894	350.06
282.125	344.06
282.356	341.06
282.588	344.06
282.819	351.06
283.051	356.06
283.282	354.06
283.513	347.06
283.745	376.06
283.976	362.06
284.207	374.06
284.439	346.06
284.67	362.06
284.901	348.06
285.132	367.06
285.364	367.06
285.595	355.06
285.826	353.06
286.057	364.06
286.288	376.06
286.52	387.06
286.751	378.06
286.982	366.06
287.213	372.06
287.444	374.06
287.675	388.06
287.906	370.06
288.138	372.06
288.369	370.06
288.6	388.06
288.831	374.06
289.062	365.06
289.293	380.06
289.524	368.06
289.755	386.06
289.986	368.06
290.217	380.06
290.448	358.06
290.679	393.06
290.91	380.06
291.141	388.06
291.371	366.06
291.602	384.06
291.833	378.06
292.064	395.06
292.295	397.06
292.526	379.06
292.757	406.06
292.987	392.06
293.218	391.06
293.449	403.06
293.68	398.06
293.91	370.06
294.141	414.06
294.372	390.06
294.603	404.06
294.833	400.06
295.064	382.06
295.295	399.06
295.525	389.06
295.756	398.06
295.987	409.06
296.217	394.06
296.448	399.06
296.679	421.06
296.909	413.06
297.14	408.06
297.37	420.06
297.601	408.06
297.831	421.06
298.062	424.06
298.292	417.06
298.523	437.06
298.753	419.06
298.984	419.06
299.214	414.06
299.445	420.06
299.675	419.06
299.905	452.06
300.136	436.06
300.366	446.06
300.597	448.06
300.827	453.06
301.057	439.06
301.288	432.06
301.518	449.06
301.748	446.06
301.979	445.06
302.209	439.06
302.439	454.06
302.669	446.06
302.9	426.06
303.13	420.06
303.36	440.06
303.59	455.06
303.82	441.06
304.051	431.06
304.281	445.06
304.511	450.06
304.741	451.06
304.971	473.06
305.201	455.06
305.431	460.06
305.661	460.06
305.891	476.06
306.121	452.06
306.352	453.06
306.582	434.06
306.812	447.06
307.042	412.06
307.272	441.06
307.502	441.06
307.731	452.06
307.961	470.06
308.191	437.06
308.421	448.06
308.651	442.06
308.881	448.06
309.111	441.06
309.341	442.06
309.571	443.06
309.8	442.06
310.03	468.06
310.26	475.06
310.49	479.06
310.72	476.06
310.949	462.06
311.179	456.06
311.409	452.06
311.639	464.06
311.868	471.06
312.098	467.06
312.328	476.06
312.557	457.06
312.787	451.06
313.017	473.06
313.246	472.06
313.476	487.06
313.706	491.06
313.935	464.06
314.165	475.06
314.394	475.06
314.624	471.06
314.853	477.06
315.083	467.06
315.312	472.06
315.542	462.06
315.771	471.06
316.001	474.06
316.23	479.06
316.46	478.06
316.689	451.06
316.919	464.06
317.148	469.06
317.377	482.06
317.607	482.06
317.836	469.06
318.065	463.06
318.295	486.06
318.524	474.06
318.753	476.06
318.983	469.06
319.212	463.06
319.441	473.06
319.67	510.06
319.9	492.06
320.129	471.06
320.358	493.06
320.587	480.06
320.816	476.06
321.046	485.06
321.275	500.06
321.504	474.06
321.733	483.06
321.962	477.06
322.191	474.06
322.42	476.06
322.649	485.06
322.878	496.06
323.108	495.06
323.337	492.06
323.566	497.06
323.795	482.06
324.024	501.06
324.253	508.06
324.482	487.06
324.71	504.06
324.939	500.06
325.168	512.06
325.397	495.06
325.626	522.06
325.855	527.06
326.084	505.06
326.313	540.06
326.542	517.06
326.77	522.06
326.999	519.06
327.228	514.06
327.457	522.06
327.686	504.06
327.914	504.06
328.143	500.06
328.372	518.06
328.6	515.06
328.829	524.06
329.058	523.06
329.287	528.06
329.515	535.06
329.744	503.06
329.972	525.06
330.201	522.06
330.43	542.06
330.658	540.06
330.887	543.06
331.115	536.06
331.344	538.06
331.572	549.06
331.801	547.06
332.03	541.06
332.258	569.06
332.486	600.06
332.715	582.06
332.943	593.06
333.172	623.06
333.4	625.06
333.629	638.06
333.857	666.06
334.085	626.06
334.314	639.06
334.542	626.06
334.771	646.06
334.999	632.06
335.227	637.06
335.455	640.06
335.684	626.06
335.912	640.06
336.14	620.06
336.369	600.06
336.597	636.06
336.825	635.06
337.053	600.06
337.281	603.06
337.51	566.06
337.738	613.06
337.966	591.06
338.194	591.06
338.422	576.06
338.65	562.06
338.878	575.06
339.106	557.06
339.334	573.06
339.562	596.06
339.79	564.06
340.018	535.06
340.246	547.06
340.474	572.06
340.702	570.06
340.93	565.06
341.158	555.06
341.386	550.06
341.614	565.06
341.842	582.06
342.07	537.06
342.298	532.06
342.526	572.06
342.754	540.06
342.981	540.06
343.209	543.06
343.437	584.06
343.665	604.06
343.893	644.06
344.12	604.06
344.348	615.06
344.576	619.06
344.804	599.06
345.031	553.06
345.259	575.06
345.487	569.06
345.714	547.06
345.942	563.06
346.17	573.06
346.397	552.06
346.625	532.06
346.853	532.06
347.08	539.06
347.308	562.06
347.535	543.06
347.763	540.06
347.99	534.06
348.218	525.06
348.445	536.06
348.673	525.06
348.9	525.06
349.128	535.06
349.355	528.06
349.583	547.06
349.81	521.06
350.037	494.06
350.265	518.06
350.492	501.06
350.72	510.06
350.947	495.06
351.174	517.06
351.402	528.06
351.629	522.06
351.856	519.06
352.083	501.06
352.311	536.06
352.538	545.06
352.765	530.06
352.992	520.06
353.22	506.06
353.447	501.06
353.674	489.06
353.901	481.06
354.128	504.06
354.355	489.06
354.583	476.06
354.81	500.06
355.037	501.06
355.264	513.06
355.491	499.06
355.718	517.06
355.945	496.06
356.172	514.06
356.399	524.06
356.626	520.06
356.853	517.06
357.08	508.06
357.307	506.06
357.534	520.06
357.761	528.06
357.988	520.06
358.215	500.06
358.441	503.06
358.668	509.06
358.895	483.06
359.122	489.06
359.349	500.06
359.576	490.06
359.802	494.06
360.029	498.06
360.256	509.06
360.483	517.06
360.709	492.06
360.936	510.06
361.163	487.06
361.39	500.06
361.616	502.06
361.843	509.06
362.07	517.06
362.296	528.06
362.523	499.06
362.749	495.06
362.976	489.06
363.203	494.06
363.429	519.06
363.656	479.06
363.882	491.06
364.109	484.06
364.335	504.06
364.562	495.06
364.788	516.06
365.015	493.06
365.241	522.06
365.468	487.06
365.694	494.06
365.92	492.06
366.147	492.06
366.373	506.06
366.599	510.06
366.826	519.06
367.052	492.06
367.278	485.06
367.505	512.06
367.731	504.06
367.957	483.06
368.184	495.06
368.41	501.06
368.636	503.06
368.862	498.06
369.089	520.06
369.315	516.06
369.541	496.06
369.767	512.06
369.993	514.06
370.219	503.06
370.445	534.06
370.672	537.06
370.898	506.06
371.124	523.06
371.35	539.06
371.576	539.06
371.802	534.06
372.028	520.06
372.254	535.06
372.48	535.06
372.706	524.06
372.932	529.06
373.158	541.06
373.384	514.06
373.61	532.06
373.835	535.06
374.061	525.06
374.287	550.06
374.513	552.06
374.739	563.06
374.965	556.06
375.191	576.06
375.416	568.06
375.642	545.06
375.868	537.06
376.094	554.06
376.319	556.06
376.545	525.06
376.771	541.06
376.997	534.06
377.222	540.06
377.448	550.06
377.674	539.06
377.899	520.06
378.125	512.06
378.35	519.06
378.576	518.06
378.802	528.06
379.027	508.06
379.253	525.06
379.478	522.06
379.704	518.06
379.929	519.06
380.155	523.06
380.38	523.06
380.606	502.06
380.831	532.06
381.057	519.06
381.282	489.06
381.507	511.06
381.733	522.06
381.958	541.06
382.184	528.06
382.409	533.06
382.634	532.06
382.86	534.06
383.085	541.06
383.31	537.06
383.535	563.06
383.761	578.06
383.986	564.06
384.211	582.06
384.436	583.06
384.662	588.06
384.887	585.06
385.112	591.06
385.337	591.06
385.562	601.06
385.787	610.06
386.013	611.06
386.238	621.06
386.463	615.06
386.688	601.06
386.913	583.06
387.138	598.06
387.363	582.06
387.588	578.06
387.813	563.06
388.038	607.06
388.263	636.06
388.488	606.06
388.713	604.06
388.938	589.06
389.163	616.06
389.387	595.06
389.612	579.06
389.837	591.06
390.062	590.06
390.287	605.06
390.512	622.06
390.736	623.06
390.961	604.06
391.186	633.06
391.411	631.06
391.636	622.06
391.86	666.06
392.085	662.06
392.31	669.06
392.534	649.06
392.759	630.06
392.984	660.06
393.208	648.06
393.433	656.06
393.658	647.06
393.882	623.06
394.107	650.06
394.331	666.06
394.556	640.06
394.78	651.06
395.005	660.06
395.229	628.06
395.454	652.06
395.678	665.06
395.903	680.06
396.127	669.06
396.352	657.06
396.576	633.06
396.801	653.06
397.025	646.06
397.249	667.06
397.474	681.06
397.698	688.06
397.922	684.06
398.147	679.06
398.371	694.06
398.595	713.06
398.82	746.06
399.044	795.06
399.268	830.06
399.492	929.06
399.717	988.06
399.941	987.06
400.165	913.06
400.389	860.06
400.613	805.06
400.837	766.06
401.062	770.06
401.286	738.06
401.51	719.06
401.734	735.06
401.958	750.06
402.182	740.06
402.406	772.06
402.63	745.06
402.854	758.06
403.078	774.06
403.302	806.06
403.526	808.06
403.75	780.06
403.974	824.06
404.198	823.06
404.422	796.06
404.645	820.06
404.869	807.06
405.093	844.06
405.317	783.06
405.541	788.06
405.765	804.06
405.988	794.06
406.212	846.06
406.436	797.06
406.66	847.06
406.883	863.06
407.107	887.06
407.331	914.06
407.555	938.06
407.778	919.06
408.002	912.06
408.226	887.06
408.449	866.06
408.673	848.06
408.896	832.06
409.12	825.06
409.344	865.06
409.567	833.06
409.791	828.06
410.014	844.06
410.238	845.06
410.461	839.06
410.685	804.06
410.908	795.06
411.132	797.06
411.355	755.06
411.578	806.06
411.802	781.06
412.025	788.06
412.249	814.06
412.472	769.06
412.695	786.06
412.919	771.06
413.142	795.06
413.365	771.06
413.589	786.06
413.812	762.06
414.035	760.06
414.258	739.06
414.482	741.06
414.705	788.06
414.928	794.06
415.151	770.06
415.374	762.06
415.597	747.06
415.821	741.06
416.044	747.06
416.267	734.06
416.49	731.06
416.713	732.06
416.936	742.06
417.159	728.06
417.382	744.06
417.605	772.06
417.828	744.06
418.051	754.06
418.274	747.06
418.497	763.06
418.72	769.06
418.943	778.06
419.166	809.06
419.389	826.06
419.611	846.06
419.834	792.06
420.057	768.06
420.28	749.06
420.503	758.06
420.726	760.06
420.948	761.06
421.171	761.06
421.394	762.06
421.617	730.06
421.839	765.06
422.062	771.06
422.285	738.06
422.507	766.06
422.73	755.06
422.953	750.06
423.175	760.06
423.398	787.06
423.621	783.06
423.843	784.06
424.066	771.06
424.288	771.06
424.511	771.06
424.733	768.06
424.956	771.06
425.178	775.06
425.401	752.06
425.623	762.06
425.846	759.06
426.068	742.06
426.291	730.06
426.513	724.06
426.735	734.06
426.958	770.06
427.18	700.06
427.402	726.06
427.625	716.06
427.847	718.06
428.069	723.06
428.292	694.06
428.514	700.06
428.736	714.06
428.958	701.06
429.181	703.06
429.403	688.06
429.625	694.06
429.847	695.06
430.069	683.06
430.292	738.06
430.514	692.06
430.736	686.06
430.958	701.06
431.18	683.06
431.402	701.06
431.624	700.06
431.846	719.06
432.068	725.06
432.29	732.06
432.512	704.06
432.734	698.06
432.956	715.06
433.178	719.06
433.4	727.06
433.622	734.06
433.844	735.06
434.066	718.06
434.287	732.06
434.509	749.06
434.731	773.06
434.953	753.06
435.175	770.06
435.397	760.06
435.618	758.06
435.84	740.06
436.062	707.06
436.284	716.06
436.505	713.06
436.727	725.06
436.949	690.06
437.17	710.06
437.392	706.06
437.614	712.06
437.835	680.06
438.057	685.06
438.278	684.06
438.5	692.06
438.721	696.06
438.943	727.06
439.165	699.06
439.386	709.06
439.608	712.06
439.829	719.06
440.05	712.06
440.272	707.06
440.493	743.06
440.715	730.06
440.936	750.06
441.158	762.06
441.379	769.06
441.6	814.06
441.822	807.06
442.043	783.06
442.264	758.06
442.486	771.06
442.707	789.06
442.928	789.06
443.149	791.06
443.371	779.06
443.592	800.06
443.813	807.06
444.034	802.06
444.255	795.06
444.476	832.06
444.698	868.06
444.919	887.06
445.14	1002.06
445.361	914.06
445.582	849.06
445.803	796.06
446.024	770.06
446.245	770.06
446.466	745.06
446.687	710.06
446.908	731.06
447.129	724.06
447.35	733.06
447.571	725.06
447.792	686.06
448.013	708.06
448.234	677.06
448.455	679.06
448.675	672.06
448.896	680.06
449.117	679.06
449.338	675.06
449.559	660.06
449.779	669.06
450	678.06
450.221	710.06
450.442	692.06
450.662	677.06
450.883	672.06
451.104	694.06
451.324	705.06
451.545	682.06
451.766	672.06
451.986	684.06
452.207	691.06
452.428	678.06
452.648	672.06
452.869	660.06
453.089	645.06
453.31	678.06
453.53	644.06
453.751	639.06
453.971	644.06
454.192	663.06
454.412	644.06
454.633	657.06
454.853	639.06
455.073	622.06
455.294	648.06
455.514	642.06
455.734	632.06
455.955	638.06
456.175	644.06
456.395	648.06
456.616	611.06
456.836	612.06
457.056	621.06
457.276	621.06
457.497	628.06
457.717	640.06
457.937	651.06
458.157	657.06
458.377	655.06
458.598	685.06
458.818	684.06
459.038	681.06
459.258	696.06
459.478	714.06
459.698	747.06
459.918	767.06
460.138	766.06
460.358	814.06
460.578	806.06
460.798	808.06
461.018	832.06
461.238	815.06
461.458	853.06
461.678	831.06
461.898	840.06
462.118	841.06
462.338	892.06
462.558	884.06
462.777	938.06
462.997	988.06
463.217	1018.06
463.437	1030.06
463.657	998.06
463.876	938.06
464.096	951.06
464.316	931.06
464.536	978.06
464.755	939.06
464.975	861.06
465.195	853.06
465.414	830.06
465.634	762.06
465.854	763.06
466.073	736.06
466.293	745.06
466.512	711.06
466.732	713.06
466.951	716.06
467.171	717.06
467.391	705.06
467.61	741.06
467.829	715.06
468.049	726.06
468.268	696.06
468.488	702.06
468.707	667.06
468.927	688.06
469.146	678.06
469.365	706.06
469.585	711.06
469.804	715.06
470.023	715.06
470.243	714.06
470.462	726.06
470.681	720.06
470.901	728.06
471.12	726.06
471.339	719.06
471.558	707.06
471.777	716.06
471.997	695.06
472.216	701.06
472.435	694.06
472.654	677.06
472.873	668.06
473.092	664.06
473.311	676.06
473.53	701.06
473.749	699.06
473.968	663.06
474.187	669.06
474.406	669.06
474.625	668.06
474.844	696.06
475.063	692.06
475.282	673.06
475.501	674.06
475.72	704.06
475.939	709.06
476.158	707.06
476.377	714.06
476.596	686.06
476.814	714.06
477.033	701.06
477.252	700.06
477.471	742.06
477.69	746.06
477.908	770.06
478.127	795.06
478.346	800.06
478.564	783.06
478.783	828.06
479.002	836.06
479.22	858.06
479.439	840.06
479.658	829.06
479.876	829.06
480.095	836.06
480.313	890.06
480.532	855.06
480.751	869.06
480.969	838.06
481.188	796.06
481.406	807.06
481.624	787.06
481.843	760.06
482.061	778.06
482.28	806.06
482.498	757.06
482.717	776.06
482.935	781.06
483.153	779.06
483.372	787.06
483.59	818.06
483.808	797.06
484.027	786.06
484.245	789.06
484.463	815.06
484.681	828.06
484.9	798.06
485.118	811.06
485.336	808.06
485.554	822.06
485.772	836.06
485.99	834.06
486.209	816.06
486.427	822.06
486.645	822.06
486.863	824.06
487.081	834.06
487.299	821.06
487.517	818.06
487.735	823.06
487.953	825.06
488.171	873.06
488.389	845.06
488.607	837.06
488.825	810.06
489.043	798.06
489.261	844.06
489.479	808.06
489.696	830.06
489.914	800.06
490.132	819.06
490.35	811.06
490.568	813.06
490.786	854.06
491.003	827.06
491.221	840.06
491.439	861.06
491.657	849.06
491.874	857.06
492.092	895.06
492.31	879.06
492.527	854.06
492.745	898.06
492.963	863.06
493.18	886.06
493.398	880.06
493.615	892.06
493.833	868.06
494.05	861.06
494.268	888.06
494.485	886.06
494.703	898.06
494.92	871.06
495.138	865.06
495.355	893.06
495.573	892.06
495.79	855.06
496.008	902.06
496.225	908.06
496.442	919.06
496.66	922.06
496.877	931.06
497.094	960.06
497.312	930.06
497.529	965.06
497.746	978.06
497.963	1033.06
498.181	1062.06
498.398	1063.06
498.615	1115.06
498.832	1198.06
499.049	1223.06
499.267	1307.06
499.484	1434.06
499.701	1540.06
499.918	1670.06
500.135	1815.06
500.352	1986.06
500.569	2031.06
500.786	2017.06
501.003	1922.06
501.22	1798.06
501.437	1621.06
