Data from NiCl2@0.5M.TitratingCurve.Agarose3%dH2O.NegLispCup.LampEnergy10.LIBS07252019_HRD10591_18-21-12-575.txt Node
Date: Thu Jul 25 18:21:12 EDT 2019
User: cochatt
Spectrometer: HR+D1059
Trigger mode: 1
Integration Time (sec): 1.000000E-1
Scans to average: 1
Electric dark correction enabled: true
Nonlinearity correction enabled: false
Boxcar width: 0
XAxis mode: Wavelengths
Number of Pixels in Spectrum: 2048
>>>>>Begin Spectral Data<<<<<
223.165	-4.38
223.4	-4.38
223.635	-4.38
223.869	-17.38
224.104	-20.38
224.338	-16.38
224.573	-19.38
224.808	-12.38
225.042	-1.38
225.277	-6.38
225.511	0.62
225.746	6.62
225.98	2.62
226.215	11.62
226.449	12.62
226.683	15.62
226.918	26.62
227.152	21.62
227.387	48.62
227.621	57.62
227.856	50.62
228.09	40.62
228.324	60.62
228.559	46.62
228.793	66.62
229.027	108.62
229.262	97.62
229.496	126.62
229.73	120.62
229.964	126.62
230.199	127.62
230.433	140.62
230.667	157.62
230.901	138.62
231.136	142.62
231.37	150.62
231.604	164.62
231.838	156.62
232.072	141.62
232.306	152.62
232.541	148.62
232.775	157.62
233.009	168.62
233.243	148.62
233.477	158.62
233.711	160.62
233.945	172.62
234.179	155.62
234.413	171.62
234.647	162.62
234.881	170.62
235.115	162.62
235.349	174.62
235.583	157.62
235.817	168.62
236.051	163.62
236.285	163.62
236.519	165.62
236.753	149.62
236.987	162.62
237.221	181.62
237.455	166.62
237.689	163.62
237.922	164.62
238.156	180.62
238.39	169.62
238.624	178.62
238.858	172.62
239.091	192.62
239.325	192.62
239.559	178.62
239.793	181.62
240.027	191.62
240.26	202.62
240.494	188.62
240.728	195.62
240.961	203.62
241.195	211.62
241.429	199.62
241.662	195.62
241.896	195.62
242.13	208.62
242.363	213.62
242.597	195.62
242.83	214.62
243.064	213.62
243.298	228.62
243.531	235.62
243.765	207.62
243.998	234.62
244.232	222.62
244.465	222.62
244.699	233.62
244.932	230.62
245.166	238.62
245.399	231.62
245.633	221.62
245.866	246.62
246.099	224.62
246.333	253.62
246.566	246.62
246.8	242.62
247.033	219.62
247.266	247.62
247.5	256.62
247.733	255.62
247.966	258.62
248.2	257.62
248.433	253.62
248.666	266.62
248.899	248.62
249.133	248.62
249.366	288.62
249.599	259.62
249.832	267.62
250.066	266.62
250.299	271.62
250.532	273.62
250.765	255.62
250.998	283.62
251.231	280.62
251.465	278.62
251.698	287.62
251.931	283.62
252.164	298.62
252.397	278.62
252.63	270.62
252.863	289.62
253.096	295.62
253.329	289.62
253.562	303.62
253.795	314.62
254.028	306.62
254.261	301.62
254.494	303.62
254.727	318.62
254.96	291.62
255.193	310.62
255.426	310.62
255.659	312.62
255.892	293.62
256.124	322.62
256.357	315.62
256.59	317.62
256.823	315.62
257.056	317.62
257.289	331.62
257.521	336.62
257.754	319.62
257.987	324.62
258.22	338.62
258.452	337.62
258.685	341.62
258.918	343.62
259.151	344.62
259.383	336.62
259.616	345.62
259.849	327.62
260.081	348.62
260.314	350.62
260.547	356.62
260.779	327.62
261.012	346.62
261.244	340.62
261.477	354.62
261.71	355.62
261.942	349.62
262.175	350.62
262.407	360.62
262.64	351.62
262.872	375.62
263.105	370.62
263.337	360.62
263.57	390.62
263.802	376.62
264.035	372.62
264.267	365.62
264.499	366.62
264.732	382.62
264.964	389.62
265.197	378.62
265.429	378.62
265.661	370.62
265.894	385.62
266.126	370.62
266.358	397.62
266.591	409.62
266.823	411.62
267.055	399.62
267.287	395.62
267.52	397.62
267.752	394.62
267.984	380.62
268.216	400.62
268.448	379.62
268.681	384.62
268.913	415.62
269.145	401.62
269.377	410.62
269.609	401.62
269.841	390.62
270.073	407.62
270.306	421.62
270.538	431.62
270.77	423.62
271.002	430.62
271.234	413.62
271.466	441.62
271.698	428.62
271.93	420.62
272.162	442.62
272.394	430.62
272.626	438.62
272.858	443.62
273.09	431.62
273.322	454.62
273.553	460.62
273.785	472.62
274.017	443.62
274.249	442.62
274.481	432.62
274.713	456.62
274.945	460.62
275.176	462.62
275.408	446.62
275.64	481.62
275.872	453.62
276.104	466.62
276.335	469.62
276.567	464.62
276.799	450.62
277.031	462.62
277.262	486.62
277.494	476.62
277.726	482.62
277.957	480.62
278.189	494.62
278.421	480.62
278.652	497.62
278.884	492.62
279.115	493.62
279.347	486.62
279.579	460.62
279.81	474.62
280.042	495.62
280.273	498.62
280.505	498.62
280.736	496.62
280.968	498.62
281.199	496.62
281.431	527.62
281.662	532.62
281.894	506.62
282.125	522.62
282.356	523.62
282.588	525.62
282.819	513.62
283.051	527.62
283.282	529.62
283.513	524.62
283.745	512.62
283.976	528.62
284.207	524.62
284.439	529.62
284.67	543.62
284.901	537.62
285.132	546.62
285.364	511.62
285.595	556.62
285.826	557.62
286.057	559.62
286.288	551.62
286.52	551.62
286.751	566.62
286.982	544.62
287.213	558.62
287.444	557.62
287.675	559.62
287.906	571.62
288.138	568.62
288.369	566.62
288.6	568.62
288.831	560.62
289.062	572.62
289.293	596.62
289.524	588.62
289.755	600.62
289.986	577.62
290.217	589.62
290.448	588.62
290.679	584.62
290.91	591.62
291.141	579.62
291.371	601.62
291.602	578.62
291.833	585.62
292.064	596.62
292.295	576.62
292.526	578.62
292.757	586.62
292.987	575.62
293.218	614.62
293.449	594.62
293.68	614.62
293.91	586.62
294.141	583.62
294.372	619.62
294.603	613.62
294.833	610.62
295.064	619.62
295.295	589.62
295.525	608.62
295.756	601.62
295.987	619.62
296.217	604.62
296.448	606.62
296.679	606.62
296.909	593.62
297.14	622.62
297.37	640.62
297.601	648.62
297.831	626.62
298.062	632.62
298.292	639.62
298.523	653.62
298.753	654.62
298.984	636.62
299.214	631.62
299.445	620.62
299.675	609.62
299.905	642.62
300.136	656.62
300.366	649.62
300.597	660.62
300.827	694.62
301.057	688.62
301.288	690.62
301.518	682.62
301.748	704.62
301.979	691.62
302.209	680.62
302.439	692.62
302.669	669.62
302.9	682.62
303.13	675.62
303.36	679.62
303.59	669.62
303.82	671.62
304.051	670.62
304.281	685.62
304.511	662.62
304.741	672.62
304.971	678.62
305.201	658.62
305.431	678.62
305.661	680.62
305.891	645.62
306.121	679.62
306.352	681.62
306.582	672.62
306.812	655.62
307.042	682.62
307.272	660.62
307.502	683.62
307.731	668.62
307.961	654.62
308.191	671.62
308.421	678.62
308.651	666.62
308.881	671.62
309.111	674.62
309.341	664.62
309.571	666.62
309.8	678.62
310.03	662.62
310.26	693.62
310.49	682.62
310.72	684.62
310.949	692.62
311.179	692.62
311.409	671.62
311.639	682.62
311.868	684.62
312.098	723.62
312.328	700.62
312.557	710.62
312.787	692.62
313.017	718.62
313.246	729.62
313.476	714.62
313.706	737.62
313.935	716.62
314.165	720.62
314.394	717.62
314.624	732.62
314.853	744.62
315.083	742.62
315.312	732.62
315.542	722.62
315.771	715.62
316.001	701.62
316.23	726.62
316.46	698.62
316.689	698.62
316.919	728.62
317.148	724.62
317.377	717.62
317.607	707.62
317.836	732.62
318.065	700.62
318.295	709.62
318.524	708.62
318.753	710.62
318.983	704.62
319.212	712.62
319.441	686.62
319.67	726.62
319.9	686.62
320.129	726.62
320.358	715.62
320.587	740.62
320.816	712.62
321.046	730.62
321.275	686.62
321.504	715.62
321.733	710.62
321.962	718.62
322.191	720.62
322.42	738.62
322.649	710.62
322.878	719.62
323.108	748.62
323.337	747.62
323.566	763.62
323.795	749.62
324.024	730.62
324.253	729.62
324.482	745.62
324.71	744.62
324.939	738.62
325.168	757.62
325.397	730.62
325.626	750.62
325.855	737.62
326.084	794.62
326.313	754.62
326.542	800.62
326.77	803.62
326.999	759.62
327.228	798.62
327.457	785.62
327.686	755.62
327.914	781.62
328.143	794.62
328.372	794.62
328.6	809.62
328.829	779.62
329.058	781.62
329.287	757.62
329.515	765.62
329.744	772.62
329.972	808.62
330.201	792.62
330.43	787.62
330.658	794.62
330.887	810.62
331.115	835.62
331.344	814.62
331.572	835.62
331.801	875.62
332.03	887.62
332.258	884.62
332.486	924.62
332.715	935.62
332.943	948.62
333.172	997.62
333.4	1047.62
333.629	1071.62
333.857	1061.62
334.085	1048.62
334.314	1034.62
334.542	1012.62
334.771	975.62
334.999	979.62
335.227	1003.62
335.455	980.62
335.684	963.62
335.912	966.62
336.14	944.62
336.369	922.62
336.597	944.62
336.825	935.62
337.053	952.62
337.281	890.62
337.51	908.62
337.738	897.62
337.966	888.62
338.194	900.62
338.422	906.62
338.65	840.62
338.878	863.62
339.106	874.62
339.334	852.62
339.562	871.62
339.79	822.62
340.018	819.62
340.246	828.62
340.474	830.62
340.702	821.62
340.93	839.62
341.158	829.62
341.386	831.62
341.614	831.62
341.842	819.62
342.07	818.62
342.298	837.62
342.526	831.62
342.754	815.62
342.981	805.62
343.209	851.62
343.437	895.62
343.665	931.62
343.893	996.62
344.12	1019.62
344.348	974.62
344.576	906.62
344.804	907.62
345.031	869.62
345.259	858.62
345.487	855.62
345.714	815.62
345.942	826.62
346.17	820.62
346.397	807.62
346.625	793.62
346.853	780.62
347.08	789.62
347.308	792.62
347.535	795.62
347.763	790.62
347.99	776.62
348.218	765.62
348.445	751.62
348.673	783.62
348.9	761.62
349.128	769.62
349.355	780.62
349.583	790.62
349.81	741.62
350.037	778.62
350.265	759.62
350.492	773.62
350.72	759.62
350.947	756.62
351.174	782.62
351.402	789.62
351.629	772.62
351.856	764.62
352.083	760.62
352.311	778.62
352.538	741.62
352.765	806.62
352.992	756.62
353.22	724.62
353.447	759.62
353.674	712.62
353.901	746.62
354.128	774.62
354.355	750.62
354.583	752.62
354.81	776.62
355.037	756.62
355.264	771.62
355.491	760.62
355.718	754.62
355.945	747.62
356.172	770.62
356.399	796.62
356.626	771.62
356.853	770.62
357.08	747.62
357.307	747.62
357.534	773.62
357.761	760.62
357.988	751.62
358.215	745.62
358.441	743.62
358.668	780.62
358.895	735.62
359.122	744.62
359.349	766.62
359.576	778.62
359.802	747.62
360.029	743.62
360.256	765.62
360.483	759.62
360.709	771.62
360.936	783.62
361.163	748.62
361.39	755.62
361.616	767.62
361.843	770.62
362.07	783.62
362.296	772.62
362.523	756.62
362.749	748.62
362.976	745.62
363.203	750.62
363.429	741.62
363.656	779.62
363.882	751.62
364.109	764.62
364.335	773.62
364.562	738.62
364.788	729.62
365.015	749.62
365.241	765.62
365.468	731.62
365.694	748.62
365.92	721.62
366.147	744.62
366.373	730.62
366.599	750.62
366.826	751.62
367.052	742.62
367.278	734.62
367.505	774.62
367.731	782.62
367.957	756.62
368.184	755.62
368.41	754.62
368.636	763.62
368.862	776.62
369.089	766.62
369.315	763.62
369.541	766.62
369.767	780.62
369.993	775.62
370.219	748.62
370.445	780.62
370.672	798.62
370.898	782.62
371.124	792.62
371.35	812.62
371.576	798.62
371.802	804.62
372.028	788.62
372.254	779.62
372.48	810.62
372.706	837.62
372.932	830.62
373.158	829.62
373.384	837.62
373.61	810.62
373.835	796.62
374.061	789.62
374.287	839.62
374.513	829.62
374.739	868.62
374.965	898.62
375.191	880.62
375.416	878.62
375.642	853.62
375.868	842.62
376.094	816.62
376.319	821.62
376.545	806.62
376.771	808.62
376.997	797.62
377.222	844.62
377.448	823.62
377.674	820.62
377.899	808.62
378.125	808.62
378.35	824.62
378.576	782.62
378.802	788.62
379.027	765.62
379.253	803.62
379.478	788.62
379.704	805.62
379.929	799.62
380.155	825.62
380.38	800.62
380.606	804.62
380.831	802.62
381.057	799.62
381.282	789.62
381.507	812.62
381.733	833.62
381.958	816.62
382.184	841.62
382.409	830.62
382.634	812.62
382.86	849.62
383.085	848.62
383.31	851.62
383.535	906.62
383.761	889.62
383.986	903.62
384.211	908.62
384.436	926.62
384.662	935.62
384.887	959.62
385.112	957.62
385.337	967.62
385.562	960.62
385.787	972.62
386.013	984.62
386.238	981.62
386.463	994.62
386.688	978.62
386.913	965.62
387.138	946.62
387.363	938.62
387.588	946.62
387.813	980.62
388.038	949.62
388.263	954.62
388.488	959.62
388.713	972.62
388.938	938.62
389.163	939.62
389.387	936.62
389.612	931.62
389.837	935.62
390.062	928.62
390.287	938.62
390.512	928.62
390.736	959.62
390.961	973.62
391.186	1010.62
391.411	1006.62
391.636	1042.62
391.86	1088.62
392.085	1123.62
392.31	1086.62
392.534	1032.62
392.759	1037.62
392.984	1016.62
393.208	1019.62
393.433	999.62
393.658	1027.62
393.882	1020.62
394.107	1007.62
394.331	1058.62
394.556	1046.62
394.78	1044.62
395.005	1045.62
395.229	1058.62
395.454	1059.62
395.678	1107.62
395.903	1093.62
396.127	1072.62
396.352	1040.62
396.576	1011.62
396.801	1013.62
397.025	1031.62
397.249	1044.62
397.474	1048.62
397.698	1084.62
397.922	1084.62
398.147	1058.62
398.371	1112.62
398.595	1141.62
398.82	1204.62
399.044	1286.62
399.268	1435.62
399.492	1651.62
399.717	1839.62
399.941	1819.62
400.165	1627.62
400.389	1441.62
400.613	1339.62
400.837	1258.62
401.062	1229.62
401.286	1212.62
401.51	1213.62
401.734	1200.62
401.958	1223.62
402.182	1220.62
402.406	1235.62
402.63	1262.62
402.854	1284.62
403.078	1310.62
403.302	1333.62
403.526	1395.62
403.75	1412.62
403.974	1431.62
404.198	1394.62
404.422	1400.62
404.645	1419.62
404.869	1410.62
405.093	1356.62
405.317	1375.62
405.541	1327.62
405.765	1306.62
405.988	1326.62
406.212	1343.62
406.436	1308.62
406.66	1346.62
406.883	1403.62
407.107	1454.62
407.331	1504.62
407.555	1574.62
407.778	1562.62
408.002	1542.62
408.226	1500.62
408.449	1470.62
408.673	1395.62
408.896	1372.62
409.12	1358.62
409.344	1406.62
409.567	1323.62
409.791	1389.62
410.014	1371.62
410.238	1346.62
410.461	1334.62
410.685	1343.62
410.908	1302.62
411.132	1288.62
411.355	1241.62
411.578	1254.62
411.802	1254.62
412.025	1255.62
412.249	1294.62
412.472	1253.62
412.695	1242.62
412.919	1214.62
413.142	1213.62
413.365	1242.62
413.589	1178.62
413.812	1221.62
414.035	1219.62
414.258	1207.62
414.482	1211.62
414.705	1233.62
414.928	1212.62
415.151	1215.62
415.374	1246.62
415.597	1202.62
415.821	1169.62
416.044	1179.62
416.267	1166.62
416.49	1160.62
416.713	1164.62
416.936	1203.62
417.159	1162.62
417.382	1198.62
417.605	1184.62
417.828	1204.62
418.051	1200.62
418.274	1223.62
418.497	1189.62
418.72	1229.62
418.943	1232.62
419.166	1288.62
419.389	1369.62
419.611	1327.62
419.834	1266.62
420.057	1255.62
420.28	1224.62
420.503	1196.62
420.726	1191.62
420.948	1182.62
421.171	1187.62
421.394	1196.62
421.617	1185.62
421.839	1188.62
422.062	1225.62
422.285	1213.62
422.507	1214.62
422.73	1234.62
422.953	1230.62
423.175	1270.62
423.398	1256.62
423.621	1266.62
423.843	1285.62
424.066	1297.62
424.288	1268.62
424.511	1256.62
424.733	1267.62
424.956	1254.62
425.178	1225.62
425.401	1210.62
425.623	1187.62
425.846	1226.62
426.068	1172.62
426.291	1153.62
426.513	1146.62
426.735	1139.62
426.958	1136.62
427.18	1074.62
427.402	1118.62
427.625	1092.62
427.847	1070.62
428.069	1081.62
428.292	1109.62
428.514	1086.62
428.736	1102.62
428.958	1090.62
429.181	1073.62
429.403	1044.62
429.625	1035.62
429.847	1023.62
430.069	1040.62
430.292	1043.62
430.514	1061.62
430.736	1052.62
430.958	1044.62
431.18	1036.62
431.402	1032.62
431.624	1071.62
431.846	1055.62
432.068	1079.62
432.29	1090.62
432.512	1067.62
432.734	1061.62
432.956	1079.62
433.178	1082.62
433.4	1072.62
433.622	1076.62
433.844	1108.62
434.066	1074.62
434.287	1100.62
434.509	1129.62
434.731	1175.62
434.953	1223.62
435.175	1213.62
435.397	1202.62
435.618	1154.62
435.84	1131.62
436.062	1085.62
436.284	1076.62
436.505	1064.62
436.727	1064.62
436.949	1078.62
437.17	1089.62
437.392	1059.62
437.614	1058.62
437.835	1033.62
438.057	1024.62
438.278	1028.62
438.5	1053.62
438.721	1038.62
438.943	1052.62
439.165	1043.62
439.386	1044.62
439.608	1074.62
439.829	1077.62
440.05	1061.62
440.272	1074.62
440.493	1102.62
440.715	1076.62
440.936	1100.62
441.158	1126.62
441.379	1170.62
441.6	1204.62
441.822	1203.62
442.043	1223.62
442.264	1197.62
442.486	1190.62
442.707	1220.62
442.928	1174.62
443.149	1214.62
443.371	1199.62
443.592	1194.62
443.813	1231.62
444.034	1258.62
444.255	1272.62
444.476	1342.62
444.698	1420.62
444.919	1445.62
445.14	1481.62
445.361	1354.62
445.582	1245.62
445.803	1189.62
446.024	1168.62
446.245	1183.62
446.466	1135.62
446.687	1102.62
446.908	1071.62
447.129	1064.62
447.35	1046.62
447.571	1040.62
447.792	1038.62
448.013	1023.62
448.234	1006.62
448.455	1023.62
448.675	1010.62
448.896	984.62
449.117	982.62
449.338	968.62
449.559	970.62
449.779	955.62
450	959.62
450.221	950.62
450.442	1002.62
450.662	966.62
450.883	983.62
451.104	1034.62
451.324	997.62
451.545	1014.62
451.766	1012.62
451.986	999.62
452.207	964.62
452.428	986.62
452.648	984.62
452.869	959.62
453.089	974.62
453.31	975.62
453.53	942.62
453.751	980.62
453.971	980.62
454.192	979.62
454.412	929.62
454.633	929.62
454.853	934.62
455.073	928.62
455.294	918.62
455.514	940.62
455.734	941.62
455.955	926.62
456.175	894.62
456.395	884.62
456.616	933.62
456.836	922.62
457.056	915.62
457.276	906.62
457.497	930.62
457.717	929.62
457.937	927.62
458.157	912.62
458.377	953.62
458.598	977.62
458.818	999.62
459.038	1012.62
459.258	1069.62
459.478	1081.62
459.698	1098.62
459.918	1126.62
460.138	1162.62
460.358	1252.62
460.578	1272.62
460.798	1279.62
461.018	1290.62
461.238	1291.62
461.458	1276.62
461.678	1257.62
461.898	1266.62
462.118	1295.62
462.338	1325.62
462.558	1385.62
462.777	1441.62
462.997	1564.62
463.217	1686.62
463.437	1717.62
463.657	1538.62
463.876	1470.62
464.096	1466.62
464.316	1502.62
464.536	1488.62
464.755	1410.62
464.975	1374.62
465.195	1322.62
465.414	1237.62
465.634	1136.62
465.854	1140.62
466.073	1100.62
466.293	1080.62
466.512	1053.62
466.732	1037.62
466.951	1030.62
467.171	1051.62
467.391	1044.62
467.61	1033.62
467.829	1044.62
468.049	1031.62
468.268	1006.62
468.488	1006.62
468.707	1011.62
468.927	1003.62
469.146	997.62
469.365	1016.62
469.585	1026.62
469.804	1035.62
470.023	1060.62
470.243	1079.62
470.462	1120.62
470.681	1067.62
470.901	1088.62
471.12	1088.62
471.339	1048.62
471.558	1034.62
471.777	1013.62
471.997	1026.62
472.216	1008.62
472.435	1020.62
472.654	952.62
472.873	943.62
473.092	963.62
473.311	979.62
473.53	975.62
473.749	962.62
473.968	958.62
474.187	972.62
474.406	958.62
474.625	971.62
474.844	966.62
475.063	950.62
475.282	978.62
475.501	998.62
475.72	1005.62
475.939	1002.62
476.158	1003.62
476.377	1003.62
476.596	1021.62
476.814	1040.62
477.033	1021.62
477.252	1043.62
477.471	1084.62
477.69	1117.62
477.908	1146.62
478.127	1146.62
478.346	1181.62
478.564	1188.62
478.783	1198.62
479.002	1239.62
479.22	1207.62
479.439	1229.62
479.658	1226.62
479.876	1223.62
480.095	1224.62
480.313	1256.62
480.532	1326.62
480.751	1290.62
480.969	1278.62
481.188	1220.62
481.406	1186.62
481.624	1165.62
481.843	1114.62
482.061	1120.62
482.28	1140.62
482.498	1124.62
482.717	1122.62
482.935	1096.62
483.153	1129.62
483.372	1133.62
483.59	1145.62
483.808	1116.62
484.027	1122.62
484.245	1151.62
484.463	1128.62
484.681	1151.62
484.9	1146.62
485.118	1158.62
485.336	1153.62
485.554	1143.62
485.772	1165.62
485.99	1171.62
486.209	1172.62
486.427	1220.62
486.645	1202.62
486.863	1178.62
487.081	1182.62
487.299	1173.62
487.517	1172.62
487.735	1158.62
487.953	1182.62
488.171	1196.62
488.389	1174.62
488.607	1187.62
488.825	1159.62
489.043	1165.62
489.261	1170.62
489.479	1156.62
489.696	1138.62
489.914	1173.62
490.132	1203.62
490.35	1172.62
490.568	1183.62
490.786	1186.62
491.003	1209.62
491.221	1162.62
491.439	1214.62
491.657	1213.62
491.874	1209.62
492.092	1211.62
492.31	1220.62
492.527	1211.62
492.745	1247.62
492.963	1207.62
493.18	1237.62
493.398	1241.62
493.615	1235.62
493.833	1225.62
494.05	1251.62
494.268	1252.62
494.485	1261.62
494.703	1263.62
494.92	1246.62
495.138	1291.62
495.355	1243.62
495.573	1249.62
495.79	1256.62
