Data from NiCl2@0.5M.TitratingCurve.Agarose3%dH2O.NegLispCup.LampEnergy10.LIBS07252019_HRD10591_18-19-58-571.txt Node
Date: Thu Jul 25 18:19:58 EDT 2019
User: cochatt
Spectrometer: HR+D1059
Trigger mode: 1
Integration Time (sec): 1.000000E-1
Scans to average: 1
Electric dark correction enabled: true
Nonlinearity correction enabled: false
Boxcar width: 0
XAxis mode: Wavelengths
Number of Pixels in Spectrum: 2048
>>>>>Begin Spectral Data<<<<<
223.165	-19.56
223.4	-19.56
223.635	-19.56
223.869	-4.56
224.104	-21.56
224.338	-17.56
224.573	-13.56
224.808	-5.56
225.042	-9.56
225.277	-11.56
225.511	-12.56
225.746	0.44
225.98	3.44
226.215	9.44
226.449	10.44
226.683	22.44
226.918	36.44
227.152	33.44
227.387	42.44
227.621	32.44
227.856	44.44
228.09	37.44
228.324	52.44
228.559	48.44
228.793	75.44
229.027	112.44
229.262	114.44
229.496	122.44
229.73	127.44
229.964	126.44
230.199	136.44
230.433	138.44
230.667	130.44
230.901	139.44
231.136	138.44
231.37	147.44
231.604	150.44
231.838	148.44
232.072	152.44
232.306	140.44
232.541	158.44
232.775	152.44
233.009	152.44
233.243	163.44
233.477	147.44
233.711	155.44
233.945	164.44
234.179	148.44
234.413	153.44
234.647	155.44
234.881	155.44
235.115	163.44
235.349	144.44
235.583	161.44
235.817	164.44
236.051	142.44
236.285	157.44
236.519	150.44
236.753	167.44
236.987	169.44
237.221	168.44
237.455	160.44
237.689	175.44
237.922	175.44
238.156	164.44
238.39	170.44
238.624	173.44
238.858	171.44
239.091	180.44
239.325	175.44
239.559	216.44
239.793	195.44
240.027	194.44
240.26	196.44
240.494	186.44
240.728	192.44
240.961	212.44
241.195	207.44
241.429	217.44
241.662	209.44
241.896	212.44
242.13	213.44
242.363	204.44
242.597	197.44
242.83	212.44
243.064	229.44
243.298	217.44
243.531	224.44
243.765	247.44
243.998	205.44
244.232	234.44
244.465	229.44
244.699	221.44
244.932	238.44
245.166	231.44
245.399	222.44
245.633	245.44
245.866	235.44
246.099	211.44
246.333	249.44
246.566	229.44
246.8	237.44
247.033	226.44
247.266	224.44
247.5	232.44
247.733	251.44
247.966	248.44
248.2	251.44
248.433	283.44
248.666	265.44
248.899	244.44
249.133	264.44
249.366	250.44
249.599	258.44
249.832	281.44
250.066	282.44
250.299	263.44
250.532	275.44
250.765	258.44
250.998	279.44
251.231	273.44
251.465	279.44
251.698	287.44
251.931	282.44
252.164	270.44
252.397	301.44
252.63	287.44
252.863	285.44
253.096	310.44
253.329	309.44
253.562	294.44
253.795	296.44
254.028	292.44
254.261	297.44
254.494	272.44
254.727	304.44
254.96	293.44
255.193	307.44
255.426	320.44
255.659	320.44
255.892	316.44
256.124	306.44
256.357	313.44
256.59	329.44
256.823	319.44
257.056	321.44
257.289	310.44
257.521	322.44
257.754	309.44
257.987	323.44
258.22	322.44
258.452	338.44
258.685	316.44
258.918	331.44
259.151	334.44
259.383	336.44
259.616	327.44
259.849	347.44
260.081	354.44
260.314	337.44
260.547	331.44
260.779	324.44
261.012	346.44
261.244	351.44
261.477	370.44
261.71	325.44
261.942	359.44
262.175	355.44
262.407	347.44
262.64	333.44
262.872	385.44
263.105	382.44
263.337	345.44
263.57	379.44
263.802	366.44
264.035	388.44
264.267	374.44
264.499	370.44
264.732	385.44
264.964	383.44
265.197	373.44
265.429	384.44
265.661	388.44
265.894	380.44
266.126	387.44
266.358	384.44
266.591	388.44
266.823	382.44
267.055	389.44
267.287	379.44
267.52	398.44
267.752	396.44
267.984	390.44
268.216	396.44
268.448	372.44
268.681	405.44
268.913	408.44
269.145	420.44
269.377	399.44
269.609	420.44
269.841	398.44
270.073	410.44
270.306	416.44
270.538	396.44
270.77	411.44
271.002	410.44
271.234	415.44
271.466	414.44
271.698	406.44
271.93	412.44
272.162	412.44
272.394	429.44
272.626	427.44
272.858	427.44
273.09	453.44
273.322	452.44
273.553	442.44
273.785	449.44
274.017	444.44
274.249	445.44
274.481	445.44
274.713	470.44
274.945	445.44
275.176	457.44
275.408	447.44
275.64	441.44
275.872	456.44
276.104	462.44
276.335	460.44
276.567	457.44
276.799	464.44
277.031	458.44
277.262	477.44
277.494	463.44
277.726	452.44
277.957	479.44
278.189	484.44
278.421	482.44
278.652	491.44
278.884	475.44
279.115	486.44
279.347	470.44
279.579	463.44
279.81	484.44
280.042	486.44
280.273	471.44
280.505	481.44
280.736	486.44
280.968	484.44
281.199	482.44
281.431	500.44
281.662	501.44
281.894	496.44
282.125	503.44
282.356	529.44
282.588	516.44
282.819	505.44
283.051	521.44
283.282	510.44
283.513	526.44
283.745	527.44
283.976	546.44
284.207	538.44
284.439	559.44
284.67	544.44
284.901	540.44
285.132	538.44
285.364	512.44
285.595	533.44
285.826	545.44
286.057	538.44
286.288	571.44
286.52	548.44
286.751	554.44
286.982	578.44
287.213	551.44
287.444	584.44
287.675	568.44
287.906	554.44
288.138	569.44
288.369	573.44
288.6	552.44
288.831	586.44
289.062	564.44
289.293	596.44
289.524	562.44
289.755	572.44
289.986	567.44
290.217	585.44
290.448	585.44
290.679	588.44
290.91	575.44
291.141	575.44
291.371	587.44
291.602	597.44
291.833	573.44
292.064	614.44
292.295	569.44
292.526	581.44
292.757	590.44
292.987	571.44
293.218	587.44
293.449	601.44
293.68	574.44
293.91	604.44
294.141	574.44
294.372	590.44
294.603	605.44
294.833	601.44
295.064	593.44
295.295	607.44
295.525	598.44
295.756	600.44
295.987	597.44
296.217	612.44
296.448	598.44
296.679	580.44
296.909	609.44
297.14	615.44
297.37	624.44
297.601	611.44
297.831	626.44
298.062	637.44
298.292	646.44
298.523	634.44
298.753	647.44
298.984	620.44
299.214	630.44
299.445	627.44
299.675	633.44
299.905	633.44
300.136	638.44
300.366	649.44
300.597	660.44
300.827	678.44
301.057	696.44
301.288	685.44
301.518	686.44
301.748	691.44
301.979	683.44
302.209	662.44
302.439	687.44
302.669	656.44
302.9	677.44
303.13	656.44
303.36	690.44
303.59	658.44
303.82	674.44
304.051	698.44
304.281	696.44
304.511	682.44
304.741	677.44
304.971	674.44
305.201	675.44
305.431	683.44
305.661	691.44
305.891	669.44
306.121	692.44
306.352	669.44
306.582	683.44
306.812	668.44
307.042	661.44
307.272	677.44
307.502	688.44
307.731	668.44
307.961	668.44
308.191	680.44
308.421	662.44
308.651	666.44
308.881	654.44
309.111	662.44
309.341	655.44
309.571	638.44
309.8	725.44
310.03	695.44
310.26	681.44
310.49	682.44
310.72	674.44
310.949	677.44
311.179	679.44
311.409	707.44
311.639	710.44
311.868	695.44
312.098	701.44
312.328	700.44
312.557	683.44
312.787	726.44
313.017	692.44
313.246	689.44
313.476	726.44
313.706	744.44
313.935	742.44
314.165	746.44
314.394	715.44
314.624	728.44
314.853	723.44
315.083	728.44
315.312	723.44
315.542	723.44
315.771	722.44
316.001	733.44
316.23	702.44
316.46	711.44
316.689	715.44
316.919	715.44
317.148	701.44
317.377	721.44
317.607	711.44
317.836	723.44
318.065	716.44
318.295	715.44
318.524	709.44
318.753	695.44
318.983	722.44
319.212	671.44
319.441	723.44
319.67	711.44
319.9	696.44
320.129	704.44
320.358	715.44
320.587	711.44
320.816	711.44
321.046	718.44
321.275	715.44
321.504	732.44
321.733	697.44
321.962	733.44
322.191	731.44
322.42	736.44
322.649	729.44
322.878	745.44
323.108	756.44
323.337	748.44
323.566	738.44
323.795	728.44
324.024	726.44
324.253	762.44
324.482	742.44
324.71	746.44
324.939	741.44
325.168	755.44
325.397	740.44
325.626	738.44
325.855	773.44
326.084	793.44
326.313	802.44
326.542	784.44
326.77	822.44
326.999	780.44
327.228	783.44
327.457	788.44
327.686	788.44
327.914	765.44
328.143	769.44
328.372	772.44
328.6	781.44
328.829	805.44
329.058	814.44
329.287	798.44
329.515	791.44
329.744	804.44
329.972	783.44
330.201	790.44
330.43	799.44
330.658	805.44
330.887	827.44
331.115	819.44
331.344	837.44
331.572	861.44
331.801	876.44
332.03	882.44
332.258	860.44
332.486	909.44
332.715	935.44
332.943	970.44
333.172	1018.44
333.4	1037.44
333.629	1076.44
333.857	1037.44
334.085	1048.44
334.314	1016.44
334.542	1017.44
334.771	984.44
334.999	950.44
335.227	980.44
335.455	983.44
335.684	947.44
335.912	982.44
336.14	958.44
336.369	928.44
336.597	940.44
336.825	956.44
337.053	954.44
337.281	933.44
337.51	940.44
337.738	919.44
337.966	906.44
338.194	883.44
338.422	889.44
338.65	886.44
338.878	871.44
339.106	887.44
339.334	895.44
339.562	885.44
339.79	835.44
340.018	832.44
340.246	837.44
340.474	829.44
340.702	820.44
340.93	845.44
341.158	818.44
341.386	813.44
341.614	844.44
341.842	866.44
342.07	806.44
342.298	804.44
342.526	828.44
342.754	842.44
342.981	838.44
343.209	881.44
343.437	878.44
343.665	925.44
343.893	1015.44
344.12	1018.44
344.348	951.44
344.576	918.44
344.804	884.44
345.031	859.44
345.259	855.44
345.487	858.44
345.714	810.44
345.942	831.44
346.17	846.44
346.397	816.44
346.625	777.44
346.853	774.44
347.08	784.44
347.308	808.44
347.535	795.44
347.763	802.44
347.99	804.44
348.218	780.44
348.445	802.44
348.673	792.44
348.9	771.44
349.128	783.44
349.355	804.44
349.583	791.44
349.81	805.44
350.037	755.44
350.265	768.44
350.492	756.44
350.72	755.44
350.947	736.44
351.174	780.44
351.402	783.44
351.629	799.44
351.856	776.44
352.083	773.44
352.311	769.44
352.538	779.44
352.765	790.44
352.992	746.44
353.22	730.44
353.447	740.44
353.674	768.44
353.901	750.44
354.128	747.44
354.355	743.44
354.583	739.44
354.81	761.44
355.037	752.44
355.264	765.44
355.491	760.44
355.718	764.44
355.945	743.44
356.172	741.44
356.399	771.44
356.626	769.44
356.853	784.44
357.08	799.44
357.307	764.44
357.534	749.44
357.761	772.44
357.988	743.44
358.215	748.44
358.441	775.44
358.668	757.44
358.895	772.44
359.122	747.44
359.349	772.44
359.576	765.44
359.802	756.44
360.029	772.44
360.256	758.44
360.483	770.44
360.709	776.44
360.936	769.44
361.163	774.44
361.39	778.44
361.616	752.44
361.843	768.44
362.07	806.44
362.296	760.44
362.523	726.44
362.749	781.44
362.976	782.44
363.203	731.44
363.429	725.44
363.656	764.44
363.882	745.44
364.109	743.44
364.335	745.44
364.562	756.44
364.788	740.44
365.015	749.44
365.241	746.44
365.468	744.44
365.694	726.44
365.92	758.44
366.147	740.44
366.373	732.44
366.599	770.44
366.826	763.44
367.052	719.44
367.278	761.44
367.505	759.44
367.731	772.44
367.957	748.44
368.184	761.44
368.41	748.44
368.636	770.44
368.862	742.44
369.089	744.44
369.315	788.44
369.541	764.44
369.767	758.44
369.993	785.44
370.219	788.44
370.445	791.44
370.672	802.44
370.898	771.44
371.124	784.44
371.35	835.44
371.576	807.44
371.802	799.44
372.028	803.44
372.254	798.44
372.48	795.44
372.706	822.44
372.932	834.44
373.158	827.44
373.384	817.44
373.61	794.44
373.835	806.44
374.061	818.44
374.287	835.44
374.513	837.44
374.739	848.44
374.965	861.44
375.191	878.44
375.416	851.44
375.642	842.44
375.868	856.44
376.094	830.44
376.319	803.44
376.545	797.44
376.771	788.44
376.997	797.44
377.222	814.44
377.448	802.44
377.674	805.44
377.899	772.44
378.125	796.44
378.35	794.44
378.576	799.44
378.802	779.44
379.027	797.44
379.253	788.44
379.478	782.44
379.704	772.44
379.929	770.44
380.155	788.44
380.38	791.44
380.606	798.44
380.831	784.44
381.057	807.44
381.282	799.44
381.507	795.44
381.733	830.44
381.958	800.44
382.184	815.44
382.409	845.44
382.634	820.44
382.86	865.44
383.085	848.44
383.31	858.44
383.535	884.44
383.761	900.44
383.986	917.44
384.211	898.44
384.436	905.44
384.662	948.44
384.887	948.44
385.112	908.44
385.337	936.44
385.562	946.44
385.787	945.44
386.013	950.44
386.238	964.44
386.463	969.44
386.688	956.44
386.913	950.44
387.138	943.44
387.363	954.44
387.588	944.44
387.813	903.44
388.038	925.44
388.263	964.44
388.488	950.44
388.713	922.44
388.938	900.44
389.163	921.44
389.387	933.44
389.612	915.44
389.837	927.44
390.062	916.44
390.287	900.44
390.512	932.44
390.736	964.44
390.961	966.44
391.186	983.44
391.411	983.44
391.636	1039.44
391.86	1065.44
392.085	1104.44
392.31	1069.44
392.534	1051.44
392.759	1013.44
392.984	1015.44
393.208	974.44
393.433	980.44
393.658	1011.44
393.882	1014.44
394.107	975.44
394.331	1028.44
394.556	1026.44
394.78	991.44
395.005	980.44
395.229	1030.44
395.454	1061.44
395.678	1087.44
395.903	1068.44
396.127	1026.44
396.352	1000.44
396.576	990.44
396.801	1007.44
397.025	1036.44
397.249	1053.44
397.474	1060.44
397.698	1062.44
397.922	1076.44
398.147	1090.44
398.371	1117.44
398.595	1117.44
398.82	1176.44
399.044	1266.44
399.268	1368.44
399.492	1574.44
399.717	1814.44
399.941	1757.44
400.165	1535.44
400.389	1380.44
400.613	1310.44
400.837	1238.44
401.062	1215.44
401.286	1204.44
401.51	1182.44
401.734	1190.44
401.958	1199.44
402.182	1226.44
402.406	1225.44
402.63	1255.44
402.854	1229.44
403.078	1259.44
403.302	1269.44
403.526	1301.44
403.75	1336.44
403.974	1340.44
404.198	1370.44
404.422	1373.44
404.645	1354.44
404.869	1349.44
405.093	1337.44
405.317	1296.44
405.541	1287.44
405.765	1269.44
405.988	1294.44
406.212	1285.44
406.436	1319.44
406.66	1333.44
406.883	1341.44
407.107	1431.44
407.331	1489.44
407.555	1525.44
407.778	1486.44
408.002	1468.44
408.226	1431.44
408.449	1405.44
408.673	1379.44
408.896	1349.44
409.12	1325.44
409.344	1343.44
409.567	1323.44
409.791	1324.44
410.014	1324.44
410.238	1295.44
410.461	1316.44
410.685	1289.44
410.908	1263.44
411.132	1274.44
411.355	1242.44
411.578	1245.44
411.802	1229.44
412.025	1263.44
412.249	1296.44
412.472	1252.44
412.695	1253.44
412.919	1175.44
413.142	1211.44
413.365	1205.44
413.589	1207.44
413.812	1174.44
414.035	1189.44
414.258	1182.44
414.482	1177.44
414.705	1230.44
414.928	1231.44
415.151	1212.44
415.374	1171.44
415.597	1207.44
415.821	1152.44
416.044	1158.44
416.267	1148.44
416.49	1189.44
416.713	1157.44
416.936	1175.44
417.159	1160.44
417.382	1191.44
417.605	1171.44
417.828	1191.44
418.051	1173.44
418.274	1183.44
418.497	1193.44
418.72	1203.44
418.943	1204.44
419.166	1289.44
419.389	1342.44
419.611	1302.44
419.834	1276.44
420.057	1231.44
420.28	1162.44
420.503	1183.44
420.726	1164.44
420.948	1171.44
421.171	1185.44
421.394	1218.44
421.617	1193.44
421.839	1199.44
422.062	1187.44
422.285	1163.44
422.507	1179.44
422.73	1219.44
422.953	1208.44
423.175	1251.44
423.398	1248.44
423.621	1232.44
423.843	1227.44
424.066	1265.44
424.288	1266.44
424.511	1221.44
424.733	1216.44
424.956	1239.44
425.178	1210.44
425.401	1192.44
425.623	1186.44
425.846	1159.44
426.068	1143.44
426.291	1121.44
426.513	1113.44
426.735	1149.44
426.958	1093.44
427.18	1095.44
427.402	1088.44
427.625	1102.44
427.847	1092.44
428.069	1085.44
428.292	1091.44
428.514	1042.44
428.736	1080.44
428.958	1079.44
429.181	1062.44
429.403	1022.44
429.625	1023.44
429.847	1048.44
430.069	1024.44
430.292	1043.44
430.514	1023.44
430.736	1018.44
430.958	1047.44
431.18	1076.44
431.402	1062.44
431.624	1044.44
431.846	1081.44
432.068	1086.44
432.29	1096.44
432.512	1066.44
432.734	1061.44
432.956	1079.44
433.178	1063.44
433.4	1055.44
433.622	1080.44
433.844	1117.44
434.066	1094.44
434.287	1096.44
434.509	1134.44
434.731	1178.44
434.953	1239.44
435.175	1228.44
435.397	1170.44
435.618	1152.44
435.84	1133.44
436.062	1091.44
436.284	1073.44
436.505	1060.44
436.727	1075.44
436.949	1085.44
437.17	1055.44
437.392	1058.44
437.614	1033.44
437.835	1012.44
438.057	1017.44
438.278	1012.44
438.5	1032.44
438.721	1032.44
438.943	1047.44
439.165	1020.44
439.386	1061.44
439.608	1048.44
439.829	1075.44
440.05	1080.44
440.272	1062.44
440.493	1102.44
440.715	1112.44
440.936	1126.44
441.158	1136.44
441.379	1118.44
441.6	1217.44
441.822	1212.44
442.043	1206.44
442.264	1181.44
442.486	1162.44
442.707	1176.44
442.928	1195.44
443.149	1165.44
443.371	1209.44
443.592	1229.44
443.813	1213.44
444.034	1195.44
444.255	1260.44
444.476	1318.44
444.698	1383.44
444.919	1439.44
445.14	1492.44
445.361	1335.44
445.582	1229.44
445.803	1191.44
446.024	1143.44
446.245	1111.44
446.466	1090.44
446.687	1060.44
446.908	1091.44
447.129	1047.44
447.35	1043.44
447.571	1037.44
447.792	1002.44
448.013	992.44
448.234	1031.44
448.455	974.44
448.675	992.44
448.896	951.44
449.117	963.44
449.338	998.44
449.559	987.44
449.779	956.44
450	975.44
450.221	963.44
450.442	983.44
450.662	999.44
450.883	986.44
451.104	1004.44
451.324	980.44
451.545	983.44
451.766	1006.44
451.986	974.44
452.207	1004.44
452.428	981.44
452.648	956.44
452.869	978.44
453.089	953.44
453.31	979.44
453.53	958.44
453.751	967.44
453.971	967.44
454.192	942.44
454.412	914.44
454.633	939.44
454.853	963.44
455.073	947.44
455.294	926.44
455.514	914.44
455.734	912.44
455.955	915.44
456.175	924.44
456.395	899.44
456.616	913.44
456.836	936.44
457.056	923.44
457.276	881.44
457.497	908.44
457.717	938.44
457.937	924.44
458.157	948.44
458.377	946.44
458.598	943.44
458.818	1002.44
459.038	1027.44
459.258	1022.44
459.478	1051.44
459.698	1119.44
459.918	1134.44
460.138	1153.44
460.358	1244.44
460.578	1258.44
460.798	1304.44
461.018	1273.44
461.238	1250.44
461.458	1216.44
461.678	1253.44
461.898	1268.44
462.118	1292.44
462.338	1375.44
462.558	1394.44
462.777	1444.44
462.997	1548.44
463.217	1666.44
463.437	1641.44
463.657	1515.44
463.876	1450.44
464.096	1469.44
464.316	1469.44
464.536	1484.44
464.755	1411.44
464.975	1339.44
465.195	1272.44
465.414	1253.44
465.634	1158.44
465.854	1112.44
466.073	1096.44
466.293	1086.44
466.512	1050.44
466.732	1050.44
466.951	1071.44
467.171	1047.44
467.391	1079.44
467.61	1012.44
467.829	1051.44
468.049	1026.44
468.268	1012.44
468.488	1023.44
468.707	998.44
468.927	1022.44
469.146	990.44
469.365	1038.44
469.585	1034.44
469.804	1047.44
470.023	1087.44
470.243	1078.44
470.462	1066.44
470.681	1079.44
470.901	1062.44
471.12	1093.44
471.339	1038.44
471.558	1040.44
471.777	1036.44
471.997	1003.44
472.216	993.44
472.435	985.44
472.654	974.44
472.873	988.44
473.092	1011.44
473.311	976.44
473.53	971.44
473.749	948.44
473.968	982.44
474.187	968.44
474.406	999.44
474.625	1016.44
474.844	988.44
475.063	983.44
475.282	998.44
475.501	1006.44
475.72	988.44
475.939	1013.44
476.158	1057.44
476.377	1038.44
476.596	1027.44
476.814	1060.44
477.033	1038.44
477.252	1048.44
477.471	1113.44
477.69	1115.44
477.908	1156.44
478.127	1183.44
478.346	1191.44
478.564	1225.44
478.783	1248.44
479.002	1240.44
479.22	1234.44
479.439	1251.44
479.658	1240.44
479.876	1242.44
480.095	1262.44
480.313	1317.44
480.532	1340.44
480.751	1327.44
480.969	1284.44
481.188	1232.44
481.406	1232.44
481.624	1197.44
481.843	1165.44
482.061	1136.44
482.28	1179.44
482.498	1145.44
482.717	1167.44
482.935	1181.44
483.153	1208.44
483.372	1172.44
483.59	1180.44
483.808	1187.44
484.027	1170.44
484.245	1179.44
484.463	1214.44
484.681	1210.44
484.9	1227.44
485.118	1230.44
485.336	1223.44
485.554	1219.44
485.772	1226.44
485.99	1203.44
486.209	1196.44
486.427	1194.44
486.645	1208.44
486.863	1218.44
487.081	1216.44
487.299	1216.44
487.517	1230.44
487.735	1232.44
487.953	1243.44
488.171	1216.44
488.389	1246.44
488.607	1204.44
488.825	1170.44
489.043	1216.44
489.261	1223.44
489.479	1228.44
489.696	1190.44
489.914	1221.44
490.132	1200.44
490.35	1245.44
490.568	1194.44
490.786	1217.44
491.003	1222.44
491.221	1208.44
491.439	1264.44
491.657	1255.44
491.874	1242.44
492.092	1240.44
492.31	1268.44
492.527	1285.44
492.745	1256.44
492.963	1268.44
493.18	1268.44
493.398	1258.44
493.615	1282.44
493.833	1280.44
494.05	1284.44
494.268	1303.44
494.485	1296.44
494.703	1291.44
494.92	1267.44
495.138	1290.44
495.355	1289.44
495.573	1278.44
495.79	1292.44
496.008	1321.44
