Data from NiCl2@0.25M.TitratingCurve.Agarose3%dH2O.NegLispCup.LampEnergy10.LIBS07252019_HRD10591_18-24-22-572.txt Node
Date: Thu Jul 25 18:24:22 EDT 2019
User: cochatt
Spectrometer: HR+D1059
Trigger mode: 1
Integration Time (sec): 1.000000E-1
Scans to average: 1
Electric dark correction enabled: true
Nonlinearity correction enabled: false
Boxcar width: 0
XAxis mode: Wavelengths
Number of Pixels in Spectrum: 2048
>>>>>Begin Spectral Data<<<<<
223.165	-22.19
223.4	-22.19
223.635	-22.19
223.869	-15.19
224.104	-11.19
224.338	-20.19
224.573	2.81
224.808	-24.19
225.042	-10.19
225.277	-3.19
225.511	-0.19
225.746	-6.19
225.98	8.81
226.215	14.81
226.449	8.81
226.683	13.81
226.918	22.81
227.152	40.81
227.387	34.81
227.621	32.81
227.856	55.81
228.09	45.81
228.324	47.81
228.559	45.81
228.793	75.81
229.027	114.81
229.262	111.81
229.496	113.81
229.73	128.81
229.964	126.81
230.199	122.81
230.433	133.81
230.667	124.81
230.901	143.81
231.136	145.81
231.37	145.81
231.604	163.81
231.838	165.81
232.072	146.81
232.306	160.81
232.541	152.81
232.775	160.81
233.009	162.81
233.243	168.81
233.477	156.81
233.711	169.81
233.945	160.81
234.179	157.81
234.413	156.81
234.647	150.81
234.881	157.81
235.115	164.81
235.349	166.81
235.583	174.81
235.817	168.81
236.051	176.81
236.285	160.81
236.519	168.81
236.753	180.81
236.987	173.81
237.221	181.81
237.455	199.81
237.689	182.81
237.922	178.81
238.156	200.81
238.39	178.81
238.624	177.81
238.858	189.81
239.091	191.81
239.325	204.81
239.559	201.81
239.793	199.81
240.027	183.81
240.26	210.81
240.494	173.81
240.728	210.81
240.961	196.81
241.195	197.81
241.429	198.81
241.662	204.81
241.896	206.81
242.13	219.81
242.363	217.81
242.597	214.81
242.83	222.81
243.064	207.81
243.298	238.81
243.531	242.81
243.765	226.81
243.998	238.81
244.232	254.81
244.465	233.81
244.699	245.81
244.932	248.81
245.166	249.81
245.399	250.81
245.633	244.81
245.866	256.81
246.099	252.81
246.333	260.81
246.566	245.81
246.8	258.81
247.033	255.81
247.266	258.81
247.5	277.81
247.733	266.81
247.966	258.81
248.2	276.81
248.433	270.81
248.666	267.81
248.899	246.81
249.133	278.81
249.366	304.81
249.599	282.81
249.832	265.81
250.066	276.81
250.299	285.81
250.532	277.81
250.765	302.81
250.998	295.81
251.231	286.81
251.465	297.81
251.698	313.81
251.931	307.81
252.164	306.81
252.397	309.81
252.63	316.81
252.863	304.81
253.096	323.81
253.329	314.81
253.562	316.81
253.795	302.81
254.028	330.81
254.261	329.81
254.494	320.81
254.727	334.81
254.96	304.81
255.193	345.81
255.426	333.81
255.659	349.81
255.892	343.81
256.124	334.81
256.357	329.81
256.59	344.81
256.823	326.81
257.056	333.81
257.289	348.81
257.521	350.81
257.754	345.81
257.987	344.81
258.22	352.81
258.452	352.81
258.685	356.81
258.918	350.81
259.151	375.81
259.383	352.81
259.616	370.81
259.849	380.81
260.081	386.81
260.314	361.81
260.547	364.81
260.779	364.81
261.012	381.81
261.244	373.81
261.477	370.81
261.71	387.81
261.942	374.81
262.175	383.81
262.407	392.81
262.64	374.81
262.872	377.81
263.105	374.81
263.337	387.81
263.57	399.81
263.802	394.81
264.035	389.81
264.267	387.81
264.499	406.81
264.732	387.81
264.964	405.81
265.197	394.81
265.429	415.81
265.661	413.81
265.894	405.81
266.126	419.81
266.358	406.81
266.591	418.81
266.823	426.81
267.055	417.81
267.287	398.81
267.52	415.81
267.752	428.81
267.984	412.81
268.216	436.81
268.448	456.81
268.681	435.81
268.913	423.81
269.145	435.81
269.377	449.81
269.609	456.81
269.841	438.81
270.073	436.81
270.306	437.81
270.538	447.81
270.77	436.81
271.002	428.81
271.234	438.81
271.466	436.81
271.698	462.81
271.93	461.81
272.162	466.81
272.394	453.81
272.626	474.81
272.858	481.81
273.09	470.81
273.322	481.81
273.553	469.81
273.785	477.81
274.017	473.81
274.249	471.81
274.481	480.81
274.713	497.81
274.945	475.81
275.176	472.81
275.408	478.81
275.64	498.81
275.872	492.81
276.104	501.81
276.335	496.81
276.567	499.81
276.799	512.81
277.031	514.81
277.262	506.81
277.494	504.81
277.726	496.81
277.957	522.81
278.189	506.81
278.421	500.81
278.652	525.81
278.884	522.81
279.115	517.81
279.347	512.81
279.579	518.81
279.81	531.81
280.042	533.81
280.273	522.81
280.505	532.81
280.736	525.81
280.968	532.81
281.199	542.81
281.431	548.81
281.662	547.81
281.894	550.81
282.125	540.81
282.356	583.81
282.588	569.81
282.819	559.81
283.051	552.81
283.282	580.81
283.513	583.81
283.745	607.81
283.976	560.81
284.207	568.81
284.439	563.81
284.67	573.81
284.901	585.81
285.132	585.81
285.364	563.81
285.595	594.81
285.826	565.81
286.057	602.81
286.288	593.81
286.52	610.81
286.751	586.81
286.982	598.81
287.213	602.81
287.444	584.81
287.675	590.81
287.906	592.81
288.138	614.81
288.369	628.81
288.6	611.81
288.831	614.81
289.062	626.81
289.293	606.81
289.524	617.81
289.755	633.81
289.986	624.81
290.217	635.81
290.448	624.81
290.679	610.81
290.91	613.81
291.141	634.81
291.371	625.81
291.602	632.81
291.833	617.81
292.064	628.81
292.295	646.81
292.526	638.81
292.757	641.81
292.987	609.81
293.218	618.81
293.449	657.81
293.68	646.81
293.91	623.81
294.141	663.81
294.372	637.81
294.603	641.81
294.833	636.81
295.064	640.81
295.295	627.81
295.525	620.81
295.756	631.81
295.987	627.81
296.217	632.81
296.448	662.81
296.679	677.81
296.909	657.81
297.14	671.81
297.37	663.81
297.601	671.81
297.831	687.81
298.062	665.81
298.292	711.81
298.523	670.81
298.753	678.81
298.984	676.81
299.214	679.81
299.445	691.81
299.675	673.81
299.905	670.81
300.136	654.81
300.366	681.81
300.597	696.81
300.827	704.81
301.057	706.81
301.288	729.81
301.518	743.81
301.748	731.81
301.979	717.81
302.209	728.81
302.439	725.81
302.669	711.81
302.9	732.81
303.13	704.81
303.36	708.81
303.59	681.81
303.82	713.81
304.051	708.81
304.281	710.81
304.511	709.81
304.741	723.81
304.971	699.81
305.201	699.81
305.431	719.81
305.661	699.81
305.891	698.81
306.121	692.81
306.352	702.81
306.582	712.81
306.812	684.81
307.042	688.81
307.272	684.81
307.502	696.81
307.731	701.81
307.961	706.81
308.191	702.81
308.421	701.81
308.651	712.81
308.881	708.81
309.111	676.81
309.341	675.81
309.571	709.81
309.8	691.81
310.03	693.81
310.26	716.81
310.49	713.81
310.72	702.81
310.949	734.81
311.179	707.81
311.409	699.81
311.639	723.81
311.868	706.81
312.098	723.81
312.328	743.81
312.557	743.81
312.787	732.81
313.017	708.81
313.246	733.81
313.476	769.81
313.706	747.81
313.935	751.81
314.165	737.81
314.394	777.81
314.624	758.81
314.853	749.81
315.083	741.81
315.312	775.81
315.542	745.81
315.771	754.81
316.001	746.81
316.23	741.81
316.46	725.81
316.689	740.81
316.919	720.81
317.148	758.81
317.377	735.81
317.607	726.81
317.836	719.81
318.065	720.81
318.295	739.81
318.524	757.81
318.753	709.81
318.983	737.81
319.212	748.81
319.441	716.81
319.67	725.81
319.9	734.81
320.129	753.81
320.358	738.81
320.587	742.81
320.816	739.81
321.046	721.81
321.275	765.81
321.504	749.81
321.733	745.81
321.962	750.81
322.191	748.81
322.42	733.81
322.649	786.81
322.878	760.81
323.108	759.81
323.337	779.81
323.566	777.81
323.795	761.81
324.024	771.81
324.253	772.81
324.482	789.81
324.71	779.81
324.939	777.81
325.168	786.81
325.397	754.81
325.626	785.81
325.855	816.81
326.084	800.81
326.313	813.81
326.542	798.81
326.77	833.81
326.999	783.81
327.228	808.81
327.457	818.81
327.686	814.81
327.914	821.81
328.143	803.81
328.372	800.81
328.6	801.81
328.829	814.81
329.058	837.81
329.287	816.81
329.515	832.81
329.744	816.81
329.972	828.81
330.201	845.81
330.43	828.81
330.658	844.81
330.887	849.81
331.115	836.81
331.344	856.81
331.572	860.81
331.801	882.81
332.03	906.81
332.258	923.81
332.486	952.81
332.715	986.81
332.943	990.81
333.172	1053.81
333.4	1076.81
333.629	1099.81
333.857	1149.81
334.085	1138.81
334.314	1090.81
334.542	1080.81
334.771	1058.81
334.999	1022.81
335.227	1029.81
335.455	1045.81
335.684	1021.81
335.912	1032.81
336.14	983.81
336.369	998.81
336.597	959.81
336.825	980.81
337.053	987.81
337.281	961.81
337.51	944.81
337.738	945.81
337.966	932.81
338.194	915.81
338.422	899.81
338.65	887.81
338.878	905.81
339.106	882.81
339.334	903.81
339.562	896.81
339.79	873.81
340.018	852.81
340.246	836.81
340.474	834.81
340.702	860.81
340.93	854.81
341.158	859.81
341.386	863.81
341.614	870.81
341.842	866.81
342.07	836.81
342.298	827.81
342.526	861.81
342.754	843.81
342.981	851.81
343.209	863.81
343.437	914.81
343.665	975.81
343.893	1033.81
344.12	1083.81
344.348	1032.81
344.576	970.81
344.804	926.81
345.031	896.81
345.259	896.81
345.487	869.81
345.714	848.81
345.942	855.81
346.17	833.81
346.397	839.81
346.625	837.81
346.853	850.81
347.08	822.81
347.308	851.81
347.535	838.81
347.763	836.81
347.99	813.81
348.218	797.81
348.445	838.81
348.673	797.81
348.9	806.81
349.128	792.81
349.355	799.81
349.583	812.81
349.81	802.81
350.037	778.81
350.265	820.81
350.492	790.81
350.72	785.81
350.947	778.81
351.174	781.81
351.402	800.81
351.629	778.81
351.856	784.81
352.083	779.81
352.311	777.81
352.538	793.81
352.765	781.81
352.992	768.81
353.22	774.81
353.447	757.81
353.674	764.81
353.901	797.81
354.128	792.81
354.355	776.81
354.583	770.81
354.81	760.81
355.037	793.81
355.264	774.81
355.491	766.81
355.718	784.81
355.945	773.81
356.172	814.81
356.399	793.81
356.626	778.81
356.853	795.81
357.08	786.81
357.307	804.81
357.534	805.81
357.761	812.81
357.988	799.81
358.215	744.81
358.441	782.81
358.668	758.81
358.895	806.81
359.122	766.81
359.349	804.81
359.576	817.81
359.802	797.81
360.029	812.81
360.256	789.81
360.483	812.81
360.709	795.81
360.936	812.81
361.163	800.81
361.39	821.81
361.616	781.81
361.843	777.81
362.07	784.81
362.296	799.81
362.523	784.81
362.749	802.81
362.976	793.81
363.203	782.81
363.429	778.81
363.656	808.81
363.882	791.81
364.109	796.81
364.335	825.81
364.562	762.81
364.788	787.81
365.015	798.81
365.241	798.81
365.468	802.81
365.694	778.81
365.92	784.81
366.147	817.81
366.373	832.81
366.599	776.81
366.826	772.81
367.052	778.81
367.278	801.81
367.505	805.81
367.731	790.81
367.957	805.81
368.184	815.81
368.41	812.81
368.636	813.81
368.862	821.81
369.089	808.81
369.315	812.81
369.541	813.81
369.767	823.81
369.993	814.81
370.219	820.81
370.445	831.81
370.672	854.81
370.898	842.81
371.124	825.81
371.35	860.81
371.576	857.81
371.802	869.81
372.028	868.81
372.254	855.81
372.48	872.81
372.706	883.81
372.932	920.81
373.158	899.81
373.384	891.81
373.61	867.81
373.835	871.81
374.061	865.81
374.287	857.81
374.513	914.81
374.739	916.81
374.965	927.81
375.191	969.81
375.416	954.81
375.642	934.81
375.868	924.81
376.094	919.81
376.319	863.81
376.545	892.81
376.771	888.81
376.997	890.81
377.222	872.81
377.448	874.81
377.674	863.81
377.899	850.81
378.125	879.81
378.35	854.81
378.576	837.81
378.802	845.81
379.027	866.81
379.253	861.81
379.478	828.81
379.704	818.81
379.929	851.81
380.155	855.81
380.38	825.81
380.606	826.81
380.831	823.81
381.057	861.81
381.282	844.81
381.507	869.81
381.733	884.81
381.958	848.81
382.184	860.81
382.409	898.81
382.634	892.81
382.86	894.81
383.085	904.81
383.31	908.81
383.535	916.81
383.761	944.81
383.986	944.81
384.211	988.81
384.436	993.81
384.662	1018.81
384.887	1030.81
385.112	1038.81
385.337	1048.81
385.562	1047.81
385.787	1058.81
386.013	1068.81
386.238	1086.81
386.463	1052.81
386.688	1060.81
386.913	1053.81
387.138	1018.81
387.363	1043.81
387.588	1018.81
387.813	1012.81
388.038	1001.81
388.263	1042.81
388.488	1062.81
388.713	1049.81
388.938	1049.81
389.163	1018.81
389.387	1016.81
389.612	1002.81
389.837	1033.81
390.062	1029.81
390.287	1030.81
390.512	1019.81
390.736	1019.81
390.961	1076.81
391.186	1086.81
391.411	1129.81
391.636	1118.81
391.86	1169.81
392.085	1179.81
392.31	1182.81
392.534	1153.81
392.759	1167.81
392.984	1133.81
393.208	1106.81
393.433	1113.81
393.658	1088.81
393.882	1112.81
394.107	1110.81
394.331	1091.81
394.556	1105.81
394.78	1124.81
395.005	1140.81
395.229	1136.81
395.454	1137.81
395.678	1189.81
395.903	1203.81
396.127	1178.81
396.352	1177.81
396.576	1144.81
396.801	1123.81
397.025	1140.81
397.249	1132.81
397.474	1178.81
397.698	1187.81
397.922	1172.81
398.147	1200.81
398.371	1214.81
398.595	1280.81
398.82	1312.81
399.044	1421.81
399.268	1546.81
399.492	1795.81
399.717	1993.81
399.941	2032.81
400.165	1829.81
400.389	1637.81
400.613	1493.81
400.837	1386.81
401.062	1391.81
401.286	1372.81
401.51	1342.81
401.734	1335.81
401.958	1362.81
402.182	1367.81
402.406	1389.81
402.63	1437.81
402.854	1456.81
403.078	1442.81
403.302	1464.81
403.526	1477.81
403.75	1510.81
403.974	1511.81
404.198	1540.81
404.422	1521.81
404.645	1528.81
404.869	1492.81
405.093	1500.81
405.317	1446.81
405.541	1492.81
405.765	1446.81
405.988	1446.81
406.212	1480.81
406.436	1436.81
406.66	1485.81
406.883	1537.81
407.107	1623.81
407.331	1684.81
407.555	1711.81
407.778	1701.81
408.002	1688.81
408.226	1634.81
408.449	1628.81
408.673	1563.81
408.896	1496.81
409.12	1507.81
409.344	1529.81
409.567	1495.81
409.791	1475.81
410.014	1499.81
410.238	1444.81
410.461	1443.81
410.685	1443.81
410.908	1437.81
411.132	1413.81
411.355	1376.81
411.578	1375.81
411.802	1386.81
412.025	1379.81
412.249	1398.81
412.472	1421.81
412.695	1342.81
412.919	1328.81
413.142	1340.81
413.365	1334.81
413.589	1358.81
413.812	1324.81
414.035	1297.81
414.258	1318.81
414.482	1305.81
414.705	1329.81
414.928	1310.81
415.151	1333.81
415.374	1300.81
415.597	1318.81
415.821	1290.81
416.044	1288.81
416.267	1262.81
416.49	1268.81
416.713	1282.81
416.936	1321.81
417.159	1310.81
417.382	1281.81
417.605	1302.81
417.828	1321.81
418.051	1294.81
418.274	1278.81
418.497	1321.81
418.72	1323.81
418.943	1322.81
419.166	1431.81
419.389	1521.81
419.611	1478.81
419.834	1414.81
420.057	1359.81
420.28	1307.81
420.503	1289.81
420.726	1272.81
420.948	1313.81
421.171	1319.81
421.394	1306.81
421.617	1315.81
421.839	1287.81
422.062	1320.81
422.285	1265.81
422.507	1358.81
422.73	1327.81
422.953	1296.81
423.175	1366.81
423.398	1353.81
423.621	1363.81
423.843	1383.81
424.066	1416.81
424.288	1359.81
424.511	1330.81
424.733	1364.81
424.956	1318.81
425.178	1334.81
425.401	1308.81
425.623	1314.81
425.846	1261.81
426.068	1264.81
426.291	1233.81
426.513	1249.81
426.735	1210.81
426.958	1216.81
427.18	1182.81
427.402	1231.81
427.625	1198.81
427.847	1154.81
428.069	1161.81
428.292	1169.81
428.514	1156.81
428.736	1145.81
428.958	1158.81
429.181	1100.81
429.403	1121.81
429.625	1113.81
429.847	1094.81
430.069	1113.81
430.292	1129.81
430.514	1099.81
430.736	1133.81
430.958	1107.81
431.18	1134.81
431.402	1122.81
431.624	1129.81
431.846	1145.81
432.068	1185.81
432.29	1151.81
432.512	1104.81
432.734	1111.81
432.956	1139.81
433.178	1152.81
433.4	1144.81
433.622	1187.81
433.844	1175.81
434.066	1155.81
434.287	1159.81
434.509	1222.81
434.731	1230.81
434.953	1252.81
435.175	1290.81
435.397	1270.81
435.618	1211.81
435.84	1208.81
436.062	1149.81
436.284	1138.81
436.505	1100.81
436.727	1164.81
436.949	1170.81
437.17	1146.81
437.392	1117.81
437.614	1128.81
437.835	1099.81
438.057	1105.81
438.278	1086.81
438.5	1091.81
438.721	1095.81
438.943	1093.81
439.165	1081.81
439.386	1121.81
439.608	1106.81
439.829	1117.81
440.05	1109.81
440.272	1104.81
440.493	1132.81
440.715	1160.81
440.936	1169.81
441.158	1193.81
441.379	1229.81
441.6	1268.81
441.822	1272.81
442.043	1301.81
442.264	1281.81
442.486	1266.81
442.707	1254.81
442.928	1235.81
443.149	1272.81
443.371	1255.81
443.592	1272.81
443.813	1302.81
444.034	1304.81
444.255	1365.81
444.476	1419.81
444.698	1502.81
444.919	1547.81
445.14	1584.81
445.361	1479.81
445.582	1333.81
445.803	1292.81
446.024	1220.81
446.245	1178.81
446.466	1197.81
446.687	1132.81
446.908	1177.81
447.129	1109.81
447.35	1094.81
447.571	1098.81
447.792	1041.81
448.013	1095.81
448.234	1063.81
448.455	1083.81
448.675	1059.81
448.896	1049.81
449.117	1022.81
449.338	1019.81
449.559	1038.81
449.779	1040.81
450	1028.81
450.221	1014.81
450.442	1032.81
450.662	1024.81
450.883	1063.81
451.104	1087.81
451.324	1038.81
451.545	1078.81
451.766	1057.81
451.986	1009.81
452.207	1021.81
452.428	1048.81
452.648	1040.81
452.869	1012.81
453.089	1013.81
453.31	1045.81
453.53	1043.81
453.751	1007.81
453.971	993.81
454.192	986.81
454.412	977.81
454.633	985.81
454.853	968.81
455.073	981.81
455.294	981.81
455.514	946.81
455.734	953.81
455.955	952.81
456.175	960.81
456.395	953.81
456.616	961.81
456.836	970.81
457.056	975.81
457.276	978.81
457.497	973.81
457.717	976.81
457.937	994.81
458.157	1006.81
458.377	1044.81
458.598	1008.81
458.818	1072.81
459.038	1081.81
459.258	1147.81
459.478	1160.81
459.698	1175.81
459.918	1232.81
460.138	1262.81
460.358	1364.81
460.578	1344.81
460.798	1347.81
461.018	1384.81
461.238	1349.81
461.458	1320.81
461.678	1326.81
461.898	1382.81
462.118	1416.81
462.338	1414.81
462.558	1529.81
462.777	1550.81
462.997	1692.81
463.217	1805.81
463.437	1844.81
463.657	1682.81
463.876	1622.81
464.096	1597.81
464.316	1579.81
464.536	1618.81
464.755	1550.81
464.975	1473.81
465.195	1414.81
465.414	1339.81
465.634	1252.81
465.854	1217.81
466.073	1151.81
466.293	1170.81
466.512	1130.81
466.732	1112.81
466.951	1057.81
467.171	1102.81
467.391	1108.81
467.61	1088.81
467.829	1104.81
468.049	1104.81
468.268	1060.81
468.488	1052.81
468.707	1041.81
468.927	1045.81
469.146	1053.81
469.365	1062.81
469.585	1065.81
469.804	1102.81
470.023	1123.81
470.243	1112.81
470.462	1142.81
470.681	1158.81
470.901	1137.81
471.12	1122.81
471.339	1076.81
471.558	1080.81
471.777	1103.81
471.997	1102.81
472.216	1061.81
472.435	1053.81
472.654	1027.81
472.873	993.81
473.092	1020.81
473.311	1032.81
473.53	1048.81
473.749	1006.81
473.968	1009.81
474.187	996.81
474.406	1002.81
474.625	1008.81
474.844	999.81
475.063	1039.81
475.282	1048.81
475.501	1032.81
475.72	1045.81
475.939	1046.81
476.158	1063.81
476.377	1056.81
476.596	1061.81
476.814	1087.81
477.033	1095.81
477.252	1086.81
477.471	1125.81
477.69	1136.81
477.908	1172.81
478.127	1233.81
478.346	1218.81
478.564	1247.81
478.783	1279.81
479.002	1269.81
479.22	1291.81
479.439	1316.81
479.658	1308.81
479.876	1291.81
480.095	1321.81
480.313	1342.81
480.532	1353.81
480.751	1423.81
480.969	1328.81
481.188	1290.81
481.406	1249.81
481.624	1200.81
481.843	1191.81
482.061	1185.81
482.28	1141.81
482.498	1165.81
482.717	1178.81
482.935	1128.81
483.153	1188.81
483.372	1162.81
483.59	1174.81
483.808	1155.81
484.027	1167.81
484.245	1169.81
484.463	1142.81
484.681	1202.81
484.9	1213.81
485.118	1231.81
485.336	1228.81
485.554	1234.81
485.772	1227.81
485.99	1252.81
486.209	1233.81
486.427	1215.81
486.645	1214.81
486.863	1227.81
487.081	1238.81
487.299	1219.81
487.517	1213.81
487.735	1231.81
487.953	1231.81
488.171	1211.81
488.389	1190.81
488.607	1204.81
488.825	1212.81
489.043	1207.81
489.261	1211.81
489.479	1212.81
489.696	1221.81
489.914	1205.81
490.132	1226.81
490.35	1263.81
490.568	1182.81
490.786	1231.81
491.003	1256.81
491.221	1247.81
491.439	1237.81
491.657	1237.81
491.874	1246.81
492.092	1234.81
492.31	1240.81
492.527	1269.81
492.745	1255.81
492.963	1257.81
493.18	1273.81
493.398	1281.81
493.615	1245.81
493.833	1296.81
494.05	1282.81
494.268	1330.81
494.485	1320.81
494.703	1303.81
494.92	1320.81
