Data from NiCl2@0.5M.TitratingCurve.Agarose3%dH2O.NegLispCup.LampEnergy10.LIBS07252019_HRD10591_18-19-16-572.txt Node
Date: Thu Jul 25 18:19:16 EDT 2019
User: cochatt
Spectrometer: HR+D1059
Trigger mode: 1
Integration Time (sec): 1.000000E-1
Scans to average: 1
Electric dark correction enabled: true
Nonlinearity correction enabled: false
Boxcar width: 0
XAxis mode: Wavelengths
Number of Pixels in Spectrum: 2048
>>>>>Begin Spectral Data<<<<<
223.165	-9.25
223.4	-9.25
223.635	-9.25
223.869	-14.25
224.104	-12.25
224.338	-21.25
224.573	-21.25
224.808	-20.25
225.042	-8.25
225.277	-26.25
225.511	-0.25
225.746	5.75
225.98	4.75
226.215	10.75
226.449	27.75
226.683	24.75
226.918	33.75
227.152	25.75
227.387	36.75
227.621	48.75
227.856	52.75
228.09	41.75
228.324	57.75
228.559	39.75
228.793	50.75
229.027	88.75
229.262	95.75
229.496	104.75
229.73	123.75
229.964	121.75
230.199	139.75
230.433	141.75
230.667	134.75
230.901	130.75
231.136	146.75
231.37	122.75
231.604	133.75
231.838	147.75
232.072	143.75
232.306	150.75
232.541	136.75
232.775	128.75
233.009	120.75
233.243	143.75
233.477	138.75
233.711	141.75
233.945	138.75
234.179	136.75
234.413	148.75
234.647	145.75
234.881	133.75
235.115	139.75
235.349	156.75
235.583	135.75
235.817	147.75
236.051	145.75
236.285	155.75
236.519	151.75
236.753	146.75
236.987	135.75
237.221	154.75
237.455	147.75
237.689	151.75
237.922	153.75
238.156	146.75
238.39	148.75
238.624	152.75
238.858	153.75
239.091	157.75
239.325	168.75
239.559	161.75
239.793	166.75
240.027	178.75
240.26	177.75
240.494	155.75
240.728	177.75
240.961	171.75
241.195	165.75
241.429	173.75
241.662	167.75
241.896	170.75
242.13	193.75
242.363	186.75
242.597	190.75
242.83	186.75
243.064	181.75
243.298	177.75
243.531	183.75
243.765	191.75
243.998	181.75
244.232	184.75
244.465	197.75
244.699	193.75
244.932	190.75
245.166	208.75
245.399	198.75
245.633	236.75
245.866	193.75
246.099	195.75
246.333	195.75
246.566	212.75
246.8	190.75
247.033	208.75
247.266	209.75
247.5	236.75
247.733	199.75
247.966	194.75
248.2	241.75
248.433	221.75
248.666	205.75
248.899	223.75
249.133	215.75
249.366	215.75
249.599	213.75
249.832	221.75
250.066	229.75
250.299	232.75
250.532	221.75
250.765	223.75
250.998	230.75
251.231	231.75
251.465	254.75
251.698	221.75
251.931	234.75
252.164	237.75
252.397	228.75
252.63	252.75
252.863	256.75
253.096	241.75
253.329	255.75
253.562	251.75
253.795	253.75
254.028	253.75
254.261	276.75
254.494	261.75
254.727	256.75
254.96	257.75
255.193	262.75
255.426	247.75
255.659	265.75
255.892	278.75
256.124	265.75
256.357	276.75
256.59	271.75
256.823	269.75
257.056	277.75
257.289	283.75
257.521	292.75
257.754	274.75
257.987	287.75
258.22	292.75
258.452	278.75
258.685	291.75
258.918	281.75
259.151	268.75
259.383	290.75
259.616	276.75
259.849	277.75
260.081	286.75
260.314	293.75
260.547	288.75
260.779	303.75
261.012	297.75
261.244	305.75
261.477	302.75
261.71	295.75
261.942	299.75
262.175	312.75
262.407	309.75
262.64	290.75
262.872	312.75
263.105	292.75
263.337	295.75
263.57	311.75
263.802	325.75
264.035	320.75
264.267	303.75
264.499	308.75
264.732	310.75
264.964	311.75
265.197	340.75
265.429	325.75
265.661	332.75
265.894	313.75
266.126	319.75
266.358	319.75
266.591	333.75
266.823	328.75
267.055	308.75
267.287	342.75
267.52	324.75
267.752	333.75
267.984	314.75
268.216	342.75
268.448	346.75
268.681	333.75
268.913	341.75
269.145	345.75
269.377	347.75
269.609	344.75
269.841	338.75
270.073	347.75
270.306	344.75
270.538	348.75
270.77	346.75
271.002	361.75
271.234	341.75
271.466	358.75
271.698	345.75
271.93	363.75
272.162	348.75
272.394	363.75
272.626	353.75
272.858	359.75
273.09	367.75
273.322	377.75
273.553	374.75
273.785	367.75
274.017	357.75
274.249	350.75
274.481	362.75
274.713	356.75
274.945	385.75
275.176	362.75
275.408	357.75
275.64	374.75
275.872	383.75
276.104	383.75
276.335	384.75
276.567	393.75
276.799	363.75
277.031	387.75
277.262	387.75
277.494	407.75
277.726	387.75
277.957	380.75
278.189	423.75
278.421	421.75
278.652	378.75
278.884	395.75
279.115	407.75
279.347	418.75
279.579	416.75
279.81	413.75
280.042	410.75
280.273	414.75
280.505	419.75
280.736	406.75
280.968	417.75
281.199	401.75
281.431	401.75
281.662	421.75
281.894	414.75
282.125	426.75
282.356	425.75
282.588	435.75
282.819	435.75
283.051	443.75
283.282	427.75
283.513	447.75
283.745	436.75
283.976	424.75
284.207	439.75
284.439	455.75
284.67	458.75
284.901	434.75
285.132	448.75
285.364	435.75
285.595	427.75
285.826	443.75
286.057	437.75
286.288	427.75
286.52	441.75
286.751	466.75
286.982	474.75
287.213	461.75
287.444	465.75
287.675	457.75
287.906	483.75
288.138	451.75
288.369	474.75
288.6	452.75
288.831	478.75
289.062	476.75
289.293	463.75
289.524	460.75
289.755	469.75
289.986	473.75
290.217	472.75
290.448	473.75
290.679	476.75
290.91	480.75
291.141	481.75
291.371	500.75
291.602	490.75
291.833	472.75
292.064	489.75
292.295	493.75
292.526	492.75
292.757	492.75
292.987	496.75
293.218	477.75
293.449	483.75
293.68	471.75
293.91	478.75
294.141	475.75
294.372	493.75
294.603	490.75
294.833	486.75
295.064	491.75
295.295	516.75
295.525	503.75
295.756	513.75
295.987	496.75
296.217	506.75
296.448	521.75
296.679	500.75
296.909	500.75
297.14	522.75
297.37	523.75
297.601	525.75
297.831	510.75
298.062	536.75
298.292	509.75
298.523	548.75
298.753	532.75
298.984	521.75
299.214	529.75
299.445	543.75
299.675	533.75
299.905	529.75
300.136	516.75
300.366	522.75
300.597	532.75
300.827	541.75
301.057	555.75
301.288	553.75
301.518	539.75
301.748	573.75
301.979	553.75
302.209	549.75
302.439	551.75
302.669	561.75
302.9	531.75
303.13	552.75
303.36	534.75
303.59	543.75
303.82	553.75
304.051	567.75
304.281	559.75
304.511	547.75
304.741	581.75
304.971	548.75
305.201	561.75
305.431	569.75
305.661	537.75
305.891	569.75
306.121	572.75
306.352	553.75
306.582	532.75
306.812	544.75
307.042	551.75
307.272	551.75
307.502	537.75
307.731	551.75
307.961	556.75
308.191	546.75
308.421	551.75
308.651	563.75
308.881	559.75
309.111	539.75
309.341	560.75
309.571	561.75
309.8	559.75
310.03	573.75
310.26	565.75
310.49	543.75
310.72	551.75
310.949	569.75
311.179	561.75
311.409	562.75
311.639	582.75
311.868	556.75
312.098	574.75
312.328	548.75
312.557	578.75
312.787	588.75
313.017	566.75
313.246	592.75
313.476	572.75
313.706	610.75
313.935	581.75
314.165	585.75
314.394	599.75
314.624	600.75
314.853	578.75
315.083	597.75
315.312	595.75
315.542	591.75
315.771	588.75
316.001	609.75
316.23	583.75
316.46	612.75
316.689	609.75
316.919	580.75
317.148	599.75
317.377	627.75
317.607	604.75
317.836	598.75
318.065	593.75
318.295	583.75
318.524	605.75
318.753	604.75
318.983	618.75
319.212	589.75
319.441	595.75
319.67	599.75
319.9	603.75
320.129	616.75
320.358	596.75
320.587	580.75
320.816	598.75
321.046	593.75
321.275	628.75
321.504	588.75
321.733	627.75
321.962	617.75
322.191	615.75
322.42	602.75
322.649	639.75
322.878	611.75
323.108	620.75
323.337	634.75
323.566	611.75
323.795	644.75
324.024	628.75
324.253	629.75
324.482	638.75
324.71	611.75
324.939	635.75
325.168	656.75
325.397	636.75
325.626	641.75
325.855	653.75
326.084	651.75
326.313	642.75
326.542	675.75
326.77	682.75
326.999	645.75
327.228	627.75
327.457	619.75
327.686	647.75
327.914	635.75
328.143	668.75
328.372	644.75
328.6	661.75
328.829	661.75
329.058	658.75
329.287	651.75
329.515	655.75
329.744	649.75
329.972	661.75
330.201	673.75
330.43	657.75
330.658	665.75
330.887	665.75
331.115	683.75
331.344	668.75
331.572	676.75
331.801	694.75
332.03	709.75
332.258	726.75
332.486	732.75
332.715	740.75
332.943	779.75
333.172	799.75
333.4	811.75
333.629	825.75
333.857	815.75
334.085	811.75
334.314	839.75
334.542	810.75
334.771	810.75
334.999	786.75
335.227	780.75
335.455	773.75
335.684	777.75
335.912	792.75
336.14	756.75
336.369	770.75
336.597	765.75
336.825	787.75
337.053	764.75
337.281	759.75
337.51	758.75
337.738	725.75
337.966	716.75
338.194	760.75
338.422	740.75
338.65	699.75
338.878	725.75
339.106	703.75
339.334	723.75
339.562	715.75
339.79	691.75
340.018	656.75
340.246	651.75
340.474	703.75
340.702	682.75
340.93	671.75
341.158	669.75
341.386	714.75
341.614	703.75
341.842	714.75
342.07	660.75
342.298	682.75
342.526	697.75
342.754	699.75
342.981	702.75
343.209	689.75
343.437	736.75
343.665	777.75
343.893	808.75
344.12	810.75
344.348	777.75
344.576	773.75
344.804	749.75
345.031	718.75
345.259	714.75
345.487	676.75
345.714	701.75
345.942	695.75
346.17	696.75
346.397	661.75
346.625	678.75
346.853	653.75
347.08	655.75
347.308	648.75
347.535	643.75
347.763	653.75
347.99	652.75
348.218	656.75
348.445	653.75
348.673	657.75
348.9	653.75
349.128	646.75
349.355	656.75
349.583	653.75
349.81	685.75
350.037	641.75
350.265	666.75
350.492	647.75
350.72	641.75
350.947	642.75
351.174	647.75
351.402	654.75
351.629	667.75
351.856	653.75
352.083	646.75
352.311	641.75
352.538	640.75
352.765	638.75
352.992	636.75
353.22	629.75
353.447	635.75
353.674	627.75
353.901	634.75
354.128	625.75
354.355	633.75
354.583	641.75
354.81	647.75
355.037	632.75
355.264	652.75
355.491	627.75
355.718	645.75
355.945	635.75
356.172	637.75
356.399	633.75
356.626	660.75
356.853	643.75
357.08	635.75
357.307	632.75
357.534	641.75
357.761	650.75
357.988	628.75
358.215	623.75
358.441	619.75
358.668	615.75
358.895	616.75
359.122	617.75
359.349	636.75
359.576	623.75
359.802	610.75
360.029	641.75
360.256	612.75
360.483	623.75
360.709	628.75
360.936	642.75
361.163	627.75
361.39	645.75
361.616	637.75
361.843	637.75
362.07	627.75
362.296	643.75
362.523	619.75
362.749	622.75
362.976	631.75
363.203	609.75
363.429	611.75
363.656	619.75
363.882	599.75
364.109	616.75
364.335	632.75
364.562	627.75
364.788	606.75
365.015	604.75
365.241	635.75
365.468	626.75
365.694	629.75
365.92	612.75
366.147	628.75
366.373	615.75
366.599	641.75
366.826	615.75
367.052	601.75
367.278	619.75
367.505	627.75
367.731	628.75
367.957	636.75
368.184	616.75
368.41	627.75
368.636	663.75
368.862	642.75
369.089	627.75
369.315	643.75
369.541	631.75
369.767	621.75
369.993	636.75
370.219	633.75
370.445	644.75
370.672	663.75
370.898	653.75
371.124	666.75
371.35	665.75
371.576	664.75
371.802	673.75
372.028	649.75
372.254	676.75
372.48	654.75
372.706	663.75
372.932	707.75
373.158	680.75
373.384	683.75
373.61	667.75
373.835	653.75
374.061	676.75
374.287	679.75
374.513	659.75
374.739	684.75
374.965	699.75
375.191	707.75
375.416	705.75
375.642	708.75
375.868	704.75
376.094	704.75
376.319	669.75
376.545	679.75
376.771	652.75
376.997	641.75
377.222	640.75
377.448	626.75
377.674	667.75
377.899	643.75
378.125	637.75
378.35	659.75
378.576	659.75
378.802	648.75
379.027	642.75
379.253	641.75
379.478	667.75
379.704	650.75
379.929	658.75
380.155	647.75
380.38	649.75
380.606	652.75
380.831	658.75
381.057	656.75
381.282	654.75
381.507	650.75
381.733	666.75
381.958	690.75
382.184	680.75
382.409	663.75
382.634	681.75
382.86	692.75
383.085	704.75
383.31	704.75
383.535	719.75
383.761	709.75
383.986	717.75
384.211	762.75
384.436	748.75
384.662	744.75
384.887	759.75
385.112	748.75
385.337	767.75
385.562	740.75
385.787	758.75
386.013	755.75
386.238	758.75
386.463	776.75
386.688	778.75
386.913	753.75
387.138	767.75
387.363	776.75
387.588	753.75
387.813	755.75
388.038	786.75
388.263	761.75
388.488	750.75
388.713	761.75
388.938	748.75
389.163	748.75
389.387	773.75
389.612	760.75
389.837	749.75
390.062	752.75
390.287	775.75
390.512	763.75
390.736	759.75
390.961	772.75
391.186	785.75
391.411	798.75
391.636	829.75
391.86	843.75
392.085	853.75
392.31	840.75
392.534	817.75
392.759	828.75
392.984	776.75
393.208	800.75
393.433	797.75
393.658	787.75
393.882	808.75
394.107	796.75
394.331	782.75
394.556	803.75
394.78	832.75
395.005	817.75
395.229	845.75
395.454	855.75
395.678	849.75
395.903	827.75
396.127	834.75
396.352	817.75
396.576	856.75
396.801	817.75
397.025	828.75
397.249	815.75
397.474	843.75
397.698	843.75
397.922	846.75
398.147	837.75
398.371	887.75
398.595	894.75
398.82	935.75
399.044	984.75
399.268	1078.75
399.492	1215.75
399.717	1298.75
399.941	1293.75
400.165	1183.75
400.389	1085.75
400.613	1009.75
400.837	977.75
401.062	946.75
401.286	944.75
401.51	946.75
401.734	934.75
401.958	954.75
402.182	963.75
402.406	955.75
402.63	969.75
402.854	1003.75
403.078	1002.75
403.302	1015.75
403.526	1039.75
403.75	1068.75
403.974	1072.75
404.198	1031.75
404.422	1043.75
404.645	1033.75
404.869	1057.75
405.093	1038.75
405.317	1040.75
405.541	1039.75
405.765	1041.75
405.988	1023.75
406.212	1002.75
406.436	1020.75
406.66	1053.75
406.883	1053.75
407.107	1107.75
407.331	1153.75
407.555	1184.75
407.778	1190.75
408.002	1169.75
408.226	1108.75
408.449	1107.75
408.673	1059.75
408.896	1045.75
409.12	1048.75
409.344	1046.75
409.567	1042.75
409.791	1037.75
410.014	1033.75
410.238	1056.75
410.461	1048.75
410.685	1051.75
410.908	1028.75
411.132	994.75
411.355	962.75
411.578	1012.75
411.802	998.75
412.025	989.75
412.249	979.75
412.472	973.75
412.695	963.75
412.919	928.75
413.142	943.75
413.365	970.75
413.589	963.75
413.812	939.75
414.035	909.75
414.258	945.75
414.482	971.75
414.705	996.75
414.928	943.75
415.151	954.75
415.374	960.75
415.597	939.75
415.821	940.75
416.044	931.75
416.267	936.75
416.49	925.75
416.713	940.75
416.936	929.75
417.159	964.75
417.382	939.75
417.605	936.75
417.828	956.75
418.051	943.75
418.274	939.75
418.497	936.75
418.72	978.75
418.943	983.75
419.166	1018.75
419.389	1081.75
419.611	1060.75
419.834	1036.75
420.057	983.75
420.28	945.75
420.503	933.75
420.726	939.75
420.948	905.75
421.171	928.75
421.394	954.75
421.617	943.75
421.839	974.75
422.062	943.75
422.285	928.75
422.507	975.75
422.73	992.75
422.953	949.75
423.175	1005.75
423.398	964.75
423.621	979.75
423.843	989.75
424.066	995.75
424.288	965.75
424.511	1006.75
424.733	978.75
424.956	955.75
425.178	944.75
425.401	963.75
425.623	937.75
425.846	919.75
426.068	926.75
426.291	923.75
426.513	911.75
426.735	905.75
426.958	905.75
427.18	912.75
427.402	909.75
427.625	869.75
427.847	891.75
428.069	909.75
428.292	884.75
428.514	881.75
428.736	861.75
428.958	858.75
429.181	865.75
429.403	858.75
429.625	866.75
429.847	813.75
430.069	871.75
430.292	868.75
430.514	857.75
430.736	851.75
430.958	867.75
431.18	874.75
431.402	879.75
431.624	894.75
431.846	870.75
432.068	872.75
432.29	883.75
432.512	879.75
432.734	872.75
432.956	882.75
433.178	869.75
433.4	881.75
433.622	869.75
433.844	888.75
434.066	869.75
434.287	898.75
434.509	929.75
434.731	949.75
434.953	950.75
435.175	986.75
435.397	962.75
435.618	936.75
435.84	888.75
436.062	907.75
436.284	890.75
436.505	874.75
436.727	871.75
436.949	865.75
437.17	861.75
437.392	860.75
437.614	859.75
437.835	881.75
438.057	871.75
438.278	875.75
438.5	855.75
438.721	848.75
438.943	882.75
439.165	833.75
439.386	859.75
439.608	858.75
439.829	899.75
440.05	875.75
440.272	877.75
440.493	893.75
440.715	927.75
440.936	906.75
441.158	933.75
441.379	952.75
441.6	981.75
441.822	966.75
442.043	981.75
442.264	989.75
442.486	927.75
442.707	950.75
442.928	989.75
443.149	959.75
443.371	970.75
443.592	978.75
443.813	974.75
444.034	991.75
444.255	1019.75
444.476	1051.75
444.698	1105.75
444.919	1147.75
445.14	1183.75
445.361	1066.75
445.582	1021.75
445.803	939.75
446.024	922.75
446.245	916.75
446.466	916.75
446.687	889.75
446.908	894.75
447.129	899.75
447.35	870.75
447.571	866.75
447.792	831.75
448.013	882.75
448.234	838.75
448.455	842.75
448.675	841.75
448.896	799.75
449.117	813.75
449.338	807.75
449.559	804.75
449.779	803.75
450	812.75
450.221	810.75
450.442	842.75
450.662	809.75
450.883	789.75
451.104	824.75
451.324	825.75
451.545	848.75
451.766	827.75
451.986	819.75
452.207	813.75
452.428	825.75
452.648	811.75
452.869	790.75
453.089	804.75
453.31	825.75
453.53	792.75
453.751	801.75
453.971	811.75
454.192	787.75
454.412	787.75
454.633	780.75
454.853	775.75
455.073	788.75
455.294	778.75
455.514	793.75
455.734	793.75
455.955	756.75
456.175	776.75
456.395	760.75
456.616	768.75
456.836	743.75
457.056	787.75
457.276	755.75
457.497	769.75
457.717	771.75
457.937	821.75
458.157	812.75
458.377	785.75
458.598	818.75
458.818	826.75
459.038	850.75
459.258	862.75
459.478	903.75
459.698	919.75
459.918	958.75
460.138	971.75
460.358	1028.75
460.578	1002.75
460.798	1007.75
461.018	1018.75
461.238	1019.75
461.458	1034.75
461.678	1027.75
461.898	1038.75
462.118	1047.75
462.338	1104.75
462.558	1109.75
462.777	1118.75
462.997	1216.75
463.217	1313.75
463.437	1320.75
463.657	1212.75
463.876	1186.75
464.096	1151.75
464.316	1151.75
464.536	1163.75
464.755	1148.75
464.975	1065.75
465.195	1065.75
465.414	1000.75
465.634	956.75
465.854	931.75
466.073	916.75
466.293	916.75
466.512	889.75
466.732	882.75
466.951	874.75
467.171	858.75
467.391	892.75
467.61	881.75
467.829	836.75
468.049	887.75
468.268	850.75
468.488	835.75
468.707	843.75
468.927	851.75
469.146	852.75
469.365	874.75
469.585	859.75
469.804	882.75
470.023	895.75
470.243	887.75
470.462	864.75
470.681	915.75
470.901	893.75
471.12	892.75
471.339	911.75
471.558	876.75
471.777	858.75
471.997	840.75
472.216	830.75
472.435	851.75
472.654	847.75
472.873	817.75
473.092	843.75
473.311	858.75
473.53	829.75
473.749	833.75
473.968	827.75
474.187	808.75
474.406	823.75
474.625	829.75
474.844	825.75
475.063	858.75
475.282	881.75
475.501	859.75
475.72	855.75
475.939	866.75
476.158	844.75
476.377	852.75
476.596	883.75
476.814	881.75
477.033	873.75
477.252	897.75
477.471	916.75
477.69	913.75
477.908	940.75
478.127	956.75
478.346	1001.75
478.564	961.75
478.783	1001.75
479.002	1045.75
479.22	1048.75
479.439	1005.75
479.658	1001.75
479.876	1011.75
480.095	1044.75
480.313	1054.75
480.532	1076.75
480.751	1104.75
480.969	1009.75
481.188	1007.75
481.406	996.75
481.624	1004.75
481.843	965.75
482.061	967.75
482.28	958.75
482.498	987.75
482.717	939.75
482.935	955.75
483.153	959.75
483.372	970.75
483.59	973.75
483.808	956.75
484.027	939.75
484.245	956.75
484.463	981.75
484.681	993.75
484.9	994.75
485.118	987.75
485.336	975.75
485.554	998.75
485.772	982.75
485.99	1001.75
486.209	1006.75
486.427	1021.75
486.645	986.75
486.863	1011.75
487.081	1021.75
487.299	1037.75
487.517	988.75
487.735	1009.75
487.953	1065.75
488.171	1017.75
488.389	988.75
488.607	996.75
488.825	988.75
489.043	1020.75
489.261	1014.75
489.479	1004.75
489.696	963.75
489.914	1012.75
490.132	1040.75
490.35	985.75
490.568	991.75
490.786	1051.75
491.003	1027.75
491.221	1008.75
491.439	1033.75
491.657	1047.75
491.874	1029.75
492.092	1065.75
492.31	1096.75
492.527	1088.75
492.745	1066.75
492.963	1051.75
493.18	1076.75
493.398	1047.75
493.615	1063.75
493.833	1083.75
494.05	1076.75
494.268	1099.75
494.485	1068.75
494.703	1093.75
494.92	1077.75
495.138	1083.75
495.355	1092.75
495.573	1099.75
495.79	1057.75
496.008	1112.75
496.225	1117.75
496.442	1115.75
496.66	1127.75
496.877	1161.75
497.094	1163.75
497.312	1153.75
497.529	1196.75
497.746	1221.75
497.963	1268.75
498.181	1304.75
498.398	1321.75
498.615	1361.75
498.832	1455.75
499.049	1547.75
499.267	1641.75
499.484	1772.75
499.701	1951.75
