Data from NiCl2@0.0625M.TitratingCurve.Agarose3%dH2O.NegLispCup.LampEnergy10.LIBS07252019_HRD10591_18-34-44-576.txt Node
Date: Thu Jul 25 18:34:44 EDT 2019
User: cochatt
Spectrometer: HR+D1059
Trigger mode: 1
Integration Time (sec): 1.000000E-1
Scans to average: 1
Electric dark correction enabled: true
Nonlinearity correction enabled: false
Boxcar width: 0
XAxis mode: Wavelengths
Number of Pixels in Spectrum: 2048
>>>>>Begin Spectral Data<<<<<
223.165	-10.75
223.4	-10.75
223.635	-10.75
223.869	-1.75
224.104	-12.75
224.338	-6.75
224.573	-14.75
224.808	-5.75
225.042	-9.75
225.277	-10.75
225.511	-10.75
225.746	-2.75
225.98	3.25
226.215	-1.75
226.449	11.25
226.683	28.25
226.918	23.25
227.152	22.25
227.387	30.25
227.621	41.25
227.856	47.25
228.09	55.25
228.324	56.25
228.559	57.25
228.793	89.25
229.027	135.25
229.262	159.25
229.496	160.25
229.73	169.25
229.964	184.25
230.199	168.25
230.433	167.25
230.667	184.25
230.901	162.25
231.136	182.25
231.37	204.25
231.604	179.25
231.838	193.25
232.072	184.25
232.306	189.25
232.541	191.25
232.775	185.25
233.009	197.25
233.243	199.25
233.477	203.25
233.711	210.25
233.945	209.25
234.179	207.25
234.413	200.25
234.647	209.25
234.881	211.25
235.115	210.25
235.349	207.25
235.583	199.25
235.817	216.25
236.051	212.25
236.285	229.25
236.519	218.25
236.753	233.25
236.987	233.25
237.221	234.25
237.455	216.25
237.689	234.25
237.922	233.25
238.156	257.25
238.39	247.25
238.624	245.25
238.858	246.25
239.091	255.25
239.325	259.25
239.559	254.25
239.793	257.25
240.027	261.25
240.26	247.25
240.494	232.25
240.728	254.25
240.961	263.25
241.195	271.25
241.429	288.25
241.662	293.25
241.896	306.25
242.13	298.25
242.363	285.25
242.597	273.25
242.83	294.25
243.064	286.25
243.298	293.25
243.531	322.25
243.765	300.25
243.998	323.25
244.232	301.25
244.465	326.25
244.699	317.25
244.932	317.25
245.166	331.25
245.399	345.25
245.633	319.25
245.866	327.25
246.099	333.25
246.333	334.25
246.566	344.25
246.8	329.25
247.033	354.25
247.266	348.25
247.5	348.25
247.733	370.25
247.966	361.25
248.2	362.25
248.433	364.25
248.666	370.25
248.899	357.25
249.133	381.25
249.366	369.25
249.599	387.25
249.832	384.25
250.066	370.25
250.299	381.25
250.532	395.25
250.765	393.25
250.998	381.25
251.231	417.25
251.465	391.25
251.698	411.25
251.931	400.25
252.164	396.25
252.397	421.25
252.63	390.25
252.863	415.25
253.096	433.25
253.329	439.25
253.562	422.25
253.795	457.25
254.028	439.25
254.261	451.25
254.494	446.25
254.727	443.25
254.96	418.25
255.193	437.25
255.426	438.25
255.659	458.25
255.892	455.25
256.124	461.25
256.357	459.25
256.59	454.25
256.823	452.25
257.056	475.25
257.289	471.25
257.521	493.25
257.754	480.25
257.987	483.25
258.22	486.25
258.452	481.25
258.685	501.25
258.918	480.25
259.151	490.25
259.383	505.25
259.616	506.25
259.849	502.25
260.081	493.25
260.314	503.25
260.547	513.25
260.779	502.25
261.012	516.25
261.244	527.25
261.477	531.25
261.71	516.25
261.942	533.25
262.175	526.25
262.407	537.25
262.64	517.25
262.872	513.25
263.105	535.25
263.337	549.25
263.57	546.25
263.802	528.25
264.035	543.25
264.267	537.25
264.499	561.25
264.732	553.25
264.964	565.25
265.197	546.25
265.429	559.25
265.661	554.25
265.894	572.25
266.126	583.25
266.358	565.25
266.591	583.25
266.823	583.25
267.055	567.25
267.287	591.25
267.52	568.25
267.752	570.25
267.984	625.25
268.216	603.25
268.448	599.25
268.681	588.25
268.913	590.25
269.145	620.25
269.377	597.25
269.609	615.25
269.841	598.25
270.073	615.25
270.306	647.25
270.538	620.25
270.77	603.25
271.002	597.25
271.234	637.25
271.466	634.25
271.698	615.25
271.93	631.25
272.162	651.25
272.394	647.25
272.626	643.25
272.858	615.25
273.09	644.25
273.322	664.25
273.553	645.25
273.785	671.25
274.017	668.25
274.249	662.25
274.481	670.25
274.713	698.25
274.945	666.25
275.176	685.25
275.408	691.25
275.64	686.25
275.872	702.25
276.104	694.25
276.335	678.25
276.567	712.25
276.799	698.25
277.031	686.25
277.262	706.25
277.494	700.25
277.726	721.25
277.957	723.25
278.189	723.25
278.421	684.25
278.652	705.25
278.884	712.25
279.115	717.25
279.347	725.25
279.579	734.25
279.81	707.25
280.042	726.25
280.273	753.25
280.505	742.25
280.736	765.25
280.968	765.25
281.199	747.25
281.431	775.25
281.662	777.25
281.894	784.25
282.125	762.25
282.356	786.25
282.588	754.25
282.819	745.25
283.051	780.25
283.282	765.25
283.513	781.25
283.745	799.25
283.976	784.25
284.207	791.25
284.439	804.25
284.67	839.25
284.901	787.25
285.132	779.25
285.364	802.25
285.595	833.25
285.826	787.25
286.057	819.25
286.288	816.25
286.52	823.25
286.751	796.25
286.982	844.25
287.213	804.25
287.444	840.25
287.675	823.25
287.906	830.25
288.138	844.25
288.369	812.25
288.6	851.25
288.831	837.25
289.062	845.25
289.293	849.25
289.524	823.25
289.755	867.25
289.986	855.25
290.217	866.25
290.448	867.25
290.679	822.25
290.91	855.25
291.141	865.25
291.371	859.25
291.602	860.25
291.833	845.25
292.064	863.25
292.295	850.25
292.526	869.25
292.757	861.25
292.987	839.25
293.218	862.25
293.449	865.25
293.68	859.25
293.91	867.25
294.141	861.25
294.372	871.25
294.603	890.25
294.833	888.25
295.064	882.25
295.295	892.25
295.525	879.25
295.756	908.25
295.987	905.25
296.217	896.25
296.448	894.25
296.679	887.25
296.909	905.25
297.14	885.25
297.37	921.25
297.601	926.25
297.831	921.25
298.062	929.25
298.292	926.25
298.523	947.25
298.753	941.25
298.984	927.25
299.214	949.25
299.445	949.25
299.675	940.25
299.905	962.25
300.136	950.25
300.366	938.25
300.597	939.25
300.827	972.25
301.057	959.25
301.288	981.25
301.518	983.25
301.748	989.25
301.979	995.25
302.209	999.25
302.439	1025.25
302.669	994.25
302.9	985.25
303.13	951.25
303.36	987.25
303.59	1010.25
303.82	1005.25
304.051	990.25
304.281	1007.25
304.511	986.25
304.741	998.25
304.971	994.25
305.201	1009.25
305.431	990.25
305.661	987.25
305.891	966.25
306.121	997.25
306.352	964.25
306.582	976.25
306.812	961.25
307.042	987.25
307.272	976.25
307.502	972.25
307.731	998.25
307.961	976.25
308.191	955.25
308.421	951.25
308.651	976.25
308.881	949.25
309.111	978.25
309.341	974.25
309.571	973.25
309.8	975.25
310.03	1007.25
310.26	980.25
310.49	965.25
310.72	981.25
310.949	986.25
311.179	999.25
311.409	993.25
311.639	986.25
311.868	1049.25
312.098	983.25
312.328	1010.25
312.557	1024.25
312.787	1014.25
313.017	1013.25
313.246	1057.25
313.476	1001.25
313.706	1036.25
313.935	1038.25
314.165	1061.25
314.394	1043.25
314.624	1053.25
314.853	1053.25
315.083	1073.25
315.312	1068.25
315.542	1062.25
315.771	1043.25
316.001	1033.25
316.23	1033.25
316.46	1050.25
316.689	1059.25
316.919	1039.25
317.148	1051.25
317.377	1038.25
317.607	1037.25
317.836	1029.25
318.065	1038.25
318.295	1072.25
318.524	1062.25
318.753	1031.25
318.983	1044.25
319.212	1036.25
319.441	1048.25
319.67	1040.25
319.9	1074.25
320.129	1056.25
320.358	1057.25
320.587	1065.25
320.816	1062.25
321.046	1062.25
321.275	1043.25
321.504	1050.25
321.733	1047.25
321.962	1050.25
322.191	1046.25
322.42	1050.25
322.649	1088.25
322.878	1059.25
323.108	1075.25
323.337	1068.25
323.566	1093.25
323.795	1106.25
324.024	1086.25
324.253	1072.25
324.482	1092.25
324.71	1069.25
324.939	1096.25
325.168	1104.25
325.397	1086.25
325.626	1107.25
325.855	1161.25
326.084	1149.25
326.313	1149.25
326.542	1148.25
326.77	1164.25
326.999	1141.25
327.228	1118.25
327.457	1130.25
327.686	1154.25
327.914	1144.25
328.143	1154.25
328.372	1133.25
328.6	1130.25
328.829	1158.25
329.058	1135.25
329.287	1165.25
329.515	1146.25
329.744	1175.25
329.972	1170.25
330.201	1163.25
330.43	1185.25
330.658	1187.25
330.887	1177.25
331.115	1192.25
331.344	1188.25
331.572	1188.25
331.801	1242.25
332.03	1251.25
332.258	1272.25
332.486	1259.25
332.715	1313.25
332.943	1347.25
333.172	1397.25
333.4	1431.25
333.629	1459.25
333.857	1431.25
334.085	1467.25
334.314	1485.25
334.542	1447.25
334.771	1430.25
334.999	1420.25
335.227	1406.25
335.455	1395.25
335.684	1407.25
335.912	1394.25
336.14	1345.25
336.369	1363.25
336.597	1374.25
336.825	1348.25
337.053	1372.25
337.281	1331.25
337.51	1326.25
337.738	1313.25
337.966	1311.25
338.194	1250.25
338.422	1305.25
338.65	1244.25
338.878	1286.25
339.106	1274.25
339.334	1235.25
339.562	1238.25
339.79	1205.25
340.018	1220.25
340.246	1201.25
340.474	1197.25
340.702	1227.25
340.93	1204.25
341.158	1227.25
341.386	1219.25
341.614	1185.25
341.842	1175.25
342.07	1169.25
342.298	1196.25
342.526	1196.25
342.754	1188.25
342.981	1176.25
343.209	1205.25
343.437	1257.25
343.665	1329.25
343.893	1345.25
344.12	1425.25
344.348	1393.25
344.576	1354.25
344.804	1312.25
345.031	1214.25
345.259	1214.25
345.487	1217.25
345.714	1203.25
345.942	1193.25
346.17	1173.25
346.397	1181.25
346.625	1143.25
346.853	1159.25
347.08	1156.25
347.308	1123.25
347.535	1147.25
347.763	1165.25
347.99	1137.25
348.218	1157.25
348.445	1138.25
348.673	1149.25
348.9	1120.25
349.128	1152.25
349.355	1117.25
349.583	1133.25
349.81	1137.25
350.037	1109.25
350.265	1118.25
350.492	1102.25
350.72	1132.25
350.947	1105.25
351.174	1113.25
351.402	1090.25
351.629	1079.25
351.856	1114.25
352.083	1109.25
352.311	1107.25
352.538	1093.25
352.765	1118.25
352.992	1089.25
353.22	1095.25
353.447	1091.25
353.674	1071.25
353.901	1124.25
354.128	1115.25
354.355	1091.25
354.583	1100.25
354.81	1090.25
355.037	1107.25
355.264	1118.25
355.491	1110.25
355.718	1103.25
355.945	1098.25
356.172	1101.25
356.399	1111.25
356.626	1113.25
356.853	1128.25
357.08	1119.25
357.307	1124.25
357.534	1130.25
357.761	1123.25
357.988	1118.25
358.215	1141.25
358.441	1127.25
358.668	1127.25
358.895	1089.25
359.122	1124.25
359.349	1112.25
359.576	1106.25
359.802	1134.25
360.029	1128.25
360.256	1125.25
360.483	1118.25
360.709	1113.25
360.936	1112.25
361.163	1132.25
361.39	1104.25
361.616	1104.25
361.843	1098.25
362.07	1119.25
362.296	1117.25
362.523	1095.25
362.749	1142.25
362.976	1105.25
363.203	1133.25
363.429	1109.25
363.656	1133.25
363.882	1115.25
364.109	1105.25
364.335	1132.25
364.562	1124.25
364.788	1098.25
365.015	1109.25
365.241	1097.25
365.468	1087.25
365.694	1101.25
365.92	1137.25
366.147	1103.25
366.373	1115.25
366.599	1127.25
366.826	1109.25
367.052	1115.25
367.278	1106.25
367.505	1134.25
367.731	1086.25
367.957	1114.25
368.184	1119.25
368.41	1144.25
368.636	1146.25
368.862	1168.25
369.089	1131.25
369.315	1157.25
369.541	1169.25
369.767	1150.25
369.993	1157.25
370.219	1162.25
370.445	1174.25
370.672	1172.25
370.898	1188.25
371.124	1179.25
371.35	1212.25
371.576	1179.25
371.802	1217.25
372.028	1193.25
372.254	1197.25
372.48	1183.25
372.706	1210.25
372.932	1255.25
373.158	1249.25
373.384	1210.25
373.61	1227.25
373.835	1220.25
374.061	1211.25
374.287	1230.25
374.513	1259.25
374.739	1256.25
374.965	1291.25
375.191	1347.25
375.416	1328.25
375.642	1274.25
375.868	1293.25
376.094	1228.25
376.319	1235.25
376.545	1218.25
376.771	1221.25
376.997	1239.25
377.222	1221.25
377.448	1191.25
377.674	1190.25
377.899	1180.25
378.125	1203.25
378.35	1211.25
378.576	1170.25
378.802	1169.25
379.027	1191.25
379.253	1211.25
379.478	1188.25
379.704	1179.25
379.929	1207.25
380.155	1193.25
380.38	1177.25
380.606	1225.25
380.831	1191.25
381.057	1175.25
381.282	1179.25
381.507	1209.25
381.733	1226.25
381.958	1250.25
382.184	1208.25
382.409	1246.25
382.634	1253.25
382.86	1245.25
383.085	1258.25
383.31	1260.25
383.535	1281.25
383.761	1305.25
383.986	1342.25
384.211	1325.25
384.436	1337.25
384.662	1382.25
384.887	1411.25
385.112	1373.25
385.337	1421.25
385.562	1424.25
385.787	1413.25
386.013	1421.25
386.238	1421.25
386.463	1437.25
386.688	1465.25
386.913	1393.25
387.138	1411.25
387.363	1427.25
387.588	1416.25
387.813	1419.25
388.038	1432.25
388.263	1397.25
388.488	1434.25
388.713	1416.25
388.938	1447.25
389.163	1439.25
389.387	1434.25
389.612	1420.25
389.837	1405.25
390.062	1415.25
390.287	1404.25
390.512	1411.25
390.736	1399.25
390.961	1489.25
391.186	1436.25
391.411	1522.25
391.636	1549.25
391.86	1575.25
392.085	1599.25
392.31	1597.25
392.534	1565.25
392.759	1534.25
392.984	1496.25
393.208	1527.25
393.433	1537.25
393.658	1529.25
393.882	1505.25
394.107	1544.25
394.331	1509.25
394.556	1551.25
394.78	1548.25
395.005	1535.25
395.229	1555.25
395.454	1586.25
395.678	1596.25
395.903	1579.25
396.127	1588.25
396.352	1561.25
396.576	1543.25
396.801	1545.25
397.025	1559.25
397.249	1598.25
397.474	1589.25
397.698	1649.25
397.922	1636.25
398.147	1657.25
398.371	1675.25
398.595	1689.25
398.82	1780.25
399.044	1891.25
399.268	2029.25
399.492	2263.25
399.717	2381.25
399.941	2468.25
400.165	2347.25
400.389	2175.25
400.613	1993.25
400.837	1910.25
401.062	1867.25
401.286	1843.25
401.51	1797.25
401.734	1766.25
401.958	1798.25
402.182	1794.25
402.406	1787.25
402.63	1846.25
402.854	1843.25
403.078	1868.25
403.302	1895.25
403.526	1885.25
403.75	1931.25
403.974	1987.25
404.198	1906.25
404.422	1945.25
404.645	1917.25
404.869	1933.25
405.093	1959.25
405.317	1923.25
405.541	1971.25
405.765	1917.25
405.988	1916.25
406.212	1937.25
406.436	1921.25
406.66	2004.25
406.883	1998.25
407.107	2119.25
407.331	2228.25
407.555	2253.25
407.778	2212.25
408.002	2190.25
408.226	2171.25
408.449	2117.25
408.673	2049.25
408.896	2038.25
409.12	1975.25
409.344	2033.25
409.567	1963.25
409.791	2013.25
410.014	1952.25
410.238	1942.25
410.461	1930.25
410.685	1928.25
410.908	1912.25
411.132	1928.25
411.355	1879.25
411.578	1867.25
411.802	1859.25
412.025	1830.25
412.249	1902.25
412.472	1858.25
412.695	1801.25
412.919	1822.25
413.142	1801.25
413.365	1797.25
413.589	1851.25
413.812	1803.25
414.035	1755.25
414.258	1801.25
414.482	1812.25
414.705	1820.25
414.928	1790.25
415.151	1771.25
415.374	1826.25
415.597	1745.25
415.821	1752.25
416.044	1746.25
416.267	1710.25
416.49	1683.25
416.713	1684.25
416.936	1727.25
417.159	1704.25
417.382	1699.25
417.605	1675.25
417.828	1709.25
418.051	1694.25
418.274	1699.25
418.497	1719.25
418.72	1755.25
418.943	1742.25
419.166	1870.25
419.389	1963.25
419.611	1935.25
419.834	1882.25
420.057	1801.25
420.28	1762.25
420.503	1702.25
420.726	1740.25
420.948	1695.25
421.171	1694.25
421.394	1710.25
421.617	1719.25
421.839	1761.25
422.062	1699.25
422.285	1721.25
422.507	1736.25
422.73	1769.25
422.953	1726.25
423.175	1762.25
423.398	1774.25
423.621	1735.25
423.843	1802.25
424.066	1800.25
424.288	1757.25
424.511	1785.25
424.733	1723.25
424.956	1729.25
425.178	1721.25
425.401	1709.25
425.623	1763.25
425.846	1695.25
426.068	1645.25
426.291	1657.25
426.513	1667.25
426.735	1622.25
426.958	1643.25
427.18	1610.25
427.402	1612.25
427.625	1604.25
427.847	1570.25
428.069	1591.25
428.292	1589.25
428.514	1523.25
428.736	1568.25
428.958	1561.25
429.181	1521.25
429.403	1543.25
429.625	1528.25
429.847	1541.25
430.069	1562.25
430.292	1571.25
430.514	1508.25
430.736	1576.25
430.958	1529.25
431.18	1510.25
431.402	1544.25
431.624	1548.25
431.846	1577.25
432.068	1610.25
432.29	1596.25
432.512	1565.25
432.734	1618.25
432.956	1564.25
433.178	1603.25
433.4	1627.25
433.622	1620.25
433.844	1603.25
434.066	1643.25
434.287	1644.25
434.509	1695.25
434.731	1690.25
434.953	1726.25
435.175	1745.25
435.397	1706.25
435.618	1642.25
435.84	1647.25
436.062	1586.25
436.284	1553.25
436.505	1562.25
436.727	1599.25
436.949	1555.25
437.17	1557.25
437.392	1565.25
437.614	1521.25
437.835	1474.25
438.057	1493.25
438.278	1505.25
438.5	1462.25
438.721	1497.25
438.943	1471.25
439.165	1484.25
439.386	1500.25
439.608	1518.25
439.829	1521.25
440.05	1526.25
440.272	1562.25
440.493	1583.25
440.715	1535.25
440.936	1590.25
441.158	1598.25
441.379	1646.25
441.6	1650.25
441.822	1701.25
442.043	1695.25
442.264	1649.25
442.486	1649.25
442.707	1676.25
442.928	1611.25
443.149	1659.25
443.371	1658.25
443.592	1669.25
443.813	1694.25
444.034	1734.25
444.255	1769.25
444.476	1788.25
444.698	1896.25
444.919	1932.25
445.14	1991.25
445.361	1866.25
445.582	1823.25
445.803	1646.25
446.024	1601.25
446.245	1595.25
446.466	1606.25
446.687	1533.25
446.908	1521.25
447.129	1499.25
447.35	1474.25
447.571	1516.25
447.792	1429.25
448.013	1460.25
448.234	1416.25
448.455	1397.25
448.675	1416.25
448.896	1402.25
449.117	1390.25
449.338	1382.25
449.559	1356.25
449.779	1366.25
450	1374.25
450.221	1376.25
450.442	1399.25
450.662	1371.25
450.883	1401.25
451.104	1417.25
451.324	1425.25
451.545	1384.25
451.766	1387.25
451.986	1381.25
452.207	1369.25
452.428	1368.25
452.648	1410.25
452.869	1330.25
453.089	1353.25
453.31	1349.25
453.53	1341.25
453.751	1324.25
453.971	1316.25
454.192	1345.25
454.412	1299.25
454.633	1291.25
454.853	1306.25
455.073	1305.25
455.294	1299.25
455.514	1306.25
455.734	1294.25
455.955	1282.25
456.175	1307.25
456.395	1302.25
456.616	1301.25
456.836	1354.25
457.056	1310.25
457.276	1297.25
457.497	1323.25
457.717	1306.25
457.937	1355.25
458.157	1347.25
458.377	1372.25
458.598	1403.25
458.818	1432.25
459.038	1447.25
459.258	1481.25
459.478	1533.25
459.698	1555.25
459.918	1553.25
460.138	1654.25
460.358	1690.25
460.578	1704.25
460.798	1758.25
461.018	1795.25
461.238	1762.25
461.458	1747.25
461.678	1745.25
461.898	1823.25
462.118	1815.25
462.338	1897.25
462.558	1884.25
462.777	1936.25
462.997	2123.25
463.217	2220.25
463.437	2247.25
463.657	2131.25
463.876	2017.25
464.096	2056.25
464.316	2022.25
464.536	2012.25
464.755	1987.25
464.975	1927.25
465.195	1800.25
465.414	1758.25
465.634	1659.25
465.854	1611.25
466.073	1600.25
466.293	1576.25
466.512	1495.25
466.732	1469.25
466.951	1463.25
467.171	1470.25
467.391	1504.25
467.61	1440.25
467.829	1432.25
468.049	1446.25
468.268	1401.25
468.488	1385.25
468.707	1391.25
468.927	1378.25
469.146	1401.25
469.365	1435.25
469.585	1439.25
469.804	1469.25
470.023	1465.25
470.243	1495.25
470.462	1501.25
470.681	1468.25
470.901	1493.25
471.12	1494.25
471.339	1494.25
471.558	1466.25
471.777	1448.25
471.997	1442.25
472.216	1427.25
472.435	1427.25
472.654	1383.25
472.873	1414.25
473.092	1409.25
473.311	1394.25
473.53	1417.25
473.749	1387.25
473.968	1419.25
474.187	1402.25
474.406	1390.25
474.625	1394.25
474.844	1406.25
475.063	1418.25
475.282	1416.25
475.501	1474.25
475.72	1470.25
475.939	1465.25
476.158	1436.25
476.377	1452.25
476.596	1464.25
476.814	1511.25
477.033	1494.25
477.252	1513.25
477.471	1555.25
477.69	1572.25
477.908	1611.25
478.127	1650.25
478.346	1619.25
478.564	1673.25
478.783	1717.25
479.002	1738.25
479.22	1733.25
479.439	1788.25
479.658	1715.25
479.876	1741.25
480.095	1764.25
480.313	1854.25
480.532	1860.25
480.751	1841.25
480.969	1805.25
481.188	1758.25
481.406	1745.25
481.624	1749.25
481.843	1709.25
482.061	1679.25
482.28	1673.25
482.498	1713.25
482.717	1703.25
482.935	1695.25
483.153	1721.25
483.372	1700.25
483.59	1732.25
483.808	1764.25
484.027	1732.25
484.245	1805.25
484.463	1816.25
484.681	1816.25
484.9	1844.25
485.118	1871.25
485.336	1843.25
485.554	1902.25
485.772	1912.25
485.99	1923.25
486.209	1919.25
486.427	1894.25
486.645	1878.25
486.863	1921.25
487.081	1875.25
487.299	1887.25
487.517	1893.25
487.735	1886.25
487.953	1846.25
488.171	1855.25
488.389	1814.25
488.607	1787.25
488.825	1818.25
489.043	1781.25
489.261	1764.25
489.479	1784.25
489.696	1753.25
489.914	1817.25
490.132	1788.25
490.35	1779.25
490.568	1767.25
