Data from NiCl2@0.0625M.TitratingCurve.Agarose3%dH2O.NegLispCup.LampEnergy10.LIBS07252019_HRD10591_18-35-32-576.txt Node
Date: Thu Jul 25 18:35:32 EDT 2019
User: cochatt
Spectrometer: HR+D1059
Trigger mode: 1
Integration Time (sec): 1.000000E-1
Scans to average: 1
Electric dark correction enabled: true
Nonlinearity correction enabled: false
Boxcar width: 0
XAxis mode: Wavelengths
Number of Pixels in Spectrum: 2048
>>>>>Begin Spectral Data<<<<<
223.165	-21.25
223.4	-21.25
223.635	-21.25
223.869	-16.25
224.104	-22.25
224.338	-22.25
224.573	-15.25
224.808	-16.25
225.042	-11.25
225.277	12.75
225.511	14.75
225.746	2.75
225.98	8.75
226.215	5.75
226.449	14.75
226.683	17.75
226.918	23.75
227.152	23.75
227.387	35.75
227.621	30.75
227.856	45.75
228.09	54.75
228.324	44.75
228.559	59.75
228.793	77.75
229.027	132.75
229.262	129.75
229.496	149.75
229.73	150.75
229.964	159.75
230.199	170.75
230.433	171.75
230.667	153.75
230.901	186.75
231.136	169.75
231.37	183.75
231.604	178.75
231.838	215.75
232.072	189.75
232.306	182.75
232.541	175.75
232.775	182.75
233.009	193.75
233.243	193.75
233.477	174.75
233.711	182.75
233.945	187.75
234.179	183.75
234.413	201.75
234.647	215.75
234.881	204.75
235.115	200.75
235.349	203.75
235.583	209.75
235.817	203.75
236.051	219.75
236.285	208.75
236.519	216.75
236.753	222.75
236.987	209.75
237.221	226.75
237.455	217.75
237.689	223.75
237.922	226.75
238.156	240.75
238.39	227.75
238.624	224.75
238.858	226.75
239.091	248.75
239.325	243.75
239.559	236.75
239.793	236.75
240.027	248.75
240.26	244.75
240.494	251.75
240.728	246.75
240.961	253.75
241.195	266.75
241.429	278.75
241.662	269.75
241.896	276.75
242.13	284.75
242.363	280.75
242.597	282.75
242.83	282.75
243.064	280.75
243.298	299.75
243.531	281.75
243.765	299.75
243.998	301.75
244.232	320.75
244.465	318.75
244.699	304.75
244.932	307.75
245.166	318.75
245.399	312.75
245.633	310.75
245.866	299.75
246.099	329.75
246.333	317.75
246.566	333.75
246.8	333.75
247.033	300.75
247.266	329.75
247.5	325.75
247.733	351.75
247.966	337.75
248.2	337.75
248.433	336.75
248.666	359.75
248.899	363.75
249.133	373.75
249.366	346.75
249.599	360.75
249.832	361.75
250.066	360.75
250.299	390.75
250.532	370.75
250.765	370.75
250.998	379.75
251.231	371.75
251.465	400.75
251.698	387.75
251.931	392.75
252.164	384.75
252.397	395.75
252.63	388.75
252.863	389.75
253.096	398.75
253.329	399.75
253.562	381.75
253.795	405.75
254.028	416.75
254.261	422.75
254.494	428.75
254.727	414.75
254.96	409.75
255.193	418.75
255.426	414.75
255.659	414.75
255.892	431.75
256.124	441.75
256.357	436.75
256.59	429.75
256.823	434.75
257.056	439.75
257.289	441.75
257.521	452.75
257.754	446.75
257.987	446.75
258.22	446.75
258.452	467.75
258.685	465.75
258.918	456.75
259.151	460.75
259.383	468.75
259.616	471.75
259.849	470.75
260.081	468.75
260.314	489.75
260.547	456.75
260.779	482.75
261.012	499.75
261.244	505.75
261.477	484.75
261.71	493.75
261.942	500.75
262.175	482.75
262.407	494.75
262.64	493.75
262.872	508.75
263.105	510.75
263.337	502.75
263.57	518.75
263.802	536.75
264.035	518.75
264.267	521.75
264.499	515.75
264.732	500.75
264.964	542.75
265.197	534.75
265.429	517.75
265.661	538.75
265.894	556.75
266.126	552.75
266.358	541.75
266.591	552.75
266.823	572.75
267.055	548.75
267.287	566.75
267.52	552.75
267.752	580.75
267.984	575.75
268.216	552.75
268.448	557.75
268.681	595.75
268.913	576.75
269.145	573.75
269.377	563.75
269.609	589.75
269.841	579.75
270.073	580.75
270.306	569.75
270.538	602.75
270.77	587.75
271.002	606.75
271.234	564.75
271.466	588.75
271.698	606.75
271.93	594.75
272.162	623.75
272.394	594.75
272.626	596.75
272.858	606.75
273.09	632.75
273.322	612.75
273.553	614.75
273.785	622.75
274.017	621.75
274.249	636.75
274.481	634.75
274.713	632.75
274.945	647.75
275.176	632.75
275.408	641.75
275.64	657.75
275.872	660.75
276.104	639.75
276.335	643.75
276.567	638.75
276.799	651.75
277.031	662.75
277.262	646.75
277.494	646.75
277.726	685.75
277.957	679.75
278.189	680.75
278.421	683.75
278.652	678.75
278.884	664.75
279.115	676.75
279.347	694.75
279.579	703.75
279.81	711.75
280.042	682.75
280.273	711.75
280.505	701.75
280.736	691.75
280.968	708.75
281.199	721.75
281.431	714.75
281.662	717.75
281.894	733.75
282.125	707.75
282.356	708.75
282.588	742.75
282.819	751.75
283.051	734.75
283.282	730.75
283.513	767.75
283.745	751.75
283.976	748.75
284.207	772.75
284.439	747.75
284.67	776.75
284.901	763.75
285.132	779.75
285.364	768.75
285.595	744.75
285.826	749.75
286.057	763.75
286.288	772.75
286.52	790.75
286.751	780.75
286.982	766.75
287.213	789.75
287.444	780.75
287.675	811.75
287.906	791.75
288.138	782.75
288.369	792.75
288.6	837.75
288.831	799.75
289.062	798.75
289.293	812.75
289.524	797.75
289.755	796.75
289.986	799.75
290.217	794.75
290.448	806.75
290.679	796.75
290.91	810.75
291.141	824.75
291.371	807.75
291.602	816.75
291.833	837.75
292.064	833.75
292.295	789.75
292.526	806.75
292.757	847.75
292.987	843.75
293.218	808.75
293.449	843.75
293.68	834.75
293.91	827.75
294.141	820.75
294.372	813.75
294.603	811.75
294.833	826.75
295.064	826.75
295.295	831.75
295.525	828.75
295.756	825.75
295.987	851.75
296.217	854.75
296.448	832.75
296.679	859.75
296.909	845.75
297.14	863.75
297.37	886.75
297.601	866.75
297.831	879.75
298.062	865.75
298.292	889.75
298.523	896.75
298.753	867.75
298.984	878.75
299.214	868.75
299.445	898.75
299.675	874.75
299.905	874.75
300.136	886.75
300.366	876.75
300.597	892.75
300.827	908.75
301.057	930.75
301.288	920.75
301.518	946.75
301.748	958.75
301.979	943.75
302.209	958.75
302.439	944.75
302.669	912.75
302.9	923.75
303.13	950.75
303.36	925.75
303.59	926.75
303.82	911.75
304.051	935.75
304.281	938.75
304.511	950.75
304.741	914.75
304.971	940.75
305.201	919.75
305.431	931.75
305.661	924.75
305.891	920.75
306.121	938.75
306.352	931.75
306.582	917.75
306.812	909.75
307.042	947.75
307.272	922.75
307.502	926.75
307.731	940.75
307.961	912.75
308.191	929.75
308.421	916.75
308.651	940.75
308.881	904.75
309.111	932.75
309.341	907.75
309.571	940.75
309.8	940.75
310.03	911.75
310.26	926.75
310.49	943.75
310.72	965.75
310.949	946.75
311.179	946.75
311.409	959.75
311.639	946.75
311.868	976.75
312.098	974.75
312.328	951.75
312.557	971.75
312.787	954.75
313.017	945.75
313.246	1002.75
313.476	960.75
313.706	997.75
313.935	986.75
314.165	1002.75
314.394	998.75
314.624	1007.75
314.853	1013.75
315.083	991.75
315.312	985.75
315.542	1022.75
315.771	991.75
316.001	990.75
316.23	972.75
316.46	979.75
316.689	971.75
316.919	998.75
317.148	990.75
317.377	970.75
317.607	984.75
317.836	966.75
318.065	974.75
318.295	990.75
318.524	966.75
318.753	965.75
318.983	988.75
319.212	946.75
319.441	967.75
319.67	979.75
319.9	968.75
320.129	978.75
320.358	990.75
320.587	985.75
320.816	967.75
321.046	975.75
321.275	1003.75
321.504	998.75
321.733	997.75
321.962	1004.75
322.191	985.75
322.42	985.75
322.649	957.75
322.878	1007.75
323.108	1011.75
323.337	995.75
323.566	1012.75
323.795	1001.75
324.024	1016.75
324.253	1028.75
324.482	994.75
324.71	1032.75
324.939	1046.75
325.168	1034.75
325.397	1028.75
325.626	1046.75
325.855	1070.75
326.084	1036.75
326.313	1045.75
326.542	1062.75
326.77	1083.75
326.999	1075.75
327.228	1069.75
327.457	1067.75
327.686	1082.75
327.914	1076.75
328.143	1079.75
328.372	1088.75
328.6	1083.75
328.829	1084.75
329.058	1081.75
329.287	1090.75
329.515	1100.75
329.744	1056.75
329.972	1076.75
330.201	1102.75
330.43	1085.75
330.658	1133.75
330.887	1107.75
331.115	1086.75
331.344	1133.75
331.572	1125.75
331.801	1166.75
332.03	1158.75
332.258	1207.75
332.486	1238.75
332.715	1224.75
332.943	1277.75
333.172	1321.75
333.4	1321.75
333.629	1319.75
333.857	1354.75
334.085	1374.75
334.314	1378.75
334.542	1372.75
334.771	1351.75
334.999	1344.75
335.227	1354.75
335.455	1375.75
335.684	1327.75
335.912	1319.75
336.14	1326.75
336.369	1265.75
336.597	1267.75
336.825	1289.75
337.053	1268.75
337.281	1299.75
337.51	1243.75
337.738	1248.75
337.966	1205.75
338.194	1219.75
338.422	1194.75
338.65	1180.75
338.878	1181.75
339.106	1187.75
339.334	1164.75
339.562	1179.75
339.79	1152.75
340.018	1144.75
340.246	1148.75
340.474	1143.75
340.702	1159.75
340.93	1134.75
341.158	1140.75
341.386	1164.75
341.614	1156.75
341.842	1146.75
342.07	1133.75
342.298	1110.75
342.526	1136.75
342.754	1099.75
342.981	1130.75
343.209	1143.75
343.437	1224.75
343.665	1199.75
343.893	1296.75
344.12	1339.75
344.348	1313.75
344.576	1254.75
344.804	1246.75
345.031	1196.75
345.259	1170.75
345.487	1131.75
345.714	1105.75
345.942	1129.75
346.17	1124.75
346.397	1128.75
346.625	1116.75
346.853	1086.75
347.08	1086.75
347.308	1072.75
347.535	1098.75
347.763	1098.75
347.99	1081.75
348.218	1088.75
348.445	1092.75
348.673	1082.75
348.9	1066.75
349.128	1058.75
349.355	1065.75
349.583	1085.75
349.81	1061.75
350.037	1076.75
350.265	1042.75
350.492	1090.75
350.72	1046.75
350.947	1066.75
351.174	1043.75
351.402	1046.75
351.629	1044.75
351.856	1033.75
352.083	1037.75
352.311	1037.75
352.538	1016.75
352.765	1058.75
352.992	1056.75
353.22	1021.75
353.447	1039.75
353.674	1048.75
353.901	1006.75
354.128	1020.75
354.355	1045.75
354.583	1032.75
354.81	1037.75
355.037	1041.75
355.264	1018.75
355.491	1022.75
355.718	1032.75
355.945	1042.75
356.172	1079.75
356.399	1066.75
356.626	1050.75
356.853	1014.75
357.08	1068.75
357.307	1036.75
357.534	1059.75
357.761	1084.75
357.988	1052.75
358.215	1030.75
358.441	1024.75
358.668	1050.75
358.895	998.75
359.122	1034.75
359.349	1068.75
359.576	1049.75
359.802	1042.75
360.029	1029.75
360.256	1056.75
360.483	1031.75
360.709	1046.75
360.936	1037.75
361.163	1044.75
361.39	1055.75
361.616	1087.75
361.843	1042.75
362.07	1067.75
362.296	1055.75
362.523	1058.75
362.749	1059.75
362.976	1036.75
363.203	1039.75
363.429	1053.75
363.656	1051.75
363.882	1023.75
364.109	1061.75
364.335	1035.75
364.562	1016.75
364.788	1020.75
365.015	1040.75
365.241	1023.75
365.468	1032.75
365.694	1055.75
365.92	1062.75
366.147	1040.75
366.373	1054.75
366.599	1044.75
366.826	1058.75
367.052	1068.75
367.278	1042.75
367.505	1051.75
367.731	1076.75
367.957	1060.75
368.184	1066.75
368.41	1056.75
368.636	1094.75
368.862	1118.75
369.089	1069.75
369.315	1072.75
369.541	1096.75
369.767	1074.75
369.993	1106.75
370.219	1094.75
370.445	1110.75
370.672	1095.75
370.898	1102.75
371.124	1116.75
371.35	1145.75
371.576	1123.75
371.802	1140.75
372.028	1146.75
372.254	1126.75
372.48	1153.75
372.706	1167.75
372.932	1164.75
373.158	1179.75
373.384	1164.75
373.61	1128.75
373.835	1149.75
374.061	1136.75
374.287	1180.75
374.513	1170.75
374.739	1183.75
374.965	1240.75
375.191	1244.75
375.416	1214.75
375.642	1198.75
375.868	1162.75
376.094	1184.75
376.319	1147.75
376.545	1139.75
376.771	1153.75
376.997	1112.75
377.222	1130.75
377.448	1132.75
377.674	1138.75
377.899	1117.75
378.125	1109.75
378.35	1126.75
378.576	1151.75
378.802	1078.75
379.027	1095.75
379.253	1124.75
379.478	1144.75
379.704	1129.75
379.929	1122.75
380.155	1116.75
380.38	1089.75
380.606	1119.75
380.831	1115.75
381.057	1117.75
381.282	1128.75
381.507	1120.75
381.733	1133.75
381.958	1151.75
382.184	1156.75
382.409	1155.75
382.634	1169.75
382.86	1187.75
383.085	1204.75
383.31	1187.75
383.535	1238.75
383.761	1208.75
383.986	1234.75
384.211	1274.75
384.436	1268.75
384.662	1254.75
384.887	1303.75
385.112	1310.75
385.337	1303.75
385.562	1315.75
385.787	1354.75
386.013	1325.75
386.238	1358.75
386.463	1347.75
386.688	1331.75
386.913	1350.75
387.138	1359.75
387.363	1331.75
387.588	1326.75
387.813	1360.75
388.038	1367.75
388.263	1343.75
388.488	1353.75
388.713	1340.75
388.938	1347.75
389.163	1351.75
389.387	1332.75
389.612	1330.75
389.837	1359.75
390.062	1335.75
390.287	1321.75
390.512	1322.75
390.736	1353.75
390.961	1374.75
391.186	1377.75
391.411	1433.75
391.636	1414.75
391.86	1502.75
392.085	1482.75
392.31	1451.75
392.534	1470.75
392.759	1440.75
392.984	1454.75
393.208	1432.75
393.433	1420.75
393.658	1448.75
393.882	1406.75
394.107	1435.75
394.331	1425.75
394.556	1423.75
394.78	1441.75
395.005	1453.75
395.229	1434.75
395.454	1464.75
395.678	1494.75
395.903	1483.75
396.127	1507.75
396.352	1462.75
396.576	1475.75
396.801	1430.75
397.025	1485.75
397.249	1487.75
397.474	1542.75
397.698	1495.75
397.922	1513.75
398.147	1543.75
398.371	1553.75
398.595	1618.75
398.82	1672.75
399.044	1761.75
399.268	1886.75
399.492	2109.75
399.717	2256.75
399.941	2304.75
400.165	2166.75
400.389	2013.75
400.613	1857.75
400.837	1830.75
401.062	1778.75
401.286	1704.75
401.51	1724.75
401.734	1664.75
401.958	1680.75
402.182	1704.75
402.406	1709.75
402.63	1714.75
402.854	1742.75
403.078	1755.75
403.302	1801.75
403.526	1786.75
403.75	1779.75
403.974	1854.75
404.198	1817.75
404.422	1850.75
404.645	1814.75
404.869	1783.75
405.093	1794.75
405.317	1802.75
405.541	1821.75
405.765	1816.75
405.988	1817.75
406.212	1853.75
406.436	1876.75
406.66	1887.75
406.883	1919.75
407.107	1990.75
407.331	2046.75
407.555	2090.75
407.778	2120.75
408.002	2081.75
408.226	2013.75
408.449	1992.75
408.673	1920.75
408.896	1925.75
409.12	1819.75
409.344	1894.75
409.567	1858.75
409.791	1875.75
410.014	1848.75
410.238	1813.75
410.461	1829.75
410.685	1766.75
410.908	1817.75
411.132	1790.75
411.355	1718.75
411.578	1741.75
411.802	1741.75
412.025	1759.75
412.249	1763.75
412.472	1739.75
412.695	1750.75
412.919	1686.75
413.142	1679.75
413.365	1641.75
413.589	1726.75
413.812	1654.75
414.035	1635.75
414.258	1692.75
414.482	1708.75
414.705	1674.75
414.928	1699.75
415.151	1662.75
415.374	1666.75
415.597	1626.75
415.821	1607.75
416.044	1586.75
416.267	1637.75
416.49	1597.75
416.713	1572.75
416.936	1632.75
417.159	1611.75
417.382	1588.75
417.605	1635.75
417.828	1593.75
418.051	1650.75
418.274	1644.75
418.497	1592.75
418.72	1624.75
418.943	1638.75
419.166	1752.75
419.389	1818.75
419.611	1849.75
419.834	1748.75
420.057	1696.75
420.28	1672.75
420.503	1616.75
420.726	1549.75
420.948	1632.75
421.171	1590.75
421.394	1595.75
421.617	1590.75
421.839	1603.75
422.062	1608.75
422.285	1603.75
422.507	1597.75
422.73	1627.75
422.953	1666.75
423.175	1646.75
423.398	1684.75
423.621	1650.75
423.843	1667.75
424.066	1647.75
424.288	1650.75
424.511	1639.75
424.733	1615.75
424.956	1601.75
425.178	1604.75
425.401	1597.75
425.623	1635.75
425.846	1558.75
426.068	1600.75
426.291	1542.75
426.513	1556.75
426.735	1533.75
426.958	1564.75
427.18	1506.75
427.402	1507.75
427.625	1508.75
427.847	1485.75
428.069	1440.75
428.292	1523.75
428.514	1506.75
428.736	1467.75
428.958	1482.75
429.181	1429.75
429.403	1467.75
429.625	1482.75
429.847	1449.75
430.069	1461.75
430.292	1448.75
430.514	1416.75
430.736	1466.75
430.958	1412.75
431.18	1477.75
431.402	1493.75
431.624	1462.75
431.846	1470.75
432.068	1482.75
432.29	1527.75
432.512	1484.75
432.734	1472.75
432.956	1493.75
433.178	1468.75
433.4	1499.75
433.622	1519.75
433.844	1534.75
434.066	1514.75
434.287	1568.75
434.509	1621.75
434.731	1611.75
434.953	1631.75
435.175	1651.75
435.397	1644.75
435.618	1559.75
435.84	1548.75
436.062	1504.75
436.284	1496.75
436.505	1468.75
436.727	1461.75
436.949	1487.75
437.17	1449.75
437.392	1453.75
437.614	1424.75
437.835	1417.75
438.057	1406.75
438.278	1390.75
438.5	1418.75
438.721	1411.75
438.943	1435.75
439.165	1427.75
439.386	1423.75
439.608	1474.75
439.829	1461.75
440.05	1420.75
440.272	1456.75
440.493	1423.75
440.715	1460.75
440.936	1496.75
441.158	1503.75
441.379	1561.75
441.6	1610.75
441.822	1607.75
442.043	1610.75
442.264	1606.75
442.486	1566.75
442.707	1584.75
442.928	1578.75
443.149	1594.75
443.371	1552.75
443.592	1560.75
443.813	1602.75
444.034	1586.75
444.255	1680.75
444.476	1680.75
444.698	1767.75
444.919	1834.75
445.14	1910.75
445.361	1754.75
445.582	1675.75
445.803	1592.75
446.024	1505.75
446.245	1560.75
446.466	1488.75
446.687	1475.75
446.908	1488.75
447.129	1426.75
447.35	1453.75
447.571	1395.75
447.792	1327.75
448.013	1358.75
448.234	1342.75
448.455	1360.75
448.675	1337.75
448.896	1330.75
449.117	1308.75
449.338	1300.75
449.559	1300.75
449.779	1289.75
450	1270.75
450.221	1317.75
450.442	1313.75
450.662	1302.75
450.883	1321.75
451.104	1344.75
451.324	1328.75
451.545	1315.75
451.766	1300.75
451.986	1296.75
452.207	1271.75
452.428	1304.75
452.648	1297.75
452.869	1240.75
453.089	1234.75
453.31	1286.75
453.53	1243.75
453.751	1257.75
453.971	1230.75
454.192	1269.75
454.412	1243.75
454.633	1247.75
454.853	1240.75
455.073	1240.75
455.294	1245.75
455.514	1231.75
455.734	1252.75
455.955	1236.75
456.175	1238.75
456.395	1218.75
456.616	1257.75
456.836	1232.75
457.056	1228.75
457.276	1214.75
457.497	1287.75
457.717	1215.75
457.937	1246.75
458.157	1299.75
458.377	1346.75
458.598	1298.75
458.818	1350.75
459.038	1382.75
459.258	1398.75
459.478	1453.75
459.698	1443.75
459.918	1500.75
460.138	1562.75
460.358	1642.75
460.578	1647.75
460.798	1670.75
461.018	1658.75
461.238	1633.75
461.458	1660.75
461.678	1640.75
461.898	1677.75
462.118	1694.75
462.338	1790.75
462.558	1807.75
462.777	1878.75
462.997	1971.75
463.217	2081.75
463.437	2135.75
463.657	1970.75
463.876	1953.75
464.096	1902.75
464.316	1906.75
464.536	1887.75
464.755	1870.75
464.975	1803.75
465.195	1742.75
465.414	1664.75
465.634	1574.75
465.854	1529.75
466.073	1494.75
466.293	1464.75
466.512	1404.75
466.732	1402.75
466.951	1376.75
467.171	1420.75
467.391	1398.75
467.61	1398.75
467.829	1337.75
468.049	1363.75
468.268	1309.75
468.488	1324.75
468.707	1342.75
468.927	1340.75
469.146	1359.75
469.365	1348.75
469.585	1347.75
469.804	1394.75
470.023	1412.75
470.243	1388.75
470.462	1391.75
470.681	1411.75
470.901	1430.75
471.12	1397.75
471.339	1434.75
471.558	1373.75
471.777	1365.75
471.997	1371.75
472.216	1390.75
472.435	1333.75
472.654	1312.75
472.873	1327.75
473.092	1333.75
473.311	1335.75
473.53	1332.75
473.749	1342.75
473.968	1291.75
474.187	1291.75
474.406	1332.75
474.625	1311.75
474.844	1311.75
475.063	1330.75
475.282	1354.75
475.501	1324.75
475.72	1351.75
475.939	1362.75
476.158	1346.75
476.377	1382.75
476.596	1372.75
476.814	1430.75
477.033	1420.75
477.252	1414.75
477.471	1458.75
477.69	1468.75
477.908	1534.75
478.127	1575.75
478.346	1544.75
478.564	1581.75
478.783	1606.75
479.002	1656.75
479.22	1638.75
479.439	1634.75
479.658	1626.75
479.876	1638.75
480.095	1681.75
480.313	1720.75
480.532	1758.75
480.751	1746.75
480.969	1716.75
481.188	1659.75
481.406	1647.75
481.624	1636.75
481.843	1598.75
482.061	1577.75
482.28	1595.75
482.498	1593.75
482.717	1579.75
482.935	1628.75
483.153	1583.75
483.372	1620.75
483.59	1627.75
483.808	1617.75
484.027	1632.75
484.245	1659.75
484.463	1645.75
484.681	1714.75
484.9	1702.75
485.118	1691.75
485.336	1692.75
485.554	1749.75
485.772	1718.75
485.99	1709.75
486.209	1746.75
486.427	1732.75
486.645	1701.75
486.863	1758.75
487.081	1716.75
487.299	1715.75
487.517	1680.75
487.735	1694.75
487.953	1706.75
488.171	1682.75
488.389	1664.75
488.607	1670.75
488.825	1643.75
489.043	1652.75
489.261	1637.75
489.479	1660.75
489.696	1656.75
489.914	1634.75
490.132	1622.75
490.35	1674.75
490.568	1650.75
490.786	1663.75
491.003	1646.75
491.221	1652.75
