Data from NiCl2@0.0625M.TitratingCurve.Agarose3%dH2O.NegLispCup.LampEnergy10.LIBS07252019_HRD10591_18-35-35-577.txt Node
Date: Thu Jul 25 18:35:35 EDT 2019
User: cochatt
Spectrometer: HR+D1059
Trigger mode: 1
Integration Time (sec): 1.000000E-1
Scans to average: 1
Electric dark correction enabled: true
Nonlinearity correction enabled: false
Boxcar width: 0
XAxis mode: Wavelengths
Number of Pixels in Spectrum: 2048
>>>>>Begin Spectral Data<<<<<
223.165	-24.19
223.4	-24.19
223.635	-24.19
223.869	-15.19
224.104	-11.19
224.338	-2.19
224.573	-17.19
224.808	-16.19
225.042	-11.19
225.277	-19.19
225.511	-6.19
225.746	5.81
225.98	8.81
226.215	4.81
226.449	30.81
226.683	18.81
226.918	15.81
227.152	37.81
227.387	28.81
227.621	31.81
227.856	46.81
228.09	45.81
228.324	50.81
228.559	50.81
228.793	74.81
229.027	130.81
229.262	148.81
229.496	149.81
229.73	151.81
229.964	176.81
230.199	172.81
230.433	176.81
230.667	178.81
230.901	164.81
231.136	162.81
231.37	148.81
231.604	170.81
231.838	189.81
232.072	204.81
232.306	192.81
232.541	195.81
232.775	202.81
233.009	188.81
233.243	189.81
233.477	196.81
233.711	210.81
233.945	218.81
234.179	194.81
234.413	206.81
234.647	211.81
234.881	212.81
235.115	197.81
235.349	200.81
235.583	198.81
235.817	211.81
236.051	204.81
236.285	215.81
236.519	213.81
236.753	197.81
236.987	202.81
237.221	218.81
237.455	227.81
237.689	228.81
237.922	211.81
238.156	211.81
238.39	248.81
238.624	241.81
238.858	245.81
239.091	237.81
239.325	256.81
239.559	243.81
239.793	268.81
240.027	238.81
240.26	257.81
240.494	260.81
240.728	274.81
240.961	267.81
241.195	266.81
241.429	270.81
241.662	283.81
241.896	279.81
242.13	279.81
242.363	270.81
242.597	296.81
242.83	284.81
243.064	293.81
243.298	280.81
243.531	292.81
243.765	298.81
243.998	315.81
244.232	312.81
244.465	299.81
244.699	318.81
244.932	294.81
245.166	329.81
245.399	326.81
245.633	324.81
245.866	331.81
246.099	325.81
246.333	342.81
246.566	329.81
246.8	329.81
247.033	337.81
247.266	329.81
247.5	333.81
247.733	337.81
247.966	345.81
248.2	345.81
248.433	356.81
248.666	347.81
248.899	350.81
249.133	332.81
249.366	361.81
249.599	373.81
249.832	380.81
250.066	380.81
250.299	379.81
250.532	385.81
250.765	397.81
250.998	392.81
251.231	378.81
251.465	380.81
251.698	377.81
251.931	378.81
252.164	418.81
252.397	406.81
252.63	401.81
252.863	410.81
253.096	408.81
253.329	409.81
253.562	412.81
253.795	415.81
254.028	436.81
254.261	424.81
254.494	430.81
254.727	418.81
254.96	434.81
255.193	433.81
255.426	449.81
255.659	458.81
255.892	460.81
256.124	430.81
256.357	439.81
256.59	432.81
256.823	436.81
257.056	441.81
257.289	451.81
257.521	451.81
257.754	441.81
257.987	456.81
258.22	474.81
258.452	461.81
258.685	460.81
258.918	477.81
259.151	463.81
259.383	485.81
259.616	467.81
259.849	476.81
260.081	487.81
260.314	485.81
260.547	500.81
260.779	491.81
261.012	480.81
261.244	490.81
261.477	470.81
261.71	515.81
261.942	527.81
262.175	493.81
262.407	528.81
262.64	509.81
262.872	498.81
263.105	518.81
263.337	525.81
263.57	534.81
263.802	526.81
264.035	537.81
264.267	516.81
264.499	532.81
264.732	533.81
264.964	504.81
265.197	536.81
265.429	558.81
265.661	557.81
265.894	557.81
266.126	549.81
266.358	581.81
266.591	562.81
266.823	573.81
267.055	552.81
267.287	579.81
267.52	581.81
267.752	569.81
267.984	582.81
268.216	557.81
268.448	583.81
268.681	582.81
268.913	594.81
269.145	582.81
269.377	593.81
269.609	580.81
269.841	604.81
270.073	614.81
270.306	608.81
270.538	591.81
270.77	605.81
271.002	601.81
271.234	600.81
271.466	602.81
271.698	617.81
271.93	612.81
272.162	624.81
272.394	621.81
272.626	589.81
272.858	614.81
273.09	630.81
273.322	628.81
273.553	647.81
273.785	642.81
274.017	658.81
274.249	640.81
274.481	659.81
274.713	646.81
274.945	652.81
275.176	658.81
275.408	668.81
275.64	676.81
275.872	664.81
276.104	656.81
276.335	674.81
276.567	668.81
276.799	690.81
277.031	703.81
277.262	682.81
277.494	686.81
277.726	686.81
277.957	693.81
278.189	717.81
278.421	708.81
278.652	692.81
278.884	699.81
279.115	719.81
279.347	729.81
279.579	693.81
279.81	720.81
280.042	685.81
280.273	720.81
280.505	705.81
280.736	713.81
280.968	719.81
281.199	726.81
281.431	739.81
281.662	745.81
281.894	741.81
282.125	743.81
282.356	742.81
282.588	770.81
282.819	752.81
283.051	749.81
283.282	741.81
283.513	768.81
283.745	757.81
283.976	781.81
284.207	780.81
284.439	764.81
284.67	765.81
284.901	763.81
285.132	763.81
285.364	793.81
285.595	780.81
285.826	785.81
286.057	776.81
286.288	790.81
286.52	804.81
286.751	806.81
286.982	808.81
287.213	806.81
287.444	801.81
287.675	801.81
287.906	844.81
288.138	823.81
288.369	821.81
288.6	828.81
288.831	828.81
289.062	804.81
289.293	832.81
289.524	812.81
289.755	825.81
289.986	821.81
290.217	832.81
290.448	849.81
290.679	829.81
290.91	842.81
291.141	798.81
291.371	825.81
291.602	829.81
291.833	828.81
292.064	844.81
292.295	837.81
292.526	861.81
292.757	863.81
292.987	835.81
293.218	842.81
293.449	838.81
293.68	837.81
293.91	838.81
294.141	867.81
294.372	868.81
294.603	850.81
294.833	855.81
295.064	874.81
295.295	865.81
295.525	866.81
295.756	873.81
295.987	851.81
296.217	901.81
296.448	872.81
296.679	891.81
296.909	869.81
297.14	865.81
297.37	901.81
297.601	895.81
297.831	894.81
298.062	898.81
298.292	920.81
298.523	920.81
298.753	915.81
298.984	921.81
299.214	941.81
299.445	889.81
299.675	902.81
299.905	903.81
300.136	902.81
300.366	903.81
300.597	931.81
300.827	938.81
301.057	964.81
301.288	935.81
301.518	934.81
301.748	972.81
301.979	980.81
302.209	974.81
302.439	966.81
302.669	965.81
302.9	952.81
303.13	933.81
303.36	970.81
303.59	949.81
303.82	977.81
304.051	962.81
304.281	964.81
304.511	950.81
304.741	937.81
304.971	954.81
305.201	947.81
305.431	933.81
305.661	964.81
305.891	971.81
306.121	938.81
306.352	984.81
306.582	965.81
306.812	959.81
307.042	950.81
307.272	944.81
307.502	912.81
307.731	958.81
307.961	969.81
308.191	936.81
308.421	960.81
308.651	934.81
308.881	922.81
309.111	942.81
309.341	955.81
309.571	936.81
309.8	960.81
310.03	963.81
310.26	985.81
310.49	946.81
310.72	970.81
310.949	955.81
311.179	970.81
311.409	956.81
311.639	963.81
311.868	944.81
312.098	971.81
312.328	1004.81
312.557	996.81
312.787	1000.81
313.017	962.81
313.246	994.81
313.476	1019.81
313.706	1032.81
313.935	996.81
314.165	1024.81
314.394	1030.81
314.624	1033.81
314.853	1015.81
315.083	1012.81
315.312	1024.81
315.542	1010.81
315.771	1012.81
316.001	1004.81
316.23	1025.81
316.46	988.81
316.689	983.81
316.919	993.81
317.148	1009.81
317.377	1020.81
317.607	1000.81
317.836	1010.81
318.065	1013.81
318.295	1032.81
318.524	1012.81
318.753	1012.81
318.983	1008.81
319.212	967.81
319.441	982.81
319.67	1008.81
319.9	1008.81
320.129	981.81
320.358	1009.81
320.587	1026.81
320.816	1029.81
321.046	1032.81
321.275	1030.81
321.504	1037.81
321.733	1051.81
321.962	1050.81
322.191	1042.81
322.42	1009.81
322.649	1028.81
322.878	1016.81
323.108	1005.81
323.337	1038.81
323.566	1049.81
323.795	1050.81
324.024	1066.81
324.253	1049.81
324.482	1026.81
324.71	1039.81
324.939	1030.81
325.168	1056.81
325.397	1080.81
325.626	1096.81
325.855	1076.81
326.084	1094.81
326.313	1100.81
326.542	1104.81
326.77	1145.81
326.999	1112.81
327.228	1096.81
327.457	1106.81
327.686	1112.81
327.914	1074.81
328.143	1110.81
328.372	1117.81
328.6	1086.81
328.829	1108.81
329.058	1093.81
329.287	1146.81
329.515	1108.81
329.744	1134.81
329.972	1118.81
330.201	1146.81
330.43	1113.81
330.658	1149.81
330.887	1146.81
331.115	1176.81
331.344	1150.81
331.572	1190.81
331.801	1186.81
332.03	1174.81
332.258	1211.81
332.486	1228.81
332.715	1271.81
332.943	1304.81
333.172	1320.81
333.4	1395.81
333.629	1424.81
333.857	1421.81
334.085	1400.81
334.314	1442.81
334.542	1379.81
334.771	1372.81
334.999	1411.81
335.227	1370.81
335.455	1354.81
335.684	1349.81
335.912	1381.81
336.14	1332.81
336.369	1336.81
336.597	1353.81
336.825	1313.81
337.053	1343.81
337.281	1308.81
337.51	1274.81
337.738	1253.81
337.966	1234.81
338.194	1254.81
338.422	1240.81
338.65	1204.81
338.878	1202.81
339.106	1233.81
339.334	1233.81
339.562	1202.81
339.79	1180.81
340.018	1205.81
340.246	1170.81
340.474	1161.81
340.702	1180.81
340.93	1182.81
341.158	1162.81
341.386	1174.81
341.614	1194.81
341.842	1192.81
342.07	1142.81
342.298	1172.81
342.526	1135.81
342.754	1139.81
342.981	1187.81
343.209	1200.81
343.437	1251.81
343.665	1266.81
343.893	1322.81
344.12	1390.81
344.348	1332.81
344.576	1293.81
344.804	1284.81
345.031	1192.81
345.259	1193.81
345.487	1193.81
345.714	1172.81
345.942	1148.81
346.17	1164.81
346.397	1173.81
346.625	1133.81
346.853	1122.81
347.08	1125.81
347.308	1123.81
347.535	1127.81
347.763	1103.81
347.99	1102.81
348.218	1123.81
348.445	1097.81
348.673	1092.81
348.9	1090.81
349.128	1099.81
349.355	1108.81
349.583	1094.81
349.81	1117.81
350.037	1070.81
350.265	1084.81
350.492	1089.81
350.72	1098.81
350.947	1072.81
351.174	1064.81
351.402	1084.81
351.629	1091.81
351.856	1086.81
352.083	1085.81
352.311	1050.81
352.538	1036.81
352.765	1083.81
352.992	1077.81
353.22	1066.81
353.447	1060.81
353.674	1072.81
353.901	1067.81
354.128	1051.81
354.355	1042.81
354.583	1060.81
354.81	1058.81
355.037	1104.81
355.264	1083.81
355.491	1065.81
355.718	1069.81
355.945	1085.81
356.172	1107.81
356.399	1089.81
356.626	1082.81
356.853	1058.81
357.08	1092.81
357.307	1066.81
357.534	1085.81
357.761	1064.81
357.988	1074.81
358.215	1054.81
358.441	1059.81
358.668	1052.81
358.895	1072.81
359.122	1082.81
359.349	1089.81
359.576	1056.81
359.802	1081.81
360.029	1099.81
360.256	1080.81
360.483	1084.81
360.709	1062.81
360.936	1087.81
361.163	1088.81
361.39	1057.81
361.616	1051.81
361.843	1066.81
362.07	1124.81
362.296	1098.81
362.523	1046.81
362.749	1091.81
362.976	1036.81
363.203	1070.81
363.429	1034.81
363.656	1087.81
363.882	1113.81
364.109	1054.81
364.335	1072.81
364.562	1113.81
364.788	1065.81
365.015	1066.81
365.241	1068.81
365.468	1050.81
365.694	1056.81
365.92	1073.81
366.147	1059.81
366.373	1031.81
366.599	1094.81
366.826	1086.81
367.052	1086.81
367.278	1130.81
367.505	1077.81
367.731	1080.81
367.957	1092.81
368.184	1056.81
368.41	1112.81
368.636	1121.81
368.862	1118.81
369.089	1109.81
369.315	1113.81
369.541	1125.81
369.767	1102.81
369.993	1155.81
370.219	1129.81
370.445	1136.81
370.672	1110.81
370.898	1152.81
371.124	1161.81
371.35	1176.81
371.576	1168.81
371.802	1176.81
372.028	1166.81
372.254	1154.81
372.48	1180.81
372.706	1232.81
372.932	1206.81
373.158	1189.81
373.384	1158.81
373.61	1177.81
373.835	1175.81
374.061	1174.81
374.287	1204.81
374.513	1174.81
374.739	1228.81
374.965	1256.81
375.191	1287.81
375.416	1243.81
375.642	1227.81
375.868	1230.81
376.094	1194.81
376.319	1211.81
376.545	1184.81
376.771	1168.81
376.997	1128.81
377.222	1182.81
377.448	1144.81
377.674	1144.81
377.899	1167.81
378.125	1160.81
378.35	1139.81
378.576	1173.81
378.802	1164.81
379.027	1149.81
379.253	1131.81
379.478	1116.81
379.704	1181.81
379.929	1136.81
380.155	1134.81
380.38	1158.81
380.606	1176.81
380.831	1137.81
381.057	1146.81
381.282	1150.81
381.507	1146.81
381.733	1206.81
381.958	1150.81
382.184	1186.81
382.409	1186.81
382.634	1195.81
382.86	1175.81
383.085	1217.81
383.31	1230.81
383.535	1253.81
383.761	1262.81
383.986	1301.81
384.211	1316.81
384.436	1310.81
384.662	1306.81
384.887	1365.81
385.112	1352.81
385.337	1346.81
385.562	1366.81
385.787	1405.81
386.013	1389.81
386.238	1430.81
386.463	1370.81
386.688	1384.81
386.913	1356.81
387.138	1378.81
387.363	1408.81
387.588	1355.81
387.813	1394.81
388.038	1352.81
388.263	1374.81
388.488	1383.81
388.713	1397.81
388.938	1386.81
389.163	1357.81
389.387	1389.81
389.612	1354.81
389.837	1365.81
390.062	1366.81
390.287	1386.81
390.512	1385.81
390.736	1389.81
390.961	1408.81
391.186	1483.81
391.411	1457.81
391.636	1479.81
391.86	1529.81
392.085	1520.81
392.31	1534.81
392.534	1490.81
392.759	1478.81
392.984	1508.81
393.208	1461.81
393.433	1474.81
393.658	1468.81
393.882	1442.81
394.107	1475.81
394.331	1468.81
394.556	1475.81
394.78	1494.81
395.005	1473.81
395.229	1511.81
395.454	1510.81
395.678	1525.81
395.903	1534.81
396.127	1563.81
396.352	1510.81
396.576	1482.81
396.801	1475.81
397.025	1514.81
397.249	1552.81
397.474	1580.81
397.698	1572.81
397.922	1588.81
398.147	1580.81
398.371	1618.81
398.595	1653.81
398.82	1709.81
399.044	1812.81
399.268	1928.81
399.492	2168.81
399.717	2394.81
399.941	2426.81
400.165	2213.81
400.389	2110.81
400.613	1984.81
400.837	1840.81
401.062	1804.81
401.286	1732.81
401.51	1744.81
401.734	1733.81
401.958	1762.81
402.182	1765.81
402.406	1744.81
402.63	1761.81
402.854	1813.81
403.078	1818.81
403.302	1829.81
403.526	1876.81
403.75	1874.81
403.974	1886.81
404.198	1905.81
404.422	1924.81
404.645	1901.81
404.869	1879.81
405.093	1917.81
405.317	1836.81
405.541	1903.81
405.765	1892.81
405.988	1898.81
406.212	1876.81
406.436	1881.81
406.66	1963.81
406.883	1938.81
407.107	2063.81
407.331	2144.81
407.555	2166.81
407.778	2188.81
408.002	2149.81
408.226	2107.81
408.449	2062.81
408.673	1991.81
408.896	1945.81
409.12	1929.81
409.344	1935.81
409.567	1955.81
409.791	1932.81
410.014	1906.81
410.238	1909.81
410.461	1876.81
410.685	1883.81
410.908	1868.81
411.132	1860.81
411.355	1819.81
411.578	1806.81
411.802	1806.81
412.025	1843.81
412.249	1833.81
412.472	1807.81
412.695	1802.81
412.919	1768.81
413.142	1756.81
413.365	1738.81
413.589	1765.81
413.812	1682.81
414.035	1720.81
414.258	1725.81
414.482	1715.81
414.705	1778.81
414.928	1753.81
415.151	1723.81
415.374	1713.81
415.597	1716.81
415.821	1674.81
416.044	1650.81
416.267	1653.81
416.49	1675.81
416.713	1670.81
416.936	1673.81
417.159	1646.81
417.382	1640.81
417.605	1597.81
417.828	1635.81
418.051	1674.81
418.274	1682.81
418.497	1670.81
418.72	1689.81
418.943	1694.81
419.166	1767.81
419.389	1949.81
419.611	1874.81
419.834	1792.81
420.057	1760.81
420.28	1693.81
420.503	1609.81
420.726	1637.81
420.948	1653.81
421.171	1680.81
421.394	1673.81
421.617	1629.81
421.839	1664.81
422.062	1684.81
422.285	1631.81
422.507	1738.81
422.73	1677.81
422.953	1681.81
423.175	1714.81
423.398	1678.81
423.621	1713.81
423.843	1755.81
424.066	1722.81
424.288	1714.81
424.511	1734.81
424.733	1692.81
424.956	1663.81
425.178	1658.81
425.401	1667.81
425.623	1691.81
425.846	1610.81
426.068	1624.81
426.291	1643.81
426.513	1586.81
426.735	1581.81
426.958	1613.81
427.18	1527.81
427.402	1537.81
427.625	1565.81
427.847	1543.81
428.069	1529.81
428.292	1570.81
428.514	1522.81
428.736	1544.81
428.958	1530.81
429.181	1459.81
429.403	1499.81
429.625	1505.81
429.847	1482.81
430.069	1443.81
430.292	1481.81
430.514	1468.81
430.736	1461.81
430.958	1517.81
431.18	1482.81
431.402	1547.81
431.624	1486.81
431.846	1521.81
432.068	1574.81
432.29	1551.81
432.512	1526.81
432.734	1556.81
432.956	1504.81
433.178	1525.81
433.4	1536.81
433.622	1568.81
433.844	1557.81
434.066	1577.81
434.287	1597.81
434.509	1648.81
434.731	1643.81
434.953	1684.81
435.175	1646.81
435.397	1655.81
435.618	1620.81
435.84	1574.81
436.062	1517.81
436.284	1513.81
436.505	1506.81
436.727	1561.81
436.949	1541.81
437.17	1534.81
437.392	1479.81
437.614	1466.81
437.835	1460.81
438.057	1507.81
438.278	1424.81
438.5	1448.81
438.721	1426.81
438.943	1475.81
439.165	1439.81
439.386	1477.81
439.608	1510.81
439.829	1492.81
440.05	1459.81
440.272	1472.81
440.493	1490.81
440.715	1532.81
440.936	1538.81
441.158	1550.81
441.379	1602.81
441.6	1614.81
441.822	1657.81
442.043	1674.81
442.264	1670.81
442.486	1608.81
442.707	1622.81
442.928	1609.81
443.149	1634.81
443.371	1575.81
443.592	1649.81
443.813	1639.81
444.034	1673.81
444.255	1699.81
444.476	1771.81
444.698	1837.81
444.919	1864.81
445.14	1982.81
445.361	1785.81
445.582	1692.81
445.803	1602.81
446.024	1600.81
446.245	1594.81
446.466	1554.81
446.687	1528.81
446.908	1494.81
447.129	1462.81
447.35	1464.81
447.571	1458.81
447.792	1413.81
448.013	1420.81
448.234	1398.81
448.455	1346.81
448.675	1384.81
448.896	1378.81
449.117	1321.81
449.338	1338.81
449.559	1349.81
449.779	1364.81
450	1337.81
450.221	1331.81
450.442	1369.81
450.662	1362.81
450.883	1380.81
451.104	1367.81
451.324	1346.81
451.545	1356.81
451.766	1357.81
451.986	1364.81
452.207	1358.81
452.428	1361.81
452.648	1355.81
452.869	1294.81
453.089	1301.81
453.31	1332.81
453.53	1278.81
453.751	1309.81
453.971	1294.81
454.192	1301.81
454.412	1282.81
454.633	1250.81
454.853	1297.81
455.073	1290.81
455.294	1283.81
455.514	1247.81
455.734	1264.81
455.955	1277.81
456.175	1252.81
456.395	1227.81
456.616	1282.81
456.836	1270.81
457.056	1279.81
457.276	1239.81
457.497	1291.81
457.717	1283.81
457.937	1310.81
458.157	1323.81
458.377	1320.81
458.598	1363.81
458.818	1398.81
459.038	1428.81
459.258	1423.81
459.478	1495.81
459.698	1521.81
459.918	1552.81
460.138	1604.81
460.358	1665.81
460.578	1739.81
460.798	1712.81
461.018	1702.81
461.238	1709.81
461.458	1725.81
461.678	1679.81
461.898	1738.81
462.118	1758.81
462.338	1765.81
462.558	1925.81
462.777	1945.81
462.997	2088.81
463.217	2154.81
463.437	2189.81
463.657	1998.81
463.876	1973.81
464.096	1998.81
464.316	1955.81
464.536	1968.81
464.755	1940.81
464.975	1875.81
465.195	1789.81
465.414	1709.81
465.634	1611.81
465.854	1592.81
466.073	1508.81
466.293	1517.81
466.512	1469.81
466.732	1441.81
466.951	1448.81
467.171	1432.81
467.391	1438.81
467.61	1433.81
467.829	1412.81
468.049	1418.81
468.268	1369.81
468.488	1384.81
468.707	1381.81
468.927	1400.81
469.146	1338.81
469.365	1382.81
469.585	1412.81
469.804	1411.81
470.023	1435.81
470.243	1459.81
470.462	1445.81
470.681	1452.81
470.901	1474.81
471.12	1453.81
471.339	1449.81
471.558	1419.81
471.777	1395.81
471.997	1354.81
472.216	1371.81
472.435	1343.81
472.654	1365.81
472.873	1334.81
473.092	1353.81
473.311	1350.81
473.53	1384.81
473.749	1326.81
473.968	1366.81
474.187	1345.81
474.406	1350.81
474.625	1352.81
474.844	1373.81
475.063	1372.81
475.282	1372.81
475.501	1377.81
475.72	1360.81
475.939	1410.81
476.158	1438.81
476.377	1433.81
476.596	1428.81
476.814	1465.81
477.033	1447.81
477.252	1480.81
477.471	1541.81
477.69	1536.81
477.908	1569.81
478.127	1605.81
478.346	1606.81
478.564	1665.81
478.783	1640.81
479.002	1700.81
479.22	1704.81
479.439	1701.81
479.658	1670.81
479.876	1695.81
480.095	1707.81
480.313	1769.81
480.532	1816.81
480.751	1798.81
480.969	1770.81
481.188	1712.81
481.406	1664.81
481.624	1663.81
481.843	1644.81
482.061	1635.81
482.28	1629.81
482.498	1677.81
482.717	1672.81
482.935	1685.81
483.153	1689.81
483.372	1655.81
483.59	1664.81
483.808	1658.81
484.027	1668.81
484.245	1685.81
484.463	1729.81
484.681	1732.81
484.9	1732.81
485.118	1752.81
485.336	1834.81
485.554	1761.81
485.772	1814.81
485.99	1813.81
486.209	1779.81
486.427	1795.81
486.645	1797.81
486.863	1777.81
487.081	1787.81
487.299	1769.81
487.517	1781.81
487.735	1766.81
487.953	1779.81
488.171	1733.81
488.389	1733.81
488.607	1698.81
488.825	1713.81
489.043	1702.81
489.261	1693.81
489.479	1710.81
489.696	1727.81
489.914	1709.81
490.132	1706.81
490.35	1686.81
490.568	1725.81
490.786	1678.81
