Data from NiCl2@0.0625M.TitratingCurve.Agarose3%dH2O.NegLispCup.LampEnergy10.LIBS07252019_HRD10591_18-35-11-576.txt Node
Date: Thu Jul 25 18:35:11 EDT 2019
User: cochatt
Spectrometer: HR+D1059
Trigger mode: 1
Integration Time (sec): 1.000000E-1
Scans to average: 1
Electric dark correction enabled: true
Nonlinearity correction enabled: false
Boxcar width: 0
XAxis mode: Wavelengths
Number of Pixels in Spectrum: 2048
>>>>>Begin Spectral Data<<<<<
223.165	-11.81
223.4	-11.81
223.635	-11.81
223.869	-30.81
224.104	-17.81
224.338	-2.81
224.573	-19.81
224.808	-7.81
225.042	-5.81
225.277	-1.81
225.511	-14.81
225.746	6.19
225.98	9.19
226.215	-1.81
226.449	14.19
226.683	19.19
226.918	33.19
227.152	33.19
227.387	21.19
227.621	24.19
227.856	44.19
228.09	52.19
228.324	47.19
228.559	57.19
228.793	77.19
229.027	123.19
229.262	159.19
229.496	143.19
229.73	155.19
229.964	162.19
230.199	150.19
230.433	164.19
230.667	183.19
230.901	169.19
231.136	165.19
231.37	180.19
231.604	170.19
231.838	186.19
232.072	182.19
232.306	165.19
232.541	182.19
232.775	199.19
233.009	201.19
233.243	188.19
233.477	200.19
233.711	197.19
233.945	194.19
234.179	202.19
234.413	208.19
234.647	194.19
234.881	202.19
235.115	201.19
235.349	207.19
235.583	208.19
235.817	209.19
236.051	218.19
236.285	222.19
236.519	213.19
236.753	212.19
236.987	214.19
237.221	214.19
237.455	213.19
237.689	218.19
237.922	225.19
238.156	225.19
238.39	231.19
238.624	236.19
238.858	221.19
239.091	233.19
239.325	247.19
239.559	238.19
239.793	235.19
240.027	235.19
240.26	246.19
240.494	258.19
240.728	240.19
240.961	253.19
241.195	258.19
241.429	258.19
241.662	255.19
241.896	267.19
242.13	265.19
242.363	264.19
242.597	294.19
242.83	265.19
243.064	290.19
243.298	287.19
243.531	279.19
243.765	303.19
243.998	309.19
244.232	306.19
244.465	305.19
244.699	303.19
244.932	310.19
245.166	304.19
245.399	325.19
245.633	312.19
245.866	322.19
246.099	292.19
246.333	303.19
246.566	327.19
246.8	297.19
247.033	320.19
247.266	342.19
247.5	328.19
247.733	332.19
247.966	344.19
248.2	344.19
248.433	332.19
248.666	332.19
248.899	343.19
249.133	335.19
249.366	357.19
249.599	366.19
249.832	374.19
250.066	350.19
250.299	362.19
250.532	376.19
250.765	361.19
250.998	361.19
251.231	378.19
251.465	368.19
251.698	406.19
251.931	380.19
252.164	353.19
252.397	372.19
252.63	390.19
252.863	396.19
253.096	391.19
253.329	388.19
253.562	400.19
253.795	416.19
254.028	407.19
254.261	428.19
254.494	421.19
254.727	416.19
254.96	412.19
255.193	398.19
255.426	406.19
255.659	418.19
255.892	422.19
256.124	432.19
256.357	423.19
256.59	422.19
256.823	434.19
257.056	450.19
257.289	452.19
257.521	447.19
257.754	473.19
257.987	440.19
258.22	431.19
258.452	443.19
258.685	441.19
258.918	452.19
259.151	474.19
259.383	445.19
259.616	456.19
259.849	470.19
260.081	482.19
260.314	482.19
260.547	471.19
260.779	466.19
261.012	479.19
261.244	475.19
261.477	486.19
261.71	483.19
261.942	495.19
262.175	480.19
262.407	511.19
262.64	488.19
262.872	518.19
263.105	489.19
263.337	487.19
263.57	504.19
263.802	520.19
264.035	508.19
264.267	514.19
264.499	489.19
264.732	535.19
264.964	514.19
265.197	543.19
265.429	545.19
265.661	555.19
265.894	534.19
266.126	525.19
266.358	533.19
266.591	529.19
266.823	529.19
267.055	523.19
267.287	547.19
267.52	544.19
267.752	568.19
267.984	545.19
268.216	592.19
268.448	566.19
268.681	560.19
268.913	567.19
269.145	562.19
269.377	552.19
269.609	552.19
269.841	557.19
270.073	574.19
270.306	581.19
270.538	572.19
270.77	572.19
271.002	571.19
271.234	582.19
271.466	595.19
271.698	573.19
271.93	593.19
272.162	588.19
272.394	596.19
272.626	611.19
272.858	606.19
273.09	617.19
273.322	620.19
273.553	624.19
273.785	613.19
274.017	626.19
274.249	629.19
274.481	643.19
274.713	618.19
274.945	638.19
275.176	642.19
275.408	648.19
275.64	636.19
275.872	642.19
276.104	662.19
276.335	642.19
276.567	660.19
276.799	644.19
277.031	653.19
277.262	649.19
277.494	647.19
277.726	670.19
277.957	663.19
278.189	646.19
278.421	658.19
278.652	682.19
278.884	669.19
279.115	668.19
279.347	662.19
279.579	680.19
279.81	700.19
280.042	682.19
280.273	694.19
280.505	661.19
280.736	697.19
280.968	696.19
281.199	725.19
281.431	715.19
281.662	722.19
281.894	702.19
282.125	685.19
282.356	717.19
282.588	722.19
282.819	745.19
283.051	742.19
283.282	715.19
283.513	716.19
283.745	714.19
283.976	724.19
284.207	742.19
284.439	718.19
284.67	751.19
284.901	738.19
285.132	776.19
285.364	743.19
285.595	753.19
285.826	742.19
286.057	753.19
286.288	759.19
286.52	767.19
286.751	770.19
286.982	795.19
287.213	754.19
287.444	766.19
287.675	784.19
287.906	766.19
288.138	752.19
288.369	787.19
288.6	794.19
288.831	796.19
289.062	791.19
289.293	799.19
289.524	799.19
289.755	790.19
289.986	806.19
290.217	801.19
290.448	826.19
290.679	825.19
290.91	838.19
291.141	796.19
291.371	816.19
291.602	794.19
291.833	779.19
292.064	849.19
292.295	811.19
292.526	837.19
292.757	818.19
292.987	792.19
293.218	788.19
293.449	840.19
293.68	829.19
293.91	817.19
294.141	832.19
294.372	808.19
294.603	818.19
294.833	806.19
295.064	847.19
295.295	832.19
295.525	826.19
295.756	830.19
295.987	811.19
296.217	820.19
296.448	848.19
296.679	827.19
296.909	858.19
297.14	865.19
297.37	882.19
297.601	870.19
297.831	841.19
298.062	874.19
298.292	872.19
298.523	887.19
298.753	884.19
298.984	878.19
299.214	869.19
299.445	868.19
299.675	868.19
299.905	896.19
300.136	886.19
300.366	889.19
300.597	903.19
300.827	903.19
301.057	914.19
301.288	917.19
301.518	920.19
301.748	919.19
301.979	915.19
302.209	921.19
302.439	931.19
302.669	952.19
302.9	938.19
303.13	914.19
303.36	947.19
303.59	949.19
303.82	935.19
304.051	974.19
304.281	892.19
304.511	906.19
304.741	946.19
304.971	920.19
305.201	906.19
305.431	932.19
305.661	915.19
305.891	909.19
306.121	911.19
306.352	899.19
306.582	918.19
306.812	912.19
307.042	916.19
307.272	940.19
307.502	917.19
307.731	953.19
307.961	920.19
308.191	912.19
308.421	886.19
308.651	922.19
308.881	923.19
309.111	894.19
309.341	919.19
309.571	897.19
309.8	911.19
310.03	945.19
310.26	934.19
310.49	928.19
310.72	898.19
310.949	923.19
311.179	924.19
311.409	936.19
311.639	965.19
311.868	951.19
312.098	946.19
312.328	962.19
312.557	954.19
312.787	972.19
313.017	962.19
313.246	1003.19
313.476	985.19
313.706	971.19
313.935	982.19
314.165	1010.19
314.394	971.19
314.624	990.19
314.853	968.19
315.083	975.19
315.312	1005.19
315.542	983.19
315.771	983.19
316.001	983.19
316.23	972.19
316.46	955.19
316.689	970.19
316.919	977.19
317.148	972.19
317.377	963.19
317.607	954.19
317.836	958.19
318.065	963.19
318.295	964.19
318.524	1005.19
318.753	977.19
318.983	990.19
319.212	951.19
319.441	977.19
319.67	958.19
319.9	958.19
320.129	980.19
320.358	993.19
320.587	987.19
320.816	994.19
321.046	994.19
321.275	986.19
321.504	980.19
321.733	978.19
321.962	978.19
322.191	978.19
322.42	985.19
322.649	998.19
322.878	993.19
323.108	983.19
323.337	1020.19
323.566	989.19
323.795	1023.19
324.024	1018.19
324.253	1004.19
324.482	1022.19
324.71	1008.19
324.939	1023.19
325.168	1039.19
325.397	1020.19
325.626	1034.19
325.855	1037.19
326.084	1080.19
326.313	1074.19
326.542	1070.19
326.77	1095.19
326.999	1069.19
327.228	1040.19
327.457	1064.19
327.686	1066.19
327.914	1079.19
328.143	1065.19
328.372	1088.19
328.6	1060.19
328.829	1053.19
329.058	1062.19
329.287	1080.19
329.515	1105.19
329.744	1082.19
329.972	1099.19
330.201	1095.19
330.43	1094.19
330.658	1095.19
330.887	1096.19
331.115	1110.19
331.344	1121.19
331.572	1106.19
331.801	1121.19
332.03	1196.19
332.258	1198.19
332.486	1210.19
332.715	1229.19
332.943	1263.19
333.172	1291.19
333.4	1322.19
333.629	1379.19
333.857	1370.19
334.085	1354.19
334.314	1390.19
334.542	1353.19
334.771	1358.19
334.999	1312.19
335.227	1348.19
335.455	1302.19
335.684	1336.19
335.912	1340.19
336.14	1320.19
336.369	1298.19
336.597	1283.19
336.825	1257.19
337.053	1298.19
337.281	1272.19
337.51	1228.19
337.738	1207.19
337.966	1183.19
338.194	1211.19
338.422	1172.19
338.65	1159.19
338.878	1205.19
339.106	1174.19
339.334	1179.19
339.562	1145.19
339.79	1123.19
340.018	1141.19
340.246	1112.19
340.474	1156.19
340.702	1136.19
340.93	1122.19
341.158	1142.19
341.386	1139.19
341.614	1130.19
341.842	1123.19
342.07	1135.19
342.298	1118.19
342.526	1092.19
342.754	1109.19
342.981	1148.19
343.209	1131.19
343.437	1166.19
343.665	1250.19
343.893	1302.19
344.12	1314.19
344.348	1290.19
344.576	1259.19
344.804	1249.19
345.031	1176.19
345.259	1132.19
345.487	1144.19
345.714	1142.19
345.942	1102.19
346.17	1104.19
346.397	1072.19
346.625	1091.19
346.853	1091.19
347.08	1067.19
347.308	1063.19
347.535	1095.19
347.763	1091.19
347.99	1070.19
348.218	1086.19
348.445	1063.19
348.673	1038.19
348.9	1057.19
349.128	1075.19
349.355	1054.19
349.583	1060.19
349.81	1047.19
350.037	1048.19
350.265	1052.19
350.492	1063.19
350.72	1056.19
350.947	1033.19
351.174	1048.19
351.402	1062.19
351.629	1047.19
351.856	1026.19
352.083	1040.19
352.311	1049.19
352.538	1060.19
352.765	1058.19
352.992	1046.19
353.22	1015.19
353.447	1028.19
353.674	1014.19
353.901	1014.19
354.128	996.19
354.355	1012.19
354.583	1040.19
354.81	1035.19
355.037	1057.19
355.264	1010.19
355.491	1003.19
355.718	1023.19
355.945	1031.19
356.172	1052.19
356.399	1027.19
356.626	1038.19
356.853	1043.19
357.08	1053.19
357.307	1064.19
357.534	1028.19
357.761	1043.19
357.988	1036.19
358.215	1024.19
358.441	1056.19
358.668	1026.19
358.895	1052.19
359.122	1022.19
359.349	1024.19
359.576	1036.19
359.802	1062.19
360.029	1025.19
360.256	1045.19
360.483	1041.19
360.709	1008.19
360.936	1033.19
361.163	1036.19
361.39	1050.19
361.616	1026.19
361.843	1035.19
362.07	1060.19
362.296	1028.19
362.523	1030.19
362.749	1041.19
362.976	1082.19
363.203	1029.19
363.429	1036.19
363.656	1027.19
363.882	1022.19
364.109	1024.19
364.335	1032.19
364.562	1054.19
364.788	1047.19
365.015	1005.19
365.241	1007.19
365.468	1050.19
365.694	1032.19
365.92	1054.19
366.147	1059.19
366.373	1065.19
366.599	1020.19
366.826	1027.19
367.052	1026.19
367.278	1034.19
367.505	1028.19
367.731	1081.19
367.957	1050.19
368.184	1034.19
368.41	1041.19
368.636	1089.19
368.862	1049.19
369.089	1077.19
369.315	1063.19
369.541	1092.19
369.767	1082.19
369.993	1093.19
370.219	1089.19
370.445	1101.19
370.672	1071.19
370.898	1094.19
371.124	1127.19
371.35	1142.19
371.576	1142.19
371.802	1112.19
372.028	1115.19
372.254	1141.19
372.48	1160.19
372.706	1168.19
372.932	1178.19
373.158	1157.19
373.384	1146.19
373.61	1117.19
373.835	1143.19
374.061	1137.19
374.287	1121.19
374.513	1145.19
374.739	1176.19
374.965	1196.19
375.191	1267.19
375.416	1224.19
375.642	1228.19
375.868	1185.19
376.094	1152.19
376.319	1152.19
376.545	1156.19
376.771	1131.19
376.997	1143.19
377.222	1146.19
377.448	1143.19
377.674	1148.19
377.899	1090.19
378.125	1103.19
378.35	1103.19
378.576	1110.19
378.802	1088.19
379.027	1136.19
379.253	1145.19
379.478	1102.19
379.704	1154.19
379.929	1119.19
380.155	1126.19
380.38	1083.19
380.606	1097.19
380.831	1117.19
381.057	1111.19
381.282	1126.19
381.507	1129.19
381.733	1151.19
381.958	1126.19
382.184	1118.19
382.409	1164.19
382.634	1156.19
382.86	1163.19
383.085	1161.19
383.31	1179.19
383.535	1206.19
383.761	1232.19
383.986	1215.19
384.211	1256.19
384.436	1269.19
384.662	1267.19
384.887	1330.19
385.112	1301.19
385.337	1326.19
385.562	1310.19
385.787	1302.19
386.013	1344.19
386.238	1330.19
386.463	1320.19
386.688	1330.19
386.913	1298.19
387.138	1311.19
387.363	1320.19
387.588	1328.19
387.813	1342.19
388.038	1345.19
388.263	1336.19
388.488	1332.19
388.713	1336.19
388.938	1348.19
389.163	1343.19
389.387	1319.19
389.612	1332.19
389.837	1319.19
390.062	1301.19
390.287	1305.19
390.512	1323.19
390.736	1331.19
390.961	1352.19
391.186	1377.19
391.411	1377.19
391.636	1428.19
391.86	1454.19
392.085	1476.19
392.31	1495.19
392.534	1444.19
392.759	1414.19
392.984	1406.19
393.208	1415.19
393.433	1412.19
393.658	1375.19
393.882	1404.19
394.107	1398.19
394.331	1410.19
394.556	1403.19
394.78	1441.19
395.005	1450.19
395.229	1425.19
395.454	1474.19
395.678	1482.19
395.903	1499.19
396.127	1474.19
396.352	1446.19
396.576	1410.19
396.801	1447.19
397.025	1434.19
397.249	1472.19
397.474	1505.19
397.698	1494.19
397.922	1539.19
398.147	1528.19
398.371	1541.19
398.595	1594.19
398.82	1664.19
399.044	1762.19
399.268	1867.19
399.492	2115.19
399.717	2286.19
399.941	2272.19
400.165	2121.19
400.389	1985.19
400.613	1891.19
400.837	1746.19
401.062	1722.19
401.286	1687.19
401.51	1676.19
401.734	1655.19
401.958	1686.19
402.182	1698.19
402.406	1690.19
402.63	1727.19
402.854	1682.19
403.078	1720.19
403.302	1753.19
403.526	1759.19
403.75	1790.19
403.974	1800.19
404.198	1810.19
404.422	1829.19
404.645	1809.19
404.869	1778.19
405.093	1810.19
405.317	1808.19
405.541	1794.19
405.765	1804.19
405.988	1806.19
406.212	1830.19
406.436	1785.19
406.66	1861.19
406.883	1890.19
407.107	1948.19
407.331	2046.19
407.555	2112.19
407.778	2107.19
408.002	2021.19
408.226	2055.19
408.449	2001.19
408.673	1912.19
408.896	1864.19
409.12	1871.19
409.344	1864.19
409.567	1838.19
409.791	1847.19
410.014	1826.19
410.238	1819.19
410.461	1850.19
410.685	1808.19
410.908	1804.19
411.132	1765.19
411.355	1714.19
411.578	1715.19
411.802	1692.19
412.025	1754.19
412.249	1768.19
412.472	1786.19
412.695	1697.19
412.919	1670.19
413.142	1687.19
413.365	1689.19
413.589	1708.19
413.812	1663.19
414.035	1655.19
414.258	1667.19
414.482	1672.19
414.705	1732.19
414.928	1689.19
415.151	1675.19
415.374	1676.19
415.597	1665.19
415.821	1606.19
416.044	1622.19
416.267	1595.19
416.49	1575.19
416.713	1605.19
416.936	1606.19
417.159	1602.19
417.382	1568.19
417.605	1574.19
417.828	1601.19
418.051	1603.19
418.274	1615.19
418.497	1566.19
418.72	1595.19
418.943	1604.19
419.166	1728.19
419.389	1830.19
419.611	1820.19
419.834	1802.19
420.057	1688.19
420.28	1636.19
420.503	1601.19
420.726	1566.19
420.948	1584.19
421.171	1603.19
421.394	1587.19
421.617	1572.19
421.839	1590.19
422.062	1598.19
422.285	1584.19
422.507	1610.19
422.73	1603.19
422.953	1620.19
423.175	1647.19
423.398	1635.19
423.621	1609.19
423.843	1664.19
424.066	1648.19
424.288	1640.19
424.511	1661.19
424.733	1630.19
424.956	1615.19
425.178	1598.19
425.401	1639.19
425.623	1633.19
425.846	1595.19
426.068	1553.19
426.291	1540.19
426.513	1541.19
426.735	1550.19
426.958	1482.19
427.18	1485.19
427.402	1482.19
427.625	1458.19
427.847	1490.19
428.069	1480.19
428.292	1472.19
428.514	1479.19
428.736	1461.19
428.958	1489.19
429.181	1429.19
429.403	1441.19
429.625	1452.19
429.847	1436.19
430.069	1406.19
430.292	1413.19
430.514	1432.19
430.736	1456.19
430.958	1454.19
431.18	1472.19
431.402	1474.19
431.624	1444.19
431.846	1482.19
432.068	1461.19
432.29	1472.19
432.512	1494.19
432.734	1504.19
432.956	1471.19
433.178	1471.19
433.4	1443.19
433.622	1474.19
433.844	1494.19
434.066	1545.19
434.287	1509.19
434.509	1520.19
434.731	1560.19
434.953	1569.19
435.175	1611.19
435.397	1628.19
435.618	1572.19
435.84	1542.19
436.062	1490.19
436.284	1460.19
436.505	1463.19
436.727	1475.19
436.949	1454.19
437.17	1423.19
437.392	1468.19
437.614	1419.19
437.835	1375.19
438.057	1412.19
438.278	1378.19
438.5	1396.19
438.721	1383.19
438.943	1402.19
439.165	1430.19
439.386	1396.19
439.608	1465.19
439.829	1439.19
440.05	1412.19
440.272	1429.19
440.493	1450.19
440.715	1464.19
440.936	1476.19
441.158	1479.19
441.379	1553.19
441.6	1600.19
441.822	1598.19
442.043	1610.19
442.264	1541.19
442.486	1527.19
442.707	1568.19
442.928	1553.19
443.149	1531.19
443.371	1564.19
443.592	1527.19
443.813	1563.19
444.034	1599.19
444.255	1608.19
444.476	1714.19
444.698	1767.19
444.919	1786.19
445.14	1831.19
445.361	1758.19
445.582	1643.19
445.803	1549.19
446.024	1543.19
446.245	1478.19
446.466	1461.19
446.687	1437.19
446.908	1464.19
447.129	1414.19
447.35	1391.19
447.571	1384.19
447.792	1365.19
448.013	1344.19
448.234	1353.19
448.455	1340.19
448.675	1291.19
448.896	1335.19
449.117	1294.19
449.338	1300.19
449.559	1287.19
449.779	1291.19
450	1312.19
450.221	1315.19
450.442	1298.19
450.662	1313.19
450.883	1307.19
451.104	1289.19
451.324	1307.19
451.545	1306.19
451.766	1318.19
451.986	1334.19
452.207	1307.19
452.428	1296.19
452.648	1276.19
452.869	1266.19
453.089	1272.19
453.31	1279.19
453.53	1233.19
453.751	1274.19
453.971	1222.19
454.192	1234.19
454.412	1257.19
454.633	1241.19
454.853	1226.19
455.073	1222.19
455.294	1219.19
455.514	1188.19
455.734	1218.19
455.955	1178.19
456.175	1209.19
456.395	1227.19
456.616	1222.19
456.836	1243.19
457.056	1223.19
457.276	1237.19
457.497	1244.19
457.717	1242.19
457.937	1251.19
458.157	1266.19
458.377	1250.19
458.598	1303.19
458.818	1318.19
459.038	1330.19
459.258	1377.19
459.478	1427.19
459.698	1476.19
459.918	1498.19
460.138	1529.19
460.358	1605.19
460.578	1630.19
460.798	1674.19
461.018	1650.19
461.238	1661.19
461.458	1635.19
461.678	1621.19
461.898	1627.19
462.118	1700.19
462.338	1712.19
462.558	1769.19
462.777	1831.19
462.997	1964.19
463.217	2006.19
463.437	2091.19
463.657	1984.19
463.876	1937.19
464.096	1908.19
464.316	1856.19
464.536	1885.19
464.755	1813.19
464.975	1769.19
465.195	1712.19
465.414	1631.19
465.634	1545.19
465.854	1484.19
466.073	1470.19
466.293	1427.19
466.512	1432.19
466.732	1386.19
466.951	1404.19
467.171	1400.19
467.391	1385.19
467.61	1351.19
467.829	1343.19
468.049	1347.19
468.268	1351.19
468.488	1346.19
468.707	1314.19
468.927	1333.19
469.146	1313.19
469.365	1337.19
469.585	1304.19
469.804	1336.19
470.023	1369.19
470.243	1362.19
470.462	1393.19
470.681	1437.19
470.901	1407.19
471.12	1405.19
471.339	1391.19
471.558	1379.19
471.777	1386.19
471.997	1348.19
472.216	1326.19
472.435	1338.19
472.654	1327.19
472.873	1305.19
473.092	1298.19
473.311	1318.19
473.53	1305.19
473.749	1308.19
473.968	1312.19
474.187	1293.19
474.406	1281.19
474.625	1318.19
474.844	1334.19
475.063	1328.19
475.282	1326.19
475.501	1347.19
475.72	1326.19
475.939	1375.19
476.158	1381.19
476.377	1361.19
476.596	1356.19
476.814	1388.19
477.033	1418.19
477.252	1398.19
477.471	1414.19
477.69	1461.19
477.908	1479.19
478.127	1530.19
478.346	1542.19
478.564	1561.19
478.783	1634.19
479.002	1630.19
479.22	1631.19
479.439	1596.19
479.658	1620.19
479.876	1650.19
480.095	1688.19
480.313	1720.19
480.532	1758.19
480.751	1760.19
480.969	1713.19
481.188	1674.19
481.406	1657.19
481.624	1610.19
481.843	1580.19
482.061	1555.19
482.28	1585.19
482.498	1600.19
482.717	1579.19
482.935	1598.19
483.153	1595.19
483.372	1579.19
483.59	1613.19
483.808	1619.19
484.027	1651.19
484.245	1656.19
484.463	1657.19
484.681	1696.19
484.9	1715.19
485.118	1679.19
485.336	1691.19
485.554	1758.19
485.772	1734.19
485.99	1724.19
486.209	1740.19
486.427	1714.19
486.645	1690.19
486.863	1728.19
487.081	1723.19
487.299	1741.19
487.517	1705.19
487.735	1703.19
487.953	1683.19
488.171	1706.19
488.389	1706.19
488.607	1671.19
488.825	1691.19
489.043	1637.19
489.261	1654.19
489.479	1643.19
489.696	1638.19
489.914	1648.19
490.132	1643.19
490.35	1660.19
490.568	1662.19
490.786	1641.19
491.003	1639.19
491.221	1663.19
