Data from NiCl2@0.0625M.TitratingCurve.Agarose3%dH2O.NegLispCup.LampEnergy10.LIBS07252019_HRD10591_18-34-17-578.txt Node
Date: Thu Jul 25 18:34:17 EDT 2019
User: cochatt
Spectrometer: HR+D1059
Trigger mode: 1
Integration Time (sec): 1.000000E-1
Scans to average: 1
Electric dark correction enabled: true
Nonlinearity correction enabled: false
Boxcar width: 0
XAxis mode: Wavelengths
Number of Pixels in Spectrum: 2048
>>>>>Begin Spectral Data<<<<<
223.165	-9.31
223.4	-9.31
223.635	-9.31
223.869	-25.31
224.104	-17.31
224.338	1.69
224.573	-10.31
224.808	-4.31
225.042	-18.31
225.277	-21.31
225.511	-4.31
225.746	-1.31
225.98	16.69
226.215	11.69
226.449	15.69
226.683	12.69
226.918	28.69
227.152	24.69
227.387	27.69
227.621	44.69
227.856	37.69
228.09	60.69
228.324	50.69
228.559	50.69
228.793	77.69
229.027	142.69
229.262	147.69
229.496	143.69
229.73	167.69
229.964	179.69
230.199	173.69
230.433	162.69
230.667	176.69
230.901	166.69
231.136	187.69
231.37	173.69
231.604	206.69
231.838	186.69
232.072	197.69
232.306	207.69
232.541	194.69
232.775	191.69
233.009	194.69
233.243	196.69
233.477	197.69
233.711	209.69
233.945	215.69
234.179	203.69
234.413	200.69
234.647	201.69
234.881	212.69
235.115	210.69
235.349	216.69
235.583	200.69
235.817	201.69
236.051	208.69
236.285	190.69
236.519	217.69
236.753	227.69
236.987	215.69
237.221	206.69
237.455	226.69
237.689	237.69
237.922	243.69
238.156	233.69
238.39	237.69
238.624	229.69
238.858	242.69
239.091	262.69
239.325	278.69
239.559	248.69
239.793	249.69
240.027	239.69
240.26	254.69
240.494	272.69
240.728	275.69
240.961	270.69
241.195	282.69
241.429	273.69
241.662	279.69
241.896	283.69
242.13	283.69
242.363	291.69
242.597	288.69
242.83	302.69
243.064	278.69
243.298	311.69
243.531	301.69
243.765	316.69
243.998	314.69
244.232	316.69
244.465	329.69
244.699	328.69
244.932	314.69
245.166	331.69
245.399	319.69
245.633	336.69
245.866	338.69
246.099	330.69
246.333	344.69
246.566	339.69
246.8	346.69
247.033	335.69
247.266	324.69
247.5	342.69
247.733	357.69
247.966	355.69
248.2	352.69
248.433	346.69
248.666	374.69
248.899	378.69
249.133	376.69
249.366	381.69
249.599	371.69
249.832	377.69
250.066	375.69
250.299	373.69
250.532	375.69
250.765	403.69
250.998	398.69
251.231	394.69
251.465	390.69
251.698	415.69
251.931	409.69
252.164	410.69
252.397	412.69
252.63	408.69
252.863	397.69
253.096	416.69
253.329	412.69
253.562	439.69
253.795	416.69
254.028	452.69
254.261	438.69
254.494	450.69
254.727	446.69
254.96	451.69
255.193	454.69
255.426	444.69
255.659	433.69
255.892	448.69
256.124	439.69
256.357	457.69
256.59	456.69
256.823	488.69
257.056	475.69
257.289	477.69
257.521	472.69
257.754	470.69
257.987	456.69
258.22	481.69
258.452	480.69
258.685	493.69
258.918	470.69
259.151	481.69
259.383	479.69
259.616	505.69
259.849	506.69
260.081	505.69
260.314	490.69
260.547	496.69
260.779	498.69
261.012	521.69
261.244	494.69
261.477	488.69
261.71	504.69
261.942	495.69
262.175	494.69
262.407	512.69
262.64	513.69
262.872	527.69
263.105	548.69
263.337	546.69
263.57	519.69
263.802	538.69
264.035	541.69
264.267	543.69
264.499	538.69
264.732	554.69
264.964	542.69
265.197	537.69
265.429	558.69
265.661	558.69
265.894	566.69
266.126	565.69
266.358	558.69
266.591	556.69
266.823	577.69
267.055	563.69
267.287	570.69
267.52	608.69
267.752	584.69
267.984	580.69
268.216	595.69
268.448	604.69
268.681	598.69
268.913	615.69
269.145	606.69
269.377	606.69
269.609	616.69
269.841	592.69
270.073	599.69
270.306	602.69
270.538	590.69
270.77	594.69
271.002	626.69
271.234	617.69
271.466	601.69
271.698	634.69
271.93	633.69
272.162	625.69
272.394	642.69
272.626	636.69
272.858	651.69
273.09	638.69
273.322	668.69
273.553	650.69
273.785	654.69
274.017	647.69
274.249	690.69
274.481	667.69
274.713	660.69
274.945	660.69
275.176	666.69
275.408	644.69
275.64	710.69
275.872	668.69
276.104	676.69
276.335	673.69
276.567	693.69
276.799	687.69
277.031	682.69
277.262	694.69
277.494	692.69
277.726	692.69
277.957	716.69
278.189	709.69
278.421	702.69
278.652	706.69
278.884	716.69
279.115	716.69
279.347	742.69
279.579	734.69
279.81	698.69
280.042	720.69
280.273	740.69
280.505	710.69
280.736	737.69
280.968	738.69
281.199	769.69
281.431	741.69
281.662	743.69
281.894	743.69
282.125	785.69
282.356	750.69
282.588	760.69
282.819	784.69
283.051	777.69
283.282	777.69
283.513	773.69
283.745	788.69
283.976	803.69
284.207	772.69
284.439	785.69
284.67	782.69
284.901	797.69
285.132	801.69
285.364	785.69
285.595	812.69
285.826	805.69
286.057	795.69
286.288	799.69
286.52	807.69
286.751	839.69
286.982	818.69
287.213	820.69
287.444	838.69
287.675	821.69
287.906	832.69
288.138	816.69
288.369	858.69
288.6	870.69
288.831	831.69
289.062	854.69
289.293	835.69
289.524	847.69
289.755	864.69
289.986	877.69
290.217	856.69
290.448	866.69
290.679	839.69
290.91	829.69
291.141	850.69
291.371	849.69
291.602	855.69
291.833	842.69
292.064	865.69
292.295	857.69
292.526	852.69
292.757	821.69
292.987	843.69
293.218	886.69
293.449	870.69
293.68	868.69
293.91	864.69
294.141	868.69
294.372	895.69
294.603	882.69
294.833	864.69
295.064	847.69
295.295	866.69
295.525	860.69
295.756	874.69
295.987	891.69
296.217	888.69
296.448	886.69
296.679	893.69
296.909	893.69
297.14	898.69
297.37	918.69
297.601	930.69
297.831	918.69
298.062	923.69
298.292	919.69
298.523	963.69
298.753	956.69
298.984	915.69
299.214	938.69
299.445	935.69
299.675	930.69
299.905	919.69
300.136	919.69
300.366	933.69
300.597	915.69
300.827	957.69
301.057	962.69
301.288	982.69
301.518	950.69
301.748	971.69
301.979	950.69
302.209	1010.69
302.439	988.69
302.669	974.69
302.9	974.69
303.13	971.69
303.36	980.69
303.59	984.69
303.82	978.69
304.051	977.69
304.281	990.69
304.511	994.69
304.741	985.69
304.971	982.69
305.201	973.69
305.431	958.69
305.661	989.69
305.891	975.69
306.121	1009.69
306.352	954.69
306.582	961.69
306.812	942.69
307.042	956.69
307.272	977.69
307.502	968.69
307.731	934.69
307.961	954.69
308.191	961.69
308.421	958.69
308.651	951.69
308.881	966.69
309.111	970.69
309.341	953.69
309.571	979.69
309.8	998.69
310.03	948.69
310.26	952.69
310.49	964.69
310.72	991.69
310.949	951.69
311.179	991.69
311.409	987.69
311.639	986.69
311.868	1012.69
312.098	968.69
312.328	991.69
312.557	1006.69
312.787	1014.69
313.017	994.69
313.246	1027.69
313.476	1031.69
313.706	1013.69
313.935	1032.69
314.165	1051.69
314.394	1030.69
314.624	1037.69
314.853	1029.69
315.083	1059.69
315.312	1036.69
315.542	1067.69
315.771	1050.69
316.001	1063.69
316.23	1048.69
316.46	1054.69
316.689	1053.69
316.919	1034.69
317.148	1050.69
317.377	1045.69
317.607	1044.69
317.836	1056.69
318.065	1038.69
318.295	1012.69
318.524	1031.69
318.753	1015.69
318.983	1050.69
319.212	1027.69
319.441	1028.69
319.67	1021.69
319.9	1024.69
320.129	1063.69
320.358	1052.69
320.587	1032.69
320.816	1044.69
321.046	1003.69
321.275	1037.69
321.504	1043.69
321.733	1049.69
321.962	1059.69
322.191	1074.69
322.42	1054.69
322.649	1039.69
322.878	1060.69
323.108	1048.69
323.337	1056.69
323.566	1046.69
323.795	1060.69
324.024	1124.69
324.253	1092.69
324.482	1051.69
324.71	1099.69
324.939	1116.69
325.168	1098.69
325.397	1080.69
325.626	1118.69
325.855	1090.69
326.084	1118.69
326.313	1151.69
326.542	1158.69
326.77	1135.69
326.999	1111.69
327.228	1100.69
327.457	1124.69
327.686	1148.69
327.914	1119.69
328.143	1129.69
328.372	1147.69
328.6	1119.69
328.829	1107.69
329.058	1125.69
329.287	1143.69
329.515	1150.69
329.744	1160.69
329.972	1142.69
330.201	1124.69
330.43	1133.69
330.658	1154.69
330.887	1183.69
331.115	1172.69
331.344	1187.69
331.572	1172.69
331.801	1207.69
332.03	1237.69
332.258	1226.69
332.486	1284.69
332.715	1275.69
332.943	1335.69
333.172	1374.69
333.4	1397.69
333.629	1410.69
333.857	1442.69
334.085	1446.69
334.314	1458.69
334.542	1404.69
334.771	1446.69
334.999	1438.69
335.227	1420.69
335.455	1439.69
335.684	1426.69
335.912	1388.69
336.14	1369.69
336.369	1392.69
336.597	1335.69
336.825	1363.69
337.053	1323.69
337.281	1315.69
337.51	1312.69
337.738	1296.69
337.966	1263.69
338.194	1255.69
338.422	1235.69
338.65	1236.69
338.878	1260.69
339.106	1237.69
339.334	1216.69
339.562	1173.69
339.79	1202.69
340.018	1232.69
340.246	1197.69
340.474	1200.69
340.702	1202.69
340.93	1204.69
341.158	1196.69
341.386	1211.69
341.614	1214.69
341.842	1196.69
342.07	1192.69
342.298	1181.69
342.526	1185.69
342.754	1218.69
342.981	1195.69
343.209	1216.69
343.437	1268.69
343.665	1288.69
343.893	1362.69
344.12	1389.69
344.348	1376.69
344.576	1330.69
344.804	1300.69
345.031	1262.69
345.259	1238.69
345.487	1188.69
345.714	1163.69
345.942	1174.69
346.17	1177.69
346.397	1154.69
346.625	1143.69
346.853	1120.69
347.08	1110.69
347.308	1145.69
347.535	1172.69
347.763	1140.69
347.99	1167.69
348.218	1150.69
348.445	1145.69
348.673	1126.69
348.9	1128.69
349.128	1152.69
349.355	1133.69
349.583	1119.69
349.81	1114.69
350.037	1101.69
350.265	1127.69
350.492	1108.69
350.72	1119.69
350.947	1110.69
351.174	1114.69
351.402	1118.69
351.629	1144.69
351.856	1088.69
352.083	1087.69
352.311	1111.69
352.538	1069.69
352.765	1107.69
352.992	1111.69
353.22	1099.69
353.447	1071.69
353.674	1103.69
353.901	1097.69
354.128	1102.69
354.355	1082.69
354.583	1104.69
354.81	1109.69
355.037	1106.69
355.264	1111.69
355.491	1126.69
355.718	1110.69
355.945	1107.69
356.172	1111.69
356.399	1102.69
356.626	1115.69
356.853	1111.69
357.08	1102.69
357.307	1118.69
357.534	1116.69
357.761	1105.69
357.988	1098.69
358.215	1115.69
358.441	1095.69
358.668	1104.69
358.895	1127.69
359.122	1113.69
359.349	1122.69
359.576	1151.69
359.802	1082.69
360.029	1090.69
360.256	1098.69
360.483	1106.69
360.709	1113.69
360.936	1101.69
361.163	1115.69
361.39	1096.69
361.616	1113.69
361.843	1124.69
362.07	1125.69
362.296	1121.69
362.523	1085.69
362.749	1083.69
362.976	1095.69
363.203	1118.69
363.429	1086.69
363.656	1099.69
363.882	1109.69
364.109	1116.69
364.335	1094.69
364.562	1104.69
364.788	1128.69
365.015	1122.69
365.241	1098.69
365.468	1094.69
365.694	1111.69
365.92	1080.69
366.147	1117.69
366.373	1092.69
366.599	1100.69
366.826	1124.69
367.052	1128.69
367.278	1115.69
367.505	1074.69
367.731	1140.69
367.957	1110.69
368.184	1116.69
368.41	1121.69
368.636	1143.69
368.862	1149.69
369.089	1128.69
369.315	1148.69
369.541	1158.69
369.767	1133.69
369.993	1140.69
370.219	1182.69
370.445	1146.69
370.672	1198.69
370.898	1159.69
371.124	1192.69
371.35	1229.69
371.576	1195.69
371.802	1184.69
372.028	1210.69
372.254	1190.69
372.48	1213.69
372.706	1232.69
372.932	1231.69
373.158	1224.69
373.384	1224.69
373.61	1223.69
373.835	1217.69
374.061	1184.69
374.287	1211.69
374.513	1242.69
374.739	1259.69
374.965	1288.69
375.191	1296.69
375.416	1313.69
375.642	1245.69
375.868	1247.69
376.094	1214.69
376.319	1189.69
376.545	1220.69
376.771	1199.69
376.997	1212.69
377.222	1192.69
377.448	1215.69
377.674	1182.69
377.899	1214.69
378.125	1173.69
378.35	1178.69
378.576	1184.69
378.802	1169.69
379.027	1153.69
379.253	1173.69
379.478	1176.69
379.704	1181.69
379.929	1162.69
380.155	1182.69
380.38	1166.69
380.606	1165.69
380.831	1191.69
381.057	1215.69
381.282	1148.69
381.507	1221.69
381.733	1176.69
381.958	1207.69
382.184	1190.69
382.409	1236.69
382.634	1258.69
382.86	1228.69
383.085	1272.69
383.31	1273.69
383.535	1306.69
383.761	1293.69
383.986	1308.69
384.211	1345.69
384.436	1336.69
384.662	1379.69
384.887	1388.69
385.112	1382.69
385.337	1405.69
385.562	1424.69
385.787	1425.69
386.013	1426.69
386.238	1442.69
386.463	1423.69
386.688	1448.69
386.913	1406.69
387.138	1428.69
387.363	1430.69
387.588	1399.69
387.813	1405.69
388.038	1408.69
388.263	1403.69
388.488	1444.69
388.713	1425.69
388.938	1411.69
389.163	1406.69
389.387	1449.69
389.612	1351.69
389.837	1440.69
390.062	1402.69
390.287	1430.69
390.512	1430.69
390.736	1434.69
390.961	1485.69
391.186	1462.69
391.411	1492.69
391.636	1523.69
391.86	1537.69
392.085	1581.69
392.31	1602.69
392.534	1552.69
392.759	1516.69
392.984	1490.69
393.208	1462.69
393.433	1469.69
393.658	1491.69
393.882	1518.69
394.107	1474.69
394.331	1502.69
394.556	1485.69
394.78	1544.69
395.005	1547.69
395.229	1527.69
395.454	1580.69
395.678	1597.69
395.903	1568.69
396.127	1566.69
396.352	1547.69
396.576	1532.69
396.801	1502.69
397.025	1530.69
397.249	1543.69
397.474	1583.69
397.698	1575.69
397.922	1607.69
398.147	1621.69
398.371	1645.69
398.595	1688.69
398.82	1733.69
399.044	1873.69
399.268	2028.69
399.492	2196.69
399.717	2390.69
399.941	2398.69
400.165	2246.69
400.389	2085.69
400.613	1943.69
400.837	1869.69
401.062	1818.69
401.286	1780.69
401.51	1783.69
401.734	1784.69
401.958	1737.69
402.182	1747.69
402.406	1793.69
402.63	1816.69
402.854	1846.69
403.078	1855.69
403.302	1840.69
403.526	1895.69
403.75	1900.69
403.974	1914.69
404.198	1918.69
404.422	1896.69
404.645	1924.69
404.869	1918.69
405.093	1921.69
405.317	1891.69
405.541	1921.69
405.765	1881.69
405.988	1894.69
406.212	1912.69
406.436	1868.69
406.66	1946.69
406.883	1990.69
407.107	2080.69
407.331	2142.69
407.555	2188.69
407.778	2242.69
408.002	2144.69
408.226	2125.69
408.449	2122.69
408.673	2009.69
408.896	1968.69
409.12	1959.69
409.344	1980.69
409.567	1947.69
409.791	1972.69
410.014	1977.69
410.238	1957.69
410.461	1922.69
410.685	1880.69
410.908	1874.69
411.132	1888.69
411.355	1823.69
411.578	1858.69
411.802	1801.69
412.025	1829.69
412.249	1868.69
412.472	1839.69
412.695	1836.69
412.919	1812.69
413.142	1802.69
413.365	1752.69
413.589	1822.69
413.812	1749.69
414.035	1776.69
414.258	1778.69
414.482	1756.69
414.705	1756.69
414.928	1756.69
415.151	1756.69
415.374	1772.69
415.597	1715.69
415.821	1694.69
416.044	1701.69
416.267	1693.69
416.49	1680.69
416.713	1696.69
416.936	1716.69
417.159	1685.69
417.382	1704.69
417.605	1694.69
417.828	1663.69
418.051	1688.69
418.274	1692.69
418.497	1727.69
418.72	1721.69
418.943	1727.69
419.166	1829.69
419.389	1916.69
419.611	1896.69
419.834	1838.69
420.057	1792.69
420.28	1695.69
420.503	1677.69
420.726	1718.69
420.948	1664.69
421.171	1695.69
421.394	1648.69
421.617	1690.69
421.839	1657.69
422.062	1698.69
422.285	1667.69
422.507	1743.69
422.73	1705.69
422.953	1710.69
423.175	1745.69
423.398	1747.69
423.621	1714.69
423.843	1722.69
424.066	1753.69
424.288	1751.69
424.511	1719.69
424.733	1723.69
424.956	1726.69
425.178	1691.69
425.401	1714.69
425.623	1704.69
425.846	1658.69
426.068	1664.69
426.291	1641.69
426.513	1647.69
426.735	1623.69
426.958	1632.69
427.18	1552.69
427.402	1605.69
427.625	1557.69
427.847	1560.69
428.069	1567.69
428.292	1588.69
428.514	1521.69
428.736	1552.69
428.958	1561.69
429.181	1516.69
429.403	1491.69
429.625	1503.69
429.847	1538.69
430.069	1522.69
430.292	1522.69
430.514	1493.69
430.736	1531.69
430.958	1584.69
431.18	1490.69
431.402	1533.69
431.624	1543.69
431.846	1559.69
432.068	1570.69
432.29	1575.69
432.512	1557.69
432.734	1581.69
432.956	1557.69
433.178	1578.69
433.4	1560.69
433.622	1598.69
433.844	1615.69
434.066	1579.69
434.287	1615.69
434.509	1661.69
434.731	1686.69
434.953	1665.69
435.175	1703.69
435.397	1704.69
435.618	1645.69
435.84	1594.69
436.062	1595.69
436.284	1608.69
436.505	1598.69
436.727	1558.69
436.949	1530.69
437.17	1556.69
437.392	1523.69
437.614	1555.69
437.835	1466.69
438.057	1506.69
438.278	1482.69
438.5	1471.69
438.721	1491.69
438.943	1478.69
439.165	1476.69
439.386	1452.69
439.608	1508.69
439.829	1511.69
440.05	1509.69
440.272	1516.69
440.493	1528.69
440.715	1532.69
440.936	1558.69
441.158	1577.69
441.379	1588.69
441.6	1679.69
441.822	1718.69
442.043	1707.69
442.264	1678.69
442.486	1658.69
442.707	1623.69
442.928	1616.69
443.149	1703.69
443.371	1643.69
443.592	1622.69
443.813	1691.69
444.034	1656.69
444.255	1773.69
444.476	1784.69
444.698	1846.69
444.919	1874.69
445.14	1977.69
445.361	1837.69
445.582	1700.69
445.803	1652.69
446.024	1609.69
446.245	1586.69
446.466	1567.69
446.687	1533.69
446.908	1501.69
447.129	1457.69
447.35	1487.69
447.571	1456.69
447.792	1451.69
448.013	1443.69
448.234	1400.69
448.455	1430.69
448.675	1384.69
448.896	1411.69
449.117	1383.69
449.338	1387.69
449.559	1360.69
449.779	1360.69
450	1331.69
450.221	1355.69
450.442	1376.69
450.662	1398.69
450.883	1371.69
451.104	1369.69
451.324	1382.69
451.545	1396.69
451.766	1375.69
451.986	1348.69
452.207	1333.69
452.428	1351.69
452.648	1330.69
452.869	1319.69
453.089	1334.69
453.31	1308.69
453.53	1312.69
453.751	1311.69
453.971	1327.69
454.192	1300.69
454.412	1286.69
454.633	1297.69
454.853	1267.69
455.073	1286.69
455.294	1309.69
455.514	1296.69
455.734	1304.69
455.955	1256.69
456.175	1284.69
456.395	1270.69
456.616	1248.69
456.836	1257.69
457.056	1306.69
457.276	1270.69
457.497	1314.69
457.717	1314.69
457.937	1297.69
458.157	1302.69
458.377	1324.69
458.598	1330.69
458.818	1418.69
459.038	1442.69
459.258	1492.69
459.478	1530.69
459.698	1534.69
459.918	1581.69
460.138	1613.69
460.358	1680.69
460.578	1734.69
460.798	1741.69
461.018	1744.69
461.238	1709.69
461.458	1700.69
461.678	1687.69
461.898	1765.69
462.118	1759.69
462.338	1858.69
462.558	1909.69
462.777	1918.69
462.997	2072.69
463.217	2178.69
463.437	2164.69
463.657	2055.69
463.876	2014.69
464.096	1998.69
464.316	1994.69
464.536	1967.69
464.755	1903.69
464.975	1887.69
465.195	1768.69
465.414	1747.69
465.634	1609.69
465.854	1602.69
466.073	1563.69
466.293	1524.69
466.512	1484.69
466.732	1464.69
466.951	1449.69
467.171	1453.69
467.391	1472.69
467.61	1404.69
467.829	1396.69
468.049	1438.69
468.268	1392.69
468.488	1367.69
468.707	1424.69
468.927	1377.69
469.146	1374.69
469.365	1460.69
469.585	1451.69
469.804	1441.69
470.023	1479.69
470.243	1458.69
470.462	1484.69
470.681	1471.69
470.901	1471.69
471.12	1452.69
471.339	1467.69
471.558	1460.69
471.777	1427.69
471.997	1451.69
472.216	1403.69
472.435	1380.69
472.654	1372.69
472.873	1367.69
473.092	1389.69
473.311	1386.69
473.53	1374.69
473.749	1389.69
473.968	1376.69
474.187	1395.69
474.406	1370.69
474.625	1396.69
474.844	1378.69
475.063	1392.69
475.282	1390.69
475.501	1406.69
475.72	1406.69
475.939	1408.69
476.158	1453.69
476.377	1453.69
476.596	1432.69
476.814	1503.69
477.033	1486.69
477.252	1494.69
477.471	1532.69
477.69	1574.69
477.908	1618.69
478.127	1619.69
478.346	1622.69
478.564	1677.69
478.783	1663.69
479.002	1697.69
479.22	1702.69
479.439	1714.69
479.658	1726.69
479.876	1742.69
480.095	1750.69
480.313	1814.69
480.532	1853.69
480.751	1828.69
480.969	1780.69
481.188	1773.69
481.406	1749.69
481.624	1726.69
481.843	1690.69
482.061	1664.69
482.28	1698.69
482.498	1675.69
482.717	1676.69
482.935	1724.69
483.153	1688.69
483.372	1687.69
483.59	1684.69
483.808	1716.69
484.027	1742.69
484.245	1763.69
484.463	1736.69
484.681	1783.69
484.9	1810.69
485.118	1858.69
485.336	1836.69
485.554	1803.69
485.772	1850.69
485.99	1876.69
486.209	1868.69
486.427	1787.69
486.645	1864.69
486.863	1838.69
487.081	1838.69
487.299	1802.69
487.517	1828.69
487.735	1788.69
487.953	1832.69
488.171	1805.69
488.389	1787.69
488.607	1763.69
488.825	1771.69
489.043	1750.69
489.261	1742.69
489.479	1772.69
489.696	1743.69
489.914	1786.69
490.132	1763.69
490.35	1744.69
490.568	1720.69
