Data from NiCl2@0.125M.TitratingCurve.Agarose3%dH2O.NegLispCup.LampEnergy10.LIBS07252019_HRD10591_18-27-39-587.txt Node
Date: Thu Jul 25 18:27:39 EDT 2019
User: cochatt
Spectrometer: HR+D1059
Trigger mode: 1
Integration Time (sec): 1.000000E-1
Scans to average: 1
Electric dark correction enabled: true
Nonlinearity correction enabled: false
Boxcar width: 0
XAxis mode: Wavelengths
Number of Pixels in Spectrum: 2048
>>>>>Begin Spectral Data<<<<<
223.165	-8.62
223.4	-8.62
223.635	-8.62
223.869	-17.62
224.104	-22.62
224.338	-6.62
224.573	-11.62
224.808	-17.62
225.042	-12.62
225.277	-11.62
225.511	-22.62
225.746	8.38
225.98	7.38
226.215	9.38
226.449	22.38
226.683	30.38
226.918	14.38
227.152	39.38
227.387	28.38
227.621	35.38
227.856	50.38
228.09	44.38
228.324	48.38
228.559	63.38
228.793	75.38
229.027	78.38
229.262	87.38
229.496	112.38
229.73	110.38
229.964	110.38
230.199	117.38
230.433	113.38
230.667	109.38
230.901	125.38
231.136	114.38
231.37	113.38
231.604	117.38
231.838	122.38
232.072	122.38
232.306	130.38
232.541	127.38
232.775	134.38
233.009	126.38
233.243	139.38
233.477	125.38
233.711	133.38
233.945	127.38
234.179	133.38
234.413	136.38
234.647	121.38
234.881	118.38
235.115	122.38
235.349	123.38
235.583	137.38
235.817	135.38
236.051	147.38
236.285	127.38
236.519	135.38
236.753	132.38
236.987	136.38
237.221	139.38
237.455	130.38
237.689	132.38
237.922	150.38
238.156	142.38
238.39	150.38
238.624	158.38
238.858	143.38
239.091	145.38
239.325	145.38
239.559	150.38
239.793	141.38
240.027	167.38
240.26	164.38
240.494	156.38
240.728	153.38
240.961	149.38
241.195	162.38
241.429	158.38
241.662	158.38
241.896	153.38
242.13	181.38
242.363	179.38
242.597	181.38
242.83	185.38
243.064	198.38
243.298	173.38
243.531	169.38
243.765	191.38
243.998	177.38
244.232	166.38
244.465	199.38
244.699	192.38
244.932	201.38
245.166	201.38
245.399	175.38
245.633	166.38
245.866	191.38
246.099	173.38
246.333	209.38
246.566	209.38
246.8	182.38
247.033	191.38
247.266	202.38
247.5	194.38
247.733	192.38
247.966	211.38
248.2	196.38
248.433	188.38
248.666	204.38
248.899	199.38
249.133	202.38
249.366	204.38
249.599	219.38
249.832	215.38
250.066	218.38
250.299	225.38
250.532	199.38
250.765	226.38
250.998	217.38
251.231	214.38
251.465	207.38
251.698	210.38
251.931	225.38
252.164	207.38
252.397	232.38
252.63	239.38
252.863	229.38
253.096	232.38
253.329	234.38
253.562	228.38
253.795	225.38
254.028	223.38
254.261	224.38
254.494	247.38
254.727	251.38
254.96	261.38
255.193	267.38
255.426	246.38
255.659	250.38
255.892	272.38
256.124	246.38
256.357	262.38
256.59	251.38
256.823	253.38
257.056	261.38
257.289	265.38
257.521	266.38
257.754	263.38
257.987	254.38
258.22	259.38
258.452	235.38
258.685	268.38
258.918	264.38
259.151	270.38
259.383	253.38
259.616	248.38
259.849	270.38
260.081	266.38
260.314	273.38
260.547	274.38
260.779	271.38
261.012	269.38
261.244	284.38
261.477	273.38
261.71	260.38
261.942	274.38
262.175	290.38
262.407	290.38
262.64	267.38
262.872	272.38
263.105	274.38
263.337	295.38
263.57	281.38
263.802	292.38
264.035	290.38
264.267	298.38
264.499	297.38
264.732	296.38
264.964	296.38
265.197	319.38
265.429	296.38
265.661	297.38
265.894	312.38
266.126	326.38
266.358	302.38
266.591	297.38
266.823	317.38
267.055	308.38
267.287	297.38
267.52	301.38
267.752	306.38
267.984	293.38
268.216	305.38
268.448	315.38
268.681	304.38
268.913	309.38
269.145	312.38
269.377	327.38
269.609	322.38
269.841	322.38
270.073	307.38
270.306	311.38
270.538	328.38
270.77	328.38
271.002	336.38
271.234	333.38
271.466	322.38
271.698	331.38
271.93	317.38
272.162	344.38
272.394	327.38
272.626	331.38
272.858	325.38
273.09	336.38
273.322	323.38
273.553	325.38
273.785	349.38
274.017	340.38
274.249	350.38
274.481	342.38
274.713	353.38
274.945	351.38
275.176	352.38
275.408	358.38
275.64	347.38
275.872	352.38
276.104	349.38
276.335	355.38
276.567	378.38
276.799	361.38
277.031	348.38
277.262	362.38
277.494	354.38
277.726	346.38
277.957	356.38
278.189	375.38
278.421	350.38
278.652	373.38
278.884	385.38
279.115	371.38
279.347	380.38
279.579	372.38
279.81	375.38
280.042	377.38
280.273	377.38
280.505	373.38
280.736	375.38
280.968	390.38
281.199	398.38
281.431	378.38
281.662	402.38
281.894	393.38
282.125	409.38
282.356	405.38
282.588	392.38
282.819	400.38
283.051	388.38
283.282	401.38
283.513	405.38
283.745	403.38
283.976	404.38
284.207	398.38
284.439	408.38
284.67	383.38
284.901	413.38
285.132	408.38
285.364	430.38
285.595	402.38
285.826	396.38
286.057	424.38
286.288	417.38
286.52	410.38
286.751	426.38
286.982	417.38
287.213	402.38
287.444	426.38
287.675	454.38
287.906	432.38
288.138	429.38
288.369	393.38
288.6	442.38
288.831	450.38
289.062	440.38
289.293	427.38
289.524	440.38
289.755	449.38
289.986	467.38
290.217	442.38
290.448	448.38
290.679	451.38
290.91	427.38
291.141	433.38
291.371	423.38
291.602	447.38
291.833	451.38
292.064	450.38
292.295	439.38
292.526	449.38
292.757	458.38
292.987	443.38
293.218	434.38
293.449	468.38
293.68	450.38
293.91	454.38
294.141	448.38
294.372	455.38
294.603	463.38
294.833	449.38
295.064	457.38
295.295	446.38
295.525	448.38
295.756	470.38
295.987	466.38
296.217	473.38
296.448	470.38
296.679	468.38
296.909	474.38
297.14	473.38
297.37	501.38
297.601	502.38
297.831	462.38
298.062	477.38
298.292	477.38
298.523	511.38
298.753	480.38
298.984	473.38
299.214	496.38
299.445	470.38
299.675	483.38
299.905	501.38
300.136	498.38
300.366	482.38
300.597	503.38
300.827	501.38
301.057	500.38
301.288	513.38
301.518	527.38
301.748	535.38
301.979	513.38
302.209	506.38
302.439	537.38
302.669	487.38
302.9	518.38
303.13	491.38
303.36	495.38
303.59	503.38
303.82	511.38
304.051	505.38
304.281	495.38
304.511	499.38
304.741	495.38
304.971	502.38
305.201	511.38
305.431	522.38
305.661	492.38
305.891	500.38
306.121	496.38
306.352	519.38
306.582	491.38
306.812	481.38
307.042	491.38
307.272	502.38
307.502	486.38
307.731	498.38
307.961	483.38
308.191	486.38
308.421	486.38
308.651	506.38
308.881	471.38
309.111	474.38
309.341	502.38
309.571	486.38
309.8	497.38
310.03	486.38
310.26	484.38
310.49	485.38
310.72	488.38
310.949	500.38
311.179	490.38
311.409	504.38
311.639	489.38
311.868	509.38
312.098	522.38
312.328	513.38
312.557	533.38
312.787	519.38
313.017	515.38
313.246	539.38
313.476	517.38
313.706	521.38
313.935	543.38
314.165	548.38
314.394	545.38
314.624	536.38
314.853	546.38
315.083	533.38
315.312	542.38
315.542	541.38
315.771	513.38
316.001	527.38
316.23	527.38
316.46	533.38
316.689	515.38
316.919	512.38
317.148	501.38
317.377	530.38
317.607	514.38
317.836	497.38
318.065	517.38
318.295	515.38
318.524	521.38
318.753	523.38
318.983	538.38
319.212	515.38
319.441	526.38
319.67	494.38
319.9	524.38
320.129	530.38
320.358	519.38
320.587	514.38
320.816	526.38
321.046	514.38
321.275	521.38
321.504	507.38
321.733	538.38
321.962	530.38
322.191	524.38
322.42	548.38
322.649	520.38
322.878	538.38
323.108	527.38
323.337	544.38
323.566	542.38
323.795	550.38
324.024	521.38
324.253	531.38
324.482	533.38
324.71	533.38
324.939	539.38
325.168	549.38
325.397	555.38
325.626	569.38
325.855	552.38
326.084	561.38
326.313	584.38
326.542	570.38
326.77	582.38
326.999	570.38
327.228	566.38
327.457	576.38
327.686	581.38
327.914	566.38
328.143	569.38
328.372	569.38
328.6	592.38
328.829	564.38
329.058	586.38
329.287	585.38
329.515	587.38
329.744	583.38
329.972	570.38
330.201	569.38
330.43	571.38
330.658	597.38
330.887	586.38
331.115	603.38
331.344	592.38
331.572	623.38
331.801	613.38
332.03	624.38
332.258	630.38
332.486	647.38
332.715	663.38
332.943	692.38
333.172	702.38
333.4	729.38
333.629	772.38
333.857	777.38
334.085	778.38
334.314	748.38
334.542	754.38
334.771	720.38
334.999	718.38
335.227	711.38
335.455	729.38
335.684	688.38
335.912	685.38
336.14	691.38
336.369	683.38
336.597	692.38
336.825	702.38
337.053	707.38
337.281	706.38
337.51	654.38
337.738	674.38
337.966	650.38
338.194	647.38
338.422	599.38
338.65	617.38
338.878	646.38
339.106	637.38
339.334	607.38
339.562	624.38
339.79	602.38
340.018	596.38
340.246	589.38
340.474	591.38
340.702	600.38
340.93	605.38
341.158	592.38
341.386	589.38
341.614	602.38
341.842	573.38
342.07	579.38
342.298	606.38
342.526	583.38
342.754	591.38
342.981	613.38
343.209	586.38
343.437	618.38
343.665	660.38
343.893	725.38
344.12	744.38
344.348	718.38
344.576	666.38
344.804	646.38
345.031	625.38
345.259	595.38
345.487	586.38
345.714	604.38
345.942	584.38
346.17	570.38
346.397	576.38
346.625	568.38
346.853	586.38
347.08	595.38
347.308	553.38
347.535	591.38
347.763	588.38
347.99	573.38
348.218	574.38
348.445	573.38
348.673	561.38
348.9	598.38
349.128	590.38
349.355	569.38
349.583	565.38
349.81	578.38
350.037	559.38
350.265	564.38
350.492	558.38
350.72	565.38
350.947	559.38
351.174	574.38
351.402	546.38
351.629	563.38
351.856	554.38
352.083	570.38
352.311	543.38
352.538	555.38
352.765	563.38
352.992	570.38
353.22	575.38
353.447	565.38
353.674	549.38
353.901	558.38
354.128	565.38
354.355	555.38
354.583	539.38
354.81	550.38
355.037	565.38
355.264	554.38
355.491	538.38
355.718	559.38
355.945	561.38
356.172	543.38
356.399	594.38
356.626	566.38
356.853	569.38
357.08	542.38
357.307	552.38
357.534	565.38
357.761	529.38
357.988	557.38
358.215	552.38
358.441	565.38
358.668	561.38
358.895	546.38
359.122	547.38
359.349	544.38
359.576	569.38
359.802	551.38
360.029	563.38
360.256	568.38
360.483	559.38
360.709	560.38
360.936	552.38
361.163	549.38
361.39	570.38
361.616	563.38
361.843	557.38
362.07	551.38
362.296	539.38
362.523	553.38
362.749	541.38
362.976	562.38
363.203	557.38
363.429	563.38
363.656	534.38
363.882	557.38
364.109	534.38
364.335	545.38
364.562	569.38
364.788	553.38
365.015	542.38
365.241	584.38
365.468	560.38
365.694	558.38
365.92	562.38
366.147	543.38
366.373	548.38
366.599	537.38
366.826	552.38
367.052	552.38
367.278	564.38
367.505	588.38
367.731	556.38
367.957	562.38
368.184	563.38
368.41	562.38
368.636	538.38
368.862	570.38
369.089	578.38
369.315	539.38
369.541	579.38
369.767	566.38
369.993	560.38
370.219	582.38
370.445	605.38
370.672	596.38
370.898	574.38
371.124	588.38
371.35	579.38
371.576	611.38
371.802	619.38
372.028	619.38
372.254	582.38
372.48	604.38
372.706	635.38
372.932	617.38
373.158	620.38
373.384	630.38
373.61	623.38
373.835	613.38
374.061	579.38
374.287	599.38
374.513	603.38
374.739	626.38
374.965	656.38
375.191	692.38
375.416	675.38
375.642	653.38
375.868	638.38
376.094	639.38
376.319	609.38
376.545	611.38
376.771	648.38
376.997	587.38
377.222	629.38
377.448	624.38
377.674	607.38
377.899	577.38
378.125	595.38
378.35	592.38
378.576	594.38
378.802	606.38
379.027	575.38
379.253	590.38
379.478	608.38
379.704	609.38
379.929	591.38
380.155	568.38
380.38	576.38
380.606	621.38
380.831	599.38
381.057	593.38
381.282	602.38
381.507	599.38
381.733	591.38
381.958	603.38
382.184	617.38
382.409	635.38
382.634	625.38
382.86	608.38
383.085	647.38
383.31	629.38
383.535	667.38
383.761	659.38
383.986	664.38
384.211	677.38
384.436	682.38
384.662	719.38
384.887	715.38
385.112	716.38
385.337	742.38
385.562	731.38
385.787	734.38
386.013	753.38
386.238	731.38
386.463	721.38
386.688	720.38
386.913	727.38
387.138	725.38
387.363	714.38
387.588	708.38
387.813	728.38
388.038	715.38
388.263	738.38
388.488	756.38
388.713	700.38
388.938	727.38
389.163	721.38
389.387	720.38
389.612	673.38
389.837	696.38
390.062	712.38
390.287	711.38
390.512	720.38
390.736	739.38
390.961	732.38
391.186	741.38
391.411	761.38
391.636	789.38
391.86	814.38
392.085	829.38
392.31	808.38
392.534	806.38
392.759	806.38
392.984	776.38
393.208	746.38
393.433	767.38
393.658	800.38
393.882	804.38
394.107	753.38
394.331	791.38
394.556	772.38
394.78	756.38
395.005	779.38
395.229	787.38
395.454	809.38
395.678	824.38
395.903	823.38
396.127	784.38
396.352	792.38
396.576	741.38
396.801	750.38
397.025	753.38
397.249	794.38
397.474	799.38
397.698	799.38
397.922	848.38
398.147	799.38
398.371	825.38
398.595	895.38
398.82	911.38
399.044	957.38
399.268	1052.38
399.492	1198.38
399.717	1376.38
399.941	1394.38
400.165	1281.38
400.389	1100.38
400.613	1039.38
400.837	958.38
401.062	934.38
401.286	937.38
401.51	925.38
401.734	893.38
401.958	922.38
402.182	963.38
402.406	941.38
402.63	945.38
402.854	979.38
403.078	985.38
403.302	1001.38
403.526	1015.38
403.75	1036.38
403.974	1095.38
404.198	1086.38
404.422	1028.38
404.645	1056.38
404.869	1019.38
405.093	1025.38
405.317	1001.38
405.541	1034.38
405.765	1017.38
405.988	1015.38
406.212	997.38
406.436	1009.38
406.66	1039.38
406.883	1033.38
407.107	1104.38
407.331	1165.38
407.555	1194.38
407.778	1159.38
408.002	1177.38
408.226	1117.38
408.449	1115.38
408.673	1066.38
408.896	1039.38
409.12	1027.38
409.344	1042.38
409.567	1039.38
409.791	1058.38
410.014	1026.38
410.238	1033.38
410.461	1015.38
410.685	1001.38
410.908	1000.38
411.132	1006.38
411.355	945.38
411.578	951.38
411.802	934.38
412.025	965.38
412.249	990.38
412.472	967.38
412.695	930.38
412.919	928.38
413.142	933.38
413.365	914.38
413.589	910.38
413.812	953.38
414.035	935.38
414.258	934.38
414.482	949.38
414.705	943.38
414.928	948.38
415.151	931.38
415.374	929.38
415.597	898.38
415.821	901.38
416.044	896.38
416.267	877.38
416.49	900.38
416.713	884.38
416.936	892.38
417.159	904.38
417.382	880.38
417.605	868.38
417.828	891.38
418.051	901.38
418.274	913.38
418.497	895.38
418.72	943.38
418.943	930.38
419.166	1015.38
419.389	1051.38
419.611	1030.38
419.834	994.38
420.057	948.38
420.28	926.38
420.503	919.38
420.726	901.38
420.948	901.38
421.171	906.38
421.394	917.38
421.617	871.38
421.839	927.38
422.062	920.38
422.285	910.38
422.507	932.38
422.73	925.38
422.953	928.38
423.175	954.38
423.398	968.38
423.621	949.38
423.843	968.38
424.066	987.38
424.288	1000.38
424.511	982.38
424.733	928.38
424.956	930.38
425.178	906.38
425.401	913.38
425.623	931.38
425.846	898.38
426.068	889.38
426.291	861.38
426.513	891.38
426.735	864.38
426.958	847.38
427.18	835.38
427.402	863.38
427.625	850.38
427.847	836.38
428.069	818.38
428.292	830.38
428.514	820.38
428.736	816.38
428.958	823.38
429.181	818.38
429.403	814.38
429.625	795.38
429.847	802.38
430.069	817.38
430.292	819.38
430.514	802.38
430.736	803.38
430.958	822.38
431.18	795.38
431.402	815.38
431.624	829.38
431.846	828.38
432.068	811.38
432.29	837.38
432.512	787.38
432.734	821.38
432.956	801.38
433.178	809.38
433.4	826.38
433.622	817.38
433.844	830.38
434.066	826.38
434.287	807.38
434.509	843.38
434.731	863.38
434.953	933.38
435.175	922.38
435.397	903.38
435.618	891.38
435.84	868.38
436.062	821.38
436.284	831.38
436.505	823.38
436.727	841.38
436.949	825.38
437.17	809.38
437.392	810.38
437.614	804.38
437.835	817.38
438.057	786.38
438.278	774.38
438.5	775.38
438.721	788.38
438.943	815.38
439.165	806.38
439.386	834.38
439.608	800.38
439.829	818.38
440.05	826.38
440.272	823.38
440.493	832.38
440.715	859.38
440.936	869.38
441.158	849.38
441.379	894.38
441.6	921.38
441.822	951.38
442.043	939.38
442.264	907.38
442.486	898.38
442.707	888.38
442.928	914.38
443.149	915.38
443.371	891.38
443.592	929.38
443.813	908.38
444.034	938.38
444.255	967.38
444.476	975.38
444.698	1082.38
444.919	1113.38
445.14	1215.38
445.361	1067.38
445.582	983.38
445.803	895.38
446.024	887.38
446.245	880.38
446.466	877.38
446.687	842.38
446.908	819.38
447.129	840.38
447.35	802.38
447.571	807.38
447.792	791.38
448.013	777.38
448.234	791.38
448.455	763.38
448.675	774.38
448.896	767.38
449.117	757.38
449.338	742.38
449.559	734.38
449.779	751.38
450	752.38
450.221	753.38
450.442	792.38
450.662	761.38
450.883	775.38
451.104	773.38
451.324	781.38
451.545	787.38
451.766	762.38
451.986	778.38
452.207	759.38
452.428	741.38
452.648	755.38
452.869	735.38
453.089	729.38
453.31	749.38
453.53	749.38
453.751	712.38
453.971	722.38
454.192	736.38
454.412	711.38
454.633	709.38
454.853	719.38
455.073	744.38
455.294	718.38
455.514	721.38
455.734	706.38
455.955	713.38
456.175	717.38
456.395	698.38
456.616	703.38
456.836	692.38
457.056	715.38
457.276	679.38
457.497	693.38
457.717	695.38
457.937	682.38
458.157	727.38
458.377	718.38
458.598	734.38
458.818	760.38
459.038	783.38
459.258	793.38
459.478	822.38
459.698	839.38
459.918	877.38
460.138	913.38
460.358	935.38
460.578	947.38
460.798	979.38
461.018	968.38
461.238	949.38
461.458	933.38
461.678	973.38
461.898	983.38
462.118	986.38
462.338	1030.38
462.558	1053.38
462.777	1114.38
462.997	1220.38
463.217	1280.38
463.437	1289.38
463.657	1199.38
463.876	1135.38
464.096	1145.38
464.316	1148.38
464.536	1112.38
464.755	1079.38
464.975	1030.38
465.195	1013.38
465.414	951.38
465.634	895.38
465.854	882.38
466.073	874.38
466.293	830.38
466.512	821.38
466.732	780.38
466.951	793.38
467.171	777.38
467.391	793.38
467.61	776.38
467.829	789.38
468.049	772.38
468.268	765.38
468.488	753.38
468.707	783.38
468.927	765.38
469.146	762.38
469.365	767.38
469.585	758.38
469.804	784.38
470.023	825.38
470.243	820.38
470.462	829.38
470.681	818.38
470.901	824.38
471.12	817.38
471.339	800.38
471.558	789.38
471.777	772.38
471.997	762.38
472.216	766.38
472.435	742.38
472.654	726.38
472.873	725.38
473.092	743.38
473.311	725.38
473.53	728.38
473.749	752.38
473.968	723.38
474.187	722.38
474.406	707.38
474.625	725.38
474.844	744.38
475.063	737.38
475.282	767.38
475.501	739.38
475.72	734.38
475.939	759.38
476.158	776.38
476.377	768.38
476.596	743.38
476.814	790.38
477.033	776.38
477.252	789.38
477.471	799.38
477.69	811.38
477.908	853.38
478.127	861.38
478.346	870.38
478.564	879.38
478.783	877.38
479.002	899.38
479.22	897.38
479.439	942.38
479.658	925.38
479.876	913.38
480.095	888.38
480.313	946.38
480.532	965.38
480.751	984.38
480.969	953.38
481.188	912.38
481.406	893.38
481.624	872.38
481.843	866.38
482.061	834.38
482.28	838.38
482.498	827.38
482.717	793.38
482.935	819.38
483.153	856.38
483.372	842.38
483.59	846.38
483.808	841.38
484.027	831.38
484.245	861.38
484.463	862.38
484.681	855.38
484.9	867.38
485.118	834.38
485.336	851.38
485.554	863.38
485.772	889.38
485.99	893.38
486.209	889.38
486.427	882.38
486.645	874.38
486.863	893.38
487.081	901.38
487.299	888.38
487.517	869.38
487.735	885.38
487.953	903.38
488.171	877.38
488.389	885.38
488.607	872.38
488.825	854.38
489.043	864.38
489.261	871.38
489.479	871.38
489.696	857.38
489.914	879.38
490.132	882.38
490.35	884.38
490.568	838.38
490.786	879.38
491.003	856.38
491.221	886.38
491.439	897.38
491.657	853.38
491.874	876.38
492.092	893.38
492.31	887.38
492.527	909.38
492.745	904.38
492.963	911.38
493.18	885.38
493.398	923.38
493.615	930.38
493.833	930.38
494.05	903.38
494.268	923.38
494.485	928.38
494.703	946.38
494.92	933.38
495.138	910.38
495.355	930.38
495.573	901.38
495.79	918.38
496.008	939.38
496.225	950.38
496.442	938.38
496.66	970.38
496.877	985.38
497.094	975.38
497.312	1001.38
497.529	1044.38
497.746	1055.38
497.963	1104.38
498.181	1120.38
498.398	1171.38
498.615	1206.38
498.832	1321.38
499.049	1441.38
499.267	1579.38
499.484	1710.38
499.701	1867.38
499.918	2118.38
500.135	2358.38
500.352	2651.38
500.569	2757.38
