Data from NiCl2@0.25M.TitratingCurve.Agarose3%dH2O.NegLispCup.LampEnergy10.LIBS07252019_HRD10591_18-24-37-573.txt Node
Date: Thu Jul 25 18:24:37 EDT 2019
User: cochatt
Spectrometer: HR+D1059
Trigger mode: 1
Integration Time (sec): 1.000000E-1
Scans to average: 1
Electric dark correction enabled: true
Nonlinearity correction enabled: false
Boxcar width: 0
XAxis mode: Wavelengths
Number of Pixels in Spectrum: 2048
>>>>>Begin Spectral Data<<<<<
223.165	-8.56
223.4	-8.56
223.635	-8.56
223.869	-17.56
224.104	-12.56
224.338	-29.56
224.573	-17.56
224.808	-11.56
225.042	-22.56
225.277	-6.56
225.511	-13.56
225.746	6.44
225.98	8.44
226.215	25.44
226.449	13.44
226.683	23.44
226.918	27.44
227.152	35.44
227.387	30.44
227.621	43.44
227.856	35.44
228.09	57.44
228.324	53.44
228.559	64.44
228.793	66.44
229.027	101.44
229.262	98.44
229.496	110.44
229.73	120.44
229.964	118.44
230.199	122.44
230.433	114.44
230.667	131.44
230.901	126.44
231.136	125.44
231.37	141.44
231.604	133.44
231.838	133.44
232.072	141.44
232.306	135.44
232.541	144.44
232.775	147.44
233.009	150.44
233.243	129.44
233.477	146.44
233.711	132.44
233.945	134.44
234.179	162.44
234.413	138.44
234.647	155.44
234.881	150.44
235.115	152.44
235.349	153.44
235.583	154.44
235.817	141.44
236.051	147.44
236.285	150.44
236.519	145.44
236.753	135.44
236.987	154.44
237.221	147.44
237.455	142.44
237.689	141.44
237.922	148.44
238.156	152.44
238.39	163.44
238.624	166.44
238.858	149.44
239.091	156.44
239.325	161.44
239.559	158.44
239.793	165.44
240.027	162.44
240.26	164.44
240.494	183.44
240.728	174.44
240.961	178.44
241.195	179.44
241.429	183.44
241.662	165.44
241.896	163.44
242.13	179.44
242.363	179.44
242.597	184.44
242.83	195.44
243.064	175.44
243.298	182.44
243.531	189.44
243.765	184.44
243.998	184.44
244.232	182.44
244.465	182.44
244.699	186.44
244.932	197.44
245.166	202.44
245.399	192.44
245.633	209.44
245.866	201.44
246.099	192.44
246.333	196.44
246.566	205.44
246.8	194.44
247.033	210.44
247.266	207.44
247.5	199.44
247.733	194.44
247.966	210.44
248.2	216.44
248.433	213.44
248.666	218.44
248.899	212.44
249.133	232.44
249.366	223.44
249.599	225.44
249.832	221.44
250.066	218.44
250.299	225.44
250.532	213.44
250.765	226.44
250.998	238.44
251.231	233.44
251.465	241.44
251.698	220.44
251.931	228.44
252.164	234.44
252.397	242.44
252.63	240.44
252.863	247.44
253.096	255.44
253.329	245.44
253.562	222.44
253.795	242.44
254.028	257.44
254.261	234.44
254.494	243.44
254.727	261.44
254.96	238.44
255.193	265.44
255.426	260.44
255.659	275.44
255.892	250.44
256.124	249.44
256.357	266.44
256.59	276.44
256.823	252.44
257.056	258.44
257.289	259.44
257.521	269.44
257.754	266.44
257.987	277.44
258.22	277.44
258.452	281.44
258.685	278.44
258.918	281.44
259.151	259.44
259.383	269.44
259.616	305.44
259.849	276.44
260.081	279.44
260.314	285.44
260.547	281.44
260.779	291.44
261.012	292.44
261.244	300.44
261.477	292.44
261.71	288.44
261.942	280.44
262.175	283.44
262.407	291.44
262.64	270.44
262.872	306.44
263.105	294.44
263.337	306.44
263.57	307.44
263.802	315.44
264.035	303.44
264.267	299.44
264.499	312.44
264.732	307.44
264.964	305.44
265.197	325.44
265.429	322.44
265.661	317.44
265.894	307.44
266.126	316.44
266.358	307.44
266.591	321.44
266.823	305.44
267.055	327.44
267.287	344.44
267.52	338.44
267.752	327.44
267.984	336.44
268.216	334.44
268.448	326.44
268.681	330.44
268.913	319.44
269.145	339.44
269.377	338.44
269.609	337.44
269.841	329.44
270.073	329.44
270.306	340.44
270.538	345.44
270.77	333.44
271.002	349.44
271.234	346.44
271.466	339.44
271.698	358.44
271.93	367.44
272.162	345.44
272.394	357.44
272.626	341.44
272.858	352.44
273.09	351.44
273.322	352.44
273.553	352.44
273.785	362.44
274.017	358.44
274.249	355.44
274.481	371.44
274.713	366.44
274.945	353.44
275.176	373.44
275.408	367.44
275.64	390.44
275.872	357.44
276.104	373.44
276.335	375.44
276.567	373.44
276.799	362.44
277.031	381.44
277.262	385.44
277.494	374.44
277.726	381.44
277.957	385.44
278.189	380.44
278.421	376.44
278.652	385.44
278.884	373.44
279.115	388.44
279.347	392.44
279.579	402.44
279.81	392.44
280.042	391.44
280.273	406.44
280.505	403.44
280.736	413.44
280.968	409.44
281.199	413.44
281.431	420.44
281.662	403.44
281.894	406.44
282.125	404.44
282.356	434.44
282.588	422.44
282.819	411.44
283.051	411.44
283.282	412.44
283.513	428.44
283.745	446.44
283.976	421.44
284.207	434.44
284.439	439.44
284.67	422.44
284.901	441.44
285.132	439.44
285.364	433.44
285.595	427.44
285.826	445.44
286.057	443.44
286.288	448.44
286.52	439.44
286.751	438.44
286.982	454.44
287.213	463.44
287.444	448.44
287.675	443.44
287.906	459.44
288.138	447.44
288.369	468.44
288.6	457.44
288.831	456.44
289.062	458.44
289.293	449.44
289.524	442.44
289.755	485.44
289.986	457.44
290.217	461.44
290.448	447.44
290.679	462.44
290.91	459.44
291.141	472.44
291.371	473.44
291.602	459.44
291.833	443.44
292.064	448.44
292.295	482.44
292.526	473.44
292.757	464.44
292.987	457.44
293.218	455.44
293.449	471.44
293.68	470.44
293.91	488.44
294.141	486.44
294.372	462.44
294.603	471.44
294.833	486.44
295.064	474.44
295.295	487.44
295.525	485.44
295.756	484.44
295.987	479.44
296.217	491.44
296.448	470.44
296.679	473.44
296.909	499.44
297.14	479.44
297.37	489.44
297.601	498.44
297.831	501.44
298.062	515.44
298.292	500.44
298.523	506.44
298.753	523.44
298.984	494.44
299.214	485.44
299.445	488.44
299.675	493.44
299.905	482.44
300.136	514.44
300.366	502.44
300.597	502.44
300.827	517.44
301.057	521.44
301.288	503.44
301.518	518.44
301.748	536.44
301.979	541.44
302.209	542.44
302.439	548.44
302.669	539.44
302.9	540.44
303.13	524.44
303.36	528.44
303.59	520.44
303.82	517.44
304.051	539.44
304.281	522.44
304.511	550.44
304.741	518.44
304.971	521.44
305.201	531.44
305.431	525.44
305.661	509.44
305.891	531.44
306.121	561.44
306.352	552.44
306.582	519.44
306.812	526.44
307.042	534.44
307.272	515.44
307.502	521.44
307.731	518.44
307.961	528.44
308.191	513.44
308.421	526.44
308.651	514.44
308.881	527.44
309.111	516.44
309.341	506.44
309.571	515.44
309.8	522.44
310.03	525.44
310.26	535.44
310.49	521.44
310.72	541.44
310.949	543.44
311.179	542.44
311.409	547.44
311.639	507.44
311.868	531.44
312.098	553.44
312.328	553.44
312.557	543.44
312.787	543.44
313.017	550.44
313.246	581.44
313.476	560.44
313.706	553.44
313.935	573.44
314.165	588.44
314.394	579.44
314.624	574.44
314.853	591.44
315.083	568.44
315.312	579.44
315.542	565.44
315.771	551.44
316.001	546.44
316.23	554.44
316.46	541.44
316.689	583.44
316.919	545.44
317.148	564.44
317.377	505.44
317.607	548.44
317.836	561.44
318.065	532.44
318.295	539.44
318.524	546.44
318.753	550.44
318.983	569.44
319.212	550.44
319.441	543.44
319.67	555.44
319.9	532.44
320.129	535.44
320.358	545.44
320.587	554.44
320.816	566.44
321.046	549.44
321.275	548.44
321.504	558.44
321.733	556.44
321.962	573.44
322.191	563.44
322.42	551.44
322.649	568.44
322.878	556.44
323.108	539.44
323.337	569.44
323.566	563.44
323.795	568.44
324.024	546.44
324.253	563.44
324.482	567.44
324.71	548.44
324.939	601.44
325.168	583.44
325.397	594.44
325.626	570.44
325.855	589.44
326.084	595.44
326.313	632.44
326.542	635.44
326.77	594.44
326.999	588.44
327.228	581.44
327.457	617.44
327.686	608.44
327.914	593.44
328.143	602.44
328.372	608.44
328.6	619.44
328.829	617.44
329.058	618.44
329.287	615.44
329.515	605.44
329.744	602.44
329.972	594.44
330.201	621.44
330.43	631.44
330.658	622.44
330.887	622.44
331.115	627.44
331.344	627.44
331.572	654.44
331.801	661.44
332.03	671.44
332.258	700.44
332.486	705.44
332.715	701.44
332.943	754.44
333.172	762.44
333.4	809.44
333.629	862.44
333.857	842.44
334.085	846.44
334.314	821.44
334.542	761.44
334.771	748.44
334.999	753.44
335.227	749.44
335.455	746.44
335.684	758.44
335.912	751.44
336.14	723.44
336.369	742.44
336.597	730.44
336.825	737.44
337.053	729.44
337.281	737.44
337.51	715.44
337.738	695.44
337.966	682.44
338.194	690.44
338.422	674.44
338.65	650.44
338.878	658.44
339.106	664.44
339.334	662.44
339.562	666.44
339.79	632.44
340.018	633.44
340.246	635.44
340.474	639.44
340.702	629.44
340.93	645.44
341.158	669.44
341.386	663.44
341.614	651.44
341.842	628.44
342.07	636.44
342.298	619.44
342.526	652.44
342.754	646.44
342.981	641.44
343.209	652.44
343.437	685.44
343.665	723.44
343.893	749.44
344.12	788.44
344.348	744.44
344.576	699.44
344.804	670.44
345.031	661.44
345.259	655.44
345.487	616.44
345.714	615.44
345.942	627.44
346.17	596.44
346.397	628.44
346.625	621.44
346.853	627.44
347.08	595.44
347.308	614.44
347.535	624.44
347.763	606.44
347.99	589.44
348.218	589.44
348.445	622.44
348.673	599.44
348.9	601.44
349.128	593.44
349.355	590.44
349.583	595.44
349.81	595.44
350.037	597.44
350.265	611.44
350.492	619.44
350.72	597.44
350.947	591.44
351.174	594.44
351.402	595.44
351.629	581.44
351.856	596.44
352.083	576.44
352.311	599.44
352.538	567.44
352.765	583.44
352.992	597.44
353.22	600.44
353.447	583.44
353.674	565.44
353.901	591.44
354.128	586.44
354.355	578.44
354.583	588.44
354.81	594.44
355.037	610.44
355.264	583.44
355.491	588.44
355.718	579.44
355.945	578.44
356.172	589.44
356.399	601.44
356.626	589.44
356.853	599.44
357.08	595.44
357.307	584.44
357.534	594.44
357.761	588.44
357.988	578.44
358.215	591.44
358.441	596.44
358.668	582.44
358.895	589.44
359.122	581.44
359.349	592.44
359.576	623.44
359.802	589.44
360.029	565.44
360.256	617.44
360.483	609.44
360.709	603.44
360.936	599.44
361.163	605.44
361.39	597.44
361.616	594.44
361.843	580.44
362.07	619.44
362.296	603.44
362.523	567.44
362.749	592.44
362.976	591.44
363.203	605.44
363.429	578.44
363.656	571.44
363.882	605.44
364.109	582.44
364.335	563.44
364.562	579.44
364.788	580.44
365.015	596.44
365.241	615.44
365.468	580.44
365.694	583.44
365.92	596.44
366.147	603.44
366.373	597.44
366.599	599.44
366.826	594.44
367.052	596.44
367.278	612.44
367.505	594.44
367.731	611.44
367.957	597.44
368.184	585.44
368.41	601.44
368.636	575.44
368.862	605.44
369.089	610.44
369.315	611.44
369.541	614.44
369.767	609.44
369.993	628.44
370.219	625.44
370.445	643.44
370.672	634.44
370.898	612.44
371.124	641.44
371.35	666.44
371.576	666.44
371.802	643.44
372.028	652.44
372.254	647.44
372.48	645.44
372.706	650.44
372.932	674.44
373.158	646.44
373.384	655.44
373.61	649.44
373.835	644.44
374.061	648.44
374.287	637.44
374.513	674.44
374.739	673.44
374.965	689.44
375.191	726.44
375.416	728.44
375.642	686.44
375.868	693.44
376.094	678.44
376.319	646.44
376.545	677.44
376.771	680.44
376.997	642.44
377.222	649.44
377.448	653.44
377.674	638.44
377.899	639.44
378.125	635.44
378.35	647.44
378.576	629.44
378.802	638.44
379.027	639.44
379.253	642.44
379.478	625.44
379.704	648.44
379.929	636.44
380.155	621.44
380.38	628.44
380.606	650.44
380.831	643.44
381.057	648.44
381.282	616.44
381.507	645.44
381.733	653.44
381.958	658.44
382.184	647.44
382.409	683.44
382.634	689.44
382.86	661.44
383.085	674.44
383.31	691.44
383.535	696.44
383.761	720.44
383.986	720.44
384.211	730.44
384.436	755.44
384.662	738.44
384.887	769.44
385.112	783.44
385.337	790.44
385.562	774.44
385.787	760.44
386.013	775.44
386.238	773.44
386.463	755.44
386.688	783.44
386.913	786.44
387.138	775.44
387.363	754.44
387.588	746.44
387.813	751.44
388.038	763.44
388.263	760.44
388.488	764.44
388.713	758.44
388.938	772.44
389.163	774.44
389.387	735.44
389.612	720.44
389.837	773.44
390.062	744.44
390.287	749.44
390.512	755.44
390.736	753.44
390.961	766.44
391.186	800.44
391.411	821.44
391.636	824.44
391.86	865.44
392.085	871.44
392.31	866.44
392.534	829.44
392.759	839.44
392.984	820.44
393.208	814.44
393.433	810.44
393.658	842.44
393.882	842.44
394.107	801.44
394.331	829.44
394.556	816.44
394.78	847.44
395.005	827.44
395.229	815.44
395.454	856.44
395.678	874.44
395.903	885.44
396.127	843.44
396.352	826.44
396.576	819.44
396.801	821.44
397.025	824.44
397.249	828.44
397.474	883.44
397.698	867.44
397.922	851.44
398.147	895.44
398.371	895.44
398.595	923.44
398.82	933.44
399.044	1019.44
399.268	1142.44
399.492	1343.44
399.717	1516.44
399.941	1460.44
400.165	1322.44
400.389	1172.44
400.613	1041.44
400.837	1001.44
401.062	1043.44
401.286	994.44
401.51	963.44
401.734	999.44
401.958	996.44
402.182	1013.44
402.406	989.44
402.63	1005.44
402.854	1032.44
403.078	1059.44
403.302	1100.44
403.526	1099.44
403.75	1121.44
403.974	1171.44
404.198	1127.44
404.422	1155.44
404.645	1149.44
404.869	1107.44
405.093	1104.44
405.317	1084.44
405.541	1077.44
405.765	1074.44
405.988	1083.44
406.212	1058.44
406.436	1043.44
406.66	1106.44
406.883	1117.44
407.107	1176.44
407.331	1236.44
407.555	1244.44
407.778	1251.44
408.002	1220.44
408.226	1212.44
408.449	1162.44
408.673	1119.44
408.896	1114.44
409.12	1108.44
409.344	1130.44
409.567	1063.44
409.791	1114.44
410.014	1083.44
410.238	1085.44
410.461	1083.44
410.685	1039.44
410.908	1059.44
411.132	1033.44
411.355	1019.44
411.578	980.44
411.802	985.44
412.025	982.44
412.249	1033.44
412.472	1034.44
412.695	972.44
412.919	975.44
413.142	966.44
413.365	953.44
413.589	986.44
413.812	972.44
414.035	952.44
414.258	945.44
414.482	995.44
414.705	1014.44
414.928	977.44
415.151	980.44
415.374	969.44
415.597	962.44
415.821	931.44
416.044	953.44
416.267	945.44
416.49	926.44
416.713	942.44
416.936	973.44
417.159	940.44
417.382	938.44
417.605	957.44
417.828	965.44
418.051	945.44
418.274	973.44
418.497	961.44
418.72	974.44
418.943	990.44
419.166	1029.44
419.389	1125.44
419.611	1081.44
419.834	1028.44
420.057	1008.44
420.28	956.44
420.503	933.44
420.726	926.44
420.948	961.44
421.171	954.44
421.394	947.44
421.617	947.44
421.839	963.44
422.062	943.44
422.285	968.44
422.507	975.44
422.73	973.44
422.953	964.44
423.175	992.44
423.398	1030.44
423.621	1019.44
423.843	1051.44
424.066	1023.44
424.288	1031.44
424.511	1035.44
424.733	1018.44
424.956	969.44
425.178	966.44
425.401	971.44
425.623	975.44
425.846	927.44
426.068	906.44
426.291	906.44
426.513	889.44
426.735	912.44
426.958	911.44
427.18	862.44
427.402	876.44
427.625	882.44
427.847	859.44
428.069	865.44
428.292	846.44
428.514	815.44
428.736	846.44
428.958	857.44
429.181	849.44
429.403	821.44
429.625	846.44
429.847	814.44
430.069	854.44
430.292	822.44
430.514	828.44
430.736	823.44
430.958	828.44
431.18	839.44
431.402	826.44
431.624	846.44
431.846	863.44
432.068	855.44
432.29	884.44
432.512	853.44
432.734	850.44
432.956	841.44
433.178	848.44
433.4	819.44
433.622	837.44
433.844	866.44
434.066	862.44
434.287	869.44
434.509	905.44
434.731	919.44
434.953	972.44
435.175	954.44
435.397	937.44
435.618	883.44
435.84	855.44
436.062	869.44
436.284	872.44
436.505	865.44
436.727	878.44
436.949	854.44
437.17	851.44
437.392	826.44
437.614	813.44
437.835	803.44
438.057	822.44
438.278	795.44
438.5	793.44
438.721	806.44
438.943	816.44
439.165	814.44
439.386	791.44
439.608	830.44
439.829	836.44
440.05	827.44
440.272	809.44
440.493	839.44
440.715	871.44
440.936	892.44
441.158	913.44
441.379	893.44
441.6	961.44
441.822	957.44
442.043	967.44
442.264	929.44
442.486	944.44
442.707	925.44
442.928	931.44
443.149	933.44
443.371	930.44
443.592	939.44
443.813	935.44
444.034	940.44
444.255	981.44
444.476	1045.44
444.698	1123.44
444.919	1123.44
445.14	1221.44
445.361	1069.44
445.582	966.44
445.803	929.44
446.024	902.44
446.245	884.44
446.466	890.44
446.687	850.44
446.908	842.44
447.129	817.44
447.35	813.44
447.571	812.44
447.792	774.44
448.013	823.44
448.234	794.44
448.455	790.44
448.675	742.44
448.896	773.44
449.117	766.44
449.338	768.44
449.559	771.44
449.779	775.44
450	774.44
450.221	771.44
450.442	756.44
450.662	790.44
450.883	798.44
451.104	800.44
451.324	802.44
451.545	771.44
451.766	761.44
451.986	781.44
452.207	779.44
452.428	781.44
452.648	783.44
452.869	759.44
453.089	754.44
453.31	745.44
453.53	743.44
453.751	738.44
453.971	758.44
454.192	745.44
454.412	726.44
454.633	729.44
454.853	738.44
455.073	725.44
455.294	724.44
455.514	710.44
455.734	729.44
455.955	722.44
456.175	709.44
456.395	702.44
456.616	695.44
456.836	715.44
457.056	705.44
457.276	707.44
457.497	728.44
457.717	714.44
457.937	704.44
458.157	733.44
458.377	761.44
458.598	751.44
458.818	774.44
459.038	817.44
459.258	837.44
459.478	862.44
459.698	873.44
459.918	900.44
460.138	936.44
460.358	972.44
460.578	999.44
460.798	984.44
461.018	1016.44
461.238	1023.44
461.458	967.44
461.678	999.44
461.898	1017.44
462.118	991.44
462.338	1078.44
462.558	1107.44
462.777	1142.44
462.997	1236.44
463.217	1338.44
463.437	1364.44
463.657	1249.44
463.876	1170.44
464.096	1168.44
464.316	1155.44
464.536	1170.44
464.755	1174.44
464.975	1091.44
465.195	1011.44
465.414	961.44
465.634	917.44
465.854	892.44
466.073	869.44
466.293	823.44
466.512	842.44
466.732	844.44
466.951	822.44
467.171	835.44
467.391	820.44
467.61	824.44
467.829	813.44
468.049	773.44
468.268	775.44
468.488	772.44
468.707	779.44
468.927	763.44
469.146	782.44
469.365	797.44
469.585	799.44
469.804	802.44
470.023	846.44
470.243	838.44
470.462	850.44
470.681	837.44
470.901	858.44
471.12	834.44
471.339	833.44
471.558	808.44
471.777	809.44
471.997	788.44
472.216	780.44
472.435	760.44
472.654	782.44
472.873	754.44
473.092	772.44
473.311	779.44
473.53	753.44
473.749	751.44
473.968	780.44
474.187	763.44
474.406	718.44
474.625	745.44
474.844	743.44
475.063	755.44
475.282	757.44
475.501	781.44
475.72	766.44
475.939	750.44
476.158	781.44
476.377	807.44
476.596	788.44
476.814	799.44
477.033	806.44
477.252	840.44
477.471	849.44
477.69	857.44
477.908	867.44
478.127	894.44
478.346	920.44
478.564	918.44
478.783	937.44
479.002	941.44
479.22	939.44
479.439	924.44
479.658	953.44
479.876	929.44
480.095	957.44
480.313	980.44
480.532	1030.44
480.751	1036.44
480.969	963.44
481.188	927.44
481.406	889.44
481.624	899.44
481.843	898.44
482.061	865.44
482.28	883.44
482.498	841.44
482.717	879.44
482.935	861.44
483.153	834.44
483.372	857.44
483.59	860.44
483.808	847.44
484.027	874.44
484.245	897.44
484.463	885.44
484.681	906.44
484.9	889.44
485.118	861.44
485.336	890.44
485.554	893.44
485.772	936.44
485.99	903.44
486.209	926.44
486.427	899.44
486.645	915.44
486.863	932.44
487.081	884.44
487.299	895.44
487.517	898.44
487.735	921.44
487.953	937.44
488.171	900.44
488.389	881.44
488.607	891.44
488.825	887.44
489.043	893.44
489.261	889.44
489.479	915.44
489.696	915.44
489.914	924.44
490.132	911.44
490.35	919.44
490.568	912.44
490.786	911.44
491.003	897.44
491.221	918.44
491.439	915.44
491.657	883.44
491.874	958.44
492.092	935.44
492.31	931.44
492.527	934.44
492.745	944.44
492.963	969.44
493.18	947.44
493.398	946.44
493.615	942.44
493.833	931.44
494.05	953.44
494.268	962.44
494.485	957.44
494.703	954.44
494.92	965.44
495.138	955.44
495.355	988.44
495.573	970.44
495.79	998.44
496.008	1001.44
496.225	965.44
496.442	1018.44
496.66	1023.44
496.877	1019.44
497.094	1033.44
497.312	1071.44
497.529	1085.44
497.746	1105.44
497.963	1149.44
498.181	1160.44
498.398	1224.44
498.615	1303.44
498.832	1404.44
499.049	1492.44
499.267	1645.44
499.484	1759.44
499.701	1989.44
499.918	2182.44
500.135	2530.44
