Data from NiCl2@0.125M.TitratingCurve.Agarose3%dH2O.NegLispCup.LampEnergy10.LIBS07252019_HRD10591_18-27-27-573.txt Node
Date: Thu Jul 25 18:27:27 EDT 2019
User: cochatt
Spectrometer: HR+D1059
Trigger mode: 1
Integration Time (sec): 1.000000E-1
Scans to average: 1
Electric dark correction enabled: true
Nonlinearity correction enabled: false
Boxcar width: 0
XAxis mode: Wavelengths
Number of Pixels in Spectrum: 2048
>>>>>Begin Spectral Data<<<<<
223.165	-25
223.4	-25
223.635	-25
223.869	-21
224.104	-20
224.338	-12
224.573	-17
224.808	-7
225.042	-12
225.277	0
225.511	-12
225.746	6
225.98	17
226.215	22
226.449	13
226.683	16
226.918	24
227.152	28
227.387	38
227.621	38
227.856	49
228.09	29
228.324	31
228.559	43
228.793	78
229.027	115
229.262	117
229.496	134
229.73	120
229.964	139
230.199	138
230.433	159
230.667	145
230.901	152
231.136	165
231.37	143
231.604	154
231.838	162
232.072	191
232.306	170
232.541	166
232.775	180
233.009	178
233.243	159
233.477	167
233.711	171
233.945	172
234.179	175
234.413	175
234.647	165
234.881	185
235.115	164
235.349	177
235.583	163
235.817	172
236.051	162
236.285	170
236.519	184
236.753	179
236.987	187
237.221	190
237.455	189
237.689	188
237.922	180
238.156	189
238.39	177
238.624	186
238.858	197
239.091	208
239.325	212
239.559	198
239.793	199
240.027	196
240.26	211
240.494	218
240.728	227
240.961	218
241.195	230
241.429	216
241.662	213
241.896	223
242.13	223
242.363	236
242.597	250
242.83	233
243.064	226
243.298	235
243.531	239
243.765	264
243.998	241
244.232	266
244.465	251
244.699	273
244.932	262
245.166	260
245.399	269
245.633	248
245.866	249
246.099	263
246.333	280
246.566	265
246.8	267
247.033	267
247.266	275
247.5	267
247.733	271
247.966	263
248.2	299
248.433	296
248.666	294
248.899	291
249.133	296
249.366	296
249.599	294
249.832	292
250.066	300
250.299	323
250.532	305
250.765	292
250.998	325
251.231	336
251.465	317
251.698	304
251.931	312
252.164	306
252.397	319
252.63	343
252.863	319
253.096	348
253.329	335
253.562	328
253.795	353
254.028	352
254.261	348
254.494	331
254.727	341
254.96	345
255.193	344
255.426	344
255.659	361
255.892	359
256.124	348
256.357	340
256.59	358
256.823	352
257.056	365
257.289	372
257.521	387
257.754	361
257.987	374
258.22	367
258.452	391
258.685	371
258.918	387
259.151	377
259.383	376
259.616	392
259.849	389
260.081	397
260.314	406
260.547	383
260.779	387
261.012	378
261.244	404
261.477	417
261.71	401
261.942	407
262.175	404
262.407	430
262.64	407
262.872	415
263.105	407
263.337	398
263.57	419
263.802	435
264.035	432
264.267	437
264.499	431
264.732	424
264.964	445
265.197	451
265.429	447
265.661	433
265.894	446
266.126	428
266.358	432
266.591	429
266.823	454
267.055	452
267.287	445
267.52	459
267.752	449
267.984	470
268.216	448
268.448	459
268.681	469
268.913	456
269.145	463
269.377	451
269.609	467
269.841	474
270.073	468
270.306	472
270.538	482
270.77	497
271.002	488
271.234	467
271.466	472
271.698	474
271.93	497
272.162	491
272.394	499
272.626	492
272.858	511
273.09	509
273.322	504
273.553	498
273.785	489
274.017	521
274.249	535
274.481	501
274.713	521
274.945	515
275.176	519
275.408	514
275.64	542
275.872	525
276.104	514
276.335	525
276.567	534
276.799	517
277.031	545
277.262	546
277.494	547
277.726	526
277.957	556
278.189	544
278.421	552
278.652	542
278.884	540
279.115	585
279.347	567
279.579	548
279.81	569
280.042	550
280.273	552
280.505	565
280.736	553
280.968	579
281.199	615
281.431	563
281.662	583
281.894	598
282.125	594
282.356	596
282.588	597
282.819	577
283.051	581
283.282	584
283.513	579
283.745	610
283.976	618
284.207	604
284.439	613
284.67	611
284.901	610
285.132	597
285.364	645
285.595	645
285.826	626
286.057	632
286.288	623
286.52	616
286.751	641
286.982	643
287.213	642
287.444	635
287.675	642
287.906	651
288.138	628
288.369	653
288.6	632
288.831	672
289.062	661
289.293	649
289.524	675
289.755	650
289.986	659
290.217	649
290.448	657
290.679	663
290.91	642
291.141	656
291.371	692
291.602	687
291.833	649
292.064	673
292.295	660
292.526	653
292.757	679
292.987	659
293.218	654
293.449	673
293.68	652
293.91	675
294.141	667
294.372	691
294.603	650
294.833	699
295.064	684
295.295	691
295.525	675
295.756	671
295.987	674
296.217	700
296.448	696
296.679	711
296.909	693
297.14	710
297.37	704
297.601	696
297.831	714
298.062	712
298.292	727
298.523	735
298.753	727
298.984	728
299.214	705
299.445	743
299.675	715
299.905	709
300.136	725
300.366	763
300.597	757
300.827	741
301.057	743
301.288	763
301.518	784
301.748	773
301.979	767
302.209	756
302.439	774
302.669	765
302.9	777
303.13	760
303.36	755
303.59	771
303.82	760
304.051	733
304.281	765
304.511	758
304.741	781
304.971	779
305.201	729
305.431	720
305.661	728
305.891	740
306.121	766
306.352	747
306.582	738
306.812	754
307.042	738
307.272	740
307.502	738
307.731	757
307.961	765
308.191	761
308.421	763
308.651	713
308.881	736
309.111	743
309.341	721
309.571	781
309.8	774
310.03	767
310.26	731
310.49	743
310.72	762
310.949	763
311.179	786
311.409	737
311.639	773
311.868	772
312.098	803
312.328	768
312.557	776
312.787	792
313.017	776
313.246	801
313.476	788
313.706	828
313.935	810
314.165	789
314.394	809
314.624	827
314.853	794
315.083	809
315.312	788
315.542	810
315.771	785
316.001	833
316.23	780
316.46	791
316.689	800
316.919	794
317.148	804
317.377	785
317.607	807
317.836	745
318.065	793
318.295	787
318.524	774
318.753	788
318.983	788
319.212	789
319.441	780
319.67	766
319.9	782
320.129	806
320.358	807
320.587	797
320.816	779
321.046	789
321.275	817
321.504	787
321.733	782
321.962	781
322.191	810
322.42	803
322.649	808
322.878	805
323.108	803
323.337	821
323.566	836
323.795	808
324.024	823
324.253	810
324.482	819
324.71	826
324.939	819
325.168	820
325.397	832
325.626	825
325.855	840
326.084	864
326.313	890
326.542	859
326.77	876
326.999	867
327.228	836
327.457	872
327.686	828
327.914	839
328.143	875
328.372	874
328.6	872
328.829	879
329.058	889
329.287	868
329.515	869
329.744	860
329.972	871
330.201	868
330.43	879
330.658	871
330.887	874
331.115	904
331.344	913
331.572	901
331.801	950
332.03	931
332.258	973
332.486	1004
332.715	1003
332.943	1069
333.172	1105
333.4	1125
333.629	1171
333.857	1159
334.085	1184
334.314	1138
334.542	1115
334.771	1125
334.999	1109
335.227	1083
335.455	1094
335.684	1082
335.912	1067
336.14	1029
336.369	1043
336.597	1066
336.825	1057
337.053	1019
337.281	999
337.51	1010
337.738	1019
337.966	950
338.194	943
338.422	956
338.65	955
338.878	957
339.106	963
339.334	947
339.562	925
339.79	929
340.018	914
340.246	886
340.474	903
340.702	896
340.93	897
341.158	924
341.386	906
341.614	916
341.842	873
342.07	934
342.298	887
342.526	890
342.754	900
342.981	919
343.209	916
343.437	982
343.665	986
343.893	1078
344.12	1131
344.348	1082
344.576	1016
344.804	1036
345.031	931
345.259	936
345.487	913
345.714	895
345.942	879
346.17	902
346.397	896
346.625	890
346.853	867
347.08	893
347.308	897
347.535	883
347.763	879
347.99	879
348.218	878
348.445	887
348.673	861
348.9	882
349.128	877
349.355	851
349.583	860
349.81	870
350.037	852
350.265	857
350.492	849
350.72	840
350.947	844
351.174	833
351.402	841
351.629	829
351.856	842
352.083	828
352.311	821
352.538	821
352.765	823
352.992	805
353.22	817
353.447	836
353.674	825
353.901	825
354.128	810
354.355	827
354.583	834
354.81	853
355.037	868
355.264	836
355.491	812
355.718	831
355.945	863
356.172	852
356.399	836
356.626	866
356.853	863
357.08	825
357.307	859
357.534	842
357.761	848
357.988	861
358.215	857
358.441	845
358.668	844
358.895	831
359.122	834
359.349	832
359.576	855
359.802	844
360.029	858
360.256	880
360.483	839
360.709	860
360.936	873
361.163	824
361.39	819
361.616	847
361.843	853
362.07	845
362.296	849
362.523	840
362.749	849
362.976	842
363.203	829
363.429	832
363.656	845
363.882	827
364.109	865
364.335	852
364.562	843
364.788	845
365.015	856
365.241	832
365.468	852
365.694	835
365.92	810
366.147	858
366.373	849
366.599	827
366.826	820
367.052	855
367.278	832
367.505	871
367.731	860
367.957	843
368.184	856
368.41	847
368.636	859
368.862	850
369.089	838
369.315	870
369.541	852
369.767	869
369.993	883
370.219	877
370.445	893
370.672	895
370.898	890
371.124	891
371.35	896
371.576	921
371.802	913
372.028	945
372.254	903
372.48	920
372.706	956
372.932	967
373.158	945
373.384	931
373.61	914
373.835	935
374.061	915
374.287	910
374.513	913
374.739	976
374.965	994
375.191	1036
375.416	1032
375.642	964
375.868	967
376.094	951
376.319	935
376.545	886
376.771	933
376.997	909
377.222	922
377.448	927
377.674	924
377.899	920
378.125	920
378.35	888
378.576	907
378.802	911
379.027	887
379.253	910
379.478	927
379.704	918
379.929	884
380.155	888
380.38	913
380.606	894
380.831	912
381.057	908
381.282	914
381.507	903
381.733	904
381.958	949
382.184	904
382.409	928
382.634	946
382.86	959
383.085	951
383.31	974
383.535	1021
383.761	994
383.986	1013
384.211	1047
384.436	1053
384.662	1072
384.887	1074
385.112	1088
385.337	1111
385.562	1101
385.787	1105
386.013	1098
386.238	1083
386.463	1111
386.688	1117
386.913	1125
387.138	1104
387.363	1094
387.588	1074
387.813	1085
388.038	1089
388.263	1100
388.488	1108
388.713	1108
388.938	1084
389.163	1063
389.387	1094
389.612	1064
389.837	1071
390.062	1083
390.287	1084
390.512	1087
390.736	1066
390.961	1107
391.186	1127
391.411	1159
391.636	1187
391.86	1227
392.085	1235
392.31	1226
392.534	1220
392.759	1180
392.984	1131
393.208	1153
393.433	1175
393.658	1165
393.882	1160
394.107	1174
394.331	1185
394.556	1170
394.78	1186
395.005	1193
395.229	1188
395.454	1211
395.678	1228
395.903	1247
396.127	1209
396.352	1216
396.576	1173
396.801	1161
397.025	1192
397.249	1210
397.474	1226
397.698	1248
397.922	1234
398.147	1211
398.371	1251
398.595	1295
398.82	1337
399.044	1469
399.268	1589
399.492	1860
399.717	2051
399.941	2064
400.165	1846
400.389	1720
400.613	1574
400.837	1451
401.062	1435
401.286	1396
401.51	1404
401.734	1384
401.958	1385
402.182	1421
402.406	1418
402.63	1443
402.854	1439
403.078	1500
403.302	1499
403.526	1559
403.75	1596
403.974	1606
404.198	1585
404.422	1631
404.645	1586
404.869	1553
405.093	1577
405.317	1564
405.541	1505
405.765	1471
405.988	1471
406.212	1511
406.436	1512
406.66	1531
406.883	1562
407.107	1697
407.331	1731
407.555	1806
407.778	1799
408.002	1758
408.226	1687
408.449	1667
408.673	1550
408.896	1592
409.12	1588
409.344	1586
409.567	1559
409.791	1583
410.014	1544
410.238	1561
410.461	1560
410.685	1509
410.908	1466
411.132	1461
411.355	1439
411.578	1460
411.802	1432
412.025	1447
412.249	1484
412.472	1475
412.695	1403
412.919	1373
413.142	1409
413.365	1366
413.589	1375
413.812	1391
414.035	1388
414.258	1343
414.482	1399
414.705	1449
414.928	1380
415.151	1411
415.374	1359
415.597	1369
415.821	1380
416.044	1350
416.267	1335
416.49	1353
416.713	1359
416.936	1320
417.159	1401
417.382	1347
417.605	1359
417.828	1360
418.051	1368
418.274	1368
418.497	1388
418.72	1414
418.943	1391
419.166	1474
419.389	1546
419.611	1534
419.834	1489
420.057	1447
420.28	1407
420.503	1367
420.726	1343
420.948	1356
421.171	1342
421.394	1382
421.617	1355
421.839	1351
422.062	1351
422.285	1369
422.507	1372
422.73	1373
422.953	1400
423.175	1405
423.398	1430
423.621	1422
423.843	1466
424.066	1432
424.288	1433
424.511	1424
424.733	1434
424.956	1393
425.178	1421
425.401	1365
425.623	1361
425.846	1323
426.068	1305
426.291	1325
426.513	1298
426.735	1305
426.958	1314
427.18	1281
427.402	1273
427.625	1260
427.847	1235
428.069	1232
428.292	1207
428.514	1215
428.736	1197
428.958	1223
429.181	1215
429.403	1215
429.625	1171
429.847	1176
430.069	1199
430.292	1205
430.514	1178
430.736	1184
430.958	1195
431.18	1196
431.402	1186
431.624	1206
431.846	1199
432.068	1209
432.29	1248
432.512	1184
432.734	1233
432.956	1189
433.178	1235
433.4	1245
433.622	1236
433.844	1251
434.066	1236
434.287	1244
434.509	1303
434.731	1320
434.953	1372
435.175	1347
435.397	1347
435.618	1278
435.84	1239
436.062	1248
436.284	1219
436.505	1224
436.727	1229
436.949	1247
437.17	1207
437.392	1197
437.614	1177
437.835	1169
438.057	1172
438.278	1174
438.5	1145
438.721	1151
438.943	1191
439.165	1181
439.386	1194
439.608	1171
439.829	1231
440.05	1213
440.272	1216
440.493	1202
440.715	1227
440.936	1245
441.158	1294
441.379	1308
441.6	1380
441.822	1351
442.043	1380
442.264	1350
442.486	1284
442.707	1349
442.928	1355
443.149	1356
443.371	1344
443.592	1321
443.813	1327
444.034	1386
444.255	1410
444.476	1483
444.698	1558
444.919	1630
445.14	1697
445.361	1543
445.582	1423
445.803	1346
446.024	1283
446.245	1255
446.466	1259
446.687	1209
446.908	1239
447.129	1210
447.35	1186
447.571	1183
447.792	1149
448.013	1177
448.234	1149
448.455	1138
448.675	1139
448.896	1127
449.117	1098
449.338	1125
449.559	1093
449.779	1087
450	1076
450.221	1117
450.442	1109
450.662	1141
450.883	1103
451.104	1147
451.324	1151
451.545	1129
451.766	1136
451.986	1131
452.207	1128
452.428	1103
452.648	1131
452.869	1056
453.089	1064
453.31	1100
453.53	1065
453.751	1071
453.971	1065
454.192	1077
454.412	1053
454.633	1063
454.853	1080
455.073	1039
455.294	1041
455.514	1031
455.734	1070
455.955	1010
456.175	1033
456.395	1029
456.616	1004
456.836	1051
457.056	1037
457.276	1056
457.497	1060
457.717	1046
457.937	1023
458.157	1078
458.377	1058
458.598	1079
458.818	1111
459.038	1141
459.258	1144
459.478	1220
459.698	1251
459.918	1286
460.138	1341
460.358	1435
460.578	1428
460.798	1430
461.018	1450
461.238	1401
461.458	1396
461.678	1415
461.898	1429
462.118	1433
462.338	1566
462.558	1575
462.777	1629
462.997	1761
463.217	1923
463.437	1908
463.657	1735
463.876	1668
464.096	1653
464.316	1679
464.536	1662
464.755	1628
464.975	1522
465.195	1452
465.414	1375
465.634	1319
465.854	1250
466.073	1213
466.293	1232
466.512	1200
466.732	1169
466.951	1160
467.171	1169
467.391	1173
467.61	1132
467.829	1182
468.049	1157
468.268	1106
468.488	1100
468.707	1123
468.927	1119
469.146	1138
469.365	1093
469.585	1127
469.804	1155
470.023	1162
470.243	1175
470.462	1201
470.681	1206
470.901	1222
471.12	1165
471.339	1159
471.558	1147
471.777	1133
471.997	1111
472.216	1096
472.435	1100
472.654	1096
472.873	1090
473.092	1123
473.311	1088
473.53	1093
473.749	1090
473.968	1077
474.187	1069
474.406	1077
474.625	1067
474.844	1093
475.063	1118
475.282	1082
475.501	1087
475.72	1129
475.939	1143
476.158	1121
476.377	1131
476.596	1146
476.814	1153
477.033	1151
477.252	1147
477.471	1184
477.69	1229
477.908	1233
478.127	1306
478.346	1299
478.564	1306
478.783	1327
479.002	1358
479.22	1368
479.439	1341
479.658	1322
479.876	1329
480.095	1384
480.313	1420
480.532	1461
480.751	1470
480.969	1380
481.188	1331
481.406	1313
481.624	1289
481.843	1244
482.061	1240
482.28	1269
482.498	1250
482.717	1255
482.935	1243
483.153	1241
483.372	1232
483.59	1250
483.808	1247
484.027	1250
484.245	1255
484.463	1276
484.681	1283
484.9	1287
485.118	1307
485.336	1235
485.554	1284
485.772	1322
485.99	1300
486.209	1340
486.427	1308
486.645	1320
486.863	1318
487.081	1286
487.299	1276
487.517	1296
487.735	1286
487.953	1339
488.171	1331
488.389	1276
488.607	1276
488.825	1266
489.043	1256
489.261	1287
489.479	1303
489.696	1322
489.914	1307
490.132	1300
490.35	1350
490.568	1299
490.786	1308
491.003	1299
491.221	1319
491.439	1329
491.657	1316
491.874	1329
492.092	1327
492.31	1342
492.527	1361
492.745	1343
492.963	1338
493.18	1368
493.398	1366
493.615	1382
493.833	1374
494.05	1368
494.268	1393
494.485	1357
494.703	1391
494.92	1377
495.138	1408
495.355	1369
495.573	1371
495.79	1375
496.008	1412
496.225	1403
496.442	1422
496.66	1419
496.877	1451
497.094	1528
497.312	1520
497.529	1548
497.746	1547
497.963	1612
498.181	1667
498.398	1748
498.615	1854
498.832	1977
499.049	2083
499.267	2285
499.484	2498
499.701	2759
499.918	3023
500.135	3419
500.352	3946
500.569	4145
500.786	4091
501.003	3756
501.22	3404
501.437	3029
501.654	2665
501.871	2436
502.088	2219
502.305	2071
502.522	1951
502.739	1898
502.956	1826
503.172	1704
503.389	1659
503.606	1594
503.823	1575
504.04	1572
504.256	1599
504.473	1651
504.69	1667
504.907	1632
505.123	1549
505.34	1442
505.557	1357
505.773	1358
505.99	1314
506.207	1311
506.423	1266
506.64	1230
506.856	1228
507.073	1185
507.289	1212
507.506	1205
507.722	1228
507.939	1165
508.155	1181
508.372	1155
508.588	1150
508.805	1123
509.021	1154
509.238	1152
509.454	1133
509.67	1139
509.887	1127
510.103	1132
510.319	1075
510.536	1097
510.752	1085
510.968	1096
511.184	1092
511.401	1107
511.617	1102
511.833	1098
512.049	1053
512.265	1100
512.481	1099
512.698	1090
512.914	1119
513.13	1076
513.346	1081
513.562	1098
513.778	1124
513.994	1088
514.21	1132
514.426	1144
514.642	1141
514.858	1135
515.074	1096
515.29	1159
515.506	1176
515.721	1165
515.937	1178
516.153	1170
516.369	1225
516.585	1307
516.801	1286
517.016	1323
517.232	1410
517.448	1447
517.664	1483
517.879	1538
518.095	1527
518.311	1503
518.527	1400
518.742	1357
518.958	1312
519.173	1279
519.389	1248
519.605	1235
519.82	1191
520.036	1159
520.251	1130
520.467	1138
520.682	1108
520.898	1092
521.113	1080
521.329	1065
521.544	1069
521.76	1060
521.975	1056
522.19	1038
522.406	1041
522.621	1029
522.836	1023
523.052	1053
523.267	1037
523.482	1012
523.698	1012
523.913	1006
524.128	1024
524.343	1026
524.559	1005
524.774	996
524.989	1022
525.204	1011
525.419	985
525.634	975
525.849	1019
526.064	996
526.28	961
526.495	992
526.71	1021
526.925	990
527.14	965
527.355	980
527.57	961
527.785	996
527.999	994
528.214	999
528.429	993
528.644	979
528.859	988
529.074	984
529.289	992
529.503	962
529.718	979
529.933	981
530.148	968
530.363	985
530.577	966
530.792	956
531.007	977
531.221	985
531.436	973
531.651	984
531.865	972
532.08	977
532.295	971
532.509	977
532.724	961
532.938	972
533.153	961
533.367	1003
533.582	993
533.796	992
534.011	961
534.225	987
534.44	958
534.654	966
534.868	977
535.083	939
535.297	953
535.511	962
535.726	957
535.94	948
536.154	919
536.369	935
536.583	922
536.797	949
537.011	912
537.225	923
537.44	915
537.654	912
537.868	920
538.082	906
538.296	909
538.51	914
538.724	923
538.938	887
539.153	883
539.367	913
539.581	880
539.795	887
540.009	869
540.222	871
540.436	870
540.65	889
540.864	876
541.078	862
541.292	883
541.506	862
541.72	871
541.934	876
542.147	897
542.361	899
542.575	863
542.789	881
543.002	853
543.216	870
543.43	872
543.644	855
543.857	881
544.071	864
544.285	849
544.498	868
544.712	884
544.925	881
545.139	911
545.352	919
545.566	912
545.779	896
545.993	910
546.206	903
546.42	877
546.633	908
546.847	887
547.06	881
547.274	914
547.487	887
547.7	908
547.914	893
548.127	906
548.34	910
548.554	907
548.767	889
548.98	886
549.193	905
549.407	913
549.62	933
549.833	950
550.046	896
550.259	897
550.473	883
550.686	924
550.899	875
551.112	893
551.325	863
551.538	859
551.751	882
551.964	893
