Data from NiCl2@0.25M.TitratingCurve.Agarose3%dH2O.NegLispCup.LampEnergy10.LIBS07252019_HRD10591_18-25-18-573.txt Node
Date: Thu Jul 25 18:25:18 EDT 2019
User: cochatt
Spectrometer: HR+D1059
Trigger mode: 1
Integration Time (sec): 1.000000E-1
Scans to average: 1
Electric dark correction enabled: true
Nonlinearity correction enabled: false
Boxcar width: 0
XAxis mode: Wavelengths
Number of Pixels in Spectrum: 2048
>>>>>Begin Spectral Data<<<<<
223.165	-15.31
223.4	-15.31
223.635	-15.31
223.869	-27.31
224.104	-15.31
224.338	5.69
224.573	-14.31
224.808	-12.31
225.042	0.69
225.277	-13.31
225.511	-6.31
225.746	-1.31
225.98	2.69
226.215	-2.31
226.449	11.69
226.683	26.69
226.918	25.69
227.152	34.69
227.387	33.69
227.621	36.69
227.856	38.69
228.09	43.69
228.324	58.69
228.559	41.69
228.793	65.69
229.027	103.69
229.262	85.69
229.496	108.69
229.73	115.69
229.964	116.69
230.199	125.69
230.433	122.69
230.667	99.69
230.901	121.69
231.136	109.69
231.37	115.69
231.604	139.69
231.838	130.69
232.072	128.69
232.306	143.69
232.541	125.69
232.775	153.69
233.009	134.69
233.243	133.69
233.477	142.69
233.711	144.69
233.945	156.69
234.179	145.69
234.413	129.69
234.647	142.69
234.881	141.69
235.115	156.69
235.349	142.69
235.583	134.69
235.817	141.69
236.051	145.69
236.285	141.69
236.519	144.69
236.753	143.69
236.987	157.69
237.221	147.69
237.455	151.69
237.689	154.69
237.922	153.69
238.156	169.69
238.39	164.69
238.624	144.69
238.858	162.69
239.091	148.69
239.325	176.69
239.559	174.69
239.793	170.69
240.027	174.69
240.26	172.69
240.494	181.69
240.728	177.69
240.961	182.69
241.195	163.69
241.429	173.69
241.662	165.69
241.896	182.69
242.13	181.69
242.363	183.69
242.597	176.69
242.83	172.69
243.064	192.69
243.298	206.69
243.531	196.69
243.765	199.69
243.998	204.69
244.232	188.69
244.465	197.69
244.699	202.69
244.932	209.69
245.166	201.69
245.399	210.69
245.633	191.69
245.866	202.69
246.099	213.69
246.333	204.69
246.566	215.69
246.8	215.69
247.033	212.69
247.266	209.69
247.5	197.69
247.733	206.69
247.966	221.69
248.2	218.69
248.433	237.69
248.666	230.69
248.899	236.69
249.133	251.69
249.366	237.69
249.599	229.69
249.832	248.69
250.066	228.69
250.299	237.69
250.532	237.69
250.765	243.69
250.998	246.69
251.231	219.69
251.465	253.69
251.698	253.69
251.931	259.69
252.164	257.69
252.397	262.69
252.63	268.69
252.863	274.69
253.096	273.69
253.329	260.69
253.562	254.69
253.795	266.69
254.028	274.69
254.261	277.69
254.494	258.69
254.727	281.69
254.96	273.69
255.193	276.69
255.426	262.69
255.659	282.69
255.892	258.69
256.124	275.69
256.357	263.69
256.59	276.69
256.823	290.69
257.056	277.69
257.289	281.69
257.521	288.69
257.754	285.69
257.987	293.69
258.22	292.69
258.452	308.69
258.685	293.69
258.918	299.69
259.151	300.69
259.383	287.69
259.616	299.69
259.849	294.69
260.081	296.69
260.314	298.69
260.547	304.69
260.779	311.69
261.012	307.69
261.244	310.69
261.477	318.69
261.71	289.69
261.942	303.69
262.175	297.69
262.407	297.69
262.64	318.69
262.872	313.69
263.105	309.69
263.337	334.69
263.57	319.69
263.802	327.69
264.035	322.69
264.267	326.69
264.499	299.69
264.732	336.69
264.964	313.69
265.197	342.69
265.429	340.69
265.661	325.69
265.894	347.69
266.126	341.69
266.358	325.69
266.591	340.69
266.823	347.69
267.055	338.69
267.287	347.69
267.52	341.69
267.752	345.69
267.984	340.69
268.216	352.69
268.448	347.69
268.681	350.69
268.913	348.69
269.145	344.69
269.377	364.69
269.609	362.69
269.841	344.69
270.073	363.69
270.306	370.69
270.538	351.69
270.77	373.69
271.002	374.69
271.234	366.69
271.466	370.69
271.698	372.69
271.93	365.69
272.162	365.69
272.394	385.69
272.626	406.69
272.858	375.69
273.09	365.69
273.322	381.69
273.553	371.69
273.785	385.69
274.017	385.69
274.249	374.69
274.481	393.69
274.713	373.69
274.945	397.69
275.176	391.69
275.408	380.69
275.64	423.69
275.872	410.69
276.104	407.69
276.335	379.69
276.567	402.69
276.799	390.69
277.031	413.69
277.262	412.69
277.494	386.69
277.726	403.69
277.957	407.69
278.189	392.69
278.421	395.69
278.652	402.69
278.884	407.69
279.115	408.69
279.347	429.69
279.579	427.69
279.81	427.69
280.042	416.69
280.273	447.69
280.505	438.69
280.736	415.69
280.968	439.69
281.199	448.69
281.431	442.69
281.662	436.69
281.894	451.69
282.125	439.69
282.356	464.69
282.588	438.69
282.819	442.69
283.051	455.69
283.282	463.69
283.513	449.69
283.745	457.69
283.976	467.69
284.207	442.69
284.439	450.69
284.67	474.69
284.901	469.69
285.132	488.69
285.364	473.69
285.595	454.69
285.826	469.69
286.057	461.69
286.288	455.69
286.52	475.69
286.751	465.69
286.982	469.69
287.213	485.69
287.444	500.69
287.675	486.69
287.906	485.69
288.138	491.69
288.369	483.69
288.6	514.69
288.831	499.69
289.062	497.69
289.293	517.69
289.524	493.69
289.755	486.69
289.986	479.69
290.217	489.69
290.448	485.69
290.679	501.69
290.91	507.69
291.141	491.69
291.371	516.69
291.602	499.69
291.833	486.69
292.064	510.69
292.295	514.69
292.526	513.69
292.757	522.69
292.987	489.69
293.218	492.69
293.449	528.69
293.68	531.69
293.91	534.69
294.141	535.69
294.372	528.69
294.603	525.69
294.833	512.69
295.064	494.69
295.295	506.69
295.525	539.69
295.756	525.69
295.987	517.69
296.217	514.69
296.448	523.69
296.679	511.69
296.909	501.69
297.14	553.69
297.37	553.69
297.601	549.69
297.831	559.69
298.062	550.69
298.292	554.69
298.523	542.69
298.753	571.69
298.984	538.69
299.214	573.69
299.445	537.69
299.675	556.69
299.905	559.69
300.136	554.69
300.366	549.69
300.597	571.69
300.827	583.69
301.057	591.69
301.288	571.69
301.518	577.69
301.748	575.69
301.979	610.69
302.209	596.69
302.439	580.69
302.669	574.69
302.9	582.69
303.13	567.69
303.36	587.69
303.59	561.69
303.82	556.69
304.051	597.69
304.281	597.69
304.511	587.69
304.741	575.69
304.971	589.69
305.201	559.69
305.431	563.69
305.661	586.69
305.891	557.69
306.121	566.69
306.352	564.69
306.582	574.69
306.812	583.69
307.042	583.69
307.272	551.69
307.502	535.69
307.731	573.69
307.961	562.69
308.191	575.69
308.421	545.69
308.651	576.69
308.881	577.69
309.111	564.69
309.341	582.69
309.571	564.69
309.8	555.69
310.03	587.69
310.26	581.69
310.49	559.69
310.72	569.69
310.949	598.69
311.179	568.69
311.409	573.69
311.639	593.69
311.868	583.69
312.098	582.69
312.328	596.69
312.557	610.69
312.787	583.69
313.017	619.69
313.246	590.69
313.476	597.69
313.706	629.69
313.935	617.69
314.165	622.69
314.394	623.69
314.624	637.69
314.853	608.69
315.083	612.69
315.312	622.69
315.542	617.69
315.771	613.69
316.001	579.69
316.23	604.69
316.46	594.69
316.689	615.69
316.919	580.69
317.148	585.69
317.377	584.69
317.607	613.69
317.836	600.69
318.065	581.69
318.295	582.69
318.524	582.69
318.753	595.69
318.983	610.69
319.212	591.69
319.441	609.69
319.67	606.69
319.9	595.69
320.129	612.69
320.358	597.69
320.587	626.69
320.816	637.69
321.046	628.69
321.275	606.69
321.504	610.69
321.733	601.69
321.962	614.69
322.191	630.69
322.42	627.69
322.649	602.69
322.878	626.69
323.108	611.69
323.337	633.69
323.566	611.69
323.795	634.69
324.024	629.69
324.253	630.69
324.482	607.69
324.71	619.69
324.939	639.69
325.168	648.69
325.397	653.69
325.626	638.69
325.855	655.69
326.084	652.69
326.313	638.69
326.542	658.69
326.77	691.69
326.999	645.69
327.228	644.69
327.457	658.69
327.686	669.69
327.914	649.69
328.143	652.69
328.372	675.69
328.6	671.69
328.829	662.69
329.058	675.69
329.287	685.69
329.515	665.69
329.744	671.69
329.972	684.69
330.201	671.69
330.43	696.69
330.658	676.69
330.887	700.69
331.115	712.69
331.344	693.69
331.572	705.69
331.801	731.69
332.03	735.69
332.258	749.69
332.486	767.69
332.715	829.69
332.943	874.69
333.172	891.69
333.4	897.69
333.629	911.69
333.857	918.69
334.085	886.69
334.314	881.69
334.542	853.69
334.771	860.69
334.999	863.69
335.227	849.69
335.455	819.69
335.684	838.69
335.912	825.69
336.14	802.69
336.369	819.69
336.597	818.69
336.825	802.69
337.053	811.69
337.281	797.69
337.51	795.69
337.738	749.69
337.966	767.69
338.194	761.69
338.422	720.69
338.65	716.69
338.878	718.69
339.106	703.69
339.334	746.69
339.562	717.69
339.79	705.69
340.018	702.69
340.246	708.69
340.474	691.69
340.702	696.69
340.93	685.69
341.158	732.69
341.386	723.69
341.614	711.69
341.842	725.69
342.07	690.69
342.298	702.69
342.526	702.69
342.754	689.69
342.981	695.69
343.209	720.69
343.437	761.69
343.665	817.69
343.893	852.69
344.12	865.69
344.348	841.69
344.576	764.69
344.804	767.69
345.031	729.69
345.259	707.69
345.487	724.69
345.714	710.69
345.942	699.69
346.17	645.69
346.397	687.69
346.625	701.69
346.853	694.69
347.08	692.69
347.308	671.69
347.535	684.69
347.763	667.69
347.99	693.69
348.218	691.69
348.445	695.69
348.673	663.69
348.9	662.69
349.128	684.69
349.355	661.69
349.583	674.69
349.81	639.69
350.037	631.69
350.265	656.69
350.492	657.69
350.72	650.69
350.947	661.69
351.174	654.69
351.402	656.69
351.629	659.69
351.856	656.69
352.083	635.69
352.311	640.69
352.538	631.69
352.765	643.69
352.992	625.69
353.22	606.69
353.447	647.69
353.674	635.69
353.901	663.69
354.128	652.69
354.355	661.69
354.583	641.69
354.81	647.69
355.037	662.69
355.264	642.69
355.491	663.69
355.718	645.69
355.945	647.69
356.172	646.69
356.399	655.69
356.626	654.69
356.853	670.69
357.08	663.69
357.307	649.69
357.534	632.69
357.761	648.69
357.988	653.69
358.215	657.69
358.441	652.69
358.668	658.69
358.895	646.69
359.122	643.69
359.349	657.69
359.576	619.69
359.802	624.69
360.029	641.69
360.256	639.69
360.483	655.69
360.709	651.69
360.936	644.69
361.163	643.69
361.39	649.69
361.616	684.69
361.843	640.69
362.07	646.69
362.296	637.69
362.523	639.69
362.749	664.69
362.976	655.69
363.203	683.69
363.429	678.69
363.656	669.69
363.882	638.69
364.109	651.69
364.335	653.69
364.562	644.69
364.788	644.69
365.015	653.69
365.241	665.69
365.468	626.69
365.694	665.69
365.92	631.69
366.147	620.69
366.373	647.69
366.599	641.69
366.826	667.69
367.052	648.69
367.278	699.69
367.505	671.69
367.731	655.69
367.957	681.69
368.184	643.69
368.41	648.69
368.636	670.69
368.862	673.69
369.089	675.69
369.315	691.69
369.541	673.69
369.767	685.69
369.993	651.69
370.219	684.69
370.445	655.69
370.672	678.69
370.898	694.69
371.124	721.69
371.35	722.69
371.576	723.69
371.802	703.69
372.028	735.69
372.254	696.69
372.48	722.69
372.706	723.69
372.932	735.69
373.158	764.69
373.384	718.69
373.61	716.69
373.835	702.69
374.061	705.69
374.287	725.69
374.513	722.69
374.739	766.69
374.965	781.69
375.191	802.69
375.416	781.69
375.642	751.69
375.868	746.69
376.094	747.69
376.319	752.69
376.545	700.69
376.771	711.69
376.997	721.69
377.222	699.69
377.448	733.69
377.674	716.69
377.899	722.69
378.125	724.69
378.35	708.69
378.576	692.69
378.802	701.69
379.027	714.69
379.253	693.69
379.478	721.69
379.704	692.69
379.929	701.69
380.155	701.69
380.38	703.69
380.606	686.69
380.831	704.69
381.057	719.69
381.282	706.69
381.507	687.69
381.733	716.69
381.958	723.69
382.184	730.69
382.409	723.69
382.634	749.69
382.86	747.69
383.085	762.69
383.31	758.69
383.535	794.69
383.761	793.69
383.986	813.69
384.211	819.69
384.436	837.69
384.662	856.69
384.887	832.69
385.112	848.69
385.337	857.69
385.562	879.69
385.787	843.69
386.013	871.69
386.238	828.69
386.463	869.69
386.688	866.69
386.913	858.69
387.138	853.69
387.363	867.69
387.588	841.69
387.813	850.69
388.038	843.69
388.263	836.69
388.488	832.69
388.713	837.69
388.938	834.69
389.163	815.69
389.387	836.69
389.612	817.69
389.837	820.69
390.062	834.69
390.287	828.69
390.512	845.69
390.736	853.69
390.961	878.69
391.186	900.69
391.411	891.69
391.636	931.69
391.86	972.69
392.085	971.69
392.31	961.69
392.534	927.69
392.759	933.69
392.984	914.69
393.208	915.69
393.433	890.69
393.658	919.69
393.882	919.69
394.107	942.69
394.331	918.69
394.556	918.69
394.78	926.69
395.005	914.69
395.229	952.69
395.454	980.69
395.678	965.69
395.903	977.69
396.127	960.69
396.352	930.69
396.576	907.69
396.801	903.69
397.025	907.69
397.249	949.69
397.474	953.69
397.698	969.69
397.922	970.69
398.147	963.69
398.371	977.69
398.595	1025.69
398.82	1085.69
399.044	1148.69
399.268	1243.69
399.492	1495.69
399.717	1684.69
399.941	1630.69
400.165	1438.69
400.389	1305.69
400.613	1225.69
400.837	1169.69
401.062	1115.69
401.286	1086.69
401.51	1097.69
401.734	1089.69
401.958	1102.69
402.182	1123.69
402.406	1099.69
402.63	1129.69
402.854	1137.69
403.078	1179.69
403.302	1231.69
403.526	1222.69
403.75	1261.69
403.974	1250.69
404.198	1291.69
404.422	1298.69
404.645	1288.69
404.869	1195.69
405.093	1233.69
405.317	1199.69
405.541	1190.69
405.765	1203.69
405.988	1179.69
406.212	1201.69
406.436	1191.69
406.66	1230.69
406.883	1235.69
407.107	1303.69
407.331	1378.69
407.555	1447.69
407.778	1427.69
408.002	1353.69
408.226	1350.69
408.449	1319.69
408.673	1261.69
408.896	1244.69
409.12	1221.69
409.344	1245.69
409.567	1228.69
409.791	1247.69
410.014	1212.69
410.238	1223.69
410.461	1182.69
410.685	1205.69
410.908	1170.69
411.132	1154.69
411.355	1125.69
411.578	1138.69
411.802	1123.69
412.025	1149.69
412.249	1155.69
412.472	1123.69
412.695	1101.69
412.919	1069.69
413.142	1071.69
413.365	1080.69
413.589	1092.69
413.812	1080.69
414.035	1074.69
414.258	1068.69
414.482	1064.69
414.705	1110.69
414.928	1089.69
415.151	1083.69
415.374	1099.69
415.597	1075.69
415.821	1044.69
416.044	1050.69
416.267	1021.69
416.49	1071.69
416.713	1046.69
416.936	1075.69
417.159	1042.69
417.382	1047.69
417.605	1066.69
417.828	1065.69
418.051	1077.69
418.274	1059.69
418.497	1061.69
418.72	1094.69
418.943	1099.69
419.166	1178.69
419.389	1249.69
419.611	1213.69
419.834	1163.69
420.057	1115.69
420.28	1077.69
420.503	1076.69
420.726	1051.69
420.948	1061.69
421.171	1060.69
421.394	1043.69
421.617	1059.69
421.839	1096.69
422.062	1051.69
422.285	1068.69
422.507	1089.69
422.73	1092.69
422.953	1095.69
423.175	1085.69
423.398	1131.69
423.621	1129.69
423.843	1179.69
424.066	1166.69
424.288	1123.69
424.511	1120.69
424.733	1122.69
424.956	1100.69
425.178	1118.69
425.401	1073.69
425.623	1056.69
425.846	1043.69
426.068	1050.69
426.291	1015.69
426.513	975.69
426.735	975.69
426.958	983.69
427.18	974.69
427.402	971.69
427.625	967.69
427.847	958.69
428.069	931.69
428.292	960.69
428.514	918.69
428.736	920.69
428.958	946.69
429.181	922.69
429.403	905.69
429.625	929.69
429.847	925.69
430.069	930.69
430.292	924.69
430.514	923.69
430.736	917.69
430.958	910.69
431.18	909.69
431.402	926.69
431.624	946.69
431.846	958.69
432.068	935.69
432.29	974.69
432.512	929.69
432.734	956.69
432.956	937.69
433.178	952.69
433.4	970.69
433.622	946.69
433.844	970.69
434.066	958.69
434.287	972.69
434.509	1019.69
434.731	1048.69
434.953	1041.69
435.175	1062.69
435.397	1050.69
435.618	993.69
435.84	996.69
436.062	957.69
436.284	932.69
436.505	912.69
436.727	944.69
436.949	942.69
437.17	935.69
437.392	932.69
437.614	902.69
437.835	919.69
438.057	904.69
438.278	895.69
438.5	905.69
438.721	885.69
438.943	941.69
439.165	906.69
439.386	903.69
439.608	932.69
439.829	921.69
440.05	953.69
440.272	969.69
440.493	937.69
440.715	951.69
440.936	994.69
441.158	986.69
441.379	966.69
441.6	1031.69
441.822	1069.69
442.043	1069.69
442.264	1031.69
442.486	1026.69
442.707	1046.69
442.928	1016.69
443.149	1058.69
443.371	1030.69
443.592	1041.69
443.813	1013.69
444.034	1073.69
444.255	1128.69
444.476	1138.69
444.698	1231.69
444.919	1265.69
445.14	1316.69
445.361	1155.69
445.582	1075.69
445.803	1023.69
446.024	1012.69
446.245	973.69
446.466	930.69
446.687	935.69
446.908	921.69
447.129	930.69
447.35	883.69
447.571	894.69
447.792	866.69
448.013	875.69
448.234	857.69
448.455	840.69
448.675	871.69
448.896	861.69
449.117	838.69
449.338	844.69
449.559	834.69
449.779	837.69
450	839.69
450.221	869.69
450.442	842.69
450.662	886.69
450.883	865.69
451.104	878.69
451.324	875.69
451.545	875.69
451.766	882.69
451.986	888.69
452.207	844.69
452.428	862.69
452.648	879.69
452.869	838.69
453.089	835.69
453.31	818.69
453.53	829.69
453.751	842.69
453.971	834.69
454.192	825.69
454.412	813.69
454.633	807.69
454.853	841.69
455.073	809.69
455.294	818.69
455.514	812.69
455.734	790.69
455.955	756.69
456.175	769.69
456.395	802.69
456.616	785.69
456.836	793.69
457.056	810.69
457.276	767.69
457.497	791.69
457.717	786.69
457.937	786.69
458.157	799.69
458.377	809.69
458.598	856.69
458.818	862.69
459.038	862.69
459.258	915.69
459.478	966.69
459.698	964.69
459.918	992.69
460.138	1054.69
460.358	1084.69
460.578	1119.69
460.798	1121.69
461.018	1125.69
461.238	1123.69
461.458	1054.69
461.678	1072.69
461.898	1114.69
462.118	1101.69
462.338	1225.69
462.558	1224.69
462.777	1277.69
462.997	1375.69
463.217	1517.69
463.437	1451.69
463.657	1358.69
463.876	1293.69
464.096	1281.69
464.316	1285.69
464.536	1299.69
464.755	1262.69
464.975	1184.69
465.195	1149.69
465.414	1111.69
465.634	1028.69
465.854	1003.69
466.073	948.69
466.293	913.69
466.512	939.69
466.732	878.69
466.951	917.69
467.171	868.69
467.391	862.69
467.61	901.69
467.829	859.69
468.049	866.69
468.268	875.69
468.488	844.69
468.707	866.69
468.927	865.69
469.146	871.69
469.365	859.69
469.585	858.69
469.804	891.69
470.023	927.69
470.243	906.69
470.462	951.69
470.681	923.69
470.901	921.69
471.12	908.69
471.339	890.69
471.558	874.69
471.777	889.69
471.997	864.69
472.216	837.69
472.435	843.69
472.654	829.69
472.873	865.69
473.092	847.69
473.311	820.69
473.53	812.69
473.749	834.69
473.968	811.69
474.187	817.69
474.406	829.69
474.625	832.69
474.844	841.69
475.063	811.69
475.282	830.69
475.501	845.69
475.72	837.69
475.939	874.69
476.158	843.69
476.377	868.69
476.596	886.69
476.814	891.69
477.033	877.69
477.252	896.69
477.471	949.69
477.69	948.69
477.908	956.69
478.127	994.69
478.346	1027.69
478.564	998.69
478.783	1025.69
479.002	1076.69
479.22	1038.69
479.439	1046.69
479.658	1046.69
479.876	1039.69
480.095	1087.69
480.313	1087.69
480.532	1138.69
480.751	1155.69
480.969	1086.69
481.188	1035.69
481.406	998.69
481.624	985.69
481.843	963.69
482.061	962.69
482.28	967.69
482.498	944.69
482.717	955.69
482.935	950.69
483.153	949.69
483.372	953.69
483.59	925.69
483.808	937.69
484.027	966.69
484.245	939.69
484.463	968.69
484.681	974.69
484.9	983.69
485.118	985.69
485.336	994.69
485.554	1006.69
485.772	997.69
485.99	1012.69
486.209	987.69
486.427	1009.69
486.645	1010.69
486.863	1039.69
487.081	1043.69
487.299	1002.69
487.517	1002.69
487.735	990.69
487.953	991.69
488.171	1001.69
488.389	969.69
488.607	983.69
488.825	990.69
489.043	981.69
489.261	998.69
489.479	969.69
489.696	1010.69
489.914	1001.69
490.132	1014.69
490.35	1024.69
490.568	1008.69
490.786	1034.69
491.003	998.69
491.221	1007.69
491.439	1029.69
491.657	1013.69
491.874	1025.69
492.092	997.69
492.31	1039.69
492.527	1044.69
492.745	1043.69
492.963	1052.69
493.18	1011.69
493.398	1080.69
493.615	1055.69
493.833	1054.69
494.05	1071.69
494.268	1037.69
494.485	1073.69
494.703	1062.69
494.92	1071.69
495.138	1068.69
495.355	1075.69
495.573	1078.69
495.79	1081.69
496.008	1108.69
496.225	1093.69
496.442	1081.69
496.66	1095.69
496.877	1118.69
497.094	1163.69
497.312	1166.69
497.529	1196.69
497.746	1251.69
497.963	1245.69
498.181	1333.69
498.398	1347.69
