Data from NiCl2@0.125M.TitratingCurve.Agarose3%dH2O.NegLispCup.LampEnergy10.LIBS07252019_HRD10591_18-30-15-574.txt Node
Date: Thu Jul 25 18:30:15 EDT 2019
User: cochatt
Spectrometer: HR+D1059
Trigger mode: 1
Integration Time (sec): 1.000000E-1
Scans to average: 1
Electric dark correction enabled: true
Nonlinearity correction enabled: false
Boxcar width: 0
XAxis mode: Wavelengths
Number of Pixels in Spectrum: 2048
>>>>>Begin Spectral Data<<<<<
223.165	-19.81
223.4	-19.81
223.635	-19.81
223.869	-23.81
224.104	-30.81
224.338	-21.81
224.573	-12.81
224.808	-13.81
225.042	-15.81
225.277	-10.81
225.511	-8.81
225.746	2.19
225.98	20.19
226.215	35.19
226.449	25.19
226.683	18.19
226.918	21.19
227.152	36.19
227.387	37.19
227.621	40.19
227.856	51.19
228.09	45.19
228.324	47.19
228.559	62.19
228.793	77.19
229.027	120.19
229.262	135.19
229.496	134.19
229.73	147.19
229.964	131.19
230.199	150.19
230.433	149.19
230.667	156.19
230.901	158.19
231.136	137.19
231.37	157.19
231.604	168.19
231.838	174.19
232.072	174.19
232.306	170.19
232.541	175.19
232.775	181.19
233.009	185.19
233.243	158.19
233.477	168.19
233.711	179.19
233.945	183.19
234.179	174.19
234.413	185.19
234.647	175.19
234.881	176.19
235.115	178.19
235.349	172.19
235.583	191.19
235.817	177.19
236.051	188.19
236.285	183.19
236.519	176.19
236.753	192.19
236.987	212.19
237.221	179.19
237.455	199.19
237.689	203.19
237.922	195.19
238.156	198.19
238.39	189.19
238.624	198.19
238.858	210.19
239.091	206.19
239.325	203.19
239.559	212.19
239.793	227.19
240.027	222.19
240.26	222.19
240.494	230.19
240.728	230.19
240.961	206.19
241.195	246.19
241.429	208.19
241.662	239.19
241.896	222.19
242.13	231.19
242.363	253.19
242.597	263.19
242.83	232.19
243.064	265.19
243.298	243.19
243.531	244.19
243.765	248.19
243.998	268.19
244.232	287.19
244.465	270.19
244.699	268.19
244.932	284.19
245.166	263.19
245.399	275.19
245.633	281.19
245.866	277.19
246.099	259.19
246.333	279.19
246.566	287.19
246.8	271.19
247.033	282.19
247.266	307.19
247.5	283.19
247.733	303.19
247.966	294.19
248.2	291.19
248.433	291.19
248.666	299.19
248.899	303.19
249.133	305.19
249.366	298.19
249.599	325.19
249.832	304.19
250.066	325.19
250.299	328.19
250.532	325.19
250.765	327.19
250.998	327.19
251.231	332.19
251.465	330.19
251.698	347.19
251.931	342.19
252.164	337.19
252.397	334.19
252.63	342.19
252.863	363.19
253.096	353.19
253.329	358.19
253.562	346.19
253.795	358.19
254.028	356.19
254.261	348.19
254.494	366.19
254.727	353.19
254.96	362.19
255.193	344.19
255.426	366.19
255.659	374.19
255.892	370.19
256.124	364.19
256.357	368.19
256.59	377.19
256.823	362.19
257.056	385.19
257.289	383.19
257.521	389.19
257.754	372.19
257.987	384.19
258.22	403.19
258.452	387.19
258.685	378.19
258.918	395.19
259.151	391.19
259.383	388.19
259.616	403.19
259.849	391.19
260.081	393.19
260.314	390.19
260.547	400.19
260.779	415.19
261.012	405.19
261.244	415.19
261.477	395.19
261.71	401.19
261.942	404.19
262.175	413.19
262.407	400.19
262.64	399.19
262.872	415.19
263.105	417.19
263.337	422.19
263.57	431.19
263.802	450.19
264.035	426.19
264.267	440.19
264.499	431.19
264.732	462.19
264.964	437.19
265.197	439.19
265.429	452.19
265.661	462.19
265.894	462.19
266.126	464.19
266.358	461.19
266.591	452.19
266.823	473.19
267.055	457.19
267.287	454.19
267.52	458.19
267.752	479.19
267.984	471.19
268.216	484.19
268.448	476.19
268.681	464.19
268.913	484.19
269.145	481.19
269.377	474.19
269.609	478.19
269.841	489.19
270.073	486.19
270.306	501.19
270.538	517.19
270.77	499.19
271.002	486.19
271.234	501.19
271.466	487.19
271.698	507.19
271.93	511.19
272.162	497.19
272.394	502.19
272.626	508.19
272.858	495.19
273.09	496.19
273.322	506.19
273.553	498.19
273.785	490.19
274.017	520.19
274.249	522.19
274.481	513.19
274.713	506.19
274.945	539.19
275.176	533.19
275.408	537.19
275.64	541.19
275.872	547.19
276.104	534.19
276.335	579.19
276.567	555.19
276.799	559.19
277.031	582.19
277.262	538.19
277.494	534.19
277.726	556.19
277.957	557.19
278.189	564.19
278.421	546.19
278.652	558.19
278.884	565.19
279.115	567.19
279.347	584.19
279.579	567.19
279.81	580.19
280.042	575.19
280.273	568.19
280.505	604.19
280.736	590.19
280.968	590.19
281.199	602.19
281.431	604.19
281.662	622.19
281.894	597.19
282.125	602.19
282.356	594.19
282.588	627.19
282.819	607.19
283.051	605.19
283.282	633.19
283.513	616.19
283.745	643.19
283.976	611.19
284.207	616.19
284.439	612.19
284.67	619.19
284.901	627.19
285.132	645.19
285.364	630.19
285.595	655.19
285.826	638.19
286.057	649.19
286.288	653.19
286.52	658.19
286.751	631.19
286.982	663.19
287.213	655.19
287.444	644.19
287.675	683.19
287.906	645.19
288.138	680.19
288.369	683.19
288.6	679.19
288.831	676.19
289.062	665.19
289.293	665.19
289.524	660.19
289.755	653.19
289.986	676.19
290.217	689.19
290.448	701.19
290.679	680.19
290.91	694.19
291.141	656.19
291.371	682.19
291.602	713.19
291.833	687.19
292.064	700.19
292.295	691.19
292.526	664.19
292.757	697.19
292.987	654.19
293.218	658.19
293.449	717.19
293.68	707.19
293.91	701.19
294.141	690.19
294.372	658.19
294.603	710.19
294.833	717.19
295.064	715.19
295.295	707.19
295.525	678.19
295.756	699.19
295.987	708.19
296.217	725.19
296.448	724.19
296.679	708.19
296.909	710.19
297.14	732.19
297.37	730.19
297.601	756.19
297.831	750.19
298.062	732.19
298.292	745.19
298.523	755.19
298.753	779.19
298.984	756.19
299.214	742.19
299.445	750.19
299.675	747.19
299.905	762.19
300.136	740.19
300.366	756.19
300.597	775.19
300.827	779.19
301.057	784.19
301.288	808.19
301.518	810.19
301.748	798.19
301.979	773.19
302.209	784.19
302.439	747.19
302.669	763.19
302.9	795.19
303.13	763.19
303.36	795.19
303.59	783.19
303.82	768.19
304.051	785.19
304.281	776.19
304.511	795.19
304.741	769.19
304.971	786.19
305.201	791.19
305.431	776.19
305.661	782.19
305.891	760.19
306.121	742.19
306.352	742.19
306.582	776.19
306.812	749.19
307.042	769.19
307.272	764.19
307.502	779.19
307.731	772.19
307.961	763.19
308.191	778.19
308.421	765.19
308.651	746.19
308.881	738.19
309.111	771.19
309.341	776.19
309.571	763.19
309.8	764.19
310.03	736.19
310.26	751.19
310.49	757.19
310.72	761.19
310.949	744.19
311.179	768.19
311.409	774.19
311.639	757.19
311.868	747.19
312.098	749.19
312.328	786.19
312.557	819.19
312.787	798.19
313.017	769.19
313.246	815.19
313.476	806.19
313.706	808.19
313.935	825.19
314.165	823.19
314.394	833.19
314.624	855.19
314.853	830.19
315.083	813.19
315.312	811.19
315.542	809.19
315.771	781.19
316.001	798.19
316.23	797.19
316.46	775.19
316.689	773.19
316.919	810.19
317.148	811.19
317.377	786.19
317.607	791.19
317.836	764.19
318.065	800.19
318.295	804.19
318.524	816.19
318.753	810.19
318.983	803.19
319.212	795.19
319.441	802.19
319.67	790.19
319.9	795.19
320.129	776.19
320.358	814.19
320.587	816.19
320.816	800.19
321.046	785.19
321.275	801.19
321.504	811.19
321.733	819.19
321.962	796.19
322.191	825.19
322.42	782.19
322.649	812.19
322.878	823.19
323.108	825.19
323.337	822.19
323.566	809.19
323.795	825.19
324.024	808.19
324.253	821.19
324.482	815.19
324.71	821.19
324.939	839.19
325.168	840.19
325.397	845.19
325.626	856.19
325.855	868.19
326.084	860.19
326.313	890.19
326.542	835.19
326.77	901.19
326.999	853.19
327.228	869.19
327.457	837.19
327.686	880.19
327.914	885.19
328.143	861.19
328.372	897.19
328.6	876.19
328.829	868.19
329.058	866.19
329.287	877.19
329.515	873.19
329.744	880.19
329.972	872.19
330.201	903.19
330.43	911.19
330.658	896.19
330.887	896.19
331.115	868.19
331.344	941.19
331.572	899.19
331.801	950.19
332.03	979.19
332.258	984.19
332.486	1004.19
332.715	1039.19
332.943	1086.19
333.172	1130.19
333.4	1200.19
333.629	1196.19
333.857	1210.19
334.085	1201.19
334.314	1179.19
334.542	1151.19
334.771	1110.19
334.999	1131.19
335.227	1093.19
335.455	1113.19
335.684	1060.19
335.912	1055.19
336.14	1044.19
336.369	1058.19
336.597	1067.19
336.825	1044.19
337.053	1077.19
337.281	1039.19
337.51	1039.19
337.738	977.19
337.966	972.19
338.194	975.19
338.422	968.19
338.65	957.19
338.878	939.19
339.106	926.19
339.334	942.19
339.562	940.19
339.79	918.19
340.018	923.19
340.246	919.19
340.474	915.19
340.702	909.19
340.93	882.19
341.158	911.19
341.386	894.19
341.614	873.19
341.842	920.19
342.07	893.19
342.298	910.19
342.526	896.19
342.754	900.19
342.981	919.19
343.209	928.19
343.437	981.19
343.665	1057.19
343.893	1121.19
344.12	1174.19
344.348	1107.19
344.576	1031.19
344.804	981.19
345.031	961.19
345.259	940.19
345.487	909.19
345.714	919.19
345.942	902.19
346.17	893.19
346.397	888.19
346.625	888.19
346.853	887.19
347.08	876.19
347.308	894.19
347.535	903.19
347.763	923.19
347.99	897.19
348.218	874.19
348.445	885.19
348.673	865.19
348.9	877.19
349.128	894.19
349.355	869.19
349.583	862.19
349.81	860.19
350.037	847.19
350.265	857.19
350.492	857.19
350.72	847.19
350.947	853.19
351.174	829.19
351.402	858.19
351.629	813.19
351.856	808.19
352.083	827.19
352.311	834.19
352.538	830.19
352.765	856.19
352.992	835.19
353.22	828.19
353.447	828.19
353.674	857.19
353.901	866.19
354.128	853.19
354.355	840.19
354.583	825.19
354.81	855.19
355.037	872.19
355.264	852.19
355.491	829.19
355.718	859.19
355.945	837.19
356.172	864.19
356.399	860.19
356.626	848.19
356.853	869.19
357.08	854.19
357.307	873.19
357.534	863.19
357.761	879.19
357.988	836.19
358.215	837.19
358.441	855.19
358.668	853.19
358.895	878.19
359.122	838.19
359.349	853.19
359.576	850.19
359.802	839.19
360.029	826.19
360.256	843.19
360.483	817.19
360.709	842.19
360.936	825.19
361.163	847.19
361.39	862.19
361.616	865.19
361.843	849.19
362.07	835.19
362.296	843.19
362.523	843.19
362.749	846.19
362.976	837.19
363.203	847.19
363.429	830.19
363.656	846.19
363.882	851.19
364.109	848.19
364.335	838.19
364.562	835.19
364.788	824.19
365.015	850.19
365.241	864.19
365.468	820.19
365.694	877.19
365.92	822.19
366.147	822.19
366.373	834.19
366.599	853.19
366.826	819.19
367.052	832.19
367.278	844.19
367.505	853.19
367.731	844.19
367.957	846.19
368.184	870.19
368.41	873.19
368.636	840.19
368.862	860.19
369.089	851.19
369.315	863.19
369.541	889.19
369.767	894.19
369.993	875.19
370.219	853.19
370.445	900.19
370.672	905.19
370.898	901.19
371.124	913.19
371.35	943.19
371.576	928.19
371.802	921.19
372.028	930.19
372.254	918.19
372.48	926.19
372.706	960.19
372.932	957.19
373.158	961.19
373.384	923.19
373.61	924.19
373.835	941.19
374.061	893.19
374.287	979.19
374.513	950.19
374.739	988.19
374.965	1021.19
375.191	1051.19
375.416	1063.19
375.642	1002.19
375.868	990.19
376.094	974.19
376.319	939.19
376.545	939.19
376.771	932.19
376.997	896.19
377.222	928.19
377.448	947.19
377.674	950.19
377.899	928.19
378.125	927.19
378.35	921.19
378.576	882.19
378.802	910.19
379.027	939.19
379.253	909.19
379.478	899.19
379.704	897.19
379.929	923.19
380.155	901.19
380.38	921.19
380.606	917.19
380.831	896.19
381.057	924.19
381.282	929.19
381.507	919.19
381.733	939.19
381.958	944.19
382.184	963.19
382.409	959.19
382.634	973.19
382.86	987.19
383.085	968.19
383.31	1011.19
383.535	1011.19
383.761	1030.19
383.986	1083.19
384.211	1077.19
384.436	1087.19
384.662	1088.19
384.887	1148.19
385.112	1114.19
385.337	1148.19
385.562	1134.19
385.787	1125.19
386.013	1105.19
386.238	1113.19
386.463	1121.19
386.688	1160.19
386.913	1103.19
387.138	1131.19
387.363	1134.19
387.588	1081.19
387.813	1078.19
388.038	1101.19
388.263	1069.19
388.488	1094.19
388.713	1091.19
388.938	1113.19
389.163	1066.19
389.387	1100.19
389.612	1095.19
389.837	1083.19
390.062	1072.19
390.287	1104.19
390.512	1089.19
390.736	1101.19
390.961	1097.19
391.186	1119.19
391.411	1179.19
391.636	1190.19
391.86	1231.19
392.085	1286.19
392.31	1260.19
392.534	1221.19
392.759	1211.19
392.984	1202.19
393.208	1151.19
393.433	1133.19
393.658	1196.19
393.882	1206.19
394.107	1201.19
394.331	1191.19
394.556	1193.19
394.78	1188.19
395.005	1223.19
395.229	1199.19
395.454	1200.19
395.678	1276.19
395.903	1262.19
396.127	1208.19
396.352	1179.19
396.576	1182.19
396.801	1175.19
397.025	1180.19
397.249	1185.19
397.474	1239.19
397.698	1234.19
397.922	1251.19
398.147	1229.19
398.371	1232.19
398.595	1323.19
398.82	1377.19
399.044	1468.19
399.268	1612.19
399.492	1920.19
399.717	2229.19
399.941	2233.19
400.165	1878.19
400.389	1705.19
400.613	1560.19
400.837	1455.19
401.062	1423.19
401.286	1404.19
401.51	1360.19
401.734	1379.19
401.958	1407.19
402.182	1423.19
402.406	1439.19
402.63	1463.19
402.854	1539.19
403.078	1557.19
403.302	1550.19
403.526	1568.19
403.75	1627.19
403.974	1628.19
404.198	1682.19
404.422	1689.19
404.645	1614.19
404.869	1621.19
405.093	1634.19
405.317	1562.19
405.541	1558.19
405.765	1536.19
405.988	1565.19
406.212	1541.19
406.436	1527.19
406.66	1584.19
406.883	1603.19
407.107	1700.19
407.331	1802.19
407.555	1889.19
407.778	1850.19
408.002	1816.19
408.226	1710.19
408.449	1708.19
408.673	1628.19
408.896	1593.19
409.12	1560.19
409.344	1589.19
409.567	1609.19
409.791	1599.19
410.014	1612.19
410.238	1552.19
410.461	1535.19
410.685	1581.19
410.908	1542.19
411.132	1506.19
411.355	1476.19
411.578	1489.19
411.802	1466.19
412.025	1476.19
412.249	1492.19
412.472	1487.19
412.695	1439.19
412.919	1414.19
413.142	1411.19
413.365	1383.19
413.589	1379.19
413.812	1359.19
414.035	1383.19
414.258	1389.19
414.482	1400.19
414.705	1459.19
414.928	1433.19
415.151	1391.19
415.374	1389.19
415.597	1421.19
415.821	1391.19
416.044	1335.19
416.267	1344.19
416.49	1341.19
416.713	1333.19
416.936	1411.19
417.159	1382.19
417.382	1353.19
417.605	1360.19
417.828	1347.19
418.051	1382.19
418.274	1411.19
418.497	1416.19
418.72	1421.19
418.943	1407.19
419.166	1518.19
419.389	1626.19
419.611	1577.19
419.834	1507.19
420.057	1454.19
420.28	1450.19
420.503	1367.19
420.726	1353.19
420.948	1393.19
421.171	1393.19
421.394	1355.19
421.617	1349.19
421.839	1413.19
422.062	1373.19
422.285	1399.19
422.507	1412.19
422.73	1469.19
422.953	1447.19
423.175	1481.19
423.398	1498.19
423.621	1473.19
423.843	1521.19
424.066	1503.19
424.288	1488.19
424.511	1495.19
424.733	1447.19
424.956	1414.19
425.178	1414.19
425.401	1400.19
425.623	1405.19
425.846	1382.19
426.068	1343.19
426.291	1328.19
426.513	1341.19
426.735	1326.19
426.958	1285.19
427.18	1268.19
427.402	1283.19
427.625	1244.19
427.847	1235.19
428.069	1237.19
428.292	1239.19
428.514	1213.19
428.736	1211.19
428.958	1209.19
429.181	1227.19
429.403	1189.19
429.625	1192.19
429.847	1162.19
430.069	1190.19
430.292	1201.19
430.514	1171.19
430.736	1197.19
430.958	1209.19
431.18	1219.19
431.402	1194.19
431.624	1207.19
431.846	1199.19
432.068	1241.19
432.29	1260.19
432.512	1230.19
432.734	1239.19
432.956	1195.19
433.178	1256.19
433.4	1238.19
433.622	1236.19
433.844	1245.19
434.066	1247.19
434.287	1264.19
434.509	1316.19
434.731	1352.19
434.953	1380.19
435.175	1419.19
435.397	1356.19
435.618	1306.19
435.84	1292.19
436.062	1271.19
436.284	1252.19
436.505	1217.19
436.727	1246.19
436.949	1233.19
437.17	1237.19
437.392	1202.19
437.614	1193.19
437.835	1159.19
438.057	1173.19
438.278	1161.19
438.5	1175.19
438.721	1197.19
438.943	1184.19
439.165	1183.19
439.386	1192.19
439.608	1232.19
439.829	1251.19
440.05	1215.19
440.272	1235.19
440.493	1242.19
440.715	1251.19
440.936	1297.19
441.158	1274.19
441.379	1281.19
441.6	1390.19
441.822	1416.19
442.043	1422.19
442.264	1410.19
442.486	1377.19
442.707	1378.19
442.928	1369.19
443.149	1372.19
443.371	1361.19
443.592	1369.19
443.813	1377.19
444.034	1419.19
444.255	1447.19
444.476	1500.19
444.698	1637.19
444.919	1749.19
445.14	1768.19
445.361	1554.19
445.582	1441.19
445.803	1342.19
446.024	1287.19
446.245	1287.19
446.466	1255.19
446.687	1243.19
446.908	1246.19
447.129	1173.19
447.35	1213.19
447.571	1171.19
447.792	1161.19
448.013	1166.19
448.234	1143.19
448.455	1091.19
448.675	1131.19
448.896	1136.19
449.117	1106.19
449.338	1103.19
449.559	1111.19
449.779	1109.19
450	1106.19
450.221	1091.19
450.442	1160.19
450.662	1123.19
450.883	1126.19
451.104	1179.19
451.324	1205.19
451.545	1135.19
451.766	1150.19
451.986	1162.19
452.207	1161.19
452.428	1152.19
452.648	1146.19
452.869	1109.19
453.089	1127.19
453.31	1160.19
453.53	1089.19
453.751	1109.19
453.971	1086.19
454.192	1096.19
454.412	1093.19
454.633	1065.19
454.853	1086.19
455.073	1045.19
455.294	1065.19
455.514	1046.19
455.734	1055.19
455.955	1043.19
456.175	1057.19
456.395	1051.19
456.616	1084.19
456.836	1034.19
457.056	1057.19
457.276	1048.19
457.497	1085.19
457.717	1059.19
457.937	1055.19
458.157	1086.19
458.377	1091.19
458.598	1110.19
458.818	1127.19
459.038	1176.19
459.258	1211.19
459.478	1252.19
459.698	1249.19
459.918	1320.19
460.138	1381.19
460.358	1468.19
460.578	1491.19
460.798	1487.19
461.018	1508.19
461.238	1476.19
461.458	1456.19
461.678	1469.19
461.898	1479.19
462.118	1505.19
462.338	1599.19
462.558	1604.19
462.777	1667.19
462.997	1777.19
463.217	2007.19
463.437	2069.19
463.657	1826.19
463.876	1733.19
464.096	1725.19
464.316	1686.19
464.536	1749.19
464.755	1680.19
464.975	1605.19
465.195	1568.19
465.414	1439.19
465.634	1338.19
465.854	1267.19
466.073	1264.19
466.293	1227.19
466.512	1227.19
466.732	1183.19
466.951	1207.19
467.171	1193.19
467.391	1203.19
467.61	1194.19
467.829	1155.19
468.049	1177.19
468.268	1140.19
468.488	1111.19
468.707	1148.19
468.927	1143.19
469.146	1108.19
469.365	1127.19
469.585	1137.19
469.804	1187.19
470.023	1213.19
470.243	1239.19
470.462	1215.19
470.681	1247.19
470.901	1217.19
471.12	1158.19
471.339	1177.19
471.558	1149.19
471.777	1119.19
471.997	1151.19
472.216	1118.19
472.435	1139.19
472.654	1070.19
472.873	1081.19
473.092	1072.19
473.311	1095.19
473.53	1083.19
473.749	1096.19
473.968	1112.19
474.187	1100.19
474.406	1065.19
474.625	1115.19
474.844	1103.19
475.063	1104.19
475.282	1119.19
475.501	1108.19
475.72	1134.19
475.939	1075.19
476.158	1105.19
476.377	1148.19
476.596	1144.19
476.814	1170.19
477.033	1157.19
477.252	1175.19
477.471	1200.19
477.69	1261.19
477.908	1285.19
478.127	1316.19
478.346	1335.19
478.564	1323.19
478.783	1332.19
479.002	1378.19
479.22	1391.19
479.439	1365.19
479.658	1375.19
479.876	1366.19
480.095	1385.19
480.313	1441.19
480.532	1503.19
480.751	1490.19
480.969	1424.19
481.188	1390.19
481.406	1324.19
481.624	1319.19
481.843	1273.19
482.061	1272.19
482.28	1245.19
482.498	1233.19
482.717	1274.19
482.935	1220.19
483.153	1254.19
483.372	1243.19
483.59	1236.19
483.808	1243.19
484.027	1222.19
484.245	1243.19
484.463	1296.19
484.681	1294.19
484.9	1324.19
485.118	1308.19
485.336	1303.19
485.554	1345.19
485.772	1316.19
485.99	1337.19
486.209	1325.19
486.427	1337.19
486.645	1347.19
486.863	1344.19
487.081	1325.19
487.299	1335.19
487.517	1335.19
487.735	1317.19
487.953	1337.19
488.171	1317.19
488.389	1325.19
488.607	1321.19
488.825	1288.19
489.043	1309.19
489.261	1299.19
489.479	1341.19
489.696	1313.19
489.914	1313.19
490.132	1295.19
490.35	1318.19
490.568	1309.19
490.786	1314.19
491.003	1347.19
491.221	1331.19
491.439	1317.19
491.657	1349.19
491.874	1328.19
492.092	1315.19
492.31	1315.19
492.527	1325.19
492.745	1327.19
492.963	1369.19
493.18	1348.19
493.398	1351.19
493.615	1385.19
493.833	1375.19
494.05	1405.19
494.268	1386.19
