Data from NiCl2@0.5M.TitratingCurve.Agarose3%dH2O.NegLispCup.LampEnergy10.LIBS07252019_HRD10591_18-20-53-571.txt Node
Date: Thu Jul 25 18:20:53 EDT 2019
User: cochatt
Spectrometer: HR+D1059
Trigger mode: 1
Integration Time (sec): 1.000000E-1
Scans to average: 1
Electric dark correction enabled: true
Nonlinearity correction enabled: false
Boxcar width: 0
XAxis mode: Wavelengths
Number of Pixels in Spectrum: 2048
>>>>>Begin Spectral Data<<<<<
223.165	-15.06
223.4	-15.06
223.635	-15.06
223.869	-14.06
224.104	-18.06
224.338	-13.06
224.573	-22.06
224.808	-14.06
225.042	-1.06
225.277	0.94
225.511	-0.06
225.746	2.94
225.98	5.94
226.215	0.94
226.449	16.94
226.683	2.94
226.918	31.94
227.152	34.94
227.387	37.94
227.621	35.94
227.856	43.94
228.09	35.94
228.324	48.94
228.559	61.94
228.793	67.94
229.027	99.94
229.262	91.94
229.496	103.94
229.73	102.94
229.964	113.94
230.199	123.94
230.433	128.94
230.667	134.94
230.901	115.94
231.136	121.94
231.37	120.94
231.604	131.94
231.838	132.94
232.072	140.94
232.306	132.94
232.541	123.94
232.775	122.94
233.009	130.94
233.243	126.94
233.477	120.94
233.711	138.94
233.945	132.94
234.179	144.94
234.413	140.94
234.647	134.94
234.881	142.94
235.115	136.94
235.349	140.94
235.583	144.94
235.817	144.94
236.051	138.94
236.285	137.94
236.519	129.94
236.753	128.94
236.987	141.94
237.221	139.94
237.455	125.94
237.689	162.94
237.922	149.94
238.156	147.94
238.39	141.94
238.624	128.94
238.858	143.94
239.091	149.94
239.325	146.94
239.559	141.94
239.793	151.94
240.027	163.94
240.26	128.94
240.494	168.94
240.728	177.94
240.961	164.94
241.195	169.94
241.429	142.94
241.662	163.94
241.896	161.94
242.13	170.94
242.363	162.94
242.597	151.94
242.83	171.94
243.064	175.94
243.298	183.94
243.531	169.94
243.765	158.94
243.998	176.94
244.232	178.94
244.465	179.94
244.699	174.94
244.932	181.94
245.166	187.94
245.399	175.94
245.633	198.94
245.866	193.94
246.099	191.94
246.333	209.94
246.566	190.94
246.8	191.94
247.033	184.94
247.266	198.94
247.5	194.94
247.733	197.94
247.966	183.94
248.2	206.94
248.433	206.94
248.666	166.94
248.899	200.94
249.133	201.94
249.366	213.94
249.599	217.94
249.832	216.94
250.066	221.94
250.299	207.94
250.532	203.94
250.765	206.94
250.998	214.94
251.231	208.94
251.465	219.94
251.698	220.94
251.931	220.94
252.164	228.94
252.397	232.94
252.63	230.94
252.863	233.94
253.096	231.94
253.329	221.94
253.562	218.94
253.795	240.94
254.028	216.94
254.261	228.94
254.494	235.94
254.727	240.94
254.96	203.94
255.193	232.94
255.426	255.94
255.659	247.94
255.892	246.94
256.124	240.94
256.357	251.94
256.59	249.94
256.823	227.94
257.056	248.94
257.289	233.94
257.521	247.94
257.754	252.94
257.987	248.94
258.22	258.94
258.452	242.94
258.685	249.94
258.918	262.94
259.151	258.94
259.383	263.94
259.616	266.94
259.849	264.94
260.081	258.94
260.314	254.94
260.547	247.94
260.779	267.94
261.012	251.94
261.244	256.94
261.477	262.94
261.71	276.94
261.942	261.94
262.175	273.94
262.407	267.94
262.64	276.94
262.872	291.94
263.105	271.94
263.337	296.94
263.57	304.94
263.802	286.94
264.035	279.94
264.267	299.94
264.499	288.94
264.732	285.94
264.964	293.94
265.197	298.94
265.429	288.94
265.661	280.94
265.894	296.94
266.126	307.94
266.358	280.94
266.591	312.94
266.823	308.94
267.055	283.94
267.287	297.94
267.52	281.94
267.752	308.94
267.984	296.94
268.216	318.94
268.448	308.94
268.681	324.94
268.913	308.94
269.145	326.94
269.377	309.94
269.609	307.94
269.841	306.94
270.073	302.94
270.306	300.94
270.538	336.94
270.77	318.94
271.002	340.94
271.234	314.94
271.466	332.94
271.698	297.94
271.93	326.94
272.162	337.94
272.394	326.94
272.626	316.94
272.858	332.94
273.09	342.94
273.322	320.94
273.553	323.94
273.785	329.94
274.017	340.94
274.249	332.94
274.481	338.94
274.713	347.94
274.945	339.94
275.176	335.94
275.408	331.94
275.64	351.94
275.872	348.94
276.104	332.94
276.335	353.94
276.567	356.94
276.799	341.94
277.031	356.94
277.262	363.94
277.494	347.94
277.726	351.94
277.957	359.94
278.189	374.94
278.421	360.94
278.652	365.94
278.884	366.94
279.115	374.94
279.347	368.94
279.579	374.94
279.81	384.94
280.042	359.94
280.273	374.94
280.505	364.94
280.736	386.94
280.968	388.94
281.199	389.94
281.431	395.94
281.662	400.94
281.894	378.94
282.125	385.94
282.356	402.94
282.588	405.94
282.819	409.94
283.051	388.94
283.282	374.94
283.513	390.94
283.745	391.94
283.976	386.94
284.207	414.94
284.439	415.94
284.67	404.94
284.901	425.94
285.132	424.94
285.364	419.94
285.595	396.94
285.826	386.94
286.057	409.94
286.288	401.94
286.52	399.94
286.751	406.94
286.982	416.94
287.213	410.94
287.444	414.94
287.675	418.94
287.906	436.94
288.138	416.94
288.369	413.94
288.6	434.94
288.831	430.94
289.062	438.94
289.293	422.94
289.524	441.94
289.755	430.94
289.986	438.94
290.217	438.94
290.448	415.94
290.679	423.94
290.91	442.94
291.141	434.94
291.371	433.94
291.602	447.94
291.833	449.94
292.064	436.94
292.295	449.94
292.526	439.94
292.757	436.94
292.987	423.94
293.218	461.94
293.449	442.94
293.68	450.94
293.91	452.94
294.141	463.94
294.372	426.94
294.603	452.94
294.833	448.94
295.064	450.94
295.295	456.94
295.525	459.94
295.756	446.94
295.987	439.94
296.217	442.94
296.448	465.94
296.679	474.94
296.909	456.94
297.14	470.94
297.37	466.94
297.601	486.94
297.831	478.94
298.062	489.94
298.292	483.94
298.523	483.94
298.753	486.94
298.984	497.94
299.214	483.94
299.445	473.94
299.675	481.94
299.905	472.94
300.136	479.94
300.366	492.94
300.597	508.94
300.827	496.94
301.057	513.94
301.288	489.94
301.518	520.94
301.748	508.94
301.979	502.94
302.209	489.94
302.439	500.94
302.669	511.94
302.9	505.94
303.13	500.94
303.36	493.94
303.59	494.94
303.82	529.94
304.051	517.94
304.281	526.94
304.511	531.94
304.741	502.94
304.971	516.94
305.201	510.94
305.431	524.94
305.661	510.94
305.891	514.94
306.121	480.94
306.352	499.94
306.582	512.94
306.812	501.94
307.042	512.94
307.272	506.94
307.502	512.94
307.731	511.94
307.961	520.94
308.191	513.94
308.421	497.94
308.651	496.94
308.881	498.94
309.111	492.94
309.341	494.94
309.571	480.94
309.8	512.94
310.03	515.94
310.26	520.94
310.49	509.94
310.72	525.94
310.949	517.94
311.179	522.94
311.409	520.94
311.639	500.94
311.868	506.94
312.098	521.94
312.328	513.94
312.557	524.94
312.787	536.94
313.017	526.94
313.246	552.94
313.476	544.94
313.706	558.94
313.935	569.94
314.165	530.94
314.394	524.94
314.624	547.94
314.853	526.94
315.083	527.94
315.312	528.94
315.542	534.94
315.771	538.94
316.001	544.94
316.23	510.94
316.46	541.94
316.689	512.94
316.919	532.94
317.148	523.94
317.377	530.94
317.607	522.94
317.836	554.94
318.065	532.94
318.295	536.94
318.524	498.94
318.753	537.94
318.983	522.94
319.212	545.94
319.441	550.94
319.67	534.94
319.9	536.94
320.129	552.94
320.358	545.94
320.587	522.94
320.816	523.94
321.046	545.94
321.275	540.94
321.504	544.94
321.733	532.94
321.962	530.94
322.191	550.94
322.42	550.94
322.649	551.94
322.878	571.94
323.108	545.94
323.337	542.94
323.566	558.94
323.795	563.94
324.024	552.94
324.253	536.94
324.482	543.94
324.71	561.94
324.939	554.94
325.168	574.94
325.397	566.94
325.626	561.94
325.855	551.94
326.084	582.94
326.313	553.94
326.542	586.94
326.77	611.94
326.999	583.94
327.228	593.94
327.457	603.94
327.686	567.94
327.914	577.94
328.143	599.94
328.372	592.94
328.6	582.94
328.829	622.94
329.058	575.94
329.287	587.94
329.515	585.94
329.744	584.94
329.972	584.94
330.201	584.94
330.43	584.94
330.658	612.94
330.887	602.94
331.115	599.94
331.344	599.94
331.572	605.94
331.801	619.94
332.03	654.94
332.258	630.94
332.486	665.94
332.715	636.94
332.943	669.94
333.172	682.94
333.4	733.94
333.629	727.94
333.857	726.94
334.085	728.94
334.314	739.94
334.542	744.94
334.771	716.94
334.999	717.94
335.227	732.94
335.455	718.94
335.684	719.94
335.912	709.94
336.14	733.94
336.369	682.94
336.597	715.94
336.825	715.94
337.053	720.94
337.281	706.94
337.51	693.94
337.738	664.94
337.966	657.94
338.194	653.94
338.422	663.94
338.65	634.94
338.878	644.94
339.106	638.94
339.334	647.94
339.562	633.94
339.79	624.94
340.018	622.94
340.246	581.94
340.474	601.94
340.702	611.94
340.93	642.94
341.158	632.94
341.386	597.94
341.614	624.94
341.842	654.94
342.07	609.94
342.298	604.94
342.526	622.94
342.754	607.94
342.981	604.94
343.209	632.94
343.437	656.94
343.665	698.94
343.893	696.94
344.12	708.94
344.348	684.94
344.576	667.94
344.804	673.94
345.031	636.94
345.259	632.94
345.487	630.94
345.714	620.94
345.942	628.94
346.17	640.94
346.397	637.94
346.625	609.94
346.853	584.94
347.08	591.94
347.308	585.94
347.535	598.94
347.763	584.94
347.99	601.94
348.218	593.94
348.445	570.94
348.673	592.94
348.9	589.94
349.128	579.94
349.355	593.94
349.583	601.94
349.81	570.94
350.037	572.94
350.265	584.94
350.492	580.94
350.72	572.94
350.947	570.94
351.174	565.94
351.402	582.94
351.629	580.94
351.856	568.94
352.083	608.94
352.311	577.94
352.538	572.94
352.765	594.94
352.992	571.94
353.22	561.94
353.447	537.94
353.674	553.94
353.901	551.94
354.128	562.94
354.355	560.94
354.583	556.94
354.81	558.94
355.037	561.94
355.264	592.94
355.491	554.94
355.718	565.94
355.945	552.94
356.172	560.94
356.399	564.94
356.626	552.94
356.853	574.94
357.08	546.94
357.307	569.94
357.534	562.94
357.761	552.94
357.988	542.94
358.215	538.94
358.441	560.94
358.668	575.94
358.895	562.94
359.122	537.94
359.349	558.94
359.576	577.94
359.802	571.94
360.029	561.94
360.256	560.94
360.483	535.94
360.709	580.94
360.936	556.94
361.163	570.94
361.39	563.94
361.616	580.94
361.843	562.94
362.07	585.94
362.296	563.94
362.523	568.94
362.749	558.94
362.976	562.94
363.203	575.94
363.429	566.94
363.656	574.94
363.882	547.94
364.109	538.94
364.335	558.94
364.562	568.94
364.788	560.94
365.015	559.94
365.241	570.94
365.468	557.94
365.694	542.94
365.92	546.94
366.147	560.94
366.373	559.94
366.599	565.94
366.826	553.94
367.052	568.94
367.278	562.94
367.505	545.94
367.731	546.94
367.957	580.94
368.184	559.94
368.41	547.94
368.636	572.94
368.862	571.94
369.089	583.94
369.315	578.94
369.541	557.94
369.767	593.94
369.993	594.94
370.219	565.94
370.445	587.94
370.672	576.94
370.898	592.94
371.124	607.94
371.35	582.94
371.576	595.94
371.802	609.94
372.028	618.94
372.254	589.94
372.48	595.94
372.706	592.94
372.932	609.94
373.158	602.94
373.384	629.94
373.61	588.94
373.835	604.94
374.061	624.94
374.287	609.94
374.513	612.94
374.739	601.94
374.965	615.94
375.191	635.94
375.416	654.94
375.642	646.94
375.868	618.94
376.094	598.94
376.319	615.94
376.545	604.94
376.771	584.94
376.997	594.94
377.222	586.94
377.448	615.94
377.674	594.94
377.899	585.94
378.125	610.94
378.35	586.94
378.576	582.94
378.802	603.94
379.027	601.94
379.253	583.94
379.478	587.94
379.704	552.94
379.929	595.94
380.155	574.94
380.38	560.94
380.606	568.94
380.831	563.94
381.057	595.94
381.282	567.94
381.507	602.94
381.733	582.94
381.958	578.94
382.184	599.94
382.409	606.94
382.634	581.94
382.86	619.94
383.085	616.94
383.31	652.94
383.535	634.94
383.761	629.94
383.986	637.94
384.211	643.94
384.436	673.94
384.662	672.94
384.887	668.94
385.112	688.94
385.337	670.94
385.562	691.94
385.787	699.94
386.013	684.94
386.238	681.94
386.463	703.94
386.688	698.94
386.913	696.94
387.138	681.94
387.363	678.94
387.588	683.94
387.813	680.94
388.038	664.94
388.263	689.94
388.488	702.94
388.713	690.94
388.938	696.94
389.163	694.94
389.387	684.94
389.612	671.94
389.837	670.94
390.062	692.94
390.287	694.94
390.512	686.94
390.736	685.94
390.961	710.94
391.186	696.94
391.411	721.94
391.636	738.94
391.86	747.94
392.085	768.94
392.31	743.94
392.534	778.94
392.759	750.94
392.984	719.94
393.208	717.94
393.433	732.94
393.658	715.94
393.882	713.94
394.107	723.94
394.331	756.94
394.556	725.94
394.78	750.94
395.005	746.94
395.229	738.94
395.454	764.94
395.678	768.94
395.903	795.94
396.127	764.94
396.352	759.94
396.576	775.94
396.801	738.94
397.025	731.94
397.249	780.94
397.474	772.94
397.698	787.94
397.922	778.94
398.147	792.94
398.371	780.94
398.595	833.94
398.82	852.94
399.044	929.94
399.268	946.94
399.492	1103.94
399.717	1140.94
399.941	1122.94
400.165	1090.94
400.389	1011.94
400.613	958.94
400.837	927.94
401.062	891.94
401.286	863.94
401.51	871.94
401.734	849.94
401.958	887.94
402.182	872.94
402.406	871.94
402.63	868.94
402.854	873.94
403.078	895.94
403.302	894.94
403.526	904.94
403.75	950.94
403.974	923.94
404.198	940.94
404.422	932.94
404.645	918.94
404.869	934.94
405.093	932.94
405.317	935.94
405.541	935.94
405.765	930.94
405.988	940.94
406.212	961.94
406.436	934.94
406.66	949.94
406.883	946.94
407.107	1015.94
407.331	1013.94
407.555	1077.94
407.778	1084.94
408.002	1018.94
408.226	1052.94
408.449	1012.94
408.673	1005.94
408.896	969.94
409.12	955.94
409.344	964.94
409.567	984.94
409.791	972.94
410.014	981.94
410.238	928.94
410.461	959.94
410.685	950.94
410.908	929.94
411.132	904.94
411.355	897.94
411.578	926.94
411.802	941.94
412.025	895.94
412.249	927.94
412.472	912.94
412.695	885.94
412.919	914.94
413.142	866.94
413.365	870.94
413.589	882.94
413.812	858.94
414.035	847.94
414.258	869.94
414.482	888.94
414.705	886.94
414.928	891.94
415.151	900.94
415.374	851.94
415.597	875.94
415.821	836.94
416.044	830.94
416.267	831.94
416.49	847.94
416.713	870.94
416.936	859.94
417.159	843.94
417.382	844.94
417.605	860.94
417.828	837.94
418.051	862.94
418.274	869.94
418.497	855.94
418.72	905.94
418.943	896.94
419.166	902.94
419.389	977.94
419.611	960.94
419.834	939.94
420.057	905.94
420.28	918.94
420.503	870.94
420.726	833.94
420.948	858.94
421.171	863.94
421.394	862.94
421.617	865.94
421.839	858.94
422.062	857.94
422.285	850.94
422.507	865.94
422.73	864.94
422.953	854.94
423.175	858.94
423.398	900.94
423.621	912.94
423.843	900.94
424.066	911.94
424.288	873.94
424.511	872.94
424.733	874.94
424.956	901.94
425.178	874.94
425.401	856.94
425.623	854.94
425.846	836.94
426.068	838.94
426.291	845.94
426.513	825.94
426.735	833.94
426.958	825.94
427.18	841.94
427.402	843.94
427.625	804.94
427.847	812.94
428.069	823.94
428.292	816.94
428.514	780.94
428.736	772.94
428.958	803.94
429.181	816.94
429.403	795.94
429.625	781.94
429.847	816.94
430.069	794.94
430.292	786.94
430.514	787.94
430.736	774.94
430.958	810.94
431.18	758.94
431.402	800.94
431.624	796.94
431.846	819.94
432.068	806.94
432.29	806.94
432.512	784.94
432.734	805.94
432.956	808.94
433.178	810.94
433.4	819.94
433.622	790.94
433.844	811.94
434.066	818.94
434.287	806.94
434.509	850.94
434.731	864.94
434.953	872.94
435.175	898.94
435.397	878.94
435.618	841.94
435.84	828.94
436.062	834.94
436.284	819.94
436.505	786.94
436.727	808.94
436.949	816.94
437.17	803.94
437.392	781.94
437.614	808.94
437.835	778.94
438.057	766.94
438.278	779.94
438.5	739.94
438.721	780.94
438.943	770.94
439.165	786.94
439.386	784.94
439.608	803.94
439.829	791.94
440.05	821.94
440.272	790.94
440.493	811.94
440.715	822.94
440.936	832.94
441.158	828.94
441.379	853.94
441.6	891.94
441.822	851.94
442.043	887.94
442.264	840.94
442.486	884.94
442.707	871.94
442.928	873.94
443.149	902.94
443.371	875.94
443.592	890.94
443.813	873.94
444.034	898.94
444.255	888.94
444.476	936.94
444.698	993.94
444.919	988.94
445.14	1100.94
445.361	990.94
445.582	902.94
445.803	886.94
446.024	859.94
446.245	851.94
446.466	853.94
446.687	822.94
446.908	820.94
447.129	827.94
447.35	799.94
447.571	799.94
447.792	787.94
448.013	768.94
448.234	772.94
448.455	758.94
448.675	796.94
448.896	762.94
449.117	728.94
449.338	752.94
449.559	758.94
449.779	747.94
450	750.94
450.221	726.94
450.442	739.94
450.662	770.94
450.883	760.94
451.104	770.94
451.324	774.94
451.545	769.94
451.766	752.94
451.986	752.94
452.207	754.94
452.428	765.94
452.648	721.94
452.869	750.94
453.089	741.94
453.31	746.94
453.53	722.94
453.751	744.94
453.971	719.94
454.192	728.94
454.412	739.94
454.633	689.94
454.853	688.94
455.073	734.94
455.294	731.94
455.514	716.94
455.734	711.94
455.955	705.94
456.175	703.94
456.395	696.94
456.616	721.94
456.836	716.94
457.056	705.94
457.276	707.94
457.497	695.94
457.717	694.94
457.937	680.94
458.157	728.94
458.377	768.94
458.598	746.94
458.818	794.94
459.038	782.94
459.258	775.94
459.478	802.94
459.698	840.94
459.918	850.94
460.138	884.94
460.358	930.94
460.578	939.94
460.798	926.94
461.018	935.94
461.238	940.94
461.458	933.94
461.678	931.94
461.898	943.94
462.118	960.94
462.338	992.94
462.558	1037.94
462.777	1042.94
462.997	1098.94
463.217	1147.94
463.437	1196.94
463.657	1140.94
463.876	1110.94
464.096	1099.94
464.316	1056.94
464.536	1091.94
464.755	1055.94
464.975	1016.94
465.195	959.94
465.414	930.94
465.634	880.94
465.854	878.94
466.073	874.94
466.293	836.94
466.512	816.94
466.732	793.94
466.951	824.94
467.171	815.94
467.391	791.94
467.61	808.94
467.829	782.94
468.049	795.94
468.268	786.94
468.488	750.94
468.707	766.94
468.927	779.94
469.146	774.94
469.365	786.94
469.585	804.94
469.804	816.94
470.023	784.94
470.243	791.94
470.462	816.94
470.681	810.94
470.901	797.94
471.12	814.94
471.339	801.94
471.558	774.94
471.777	794.94
471.997	816.94
472.216	798.94
472.435	786.94
472.654	769.94
472.873	744.94
473.092	756.94
473.311	752.94
473.53	755.94
473.749	755.94
473.968	766.94
474.187	755.94
474.406	743.94
474.625	756.94
474.844	757.94
475.063	766.94
475.282	782.94
475.501	762.94
475.72	771.94
475.939	778.94
476.158	762.94
476.377	806.94
476.596	796.94
476.814	798.94
477.033	800.94
477.252	817.94
477.471	830.94
477.69	842.94
477.908	848.94
478.127	884.94
478.346	899.94
478.564	887.94
478.783	934.94
479.002	921.94
479.22	903.94
479.439	923.94
479.658	929.94
479.876	918.94
480.095	939.94
480.313	954.94
480.532	978.94
480.751	950.94
480.969	951.94
481.188	928.94
481.406	890.94
481.624	895.94
481.843	870.94
482.061	877.94
482.28	886.94
482.498	872.94
482.717	871.94
482.935	843.94
483.153	886.94
483.372	886.94
483.59	887.94
483.808	880.94
484.027	887.94
484.245	887.94
484.463	884.94
484.681	886.94
484.9	907.94
485.118	889.94
485.336	880.94
485.554	893.94
485.772	909.94
485.99	901.94
486.209	924.94
486.427	917.94
486.645	885.94
486.863	928.94
487.081	898.94
487.299	892.94
487.517	906.94
487.735	907.94
487.953	925.94
488.171	916.94
488.389	894.94
488.607	892.94
488.825	902.94
489.043	888.94
489.261	898.94
489.479	911.94
489.696	900.94
489.914	926.94
490.132	892.94
490.35	905.94
490.568	929.94
490.786	900.94
491.003	918.94
491.221	932.94
491.439	898.94
491.657	938.94
491.874	932.94
492.092	955.94
492.31	956.94
492.527	932.94
492.745	985.94
492.963	967.94
493.18	945.94
493.398	976.94
493.615	946.94
493.833	958.94
494.05	970.94
494.268	967.94
494.485	978.94
494.703	972.94
494.92	970.94
495.138	967.94
495.355	975.94
495.573	981.94
495.79	974.94
496.008	998.94
496.225	1020.94
496.442	1000.94
496.66	1041.94
496.877	1036.94
497.094	1039.94
497.312	1084.94
497.529	1110.94
497.746	1110.94
497.963	1152.94
498.181	1184.94
498.398	1203.94
498.615	1306.94
498.832	1377.94
499.049	1444.94
499.267	1524.94
499.484	1664.94
499.701	1799.94
499.918	1911.94
500.135	2117.94
500.352	2270.94
500.569	2388.94
500.786	2360.94
501.003	2245.94
