Data from NiCl2@0.5M.TitratingCurve.Agarose3%dH2O.NegLispCup.LampEnergy10.LIBS07252019_HRD10591_18-20-30-571.txt Node
Date: Thu Jul 25 18:20:30 EDT 2019
User: cochatt
Spectrometer: HR+D1059
Trigger mode: 1
Integration Time (sec): 1.000000E-1
Scans to average: 1
Electric dark correction enabled: true
Nonlinearity correction enabled: false
Boxcar width: 0
XAxis mode: Wavelengths
Number of Pixels in Spectrum: 2048
>>>>>Begin Spectral Data<<<<<
223.165	-30.62
223.4	-30.62
223.635	-30.62
223.869	-21.62
224.104	-18.62
224.338	-17.62
224.573	-15.62
224.808	-15.62
225.042	-9.62
225.277	-16.62
225.511	2.38
225.746	17.38
225.98	4.38
226.215	12.38
226.449	15.38
226.683	26.38
226.918	23.38
227.152	44.38
227.387	39.38
227.621	27.38
227.856	43.38
228.09	46.38
228.324	44.38
228.559	57.38
228.793	58.38
229.027	102.38
229.262	92.38
229.496	112.38
229.73	126.38
229.964	111.38
230.199	118.38
230.433	116.38
230.667	121.38
230.901	129.38
231.136	125.38
231.37	133.38
231.604	118.38
231.838	138.38
232.072	147.38
232.306	145.38
232.541	130.38
232.775	141.38
233.009	121.38
233.243	136.38
233.477	125.38
233.711	130.38
233.945	149.38
234.179	134.38
234.413	136.38
234.647	142.38
234.881	133.38
235.115	135.38
235.349	134.38
235.583	147.38
235.817	156.38
236.051	139.38
236.285	146.38
236.519	141.38
236.753	147.38
236.987	147.38
237.221	134.38
237.455	150.38
237.689	139.38
237.922	158.38
238.156	153.38
238.39	157.38
238.624	154.38
238.858	137.38
239.091	173.38
239.325	162.38
239.559	154.38
239.793	168.38
240.027	175.38
240.26	168.38
240.494	172.38
240.728	152.38
240.961	165.38
241.195	160.38
241.429	164.38
241.662	180.38
241.896	175.38
242.13	181.38
242.363	172.38
242.597	187.38
242.83	168.38
243.064	185.38
243.298	173.38
243.531	188.38
243.765	209.38
243.998	181.38
244.232	189.38
244.465	194.38
244.699	192.38
244.932	198.38
245.166	195.38
245.399	216.38
245.633	207.38
245.866	182.38
246.099	206.38
246.333	223.38
246.566	209.38
246.8	214.38
247.033	211.38
247.266	202.38
247.5	219.38
247.733	224.38
247.966	212.38
248.2	199.38
248.433	222.38
248.666	223.38
248.899	231.38
249.133	217.38
249.366	226.38
249.599	223.38
249.832	231.38
250.066	217.38
250.299	240.38
250.532	238.38
250.765	229.38
250.998	242.38
251.231	246.38
251.465	233.38
251.698	243.38
251.931	237.38
252.164	244.38
252.397	257.38
252.63	261.38
252.863	248.38
253.096	254.38
253.329	239.38
253.562	266.38
253.795	244.38
254.028	271.38
254.261	251.38
254.494	274.38
254.727	263.38
254.96	268.38
255.193	269.38
255.426	280.38
255.659	242.38
255.892	269.38
256.124	286.38
256.357	254.38
256.59	283.38
256.823	292.38
257.056	285.38
257.289	288.38
257.521	292.38
257.754	290.38
257.987	285.38
258.22	279.38
258.452	280.38
258.685	292.38
258.918	290.38
259.151	297.38
259.383	290.38
259.616	276.38
259.849	266.38
260.081	308.38
260.314	305.38
260.547	282.38
260.779	310.38
261.012	316.38
261.244	290.38
261.477	313.38
261.71	306.38
261.942	326.38
262.175	314.38
262.407	309.38
262.64	315.38
262.872	337.38
263.105	306.38
263.337	308.38
263.57	313.38
263.802	312.38
264.035	318.38
264.267	319.38
264.499	328.38
264.732	341.38
264.964	328.38
265.197	314.38
265.429	327.38
265.661	324.38
265.894	338.38
266.126	323.38
266.358	345.38
266.591	343.38
266.823	349.38
267.055	338.38
267.287	351.38
267.52	340.38
267.752	344.38
267.984	357.38
268.216	348.38
268.448	345.38
268.681	367.38
268.913	352.38
269.145	356.38
269.377	353.38
269.609	364.38
269.841	361.38
270.073	363.38
270.306	372.38
270.538	358.38
270.77	370.38
271.002	355.38
271.234	359.38
271.466	351.38
271.698	359.38
271.93	346.38
272.162	360.38
272.394	367.38
272.626	376.38
272.858	367.38
273.09	374.38
273.322	372.38
273.553	371.38
273.785	374.38
274.017	374.38
274.249	373.38
274.481	386.38
274.713	379.38
274.945	393.38
275.176	398.38
275.408	404.38
275.64	382.38
275.872	400.38
276.104	384.38
276.335	418.38
276.567	402.38
276.799	397.38
277.031	414.38
277.262	429.38
277.494	389.38
277.726	406.38
277.957	423.38
278.189	411.38
278.421	405.38
278.652	419.38
278.884	394.38
279.115	435.38
279.347	441.38
279.579	433.38
279.81	429.38
280.042	413.38
280.273	432.38
280.505	430.38
280.736	417.38
280.968	420.38
281.199	413.38
281.431	440.38
281.662	445.38
281.894	452.38
282.125	429.38
282.356	430.38
282.588	455.38
282.819	424.38
283.051	438.38
283.282	438.38
283.513	477.38
283.745	456.38
283.976	472.38
284.207	432.38
284.439	443.38
284.67	465.38
284.901	477.38
285.132	463.38
285.364	463.38
285.595	474.38
285.826	450.38
286.057	478.38
286.288	473.38
286.52	462.38
286.751	471.38
286.982	468.38
287.213	498.38
287.444	464.38
287.675	460.38
287.906	486.38
288.138	480.38
288.369	487.38
288.6	479.38
288.831	485.38
289.062	487.38
289.293	482.38
289.524	493.38
289.755	496.38
289.986	507.38
290.217	489.38
290.448	485.38
290.679	488.38
290.91	488.38
291.141	496.38
291.371	506.38
291.602	495.38
291.833	492.38
292.064	503.38
292.295	504.38
292.526	510.38
292.757	500.38
292.987	500.38
293.218	497.38
293.449	495.38
293.68	505.38
293.91	494.38
294.141	508.38
294.372	495.38
294.603	522.38
294.833	520.38
295.064	508.38
295.295	532.38
295.525	518.38
295.756	521.38
295.987	533.38
296.217	521.38
296.448	524.38
296.679	529.38
296.909	511.38
297.14	554.38
297.37	546.38
297.601	541.38
297.831	531.38
298.062	547.38
298.292	532.38
298.523	565.38
298.753	546.38
298.984	550.38
299.214	552.38
299.445	574.38
299.675	551.38
299.905	554.38
300.136	533.38
300.366	558.38
300.597	578.38
300.827	562.38
301.057	582.38
301.288	573.38
301.518	569.38
301.748	573.38
301.979	593.38
302.209	586.38
302.439	558.38
302.669	561.38
302.9	569.38
303.13	557.38
303.36	569.38
303.59	579.38
303.82	559.38
304.051	566.38
304.281	577.38
304.511	585.38
304.741	581.38
304.971	572.38
305.201	584.38
305.431	590.38
305.661	595.38
305.891	580.38
306.121	577.38
306.352	569.38
306.582	579.38
306.812	557.38
307.042	584.38
307.272	577.38
307.502	578.38
307.731	589.38
307.961	573.38
308.191	563.38
308.421	570.38
308.651	576.38
308.881	570.38
309.111	570.38
309.341	584.38
309.571	585.38
309.8	581.38
310.03	558.38
310.26	580.38
310.49	591.38
310.72	592.38
310.949	595.38
311.179	588.38
311.409	581.38
311.639	576.38
311.868	597.38
312.098	604.38
312.328	590.38
312.557	593.38
312.787	586.38
313.017	596.38
313.246	605.38
313.476	611.38
313.706	617.38
313.935	616.38
314.165	609.38
314.394	622.38
314.624	618.38
314.853	629.38
315.083	638.38
315.312	624.38
315.542	617.38
315.771	608.38
316.001	622.38
316.23	613.38
316.46	600.38
316.689	608.38
316.919	606.38
317.148	613.38
317.377	630.38
317.607	619.38
317.836	598.38
318.065	612.38
318.295	617.38
318.524	600.38
318.753	590.38
318.983	578.38
319.212	624.38
319.441	622.38
319.67	593.38
319.9	620.38
320.129	615.38
320.358	626.38
320.587	612.38
320.816	614.38
321.046	605.38
321.275	606.38
321.504	633.38
321.733	611.38
321.962	609.38
322.191	644.38
322.42	613.38
322.649	644.38
322.878	616.38
323.108	606.38
323.337	612.38
323.566	647.38
323.795	661.38
324.024	676.38
324.253	642.38
324.482	638.38
324.71	655.38
324.939	667.38
325.168	647.38
325.397	652.38
325.626	616.38
325.855	655.38
326.084	669.38
326.313	672.38
326.542	656.38
326.77	654.38
326.999	665.38
327.228	662.38
327.457	656.38
327.686	674.38
327.914	656.38
328.143	692.38
328.372	665.38
328.6	663.38
328.829	675.38
329.058	687.38
329.287	687.38
329.515	670.38
329.744	680.38
329.972	682.38
330.201	681.38
330.43	689.38
330.658	688.38
330.887	690.38
331.115	679.38
331.344	692.38
331.572	709.38
331.801	722.38
332.03	726.38
332.258	748.38
332.486	760.38
332.715	780.38
332.943	788.38
333.172	839.38
333.4	832.38
333.629	873.38
333.857	883.38
334.085	840.38
334.314	852.38
334.542	864.38
334.771	855.38
334.999	816.38
335.227	808.38
335.455	823.38
335.684	817.38
335.912	827.38
336.14	784.38
336.369	804.38
336.597	786.38
336.825	838.38
337.053	795.38
337.281	803.38
337.51	787.38
337.738	805.38
337.966	764.38
338.194	764.38
338.422	741.38
338.65	720.38
338.878	734.38
339.106	748.38
339.334	764.38
339.562	710.38
339.79	702.38
340.018	733.38
340.246	685.38
340.474	718.38
340.702	722.38
340.93	692.38
341.158	717.38
341.386	714.38
341.614	727.38
341.842	718.38
342.07	697.38
342.298	690.38
342.526	696.38
342.754	693.38
342.981	707.38
343.209	697.38
343.437	752.38
343.665	748.38
343.893	799.38
344.12	861.38
344.348	830.38
344.576	784.38
344.804	794.38
345.031	750.38
345.259	726.38
345.487	712.38
345.714	700.38
345.942	737.38
346.17	714.38
346.397	718.38
346.625	691.38
346.853	684.38
347.08	698.38
347.308	678.38
347.535	684.38
347.763	673.38
347.99	694.38
348.218	682.38
348.445	677.38
348.673	668.38
348.9	675.38
349.128	692.38
349.355	673.38
349.583	681.38
349.81	676.38
350.037	666.38
350.265	660.38
350.492	662.38
350.72	654.38
350.947	659.38
351.174	657.38
351.402	655.38
351.629	692.38
351.856	669.38
352.083	650.38
352.311	661.38
352.538	656.38
352.765	646.38
352.992	654.38
353.22	638.38
353.447	633.38
353.674	646.38
353.901	659.38
354.128	646.38
354.355	630.38
354.583	644.38
354.81	650.38
355.037	636.38
355.264	630.38
355.491	637.38
355.718	644.38
355.945	655.38
356.172	654.38
356.399	648.38
356.626	649.38
356.853	646.38
357.08	661.38
357.307	666.38
357.534	646.38
357.761	644.38
357.988	655.38
358.215	645.38
358.441	645.38
358.668	647.38
358.895	643.38
359.122	638.38
359.349	655.38
359.576	642.38
359.802	634.38
360.029	659.38
360.256	660.38
360.483	636.38
360.709	648.38
360.936	650.38
361.163	651.38
361.39	656.38
361.616	649.38
361.843	658.38
362.07	661.38
362.296	654.38
362.523	636.38
362.749	647.38
362.976	650.38
363.203	655.38
363.429	647.38
363.656	631.38
363.882	650.38
364.109	643.38
364.335	651.38
364.562	634.38
364.788	629.38
365.015	637.38
365.241	635.38
365.468	634.38
365.694	648.38
365.92	666.38
366.147	657.38
366.373	648.38
366.599	630.38
366.826	634.38
367.052	644.38
367.278	628.38
367.505	638.38
367.731	631.38
367.957	638.38
368.184	654.38
368.41	646.38
368.636	635.38
368.862	645.38
369.089	641.38
369.315	667.38
369.541	640.38
369.767	647.38
369.993	664.38
370.219	658.38
370.445	685.38
370.672	676.38
370.898	686.38
371.124	677.38
371.35	693.38
371.576	702.38
371.802	676.38
372.028	673.38
372.254	671.38
372.48	670.38
372.706	680.38
372.932	689.38
373.158	691.38
373.384	692.38
373.61	686.38
373.835	669.38
374.061	678.38
374.287	690.38
374.513	703.38
374.739	707.38
374.965	733.38
375.191	740.38
375.416	722.38
375.642	724.38
375.868	692.38
376.094	702.38
376.319	681.38
376.545	706.38
376.771	704.38
376.997	672.38
377.222	673.38
377.448	690.38
377.674	720.38
377.899	650.38
378.125	674.38
378.35	681.38
378.576	692.38
378.802	680.38
379.027	673.38
379.253	670.38
379.478	676.38
379.704	676.38
379.929	665.38
380.155	691.38
380.38	658.38
380.606	668.38
380.831	656.38
381.057	647.38
381.282	660.38
381.507	675.38
381.733	635.38
381.958	673.38
382.184	688.38
382.409	689.38
382.634	696.38
382.86	679.38
383.085	688.38
383.31	708.38
383.535	747.38
383.761	713.38
383.986	731.38
384.211	764.38
384.436	752.38
384.662	808.38
384.887	796.38
385.112	778.38
385.337	771.38
385.562	782.38
385.787	780.38
386.013	815.38
386.238	786.38
386.463	787.38
386.688	815.38
386.913	792.38
387.138	790.38
387.363	791.38
387.588	776.38
387.813	790.38
388.038	809.38
388.263	800.38
388.488	788.38
388.713	805.38
388.938	782.38
389.163	799.38
389.387	782.38
389.612	769.38
389.837	768.38
390.062	764.38
390.287	776.38
390.512	788.38
390.736	785.38
390.961	790.38
391.186	796.38
391.411	836.38
391.636	834.38
391.86	888.38
392.085	872.38
392.31	877.38
392.534	884.38
392.759	856.38
392.984	838.38
393.208	838.38
393.433	847.38
393.658	848.38
393.882	843.38
394.107	871.38
394.331	857.38
394.556	872.38
394.78	857.38
395.005	849.38
395.229	852.38
395.454	875.38
395.678	875.38
395.903	881.38
396.127	897.38
396.352	873.38
396.576	830.38
396.801	832.38
397.025	888.38
397.249	874.38
397.474	888.38
397.698	922.38
397.922	871.38
398.147	886.38
398.371	892.38
398.595	928.38
398.82	990.38
399.044	1016.38
399.268	1123.38
399.492	1278.38
399.717	1364.38
399.941	1384.38
400.165	1245.38
400.389	1143.38
400.613	1058.38
400.837	1036.38
401.062	992.38
401.286	982.38
401.51	979.38
401.734	975.38
401.958	1011.38
402.182	1010.38
402.406	989.38
402.63	1020.38
402.854	1029.38
403.078	1040.38
403.302	1072.38
403.526	1066.38
403.75	1110.38
403.974	1081.38
404.198	1102.38
404.422	1098.38
404.645	1074.38
404.869	1058.38
405.093	1097.38
405.317	1065.38
405.541	1093.38
405.765	1047.38
405.988	1069.38
406.212	1096.38
406.436	1082.38
406.66	1119.38
406.883	1125.38
407.107	1189.38
407.331	1194.38
407.555	1240.38
407.778	1203.38
408.002	1215.38
408.226	1193.38
408.449	1172.38
408.673	1124.38
408.896	1096.38
409.12	1087.38
409.344	1113.38
409.567	1109.38
409.791	1116.38
410.014	1135.38
410.238	1071.38
410.461	1085.38
410.685	1067.38
410.908	1080.38
411.132	1073.38
411.355	1037.38
411.578	1033.38
411.802	999.38
412.025	1049.38
412.249	1024.38
412.472	1062.38
412.695	1031.38
412.919	1008.38
413.142	988.38
413.365	998.38
413.589	977.38
413.812	997.38
414.035	994.38
414.258	975.38
414.482	996.38
414.705	991.38
414.928	988.38
415.151	1013.38
415.374	1008.38
415.597	1024.38
415.821	973.38
416.044	974.38
416.267	968.38
416.49	965.38
416.713	947.38
416.936	977.38
417.159	983.38
417.382	969.38
417.605	949.38
417.828	949.38
418.051	991.38
418.274	975.38
418.497	967.38
418.72	1016.38
418.943	996.38
419.166	1086.38
419.389	1106.38
419.611	1096.38
419.834	1053.38
420.057	1038.38
420.28	978.38
420.503	996.38
420.726	976.38
420.948	960.38
421.171	975.38
421.394	995.38
421.617	985.38
421.839	973.38
422.062	1009.38
422.285	980.38
422.507	1009.38
422.73	1008.38
422.953	1025.38
423.175	1014.38
423.398	1035.38
423.621	1025.38
423.843	1042.38
424.066	1021.38
424.288	1036.38
424.511	1018.38
424.733	1031.38
424.956	988.38
425.178	969.38
425.401	1020.38
425.623	991.38
425.846	976.38
426.068	953.38
426.291	943.38
426.513	948.38
426.735	955.38
426.958	965.38
427.18	907.38
427.402	953.38
427.625	929.38
427.847	901.38
428.069	892.38
428.292	920.38
428.514	916.38
428.736	915.38
428.958	931.38
429.181	888.38
429.403	886.38
429.625	880.38
429.847	871.38
430.069	896.38
430.292	910.38
430.514	882.38
430.736	897.38
430.958	869.38
431.18	869.38
431.402	885.38
431.624	870.38
431.846	884.38
432.068	921.38
432.29	939.38
432.512	897.38
432.734	917.38
432.956	910.38
433.178	916.38
433.4	897.38
433.622	941.38
433.844	950.38
434.066	932.38
434.287	933.38
434.509	962.38
434.731	978.38
434.953	999.38
435.175	1007.38
435.397	1017.38
435.618	953.38
435.84	925.38
436.062	917.38
436.284	899.38
436.505	912.38
436.727	929.38
436.949	928.38
437.17	900.38
437.392	936.38
437.614	918.38
437.835	877.38
438.057	881.38
438.278	881.38
438.5	868.38
438.721	872.38
438.943	911.38
439.165	896.38
439.386	898.38
439.608	936.38
439.829	926.38
440.05	939.38
440.272	897.38
440.493	949.38
440.715	940.38
440.936	967.38
441.158	940.38
441.379	971.38
441.6	1004.38
441.822	1000.38
442.043	990.38
442.264	974.38
442.486	971.38
442.707	1006.38
442.928	994.38
443.149	987.38
443.371	962.38
443.592	1012.38
443.813	1039.38
444.034	1012.38
444.255	1035.38
444.476	1111.38
444.698	1108.38
444.919	1182.38
445.14	1231.38
445.361	1117.38
445.582	1050.38
445.803	1008.38
446.024	968.38
446.245	970.38
446.466	969.38
446.687	951.38
446.908	942.38
447.129	910.38
447.35	916.38
447.571	868.38
447.792	866.38
448.013	878.38
448.234	886.38
448.455	870.38
448.675	862.38
448.896	844.38
449.117	848.38
449.338	847.38
449.559	860.38
449.779	825.38
450	833.38
450.221	856.38
450.442	839.38
450.662	859.38
450.883	866.38
451.104	876.38
451.324	863.38
451.545	840.38
451.766	871.38
451.986	848.38
452.207	856.38
452.428	854.38
452.648	840.38
452.869	834.38
453.089	786.38
453.31	817.38
453.53	821.38
453.751	847.38
453.971	834.38
454.192	816.38
454.412	793.38
454.633	796.38
454.853	801.38
455.073	801.38
455.294	799.38
455.514	809.38
455.734	798.38
455.955	807.38
456.175	796.38
456.395	800.38
456.616	782.38
456.836	799.38
457.056	805.38
457.276	788.38
457.497	784.38
457.717	777.38
457.937	822.38
458.157	812.38
458.377	806.38
458.598	848.38
458.818	857.38
459.038	890.38
459.258	900.38
459.478	913.38
459.698	960.38
459.918	974.38
460.138	995.38
460.358	1036.38
460.578	1043.38
460.798	1074.38
461.018	1086.38
461.238	1069.38
461.458	1060.38
461.678	1044.38
461.898	1039.38
462.118	1073.38
462.338	1135.38
462.558	1176.38
462.777	1183.38
462.997	1280.38
463.217	1343.38
463.437	1366.38
463.657	1278.38
463.876	1258.38
464.096	1237.38
464.316	1226.38
464.536	1217.38
464.755	1187.38
464.975	1134.38
465.195	1102.38
465.414	1052.38
465.634	987.38
465.854	967.38
466.073	940.38
466.293	964.38
466.512	935.38
466.732	913.38
466.951	895.38
467.171	924.38
467.391	912.38
467.61	890.38
467.829	893.38
468.049	924.38
468.268	868.38
468.488	874.38
468.707	848.38
468.927	853.38
469.146	859.38
469.365	855.38
469.585	879.38
469.804	892.38
470.023	925.38
470.243	915.38
470.462	929.38
470.681	931.38
470.901	912.38
471.12	920.38
471.339	885.38
471.558	892.38
471.777	881.38
471.997	880.38
472.216	867.38
472.435	843.38
472.654	856.38
472.873	856.38
473.092	853.38
473.311	855.38
473.53	842.38
473.749	836.38
473.968	829.38
474.187	834.38
474.406	840.38
474.625	872.38
474.844	857.38
475.063	869.38
475.282	858.38
475.501	862.38
475.72	867.38
475.939	877.38
476.158	888.38
476.377	910.38
476.596	904.38
476.814	917.38
477.033	919.38
477.252	906.38
477.471	923.38
477.69	937.38
477.908	988.38
478.127	1023.38
478.346	983.38
478.564	1056.38
478.783	998.38
479.002	1060.38
479.22	1054.38
479.439	1035.38
479.658	1059.38
479.876	1074.38
480.095	1080.38
480.313	1107.38
480.532	1105.38
480.751	1110.38
480.969	1071.38
481.188	1044.38
481.406	1017.38
481.624	999.38
481.843	996.38
482.061	1002.38
482.28	963.38
482.498	998.38
482.717	974.38
482.935	945.38
483.153	1008.38
483.372	984.38
483.59	998.38
483.808	988.38
484.027	1001.38
484.245	1015.38
484.463	1015.38
484.681	1031.38
484.9	1018.38
485.118	1014.38
485.336	1022.38
485.554	982.38
485.772	1008.38
485.99	1036.38
486.209	1025.38
486.427	1021.38
486.645	1004.38
486.863	1058.38
487.081	1030.38
487.299	1033.38
487.517	1038.38
487.735	1020.38
487.953	1068.38
488.171	1044.38
488.389	1016.38
488.607	999.38
488.825	1013.38
489.043	1046.38
489.261	1032.38
489.479	1026.38
489.696	1026.38
489.914	1032.38
490.132	1044.38
490.35	1032.38
490.568	1035.38
490.786	1044.38
491.003	1040.38
491.221	1045.38
491.439	1039.38
491.657	1042.38
491.874	1067.38
492.092	1046.38
492.31	1094.38
492.527	1084.38
492.745	1080.38
492.963	1098.38
493.18	1090.38
493.398	1101.38
493.615	1070.38
493.833	1083.38
494.05	1108.38
494.268	1077.38
494.485	1100.38
494.703	1082.38
494.92	1086.38
495.138	1128.38
495.355	1110.38
495.573	1106.38
495.79	1108.38
496.008	1150.38
496.225	1137.38
496.442	1143.38
496.66	1146.38
496.877	1143.38
497.094	1158.38
497.312	1200.38
497.529	1219.38
497.746	1264.38
497.963	1289.38
498.181	1317.38
498.398	1347.38
498.615	1443.38
498.832	1506.38
