Data from NiCl2@0.0625M.TitratingCurve.Agarose3%dH2O.NegLispCup.LampEnergy10.LIBS07252019_HRD10591_18-34-48-576.txt Node
Date: Thu Jul 25 18:34:48 EDT 2019
User: cochatt
Spectrometer: HR+D1059
Trigger mode: 1
Integration Time (sec): 1.000000E-1
Scans to average: 1
Electric dark correction enabled: true
Nonlinearity correction enabled: false
Boxcar width: 0
XAxis mode: Wavelengths
Number of Pixels in Spectrum: 2048
>>>>>Begin Spectral Data<<<<<
223.165	-8.44
223.4	-8.44
223.635	-8.44
223.869	-20.44
224.104	-20.44
224.338	-24.44
224.573	-12.44
224.808	-10.44
225.042	2.56
225.277	-11.44
225.511	3.56
225.746	5.56
225.98	12.56
226.215	10.56
226.449	2.56
226.683	12.56
226.918	31.56
227.152	26.56
227.387	27.56
227.621	32.56
227.856	42.56
228.09	34.56
228.324	42.56
228.559	52.56
228.793	88.56
229.027	109.56
229.262	142.56
229.496	147.56
229.73	169.56
229.964	148.56
230.199	181.56
230.433	159.56
230.667	170.56
230.901	173.56
231.136	188.56
231.37	169.56
231.604	169.56
231.838	179.56
232.072	189.56
232.306	181.56
232.541	182.56
232.775	184.56
233.009	188.56
233.243	179.56
233.477	168.56
233.711	196.56
233.945	204.56
234.179	185.56
234.413	183.56
234.647	207.56
234.881	182.56
235.115	199.56
235.349	189.56
235.583	196.56
235.817	179.56
236.051	193.56
236.285	200.56
236.519	205.56
236.753	225.56
236.987	210.56
237.221	203.56
237.455	203.56
237.689	208.56
237.922	210.56
238.156	211.56
238.39	232.56
238.624	218.56
238.858	231.56
239.091	225.56
239.325	226.56
239.559	235.56
239.793	245.56
240.027	239.56
240.26	226.56
240.494	233.56
240.728	244.56
240.961	251.56
241.195	230.56
241.429	267.56
241.662	261.56
241.896	258.56
242.13	250.56
242.363	248.56
242.597	252.56
242.83	275.56
243.064	278.56
243.298	280.56
243.531	281.56
243.765	290.56
243.998	288.56
244.232	288.56
244.465	281.56
244.699	307.56
244.932	310.56
245.166	315.56
245.399	298.56
245.633	308.56
245.866	311.56
246.099	303.56
246.333	321.56
246.566	308.56
246.8	318.56
247.033	315.56
247.266	308.56
247.5	299.56
247.733	322.56
247.966	330.56
248.2	339.56
248.433	345.56
248.666	340.56
248.899	351.56
249.133	341.56
249.366	357.56
249.599	361.56
249.832	357.56
250.066	367.56
250.299	356.56
250.532	353.56
250.765	357.56
250.998	365.56
251.231	379.56
251.465	360.56
251.698	355.56
251.931	394.56
252.164	388.56
252.397	376.56
252.63	382.56
252.863	379.56
253.096	385.56
253.329	391.56
253.562	393.56
253.795	404.56
254.028	384.56
254.261	370.56
254.494	407.56
254.727	410.56
254.96	380.56
255.193	376.56
255.426	395.56
255.659	401.56
255.892	423.56
256.124	431.56
256.357	422.56
256.59	442.56
256.823	413.56
257.056	458.56
257.289	442.56
257.521	438.56
257.754	447.56
257.987	449.56
258.22	443.56
258.452	449.56
258.685	464.56
258.918	459.56
259.151	447.56
259.383	464.56
259.616	459.56
259.849	458.56
260.081	457.56
260.314	471.56
260.547	472.56
260.779	458.56
261.012	460.56
261.244	455.56
261.477	477.56
261.71	475.56
261.942	488.56
262.175	495.56
262.407	490.56
262.64	491.56
262.872	479.56
263.105	492.56
263.337	498.56
263.57	519.56
263.802	496.56
264.035	497.56
264.267	499.56
264.499	499.56
264.732	512.56
264.964	522.56
265.197	516.56
265.429	524.56
265.661	530.56
265.894	518.56
266.126	503.56
266.358	543.56
266.591	522.56
266.823	514.56
267.055	527.56
267.287	516.56
267.52	537.56
267.752	545.56
267.984	546.56
268.216	545.56
268.448	543.56
268.681	535.56
268.913	551.56
269.145	551.56
269.377	563.56
269.609	570.56
269.841	555.56
270.073	545.56
270.306	546.56
270.538	578.56
270.77	569.56
271.002	547.56
271.234	572.56
271.466	590.56
271.698	578.56
271.93	592.56
272.162	568.56
272.394	577.56
272.626	575.56
272.858	568.56
273.09	587.56
273.322	591.56
273.553	595.56
273.785	608.56
274.017	635.56
274.249	611.56
274.481	614.56
274.713	608.56
274.945	589.56
275.176	607.56
275.408	595.56
275.64	620.56
275.872	595.56
276.104	650.56
276.335	623.56
276.567	626.56
276.799	641.56
277.031	650.56
277.262	633.56
277.494	635.56
277.726	662.56
277.957	656.56
278.189	649.56
278.421	651.56
278.652	648.56
278.884	655.56
279.115	663.56
279.347	665.56
279.579	660.56
279.81	651.56
280.042	687.56
280.273	660.56
280.505	673.56
280.736	669.56
280.968	662.56
281.199	718.56
281.431	691.56
281.662	697.56
281.894	707.56
282.125	706.56
282.356	683.56
282.588	728.56
282.819	679.56
283.051	699.56
283.282	695.56
283.513	704.56
283.745	717.56
283.976	721.56
284.207	711.56
284.439	723.56
284.67	733.56
284.901	730.56
285.132	724.56
285.364	725.56
285.595	749.56
285.826	751.56
286.057	746.56
286.288	747.56
286.52	752.56
286.751	755.56
286.982	743.56
287.213	762.56
287.444	757.56
287.675	781.56
287.906	795.56
288.138	778.56
288.369	753.56
288.6	785.56
288.831	771.56
289.062	791.56
289.293	794.56
289.524	766.56
289.755	778.56
289.986	771.56
290.217	780.56
290.448	792.56
290.679	799.56
290.91	749.56
291.141	757.56
291.371	783.56
291.602	779.56
291.833	785.56
292.064	796.56
292.295	802.56
292.526	803.56
292.757	784.56
292.987	784.56
293.218	791.56
293.449	815.56
293.68	797.56
293.91	803.56
294.141	801.56
294.372	810.56
294.603	803.56
294.833	803.56
295.064	791.56
295.295	820.56
295.525	818.56
295.756	816.56
295.987	803.56
296.217	805.56
296.448	828.56
296.679	805.56
296.909	834.56
297.14	817.56
297.37	834.56
297.601	837.56
297.831	854.56
298.062	856.56
298.292	866.56
298.523	878.56
298.753	875.56
298.984	877.56
299.214	870.56
299.445	875.56
299.675	858.56
299.905	845.56
300.136	886.56
300.366	864.56
300.597	870.56
300.827	899.56
301.057	913.56
301.288	899.56
301.518	895.56
301.748	898.56
301.979	924.56
302.209	902.56
302.439	906.56
302.669	911.56
302.9	874.56
303.13	882.56
303.36	915.56
303.59	927.56
303.82	873.56
304.051	903.56
304.281	881.56
304.511	892.56
304.741	891.56
304.971	900.56
305.201	890.56
305.431	908.56
305.661	900.56
305.891	870.56
306.121	889.56
306.352	915.56
306.582	884.56
306.812	896.56
307.042	892.56
307.272	868.56
307.502	886.56
307.731	903.56
307.961	892.56
308.191	892.56
308.421	863.56
308.651	896.56
308.881	864.56
309.111	900.56
309.341	900.56
309.571	928.56
309.8	867.56
310.03	901.56
310.26	893.56
310.49	899.56
310.72	905.56
310.949	913.56
311.179	897.56
311.409	920.56
311.639	900.56
311.868	926.56
312.098	906.56
312.328	945.56
312.557	947.56
312.787	916.56
313.017	948.56
313.246	969.56
313.476	953.56
313.706	932.56
313.935	920.56
314.165	961.56
314.394	947.56
314.624	979.56
314.853	971.56
315.083	970.56
315.312	963.56
315.542	968.56
315.771	968.56
316.001	956.56
316.23	959.56
316.46	959.56
316.689	976.56
316.919	980.56
317.148	959.56
317.377	955.56
317.607	952.56
317.836	934.56
318.065	937.56
318.295	929.56
318.524	948.56
318.753	983.56
318.983	948.56
319.212	928.56
319.441	939.56
319.67	966.56
319.9	955.56
320.129	933.56
320.358	961.56
320.587	949.56
320.816	954.56
321.046	946.56
321.275	939.56
321.504	967.56
321.733	955.56
321.962	971.56
322.191	964.56
322.42	978.56
322.649	967.56
322.878	965.56
323.108	970.56
323.337	1005.56
323.566	965.56
323.795	987.56
324.024	976.56
324.253	983.56
324.482	1011.56
324.71	994.56
324.939	1001.56
325.168	965.56
325.397	988.56
325.626	1015.56
325.855	1025.56
326.084	1038.56
326.313	1047.56
326.542	1043.56
326.77	1044.56
326.999	1016.56
327.228	1009.56
327.457	1007.56
327.686	1033.56
327.914	1030.56
328.143	1041.56
328.372	1008.56
328.6	1045.56
328.829	1041.56
329.058	1036.56
329.287	1053.56
329.515	1075.56
329.744	1060.56
329.972	1068.56
330.201	1056.56
330.43	1057.56
330.658	1067.56
330.887	1072.56
331.115	1094.56
331.344	1127.56
331.572	1112.56
331.801	1117.56
332.03	1160.56
332.258	1139.56
332.486	1141.56
332.715	1185.56
332.943	1228.56
333.172	1282.56
333.4	1327.56
333.629	1289.56
333.857	1331.56
334.085	1343.56
334.314	1319.56
334.542	1324.56
334.771	1348.56
334.999	1311.56
335.227	1317.56
335.455	1298.56
335.684	1278.56
335.912	1291.56
336.14	1249.56
336.369	1253.56
336.597	1266.56
336.825	1247.56
337.053	1263.56
337.281	1213.56
337.51	1208.56
337.738	1181.56
337.966	1191.56
338.194	1208.56
338.422	1133.56
338.65	1186.56
338.878	1148.56
339.106	1137.56
339.334	1121.56
339.562	1133.56
339.79	1114.56
340.018	1118.56
340.246	1089.56
340.474	1104.56
340.702	1078.56
340.93	1084.56
341.158	1087.56
341.386	1112.56
341.614	1111.56
341.842	1127.56
342.07	1079.56
342.298	1074.56
342.526	1072.56
342.754	1077.56
342.981	1092.56
343.209	1095.56
343.437	1128.56
343.665	1189.56
343.893	1228.56
344.12	1306.56
344.348	1235.56
344.576	1247.56
344.804	1198.56
345.031	1163.56
345.259	1119.56
345.487	1081.56
345.714	1103.56
345.942	1083.56
346.17	1080.56
346.397	1079.56
346.625	1069.56
346.853	1062.56
347.08	1022.56
347.308	1065.56
347.535	1045.56
347.763	1025.56
347.99	1032.56
348.218	1056.56
348.445	1018.56
348.673	1060.56
348.9	1047.56
349.128	1049.56
349.355	1037.56
349.583	1034.56
349.81	1045.56
350.037	1016.56
350.265	1010.56
350.492	1004.56
350.72	1030.56
350.947	1029.56
351.174	1037.56
351.402	999.56
351.629	1051.56
351.856	1020.56
352.083	1013.56
352.311	1013.56
352.538	1001.56
352.765	1032.56
352.992	1019.56
353.22	1006.56
353.447	1021.56
353.674	1002.56
353.901	991.56
354.128	998.56
354.355	985.56
354.583	999.56
354.81	987.56
355.037	1029.56
355.264	1037.56
355.491	1013.56
355.718	1005.56
355.945	1008.56
356.172	964.56
356.399	986.56
356.626	1031.56
356.853	1047.56
357.08	1003.56
357.307	1015.56
357.534	1016.56
357.761	996.56
357.988	1041.56
358.215	1025.56
358.441	1034.56
358.668	1011.56
358.895	1009.56
359.122	1020.56
359.349	1008.56
359.576	1049.56
359.802	998.56
360.029	991.56
360.256	1025.56
360.483	992.56
360.709	1031.56
360.936	1041.56
361.163	1001.56
361.39	1016.56
361.616	1032.56
361.843	1019.56
362.07	1021.56
362.296	1014.56
362.523	1000.56
362.749	1028.56
362.976	1004.56
363.203	1035.56
363.429	1020.56
363.656	1012.56
363.882	1011.56
364.109	1018.56
364.335	1012.56
364.562	991.56
364.788	1003.56
365.015	1019.56
365.241	1018.56
365.468	1001.56
365.694	1007.56
365.92	1012.56
366.147	1029.56
366.373	1007.56
366.599	1032.56
366.826	1029.56
367.052	997.56
367.278	1038.56
367.505	1031.56
367.731	1030.56
367.957	1041.56
368.184	1033.56
368.41	1049.56
368.636	1033.56
368.862	1069.56
369.089	1027.56
369.315	1032.56
369.541	1031.56
369.767	1045.56
369.993	1060.56
370.219	1033.56
370.445	1068.56
370.672	1053.56
370.898	1071.56
371.124	1085.56
371.35	1082.56
371.576	1090.56
371.802	1100.56
372.028	1107.56
372.254	1078.56
372.48	1095.56
372.706	1141.56
372.932	1161.56
373.158	1113.56
373.384	1090.56
373.61	1096.56
373.835	1125.56
374.061	1120.56
374.287	1119.56
374.513	1140.56
374.739	1177.56
374.965	1187.56
375.191	1205.56
375.416	1185.56
375.642	1183.56
375.868	1201.56
376.094	1176.56
376.319	1119.56
376.545	1153.56
376.771	1123.56
376.997	1089.56
377.222	1130.56
377.448	1087.56
377.674	1141.56
377.899	1100.56
378.125	1067.56
378.35	1083.56
378.576	1088.56
378.802	1111.56
379.027	1092.56
379.253	1104.56
379.478	1079.56
379.704	1067.56
379.929	1085.56
380.155	1095.56
380.38	1087.56
380.606	1065.56
380.831	1097.56
381.057	1125.56
381.282	1090.56
381.507	1092.56
381.733	1088.56
381.958	1136.56
382.184	1128.56
382.409	1125.56
382.634	1140.56
382.86	1151.56
383.085	1159.56
383.31	1176.56
383.535	1203.56
383.761	1207.56
383.986	1197.56
384.211	1212.56
384.436	1228.56
384.662	1234.56
384.887	1289.56
385.112	1291.56
385.337	1260.56
385.562	1284.56
385.787	1299.56
386.013	1321.56
386.238	1319.56
386.463	1332.56
386.688	1321.56
386.913	1304.56
387.138	1287.56
387.363	1274.56
387.588	1295.56
387.813	1335.56
388.038	1263.56
388.263	1300.56
388.488	1312.56
388.713	1324.56
388.938	1298.56
389.163	1303.56
389.387	1327.56
389.612	1256.56
389.837	1255.56
390.062	1306.56
390.287	1292.56
390.512	1291.56
390.736	1311.56
390.961	1329.56
391.186	1380.56
391.411	1394.56
391.636	1377.56
391.86	1419.56
392.085	1448.56
392.31	1450.56
392.534	1426.56
392.759	1391.56
392.984	1400.56
393.208	1400.56
393.433	1377.56
393.658	1385.56
393.882	1402.56
394.107	1366.56
394.331	1412.56
394.556	1383.56
394.78	1417.56
395.005	1416.56
395.229	1425.56
395.454	1467.56
395.678	1448.56
395.903	1453.56
396.127	1458.56
396.352	1441.56
396.576	1416.56
396.801	1379.56
397.025	1436.56
397.249	1451.56
397.474	1474.56
397.698	1506.56
397.922	1487.56
398.147	1448.56
398.371	1533.56
398.595	1547.56
398.82	1609.56
399.044	1705.56
399.268	1870.56
399.492	2056.56
399.717	2225.56
399.941	2245.56
400.165	2099.56
400.389	1985.56
400.613	1821.56
400.837	1739.56
401.062	1690.56
401.286	1656.56
401.51	1632.56
401.734	1624.56
401.958	1659.56
402.182	1675.56
402.406	1673.56
402.63	1653.56
402.854	1683.56
403.078	1703.56
403.302	1736.56
403.526	1753.56
403.75	1801.56
403.974	1785.56
404.198	1803.56
404.422	1755.56
404.645	1801.56
404.869	1779.56
405.093	1788.56
405.317	1721.56
405.541	1760.56
405.765	1727.56
405.988	1743.56
406.212	1761.56
406.436	1772.56
406.66	1841.56
406.883	1835.56
407.107	1924.56
407.331	2019.56
407.555	2035.56
407.778	2075.56
408.002	2017.56
408.226	2005.56
408.449	1926.56
408.673	1874.56
408.896	1823.56
409.12	1831.56
409.344	1865.56
409.567	1812.56
409.791	1840.56
410.014	1814.56
410.238	1787.56
410.461	1765.56
410.685	1783.56
410.908	1760.56
411.132	1739.56
411.355	1663.56
411.578	1697.56
411.802	1746.56
412.025	1724.56
412.249	1719.56
412.472	1700.56
412.695	1698.56
412.919	1655.56
413.142	1653.56
413.365	1619.56
413.589	1673.56
413.812	1627.56
414.035	1627.56
414.258	1621.56
414.482	1595.56
414.705	1614.56
414.928	1638.56
415.151	1640.56
415.374	1630.56
415.597	1635.56
415.821	1590.56
416.044	1557.56
416.267	1563.56
416.49	1567.56
416.713	1557.56
416.936	1572.56
417.159	1565.56
417.382	1559.56
417.605	1510.56
417.828	1559.56
418.051	1583.56
418.274	1587.56
418.497	1579.56
418.72	1625.56
418.943	1586.56
419.166	1693.56
419.389	1768.56
419.611	1745.56
419.834	1701.56
420.057	1636.56
420.28	1614.56
420.503	1546.56
420.726	1580.56
420.948	1552.56
421.171	1541.56
421.394	1555.56
421.617	1544.56
421.839	1587.56
422.062	1578.56
422.285	1540.56
422.507	1591.56
422.73	1626.56
422.953	1600.56
423.175	1594.56
423.398	1654.56
423.621	1616.56
423.843	1637.56
424.066	1611.56
424.288	1631.56
424.511	1618.56
424.733	1587.56
424.956	1584.56
425.178	1568.56
425.401	1601.56
425.623	1595.56
425.846	1543.56
426.068	1531.56
426.291	1522.56
426.513	1503.56
426.735	1478.56
426.958	1496.56
427.18	1447.56
427.402	1468.56
427.625	1501.56
427.847	1448.56
428.069	1448.56
428.292	1461.56
428.514	1443.56
428.736	1421.56
428.958	1432.56
429.181	1419.56
429.403	1435.56
429.625	1426.56
429.847	1403.56
430.069	1412.56
430.292	1389.56
430.514	1385.56
430.736	1401.56
430.958	1397.56
431.18	1403.56
431.402	1431.56
431.624	1425.56
431.846	1445.56
432.068	1426.56
432.29	1469.56
432.512	1467.56
432.734	1448.56
432.956	1409.56
433.178	1430.56
433.4	1447.56
433.622	1421.56
433.844	1461.56
434.066	1476.56
434.287	1456.56
434.509	1528.56
434.731	1580.56
434.953	1610.56
435.175	1600.56
435.397	1601.56
435.618	1526.56
435.84	1476.56
436.062	1441.56
436.284	1436.56
436.505	1437.56
436.727	1469.56
436.949	1402.56
437.17	1417.56
437.392	1400.56
437.614	1412.56
437.835	1346.56
438.057	1388.56
438.278	1343.56
438.5	1359.56
438.721	1375.56
438.943	1371.56
439.165	1357.56
439.386	1381.56
439.608	1420.56
439.829	1399.56
440.05	1392.56
440.272	1430.56
440.493	1402.56
440.715	1399.56
440.936	1442.56
441.158	1482.56
441.379	1501.56
441.6	1581.56
441.822	1564.56
442.043	1559.56
442.264	1513.56
442.486	1500.56
442.707	1518.56
442.928	1545.56
443.149	1563.56
443.371	1504.56
443.592	1545.56
443.813	1521.56
444.034	1563.56
444.255	1631.56
444.476	1642.56
444.698	1753.56
444.919	1751.56
445.14	1840.56
445.361	1727.56
445.582	1638.56
445.803	1520.56
446.024	1475.56
446.245	1457.56
446.466	1465.56
446.687	1398.56
446.908	1467.56
447.129	1400.56
447.35	1393.56
447.571	1346.56
447.792	1357.56
448.013	1328.56
448.234	1318.56
448.455	1307.56
448.675	1298.56
448.896	1275.56
449.117	1289.56
449.338	1274.56
449.559	1279.56
449.779	1255.56
450	1249.56
450.221	1253.56
450.442	1287.56
450.662	1263.56
450.883	1271.56
451.104	1277.56
451.324	1263.56
451.545	1289.56
451.766	1316.56
451.986	1283.56
452.207	1256.56
452.428	1246.56
452.648	1259.56
452.869	1231.56
453.089	1228.56
453.31	1247.56
453.53	1245.56
453.751	1226.56
453.971	1234.56
454.192	1238.56
454.412	1186.56
454.633	1219.56
454.853	1236.56
455.073	1199.56
455.294	1166.56
455.514	1208.56
455.734	1194.56
455.955	1207.56
456.175	1190.56
456.395	1186.56
456.616	1195.56
456.836	1193.56
457.056	1181.56
457.276	1185.56
457.497	1254.56
457.717	1221.56
457.937	1175.56
458.157	1222.56
458.377	1225.56
458.598	1261.56
458.818	1285.56
459.038	1348.56
459.258	1360.56
459.478	1429.56
459.698	1455.56
459.918	1486.56
460.138	1555.56
460.358	1608.56
460.578	1597.56
460.798	1591.56
461.018	1645.56
461.238	1587.56
461.458	1583.56
461.678	1616.56
461.898	1600.56
462.118	1604.56
462.338	1732.56
462.558	1771.56
462.777	1789.56
462.997	1997.56
463.217	2009.56
463.437	2018.56
463.657	1958.56
463.876	1863.56
464.096	1893.56
464.316	1840.56
464.536	1815.56
464.755	1785.56
464.975	1756.56
465.195	1690.56
465.414	1590.56
465.634	1501.56
465.854	1475.56
466.073	1446.56
466.293	1426.56
466.512	1357.56
466.732	1329.56
466.951	1355.56
467.171	1333.56
467.391	1347.56
467.61	1354.56
467.829	1314.56
468.049	1298.56
468.268	1293.56
468.488	1297.56
468.707	1272.56
468.927	1307.56
469.146	1276.56
469.365	1272.56
469.585	1314.56
469.804	1333.56
470.023	1389.56
470.243	1362.56
470.462	1391.56
470.681	1388.56
470.901	1343.56
471.12	1334.56
471.339	1324.56
471.558	1344.56
471.777	1331.56
471.997	1327.56
472.216	1316.56
472.435	1298.56
472.654	1270.56
472.873	1299.56
473.092	1299.56
473.311	1255.56
473.53	1296.56
473.749	1277.56
473.968	1283.56
474.187	1273.56
474.406	1279.56
474.625	1297.56
474.844	1268.56
475.063	1284.56
475.282	1297.56
475.501	1284.56
475.72	1318.56
475.939	1327.56
476.158	1313.56
476.377	1355.56
476.596	1355.56
476.814	1367.56
477.033	1362.56
477.252	1400.56
477.471	1411.56
477.69	1419.56
477.908	1476.56
478.127	1464.56
478.346	1509.56
478.564	1517.56
478.783	1561.56
479.002	1555.56
479.22	1603.56
479.439	1609.56
479.658	1598.56
479.876	1579.56
480.095	1606.56
480.313	1653.56
480.532	1729.56
480.751	1717.56
480.969	1659.56
481.188	1609.56
481.406	1592.56
481.624	1571.56
481.843	1564.56
482.061	1603.56
482.28	1566.56
482.498	1536.56
482.717	1583.56
482.935	1562.56
483.153	1532.56
483.372	1585.56
483.59	1611.56
483.808	1580.56
484.027	1586.56
484.245	1609.56
484.463	1615.56
484.681	1684.56
484.9	1635.56
485.118	1706.56
485.336	1660.56
485.554	1685.56
485.772	1716.56
485.99	1729.56
486.209	1716.56
486.427	1733.56
486.645	1693.56
486.863	1689.56
487.081	1722.56
487.299	1659.56
487.517	1682.56
487.735	1677.56
487.953	1649.56
488.171	1650.56
488.389	1658.56
488.607	1650.56
488.825	1602.56
489.043	1598.56
489.261	1633.56
489.479	1601.56
489.696	1613.56
489.914	1590.56
490.132	1612.56
490.35	1598.56
490.568	1594.56
490.786	1618.56
491.003	1644.56
491.221	1631.56
491.439	1605.56
491.657	1574.56
