Data from NiCl2@0.25M.TitratingCurve.Agarose3%dH2O.NegLispCup.LampEnergy10.LIBS07252019_HRD10591_18-24-38-573.txt Node
Date: Thu Jul 25 18:24:38 EDT 2019
User: cochatt
Spectrometer: HR+D1059
Trigger mode: 1
Integration Time (sec): 1.000000E-1
Scans to average: 1
Electric dark correction enabled: true
Nonlinearity correction enabled: false
Boxcar width: 0
XAxis mode: Wavelengths
Number of Pixels in Spectrum: 2048
>>>>>Begin Spectral Data<<<<<
223.165	-16.81
223.4	-16.81
223.635	-16.81
223.869	-25.81
224.104	-30.81
224.338	8.19
224.573	-24.81
224.808	-3.81
225.042	0.19
225.277	-5.81
225.511	-5.81
225.746	0.19
225.98	8.19
226.215	13.19
226.449	17.19
226.683	23.19
226.918	11.19
227.152	32.19
227.387	36.19
227.621	42.19
227.856	52.19
228.09	57.19
228.324	56.19
228.559	48.19
228.793	53.19
229.027	105.19
229.262	113.19
229.496	104.19
229.73	117.19
229.964	102.19
230.199	114.19
230.433	99.19
230.667	122.19
230.901	128.19
231.136	122.19
231.37	139.19
231.604	132.19
231.838	121.19
232.072	140.19
232.306	142.19
232.541	144.19
232.775	141.19
233.009	127.19
233.243	139.19
233.477	142.19
233.711	141.19
233.945	148.19
234.179	127.19
234.413	132.19
234.647	136.19
234.881	137.19
235.115	128.19
235.349	136.19
235.583	161.19
235.817	142.19
236.051	146.19
236.285	148.19
236.519	145.19
236.753	166.19
236.987	152.19
237.221	165.19
237.455	152.19
237.689	172.19
237.922	155.19
238.156	143.19
238.39	139.19
238.624	140.19
238.858	165.19
239.091	171.19
239.325	153.19
239.559	167.19
239.793	164.19
240.027	189.19
240.26	150.19
240.494	163.19
240.728	170.19
240.961	159.19
241.195	182.19
241.429	176.19
241.662	176.19
241.896	165.19
242.13	183.19
242.363	191.19
242.597	180.19
242.83	192.19
243.064	177.19
243.298	195.19
243.531	202.19
243.765	203.19
243.998	206.19
244.232	194.19
244.465	184.19
244.699	183.19
244.932	187.19
245.166	204.19
245.399	188.19
245.633	193.19
245.866	188.19
246.099	193.19
246.333	203.19
246.566	206.19
246.8	211.19
247.033	242.19
247.266	205.19
247.5	205.19
247.733	210.19
247.966	222.19
248.2	228.19
248.433	225.19
248.666	201.19
248.899	201.19
249.133	220.19
249.366	217.19
249.599	219.19
249.832	221.19
250.066	214.19
250.299	226.19
250.532	221.19
250.765	215.19
250.998	227.19
251.231	253.19
251.465	220.19
251.698	228.19
251.931	234.19
252.164	250.19
252.397	256.19
252.63	245.19
252.863	246.19
253.096	233.19
253.329	254.19
253.562	233.19
253.795	251.19
254.028	250.19
254.261	244.19
254.494	245.19
254.727	262.19
254.96	243.19
255.193	253.19
255.426	257.19
255.659	268.19
255.892	264.19
256.124	274.19
256.357	278.19
256.59	267.19
256.823	261.19
257.056	280.19
257.289	255.19
257.521	254.19
257.754	272.19
257.987	282.19
258.22	270.19
258.452	275.19
258.685	280.19
258.918	277.19
259.151	278.19
259.383	284.19
259.616	271.19
259.849	282.19
260.081	272.19
260.314	291.19
260.547	281.19
260.779	293.19
261.012	278.19
261.244	297.19
261.477	282.19
261.71	278.19
261.942	283.19
262.175	297.19
262.407	306.19
262.64	293.19
262.872	294.19
263.105	296.19
263.337	291.19
263.57	316.19
263.802	313.19
264.035	298.19
264.267	319.19
264.499	306.19
264.732	308.19
264.964	315.19
265.197	329.19
265.429	323.19
265.661	315.19
265.894	326.19
266.126	303.19
266.358	312.19
266.591	329.19
266.823	323.19
267.055	313.19
267.287	330.19
267.52	335.19
267.752	336.19
267.984	342.19
268.216	329.19
268.448	336.19
268.681	340.19
268.913	331.19
269.145	331.19
269.377	332.19
269.609	359.19
269.841	328.19
270.073	334.19
270.306	347.19
270.538	327.19
270.77	337.19
271.002	359.19
271.234	337.19
271.466	344.19
271.698	348.19
271.93	370.19
272.162	359.19
272.394	347.19
272.626	359.19
272.858	346.19
273.09	352.19
273.322	369.19
273.553	370.19
273.785	352.19
274.017	360.19
274.249	362.19
274.481	372.19
274.713	353.19
274.945	388.19
275.176	375.19
275.408	386.19
275.64	349.19
275.872	374.19
276.104	360.19
276.335	395.19
276.567	367.19
276.799	391.19
277.031	381.19
277.262	390.19
277.494	371.19
277.726	366.19
277.957	387.19
278.189	385.19
278.421	395.19
278.652	372.19
278.884	396.19
279.115	399.19
279.347	397.19
279.579	382.19
279.81	385.19
280.042	386.19
280.273	406.19
280.505	426.19
280.736	425.19
280.968	425.19
281.199	403.19
281.431	414.19
281.662	422.19
281.894	420.19
282.125	422.19
282.356	439.19
282.588	420.19
282.819	418.19
283.051	402.19
283.282	414.19
283.513	437.19
283.745	439.19
283.976	417.19
284.207	438.19
284.439	426.19
284.67	454.19
284.901	427.19
285.132	447.19
285.364	441.19
285.595	448.19
285.826	444.19
286.057	446.19
286.288	432.19
286.52	432.19
286.751	453.19
286.982	441.19
287.213	432.19
287.444	450.19
287.675	469.19
287.906	432.19
288.138	444.19
288.369	443.19
288.6	442.19
288.831	478.19
289.062	461.19
289.293	487.19
289.524	460.19
289.755	472.19
289.986	451.19
290.217	474.19
290.448	462.19
290.679	460.19
290.91	480.19
291.141	462.19
291.371	462.19
291.602	468.19
291.833	486.19
292.064	482.19
292.295	487.19
292.526	464.19
292.757	462.19
292.987	443.19
293.218	499.19
293.449	479.19
293.68	475.19
293.91	478.19
294.141	477.19
294.372	455.19
294.603	460.19
294.833	487.19
295.064	482.19
295.295	487.19
295.525	474.19
295.756	490.19
295.987	505.19
296.217	491.19
296.448	476.19
296.679	476.19
296.909	464.19
297.14	489.19
297.37	496.19
297.601	520.19
297.831	512.19
298.062	530.19
298.292	522.19
298.523	525.19
298.753	523.19
298.984	498.19
299.214	512.19
299.445	510.19
299.675	507.19
299.905	519.19
300.136	509.19
300.366	524.19
300.597	501.19
300.827	536.19
301.057	535.19
301.288	530.19
301.518	560.19
301.748	555.19
301.979	542.19
302.209	561.19
302.439	542.19
302.669	560.19
302.9	552.19
303.13	534.19
303.36	561.19
303.59	541.19
303.82	546.19
304.051	546.19
304.281	540.19
304.511	522.19
304.741	522.19
304.971	556.19
305.201	540.19
305.431	534.19
305.661	532.19
305.891	530.19
306.121	519.19
306.352	538.19
306.582	533.19
306.812	543.19
307.042	535.19
307.272	535.19
307.502	523.19
307.731	542.19
307.961	521.19
308.191	545.19
308.421	513.19
308.651	519.19
308.881	516.19
309.111	514.19
309.341	520.19
309.571	519.19
309.8	540.19
310.03	513.19
310.26	514.19
310.49	530.19
310.72	545.19
310.949	530.19
311.179	541.19
311.409	562.19
311.639	564.19
311.868	569.19
312.098	550.19
312.328	546.19
312.557	552.19
312.787	570.19
313.017	571.19
313.246	583.19
313.476	571.19
313.706	590.19
313.935	580.19
314.165	558.19
314.394	542.19
314.624	572.19
314.853	565.19
315.083	564.19
315.312	574.19
315.542	582.19
315.771	584.19
316.001	544.19
316.23	560.19
316.46	541.19
316.689	574.19
316.919	567.19
317.148	576.19
317.377	571.19
317.607	545.19
317.836	565.19
318.065	546.19
318.295	577.19
318.524	559.19
318.753	543.19
318.983	544.19
319.212	568.19
319.441	564.19
319.67	567.19
319.9	562.19
320.129	541.19
320.358	576.19
320.587	569.19
320.816	555.19
321.046	566.19
321.275	560.19
321.504	555.19
321.733	574.19
321.962	567.19
322.191	565.19
322.42	566.19
322.649	577.19
322.878	558.19
323.108	575.19
323.337	564.19
323.566	584.19
323.795	578.19
324.024	597.19
324.253	586.19
324.482	597.19
324.71	587.19
324.939	582.19
325.168	592.19
325.397	603.19
325.626	588.19
325.855	610.19
326.084	624.19
326.313	618.19
326.542	610.19
326.77	642.19
326.999	633.19
327.228	588.19
327.457	633.19
327.686	627.19
327.914	619.19
328.143	626.19
328.372	630.19
328.6	612.19
328.829	613.19
329.058	609.19
329.287	607.19
329.515	627.19
329.744	615.19
329.972	644.19
330.201	631.19
330.43	628.19
330.658	610.19
330.887	620.19
331.115	634.19
331.344	626.19
331.572	651.19
331.801	674.19
332.03	710.19
332.258	694.19
332.486	724.19
332.715	729.19
332.943	757.19
333.172	801.19
333.4	827.19
333.629	830.19
333.857	855.19
334.085	834.19
334.314	796.19
334.542	811.19
334.771	790.19
334.999	777.19
335.227	778.19
335.455	756.19
335.684	778.19
335.912	774.19
336.14	766.19
336.369	755.19
336.597	768.19
336.825	757.19
337.053	752.19
337.281	734.19
337.51	715.19
337.738	706.19
337.966	712.19
338.194	681.19
338.422	680.19
338.65	667.19
338.878	700.19
339.106	692.19
339.334	646.19
339.562	660.19
339.79	629.19
340.018	634.19
340.246	632.19
340.474	640.19
340.702	659.19
340.93	678.19
341.158	655.19
341.386	657.19
341.614	658.19
341.842	650.19
342.07	638.19
342.298	631.19
342.526	633.19
342.754	639.19
342.981	650.19
343.209	659.19
343.437	680.19
343.665	734.19
343.893	787.19
344.12	833.19
344.348	775.19
344.576	731.19
344.804	666.19
345.031	670.19
345.259	650.19
345.487	645.19
345.714	658.19
345.942	618.19
346.17	622.19
346.397	640.19
346.625	635.19
346.853	625.19
347.08	600.19
347.308	632.19
347.535	646.19
347.763	628.19
347.99	624.19
348.218	671.19
348.445	628.19
348.673	609.19
348.9	625.19
349.128	581.19
349.355	617.19
349.583	606.19
349.81	625.19
350.037	614.19
350.265	593.19
350.492	583.19
350.72	596.19
350.947	594.19
351.174	591.19
351.402	614.19
351.629	603.19
351.856	592.19
352.083	606.19
352.311	600.19
352.538	610.19
352.765	619.19
352.992	606.19
353.22	593.19
353.447	578.19
353.674	608.19
353.901	612.19
354.128	598.19
354.355	607.19
354.583	584.19
354.81	606.19
355.037	592.19
355.264	607.19
355.491	609.19
355.718	603.19
355.945	601.19
356.172	598.19
356.399	602.19
356.626	607.19
356.853	603.19
357.08	611.19
357.307	592.19
357.534	631.19
357.761	608.19
357.988	624.19
358.215	614.19
358.441	611.19
358.668	603.19
358.895	595.19
359.122	608.19
359.349	601.19
359.576	600.19
359.802	606.19
360.029	606.19
360.256	591.19
360.483	622.19
360.709	591.19
360.936	625.19
361.163	624.19
361.39	587.19
361.616	603.19
361.843	602.19
362.07	613.19
362.296	606.19
362.523	575.19
362.749	597.19
362.976	582.19
363.203	601.19
363.429	596.19
363.656	595.19
363.882	593.19
364.109	602.19
364.335	611.19
364.562	610.19
364.788	599.19
365.015	618.19
365.241	577.19
365.468	611.19
365.694	582.19
365.92	592.19
366.147	599.19
366.373	600.19
366.599	609.19
366.826	578.19
367.052	625.19
367.278	608.19
367.505	595.19
367.731	616.19
367.957	604.19
368.184	619.19
368.41	609.19
368.636	628.19
368.862	618.19
369.089	628.19
369.315	628.19
369.541	603.19
369.767	630.19
369.993	644.19
370.219	636.19
370.445	635.19
370.672	648.19
370.898	640.19
371.124	641.19
371.35	654.19
371.576	636.19
371.802	663.19
372.028	646.19
372.254	668.19
372.48	677.19
372.706	700.19
372.932	714.19
373.158	674.19
373.384	677.19
373.61	638.19
373.835	665.19
374.061	664.19
374.287	691.19
374.513	693.19
374.739	673.19
374.965	698.19
375.191	738.19
375.416	716.19
375.642	706.19
375.868	694.19
376.094	683.19
376.319	684.19
376.545	695.19
376.771	660.19
376.997	664.19
377.222	675.19
377.448	672.19
377.674	633.19
377.899	653.19
378.125	632.19
378.35	650.19
378.576	631.19
378.802	631.19
379.027	673.19
379.253	634.19
379.478	646.19
379.704	652.19
379.929	643.19
380.155	649.19
380.38	643.19
380.606	665.19
380.831	664.19
381.057	641.19
381.282	644.19
381.507	670.19
381.733	670.19
381.958	650.19
382.184	678.19
382.409	662.19
382.634	668.19
382.86	688.19
383.085	726.19
383.31	696.19
383.535	721.19
383.761	714.19
383.986	740.19
384.211	762.19
384.436	770.19
384.662	767.19
384.887	795.19
385.112	766.19
385.337	780.19
385.562	774.19
385.787	779.19
386.013	803.19
386.238	782.19
386.463	800.19
386.688	782.19
386.913	757.19
387.138	766.19
387.363	781.19
387.588	774.19
387.813	769.19
388.038	782.19
388.263	796.19
388.488	803.19
388.713	796.19
388.938	802.19
389.163	753.19
389.387	772.19
389.612	756.19
389.837	764.19
390.062	766.19
390.287	790.19
390.512	766.19
390.736	775.19
390.961	787.19
391.186	806.19
391.411	828.19
391.636	857.19
391.86	881.19
392.085	893.19
392.31	867.19
392.534	856.19
392.759	845.19
392.984	853.19
393.208	840.19
393.433	836.19
393.658	854.19
393.882	824.19
394.107	853.19
394.331	821.19
394.556	847.19
394.78	840.19
395.005	857.19
395.229	838.19
395.454	879.19
395.678	887.19
395.903	883.19
396.127	855.19
396.352	837.19
396.576	840.19
396.801	835.19
397.025	850.19
397.249	874.19
397.474	889.19
397.698	878.19
397.922	885.19
398.147	893.19
398.371	902.19
398.595	946.19
398.82	987.19
399.044	1024.19
399.268	1164.19
399.492	1336.19
399.717	1509.19
399.941	1495.19
400.165	1336.19
400.389	1182.19
400.613	1115.19
400.837	1048.19
401.062	982.19
401.286	1004.19
401.51	956.19
401.734	993.19
401.958	985.19
402.182	1024.19
402.406	1046.19
402.63	1028.19
402.854	1081.19
403.078	1085.19
403.302	1129.19
403.526	1143.19
403.75	1131.19
403.974	1126.19
404.198	1138.19
404.422	1162.19
404.645	1150.19
404.869	1101.19
405.093	1152.19
405.317	1105.19
405.541	1105.19
405.765	1104.19
405.988	1090.19
406.212	1099.19
406.436	1100.19
406.66	1121.19
406.883	1113.19
407.107	1193.19
407.331	1234.19
407.555	1304.19
407.778	1311.19
408.002	1250.19
408.226	1219.19
408.449	1180.19
408.673	1155.19
408.896	1095.19
409.12	1121.19
409.344	1126.19
409.567	1097.19
409.791	1122.19
410.014	1116.19
410.238	1099.19
410.461	1114.19
410.685	1110.19
410.908	1081.19
411.132	1071.19
411.355	1035.19
411.578	1043.19
411.802	1030.19
412.025	1038.19
412.249	1056.19
412.472	1064.19
412.695	1026.19
412.919	1027.19
413.142	1006.19
413.365	990.19
413.589	998.19
413.812	972.19
414.035	972.19
414.258	983.19
414.482	983.19
414.705	1003.19
414.928	1007.19
415.151	1010.19
415.374	996.19
415.597	956.19
415.821	977.19
416.044	944.19
416.267	958.19
416.49	923.19
416.713	950.19
416.936	981.19
417.159	954.19
417.382	983.19
417.605	985.19
417.828	980.19
418.051	986.19
418.274	1003.19
418.497	960.19
418.72	1003.19
418.943	1007.19
419.166	1052.19
419.389	1137.19
419.611	1109.19
419.834	1054.19
420.057	1034.19
420.28	1006.19
420.503	940.19
420.726	952.19
420.948	935.19
421.171	964.19
421.394	996.19
421.617	974.19
421.839	1025.19
422.062	986.19
422.285	987.19
422.507	988.19
422.73	1007.19
422.953	1013.19
423.175	1014.19
423.398	1029.19
423.621	1039.19
423.843	1038.19
424.066	1072.19
424.288	1050.19
424.511	1028.19
424.733	999.19
424.956	1010.19
425.178	963.19
425.401	961.19
425.623	967.19
425.846	933.19
426.068	947.19
426.291	938.19
426.513	926.19
426.735	915.19
426.958	926.19
427.18	870.19
427.402	870.19
427.625	857.19
427.847	863.19
428.069	857.19
428.292	878.19
428.514	828.19
428.736	850.19
428.958	858.19
429.181	830.19
429.403	859.19
429.625	841.19
429.847	850.19
430.069	819.19
430.292	823.19
430.514	823.19
430.736	811.19
430.958	832.19
431.18	832.19
431.402	847.19
431.624	841.19
431.846	864.19
432.068	863.19
432.29	885.19
432.512	855.19
432.734	869.19
432.956	880.19
433.178	858.19
433.4	881.19
433.622	875.19
433.844	876.19
434.066	874.19
434.287	883.19
434.509	916.19
434.731	930.19
434.953	974.19
435.175	985.19
435.397	970.19
435.618	919.19
435.84	890.19
436.062	859.19
436.284	848.19
436.505	861.19
436.727	872.19
436.949	862.19
437.17	847.19
437.392	851.19
437.614	836.19
437.835	815.19
438.057	807.19
438.278	806.19
438.5	822.19
438.721	828.19
438.943	835.19
439.165	828.19
439.386	827.19
439.608	853.19
439.829	865.19
440.05	861.19
440.272	862.19
440.493	868.19
440.715	883.19
440.936	890.19
441.158	909.19
441.379	950.19
441.6	979.19
441.822	992.19
442.043	982.19
442.264	956.19
442.486	959.19
442.707	922.19
442.928	942.19
443.149	954.19
443.371	975.19
443.592	964.19
443.813	960.19
444.034	986.19
444.255	1024.19
444.476	1026.19
444.698	1129.19
444.919	1154.19
445.14	1234.19
445.361	1086.19
445.582	994.19
445.803	913.19
446.024	921.19
446.245	896.19
446.466	894.19
446.687	876.19
446.908	879.19
447.129	860.19
447.35	839.19
447.571	833.19
447.792	822.19
448.013	847.19
448.234	820.19
448.455	808.19
448.675	799.19
448.896	773.19
449.117	769.19
449.338	778.19
449.559	769.19
449.779	769.19
450	781.19
450.221	819.19
450.442	801.19
450.662	775.19
450.883	803.19
451.104	794.19
451.324	824.19
451.545	803.19
451.766	824.19
451.986	791.19
452.207	794.19
452.428	785.19
452.648	793.19
452.869	759.19
453.089	748.19
453.31	774.19
453.53	771.19
453.751	746.19
453.971	762.19
454.192	754.19
454.412	732.19
454.633	729.19
454.853	740.19
455.073	755.19
455.294	731.19
455.514	723.19
455.734	744.19
455.955	726.19
456.175	761.19
456.395	729.19
456.616	711.19
456.836	734.19
457.056	720.19
457.276	727.19
457.497	742.19
457.717	724.19
457.937	750.19
458.157	735.19
458.377	750.19
458.598	754.19
458.818	799.19
459.038	823.19
459.258	853.19
459.478	867.19
459.698	888.19
459.918	908.19
460.138	954.19
460.358	998.19
460.578	1004.19
460.798	1026.19
461.018	1042.19
461.238	1014.19
461.458	1010.19
461.678	987.19
461.898	1006.19
462.118	1040.19
462.338	1101.19
462.558	1150.19
462.777	1144.19
462.997	1227.19
463.217	1394.19
463.437	1330.19
463.657	1238.19
463.876	1174.19
464.096	1164.19
464.316	1191.19
464.536	1206.19
464.755	1146.19
464.975	1104.19
465.195	1045.19
465.414	986.19
465.634	924.19
465.854	897.19
466.073	900.19
466.293	894.19
466.512	854.19
466.732	832.19
466.951	840.19
467.171	817.19
467.391	809.19
467.61	794.19
467.829	852.19
468.049	808.19
468.268	792.19
468.488	792.19
468.707	790.19
468.927	817.19
469.146	801.19
469.365	806.19
469.585	795.19
469.804	846.19
470.023	836.19
470.243	878.19
470.462	856.19
470.681	846.19
470.901	834.19
471.12	846.19
471.339	806.19
471.558	823.19
471.777	815.19
471.997	796.19
472.216	790.19
472.435	753.19
472.654	791.19
472.873	780.19
473.092	768.19
473.311	791.19
473.53	741.19
473.749	748.19
473.968	751.19
474.187	776.19
474.406	772.19
474.625	766.19
474.844	736.19
475.063	770.19
475.282	803.19
475.501	771.19
475.72	796.19
475.939	783.19
476.158	777.19
476.377	802.19
476.596	806.19
476.814	810.19
477.033	805.19
477.252	836.19
477.471	825.19
477.69	870.19
477.908	890.19
478.127	889.19
478.346	932.19
478.564	918.19
478.783	932.19
479.002	968.19
479.22	966.19
479.439	966.19
479.658	954.19
479.876	944.19
480.095	978.19
480.313	1001.19
480.532	1039.19
480.751	1062.19
480.969	991.19
481.188	958.19
481.406	922.19
481.624	898.19
481.843	882.19
482.061	893.19
482.28	867.19
482.498	865.19
482.717	865.19
482.935	871.19
483.153	886.19
483.372	862.19
483.59	849.19
483.808	867.19
484.027	870.19
484.245	892.19
484.463	893.19
484.681	919.19
484.9	895.19
485.118	894.19
485.336	926.19
485.554	911.19
485.772	931.19
485.99	907.19
486.209	948.19
486.427	917.19
486.645	929.19
486.863	926.19
487.081	931.19
487.299	909.19
487.517	929.19
487.735	914.19
487.953	924.19
488.171	912.19
488.389	943.19
488.607	886.19
488.825	874.19
489.043	898.19
489.261	908.19
489.479	934.19
489.696	930.19
489.914	931.19
490.132	901.19
490.35	948.19
490.568	924.19
490.786	901.19
491.003	893.19
491.221	961.19
491.439	891.19
491.657	960.19
491.874	952.19
492.092	948.19
492.31	954.19
492.527	959.19
492.745	970.19
492.963	963.19
493.18	985.19
493.398	980.19
493.615	965.19
493.833	977.19
494.05	985.19
494.268	1023.19
494.485	965.19
494.703	1012.19
494.92	981.19
495.138	995.19
495.355	995.19
495.573	987.19
495.79	979.19
496.008	979.19
496.225	1019.19
496.442	1058.19
496.66	1055.19
496.877	1043.19
497.094	1082.19
497.312	1065.19
497.529	1114.19
497.746	1115.19
497.963	1150.19
498.181	1202.19
498.398	1237.19
498.615	1340.19
498.832	1399.19
499.049	1518.19
499.267	1638.19
499.484	1810.19
499.701	1997.19
499.918	2213.19
