Data from NiCl2@0.25M.TitratingCurve.Agarose3%dH2O.NegLispCup.LampEnergy10.LIBS07252019_HRD10591_18-25-28-575.txt Node
Date: Thu Jul 25 18:25:28 EDT 2019
User: cochatt
Spectrometer: HR+D1059
Trigger mode: 1
Integration Time (sec): 1.000000E-1
Scans to average: 1
Electric dark correction enabled: true
Nonlinearity correction enabled: false
Boxcar width: 0
XAxis mode: Wavelengths
Number of Pixels in Spectrum: 2048
>>>>>Begin Spectral Data<<<<<
223.165	-6.94
223.4	-6.94
223.635	-6.94
223.869	-21.94
224.104	-28.94
224.338	-15.94
224.573	-4.94
224.808	-19.94
225.042	-10.94
225.277	-5.94
225.511	-0.94
225.746	10.06
225.98	13.06
226.215	9.06
226.449	15.06
226.683	20.06
226.918	17.06
227.152	32.06
227.387	38.06
227.621	50.06
227.856	40.06
228.09	38.06
228.324	16.06
228.559	54.06
228.793	72.06
229.027	96.06
229.262	127.06
229.496	111.06
229.73	113.06
229.964	104.06
230.199	118.06
230.433	128.06
230.667	138.06
230.901	124.06
231.136	128.06
231.37	140.06
231.604	146.06
231.838	148.06
232.072	140.06
232.306	145.06
232.541	136.06
232.775	129.06
233.009	135.06
233.243	139.06
233.477	146.06
233.711	144.06
233.945	142.06
234.179	151.06
234.413	138.06
234.647	140.06
234.881	130.06
235.115	150.06
235.349	142.06
235.583	158.06
235.817	140.06
236.051	164.06
236.285	166.06
236.519	166.06
236.753	155.06
236.987	151.06
237.221	166.06
237.455	148.06
237.689	161.06
237.922	152.06
238.156	159.06
238.39	172.06
238.624	163.06
238.858	162.06
239.091	162.06
239.325	156.06
239.559	177.06
239.793	171.06
240.027	177.06
240.26	173.06
240.494	185.06
240.728	176.06
240.961	164.06
241.195	172.06
241.429	178.06
241.662	178.06
241.896	181.06
242.13	196.06
242.363	187.06
242.597	191.06
242.83	187.06
243.064	188.06
243.298	183.06
243.531	194.06
243.765	187.06
243.998	208.06
244.232	204.06
244.465	202.06
244.699	208.06
244.932	219.06
245.166	232.06
245.399	214.06
245.633	215.06
245.866	219.06
246.099	212.06
246.333	210.06
246.566	214.06
246.8	202.06
247.033	225.06
247.266	234.06
247.5	217.06
247.733	217.06
247.966	231.06
248.2	240.06
248.433	242.06
248.666	233.06
248.899	235.06
249.133	235.06
249.366	246.06
249.599	251.06
249.832	242.06
250.066	256.06
250.299	253.06
250.532	236.06
250.765	250.06
250.998	251.06
251.231	242.06
251.465	262.06
251.698	248.06
251.931	250.06
252.164	266.06
252.397	269.06
252.63	271.06
252.863	286.06
253.096	258.06
253.329	262.06
253.562	280.06
253.795	263.06
254.028	274.06
254.261	265.06
254.494	271.06
254.727	277.06
254.96	258.06
255.193	258.06
255.426	283.06
255.659	284.06
255.892	292.06
256.124	269.06
256.357	275.06
256.59	266.06
256.823	282.06
257.056	271.06
257.289	280.06
257.521	290.06
257.754	282.06
257.987	279.06
258.22	305.06
258.452	297.06
258.685	295.06
258.918	292.06
259.151	306.06
259.383	293.06
259.616	292.06
259.849	304.06
260.081	318.06
260.314	320.06
260.547	322.06
260.779	333.06
261.012	312.06
261.244	313.06
261.477	326.06
261.71	327.06
261.942	330.06
262.175	320.06
262.407	327.06
262.64	332.06
262.872	314.06
263.105	327.06
263.337	323.06
263.57	316.06
263.802	330.06
264.035	330.06
264.267	357.06
264.499	352.06
264.732	330.06
264.964	334.06
265.197	339.06
265.429	346.06
265.661	334.06
265.894	340.06
266.126	372.06
266.358	355.06
266.591	352.06
266.823	353.06
267.055	343.06
267.287	354.06
267.52	340.06
267.752	357.06
267.984	358.06
268.216	360.06
268.448	362.06
268.681	368.06
268.913	376.06
269.145	358.06
269.377	351.06
269.609	378.06
269.841	345.06
270.073	356.06
270.306	363.06
270.538	382.06
270.77	384.06
271.002	385.06
271.234	372.06
271.466	384.06
271.698	371.06
271.93	380.06
272.162	388.06
272.394	390.06
272.626	404.06
272.858	374.06
273.09	395.06
273.322	418.06
273.553	395.06
273.785	393.06
274.017	397.06
274.249	403.06
274.481	392.06
274.713	394.06
274.945	404.06
275.176	396.06
275.408	401.06
275.64	406.06
275.872	415.06
276.104	413.06
276.335	394.06
276.567	387.06
276.799	420.06
277.031	419.06
277.262	407.06
277.494	414.06
277.726	408.06
277.957	411.06
278.189	433.06
278.421	414.06
278.652	409.06
278.884	418.06
279.115	422.06
279.347	437.06
279.579	434.06
279.81	430.06
280.042	453.06
280.273	439.06
280.505	454.06
280.736	442.06
280.968	432.06
281.199	431.06
281.431	451.06
281.662	454.06
281.894	447.06
282.125	455.06
282.356	458.06
282.588	471.06
282.819	463.06
283.051	457.06
283.282	476.06
283.513	460.06
283.745	461.06
283.976	472.06
284.207	471.06
284.439	463.06
284.67	482.06
284.901	471.06
285.132	479.06
285.364	472.06
285.595	469.06
285.826	470.06
286.057	471.06
286.288	477.06
286.52	460.06
286.751	484.06
286.982	487.06
287.213	486.06
287.444	494.06
287.675	490.06
287.906	497.06
288.138	491.06
288.369	514.06
288.6	491.06
288.831	479.06
289.062	521.06
289.293	503.06
289.524	520.06
289.755	504.06
289.986	515.06
290.217	503.06
290.448	508.06
290.679	502.06
290.91	515.06
291.141	517.06
291.371	513.06
291.602	510.06
291.833	514.06
292.064	485.06
292.295	527.06
292.526	513.06
292.757	528.06
292.987	510.06
293.218	496.06
293.449	529.06
293.68	500.06
293.91	530.06
294.141	518.06
294.372	509.06
294.603	541.06
294.833	513.06
295.064	524.06
295.295	521.06
295.525	520.06
295.756	537.06
295.987	537.06
296.217	537.06
296.448	545.06
296.679	523.06
296.909	542.06
297.14	545.06
297.37	564.06
297.601	554.06
297.831	538.06
298.062	534.06
298.292	554.06
298.523	546.06
298.753	579.06
298.984	562.06
299.214	562.06
299.445	533.06
299.675	563.06
299.905	580.06
300.136	560.06
300.366	567.06
300.597	581.06
300.827	567.06
301.057	593.06
301.288	589.06
301.518	605.06
301.748	600.06
301.979	607.06
302.209	602.06
302.439	590.06
302.669	586.06
302.9	580.06
303.13	587.06
303.36	611.06
303.59	573.06
303.82	607.06
304.051	590.06
304.281	575.06
304.511	600.06
304.741	589.06
304.971	570.06
305.201	578.06
305.431	601.06
305.661	570.06
305.891	590.06
306.121	574.06
306.352	555.06
306.582	570.06
306.812	563.06
307.042	603.06
307.272	606.06
307.502	572.06
307.731	558.06
307.961	582.06
308.191	579.06
308.421	566.06
308.651	587.06
308.881	587.06
309.111	570.06
309.341	548.06
309.571	574.06
309.8	598.06
310.03	561.06
310.26	579.06
310.49	564.06
310.72	555.06
310.949	567.06
311.179	587.06
311.409	595.06
311.639	587.06
311.868	578.06
312.098	586.06
312.328	587.06
312.557	591.06
312.787	601.06
313.017	602.06
313.246	610.06
313.476	579.06
313.706	615.06
313.935	614.06
314.165	612.06
314.394	618.06
314.624	626.06
314.853	611.06
315.083	592.06
315.312	611.06
315.542	626.06
315.771	608.06
316.001	616.06
316.23	614.06
316.46	580.06
316.689	607.06
316.919	596.06
317.148	612.06
317.377	606.06
317.607	636.06
317.836	598.06
318.065	604.06
318.295	602.06
318.524	617.06
318.753	599.06
318.983	610.06
319.212	569.06
319.441	570.06
319.67	629.06
319.9	622.06
320.129	613.06
320.358	601.06
320.587	617.06
320.816	615.06
321.046	617.06
321.275	594.06
321.504	613.06
321.733	623.06
321.962	615.06
322.191	616.06
322.42	618.06
322.649	606.06
322.878	596.06
323.108	585.06
323.337	615.06
323.566	628.06
323.795	633.06
324.024	617.06
324.253	615.06
324.482	610.06
324.71	614.06
324.939	636.06
325.168	614.06
325.397	631.06
325.626	634.06
325.855	658.06
326.084	644.06
326.313	659.06
326.542	641.06
326.77	666.06
326.999	653.06
327.228	667.06
327.457	653.06
327.686	665.06
327.914	655.06
328.143	673.06
328.372	654.06
328.6	652.06
328.829	679.06
329.058	666.06
329.287	680.06
329.515	664.06
329.744	671.06
329.972	672.06
330.201	688.06
330.43	683.06
330.658	672.06
330.887	678.06
331.115	690.06
331.344	715.06
331.572	698.06
331.801	722.06
332.03	732.06
332.258	742.06
332.486	774.06
332.715	804.06
332.943	826.06
333.172	844.06
333.4	894.06
333.629	898.06
333.857	924.06
334.085	884.06
334.314	914.06
334.542	878.06
334.771	862.06
334.999	823.06
335.227	851.06
335.455	856.06
335.684	815.06
335.912	841.06
336.14	826.06
336.369	811.06
336.597	804.06
336.825	827.06
337.053	808.06
337.281	795.06
337.51	786.06
337.738	758.06
337.966	748.06
338.194	753.06
338.422	720.06
338.65	729.06
338.878	713.06
339.106	744.06
339.334	736.06
339.562	713.06
339.79	728.06
340.018	688.06
340.246	679.06
340.474	674.06
340.702	693.06
340.93	716.06
341.158	703.06
341.386	683.06
341.614	703.06
341.842	682.06
342.07	688.06
342.298	700.06
342.526	705.06
342.754	686.06
342.981	691.06
343.209	710.06
343.437	754.06
343.665	786.06
343.893	862.06
344.12	881.06
344.348	818.06
344.576	780.06
344.804	770.06
345.031	720.06
345.259	722.06
345.487	702.06
345.714	671.06
345.942	688.06
346.17	684.06
346.397	672.06
346.625	680.06
346.853	662.06
347.08	633.06
347.308	671.06
347.535	693.06
347.763	690.06
347.99	683.06
348.218	678.06
348.445	672.06
348.673	692.06
348.9	658.06
349.128	672.06
349.355	663.06
349.583	631.06
349.81	650.06
350.037	646.06
350.265	658.06
350.492	680.06
350.72	654.06
350.947	633.06
351.174	628.06
351.402	659.06
351.629	647.06
351.856	619.06
352.083	646.06
352.311	682.06
352.538	657.06
352.765	623.06
352.992	630.06
353.22	627.06
353.447	656.06
353.674	650.06
353.901	634.06
354.128	644.06
354.355	631.06
354.583	648.06
354.81	646.06
355.037	650.06
355.264	662.06
355.491	653.06
355.718	644.06
355.945	651.06
356.172	667.06
356.399	659.06
356.626	661.06
356.853	673.06
357.08	668.06
357.307	662.06
357.534	655.06
357.761	640.06
357.988	680.06
358.215	646.06
358.441	648.06
358.668	639.06
358.895	644.06
359.122	659.06
359.349	634.06
359.576	647.06
359.802	665.06
360.029	636.06
360.256	661.06
360.483	648.06
360.709	654.06
360.936	656.06
361.163	641.06
361.39	678.06
361.616	665.06
361.843	659.06
362.07	648.06
362.296	653.06
362.523	648.06
362.749	653.06
362.976	652.06
363.203	637.06
363.429	634.06
363.656	640.06
363.882	658.06
364.109	642.06
364.335	643.06
364.562	646.06
364.788	644.06
365.015	629.06
365.241	650.06
365.468	643.06
365.694	647.06
365.92	645.06
366.147	651.06
366.373	651.06
366.599	648.06
366.826	618.06
367.052	639.06
367.278	675.06
367.505	652.06
367.731	658.06
367.957	631.06
368.184	638.06
368.41	652.06
368.636	648.06
368.862	646.06
369.089	659.06
369.315	655.06
369.541	647.06
369.767	686.06
369.993	665.06
370.219	680.06
370.445	687.06
370.672	694.06
370.898	678.06
371.124	679.06
371.35	702.06
371.576	714.06
371.802	707.06
372.028	714.06
372.254	715.06
372.48	729.06
372.706	738.06
372.932	756.06
373.158	749.06
373.384	699.06
373.61	697.06
373.835	720.06
374.061	706.06
374.287	726.06
374.513	745.06
374.739	730.06
374.965	760.06
375.191	788.06
375.416	776.06
375.642	770.06
375.868	768.06
376.094	728.06
376.319	712.06
376.545	713.06
376.771	698.06
376.997	709.06
377.222	710.06
377.448	707.06
377.674	730.06
377.899	699.06
378.125	710.06
378.35	706.06
378.576	688.06
378.802	698.06
379.027	710.06
379.253	674.06
379.478	691.06
379.704	704.06
379.929	686.06
380.155	687.06
380.38	699.06
380.606	712.06
380.831	690.06
381.057	698.06
381.282	694.06
381.507	705.06
381.733	698.06
381.958	715.06
382.184	699.06
382.409	731.06
382.634	742.06
382.86	728.06
383.085	724.06
383.31	764.06
383.535	770.06
383.761	796.06
383.986	829.06
384.211	773.06
384.436	808.06
384.662	848.06
384.887	863.06
385.112	834.06
385.337	864.06
385.562	861.06
385.787	884.06
386.013	880.06
386.238	856.06
386.463	866.06
386.688	871.06
386.913	847.06
387.138	849.06
387.363	842.06
387.588	824.06
387.813	807.06
388.038	844.06
388.263	856.06
388.488	860.06
388.713	851.06
388.938	826.06
389.163	834.06
389.387	834.06
389.612	839.06
389.837	850.06
390.062	824.06
390.287	837.06
390.512	809.06
390.736	842.06
390.961	852.06
391.186	873.06
391.411	892.06
391.636	902.06
391.86	957.06
392.085	968.06
392.31	976.06
392.534	932.06
392.759	923.06
392.984	922.06
393.208	914.06
393.433	911.06
393.658	896.06
393.882	894.06
394.107	903.06
394.331	921.06
394.556	913.06
394.78	916.06
395.005	897.06
395.229	902.06
395.454	937.06
395.678	964.06
395.903	958.06
396.127	952.06
396.352	911.06
396.576	894.06
396.801	914.06
397.025	899.06
397.249	923.06
397.474	970.06
397.698	935.06
397.922	960.06
398.147	971.06
398.371	970.06
398.595	1011.06
398.82	1084.06
399.044	1123.06
399.268	1268.06
399.492	1456.06
399.717	1678.06
399.941	1610.06
400.165	1450.06
400.389	1282.06
400.613	1168.06
400.837	1110.06
401.062	1123.06
401.286	1094.06
401.51	1076.06
401.734	1066.06
401.958	1090.06
402.182	1107.06
402.406	1110.06
402.63	1123.06
402.854	1179.06
403.078	1153.06
403.302	1177.06
403.526	1209.06
403.75	1222.06
403.974	1251.06
404.198	1246.06
404.422	1239.06
404.645	1211.06
404.869	1237.06
405.093	1226.06
405.317	1171.06
405.541	1191.06
405.765	1162.06
405.988	1164.06
406.212	1179.06
406.436	1159.06
406.66	1202.06
406.883	1246.06
407.107	1292.06
407.331	1367.06
407.555	1416.06
407.778	1414.06
408.002	1355.06
408.226	1347.06
408.449	1290.06
408.673	1231.06
408.896	1234.06
409.12	1238.06
409.344	1222.06
409.567	1219.06
409.791	1240.06
410.014	1191.06
410.238	1202.06
410.461	1198.06
410.685	1184.06
410.908	1151.06
411.132	1168.06
411.355	1101.06
411.578	1124.06
411.802	1089.06
412.025	1118.06
412.249	1156.06
412.472	1146.06
412.695	1098.06
412.919	1064.06
413.142	1040.06
413.365	1064.06
413.589	1079.06
413.812	1023.06
414.035	1060.06
414.258	1056.06
414.482	1075.06
414.705	1097.06
414.928	1098.06
415.151	1057.06
415.374	1076.06
415.597	1060.06
415.821	1058.06
416.044	1056.06
416.267	1031.06
416.49	1040.06
416.713	1003.06
416.936	1067.06
417.159	1051.06
417.382	1042.06
417.605	1062.06
417.828	1062.06
418.051	1095.06
418.274	1081.06
418.497	1055.06
418.72	1088.06
418.943	1095.06
419.166	1176.06
419.389	1224.06
419.611	1177.06
419.834	1156.06
420.057	1127.06
420.28	1091.06
420.503	1045.06
420.726	1058.06
420.948	1028.06
421.171	1029.06
421.394	1047.06
421.617	1056.06
421.839	1095.06
422.062	1075.06
422.285	1034.06
422.507	1065.06
422.73	1051.06
422.953	1097.06
423.175	1127.06
423.398	1153.06
423.621	1105.06
423.843	1131.06
424.066	1131.06
424.288	1108.06
424.511	1106.06
424.733	1106.06
424.956	1073.06
425.178	1066.06
425.401	1093.06
425.623	1061.06
425.846	1020.06
426.068	1005.06
426.291	1018.06
426.513	1000.06
426.735	964.06
426.958	981.06
427.18	950.06
427.402	973.06
427.625	928.06
427.847	917.06
428.069	930.06
428.292	947.06
428.514	956.06
428.736	926.06
428.958	959.06
429.181	911.06
429.403	913.06
429.625	925.06
429.847	938.06
430.069	918.06
430.292	919.06
430.514	904.06
430.736	927.06
430.958	918.06
431.18	939.06
431.402	904.06
431.624	914.06
431.846	928.06
432.068	950.06
432.29	951.06
432.512	922.06
432.734	935.06
432.956	893.06
433.178	914.06
433.4	914.06
433.622	940.06
433.844	942.06
434.066	999.06
434.287	962.06
434.509	1001.06
434.731	1028.06
434.953	1059.06
435.175	1068.06
435.397	1033.06
435.618	983.06
435.84	959.06
436.062	932.06
436.284	933.06
436.505	920.06
436.727	934.06
436.949	946.06
437.17	940.06
437.392	931.06
437.614	926.06
437.835	890.06
438.057	892.06
438.278	904.06
438.5	889.06
438.721	888.06
438.943	895.06
439.165	891.06
439.386	897.06
439.608	902.06
439.829	937.06
440.05	927.06
440.272	923.06
440.493	944.06
440.715	955.06
440.936	971.06
441.158	969.06
441.379	1022.06
441.6	1048.06
441.822	1076.06
442.043	1055.06
442.264	1000.06
442.486	1023.06
442.707	1043.06
442.928	1017.06
443.149	1042.06
443.371	1025.06
443.592	1049.06
443.813	1044.06
444.034	1046.06
444.255	1099.06
444.476	1125.06
444.698	1229.06
444.919	1289.06
445.14	1304.06
445.361	1164.06
445.582	1083.06
445.803	1052.06
446.024	1008.06
446.245	972.06
446.466	945.06
446.687	938.06
446.908	931.06
447.129	891.06
447.35	887.06
447.571	863.06
447.792	880.06
448.013	874.06
448.234	837.06
448.455	878.06
448.675	887.06
448.896	860.06
449.117	818.06
449.338	844.06
449.559	833.06
449.779	848.06
450	845.06
450.221	838.06
450.442	854.06
450.662	858.06
450.883	864.06
451.104	904.06
451.324	875.06
451.545	857.06
451.766	888.06
451.986	864.06
452.207	867.06
452.428	864.06
452.648	848.06
452.869	832.06
453.089	860.06
453.31	834.06
453.53	822.06
453.751	818.06
453.971	824.06
454.192	846.06
454.412	829.06
454.633	822.06
454.853	795.06
455.073	810.06
455.294	795.06
455.514	806.06
455.734	818.06
455.955	787.06
456.175	789.06
456.395	786.06
456.616	790.06
456.836	820.06
457.056	821.06
457.276	771.06
457.497	817.06
457.717	808.06
457.937	831.06
458.157	799.06
458.377	804.06
458.598	840.06
458.818	856.06
459.038	898.06
459.258	910.06
459.478	923.06
459.698	970.06
459.918	995.06
460.138	1028.06
460.358	1083.06
460.578	1102.06
460.798	1147.06
461.018	1146.06
461.238	1092.06
461.458	1077.06
461.678	1095.06
461.898	1143.06
462.118	1127.06
462.338	1165.06
462.558	1222.06
462.777	1285.06
462.997	1377.06
463.217	1512.06
463.437	1507.06
463.657	1352.06
463.876	1310.06
464.096	1268.06
464.316	1307.06
464.536	1302.06
464.755	1237.06
464.975	1227.06
465.195	1138.06
465.414	1091.06
465.634	996.06
465.854	956.06
466.073	934.06
466.293	908.06
466.512	931.06
466.732	906.06
466.951	892.06
467.171	917.06
467.391	894.06
467.61	911.06
467.829	879.06
468.049	883.06
468.268	875.06
468.488	876.06
468.707	871.06
468.927	892.06
469.146	859.06
469.365	865.06
469.585	868.06
469.804	901.06
470.023	903.06
470.243	900.06
470.462	943.06
470.681	919.06
470.901	936.06
471.12	919.06
471.339	913.06
471.558	867.06
471.777	847.06
471.997	890.06
472.216	860.06
472.435	860.06
472.654	857.06
472.873	855.06
473.092	839.06
473.311	853.06
473.53	855.06
473.749	855.06
473.968	839.06
474.187	832.06
474.406	823.06
474.625	829.06
474.844	837.06
475.063	839.06
475.282	863.06
475.501	856.06
475.72	827.06
475.939	849.06
476.158	842.06
476.377	859.06
476.596	837.06
476.814	878.06
477.033	868.06
477.252	907.06
477.471	910.06
477.69	921.06
477.908	958.06
478.127	969.06
478.346	1000.06
478.564	996.06
478.783	1046.06
479.002	1048.06
479.22	1042.06
479.439	1017.06
479.658	1020.06
479.876	1057.06
480.095	1077.06
480.313	1122.06
480.532	1141.06
480.751	1123.06
480.969	1054.06
481.188	1054.06
481.406	978.06
481.624	995.06
481.843	971.06
482.061	969.06
482.28	977.06
482.498	946.06
482.717	937.06
482.935	981.06
483.153	973.06
483.372	962.06
483.59	923.06
483.808	973.06
484.027	958.06
484.245	983.06
484.463	960.06
484.681	990.06
484.9	1003.06
485.118	990.06
485.336	982.06
485.554	994.06
485.772	997.06
485.99	1010.06
486.209	999.06
486.427	1022.06
486.645	1001.06
486.863	1005.06
487.081	1003.06
487.299	1002.06
487.517	978.06
487.735	1005.06
487.953	1003.06
488.171	1031.06
488.389	967.06
488.607	1000.06
488.825	993.06
489.043	990.06
489.261	977.06
489.479	997.06
489.696	985.06
489.914	988.06
490.132	1001.06
490.35	980.06
490.568	1006.06
490.786	996.06
491.003	998.06
491.221	1032.06
491.439	1038.06
491.657	1005.06
491.874	1023.06
492.092	1058.06
492.31	1042.06
492.527	1027.06
492.745	1035.06
492.963	1042.06
493.18	1064.06
493.398	1025.06
493.615	1029.06
493.833	1043.06
494.05	1033.06
494.268	1073.06
494.485	1076.06
494.703	1084.06
494.92	1073.06
495.138	1088.06
495.355	1059.06
495.573	1061.06
495.79	1079.06
496.008	1067.06
496.225	1088.06
496.442	1110.06
496.66	1140.06
496.877	1104.06
497.094	1153.06
497.312	1186.06
497.529	1183.06
497.746	1209.06
497.963	1223.06
498.181	1307.06
498.398	1367.06
