Data from NiCl2@0.25M.TitratingCurve.Agarose3%dH2O.NegLispCup.LampEnergy10.LIBS07252019_HRD10591_18-24-14-574.txt Node
Date: Thu Jul 25 18:24:14 EDT 2019
User: cochatt
Spectrometer: HR+D1059
Trigger mode: 1
Integration Time (sec): 1.000000E-1
Scans to average: 1
Electric dark correction enabled: true
Nonlinearity correction enabled: false
Boxcar width: 0
XAxis mode: Wavelengths
Number of Pixels in Spectrum: 2048
>>>>>Begin Spectral Data<<<<<
223.165	-25.69
223.4	-25.69
223.635	-25.69
223.869	-15.69
224.104	-14.69
224.338	-7.69
224.573	2.31
224.808	-9.69
225.042	2.31
225.277	-8.69
225.511	-16.69
225.746	13.31
225.98	-1.69
226.215	5.31
226.449	18.31
226.683	17.31
226.918	15.31
227.152	26.31
227.387	32.31
227.621	26.31
227.856	45.31
228.09	59.31
228.324	47.31
228.559	51.31
228.793	81.31
229.027	118.31
229.262	137.31
229.496	121.31
229.73	143.31
229.964	135.31
230.199	142.31
230.433	160.31
230.667	155.31
230.901	149.31
231.136	146.31
231.37	137.31
231.604	160.31
231.838	157.31
232.072	159.31
232.306	169.31
232.541	170.31
232.775	166.31
233.009	169.31
233.243	165.31
233.477	180.31
233.711	193.31
233.945	183.31
234.179	171.31
234.413	181.31
234.647	176.31
234.881	179.31
235.115	164.31
235.349	193.31
235.583	172.31
235.817	195.31
236.051	186.31
236.285	175.31
236.519	199.31
236.753	170.31
236.987	181.31
237.221	192.31
237.455	185.31
237.689	196.31
237.922	181.31
238.156	207.31
238.39	209.31
238.624	194.31
238.858	177.31
239.091	211.31
239.325	203.31
239.559	192.31
239.793	212.31
240.027	203.31
240.26	223.31
240.494	221.31
240.728	208.31
240.961	216.31
241.195	230.31
241.429	220.31
241.662	229.31
241.896	250.31
242.13	236.31
242.363	223.31
242.597	235.31
242.83	222.31
243.064	236.31
243.298	232.31
243.531	242.31
243.765	232.31
243.998	238.31
244.232	242.31
244.465	268.31
244.699	265.31
244.932	257.31
245.166	267.31
245.399	260.31
245.633	269.31
245.866	247.31
246.099	272.31
246.333	279.31
246.566	271.31
246.8	271.31
247.033	265.31
247.266	289.31
247.5	279.31
247.733	269.31
247.966	275.31
248.2	280.31
248.433	261.31
248.666	296.31
248.899	290.31
249.133	293.31
249.366	278.31
249.599	298.31
249.832	294.31
250.066	290.31
250.299	299.31
250.532	300.31
250.765	296.31
250.998	307.31
251.231	328.31
251.465	310.31
251.698	298.31
251.931	306.31
252.164	334.31
252.397	338.31
252.63	322.31
252.863	327.31
253.096	322.31
253.329	332.31
253.562	314.31
253.795	327.31
254.028	319.31
254.261	317.31
254.494	356.31
254.727	349.31
254.96	345.31
255.193	340.31
255.426	348.31
255.659	340.31
255.892	346.31
256.124	333.31
256.357	362.31
256.59	346.31
256.823	353.31
257.056	353.31
257.289	356.31
257.521	345.31
257.754	352.31
257.987	373.31
258.22	364.31
258.452	353.31
258.685	385.31
258.918	364.31
259.151	385.31
259.383	380.31
259.616	360.31
259.849	373.31
260.081	385.31
260.314	403.31
260.547	372.31
260.779	379.31
261.012	418.31
261.244	405.31
261.477	405.31
261.71	413.31
261.942	405.31
262.175	380.31
262.407	397.31
262.64	404.31
262.872	415.31
263.105	388.31
263.337	404.31
263.57	402.31
263.802	412.31
264.035	413.31
264.267	404.31
264.499	417.31
264.732	425.31
264.964	417.31
265.197	421.31
265.429	442.31
265.661	406.31
265.894	453.31
266.126	438.31
266.358	441.31
266.591	439.31
266.823	453.31
267.055	427.31
267.287	442.31
267.52	436.31
267.752	430.31
267.984	439.31
268.216	453.31
268.448	444.31
268.681	455.31
268.913	447.31
269.145	452.31
269.377	448.31
269.609	454.31
269.841	454.31
270.073	463.31
270.306	471.31
270.538	440.31
270.77	461.31
271.002	472.31
271.234	471.31
271.466	478.31
271.698	461.31
271.93	491.31
272.162	481.31
272.394	478.31
272.626	495.31
272.858	478.31
273.09	479.31
273.322	484.31
273.553	484.31
273.785	503.31
274.017	497.31
274.249	502.31
274.481	494.31
274.713	487.31
274.945	514.31
275.176	497.31
275.408	489.31
275.64	500.31
275.872	519.31
276.104	502.31
276.335	515.31
276.567	513.31
276.799	483.31
277.031	524.31
277.262	534.31
277.494	534.31
277.726	536.31
277.957	526.31
278.189	530.31
278.421	531.31
278.652	529.31
278.884	531.31
279.115	550.31
279.347	525.31
279.579	553.31
279.81	542.31
280.042	542.31
280.273	527.31
280.505	563.31
280.736	545.31
280.968	563.31
281.199	568.31
281.431	569.31
281.662	563.31
281.894	595.31
282.125	562.31
282.356	551.31
282.588	589.31
282.819	578.31
283.051	592.31
283.282	598.31
283.513	595.31
283.745	602.31
283.976	580.31
284.207	588.31
284.439	587.31
284.67	602.31
284.901	574.31
285.132	595.31
285.364	605.31
285.595	603.31
285.826	596.31
286.057	607.31
286.288	616.31
286.52	627.31
286.751	635.31
286.982	639.31
287.213	621.31
287.444	620.31
287.675	644.31
287.906	636.31
288.138	641.31
288.369	646.31
288.6	651.31
288.831	634.31
289.062	646.31
289.293	671.31
289.524	633.31
289.755	658.31
289.986	651.31
290.217	651.31
290.448	638.31
290.679	657.31
290.91	639.31
291.141	651.31
291.371	675.31
291.602	668.31
291.833	644.31
292.064	643.31
292.295	636.31
292.526	652.31
292.757	650.31
292.987	650.31
293.218	652.31
293.449	645.31
293.68	651.31
293.91	663.31
294.141	673.31
294.372	667.31
294.603	665.31
294.833	679.31
295.064	655.31
295.295	670.31
295.525	656.31
295.756	665.31
295.987	655.31
296.217	659.31
296.448	645.31
296.679	685.31
296.909	697.31
297.14	689.31
297.37	694.31
297.601	700.31
297.831	702.31
298.062	710.31
298.292	699.31
298.523	713.31
298.753	713.31
298.984	709.31
299.214	700.31
299.445	711.31
299.675	709.31
299.905	696.31
300.136	693.31
300.366	702.31
300.597	729.31
300.827	727.31
301.057	749.31
301.288	740.31
301.518	743.31
301.748	775.31
301.979	761.31
302.209	748.31
302.439	753.31
302.669	730.31
302.9	735.31
303.13	728.31
303.36	744.31
303.59	748.31
303.82	735.31
304.051	757.31
304.281	751.31
304.511	733.31
304.741	741.31
304.971	744.31
305.201	742.31
305.431	727.31
305.661	728.31
305.891	720.31
306.121	735.31
306.352	755.31
306.582	715.31
306.812	724.31
307.042	723.31
307.272	719.31
307.502	725.31
307.731	727.31
307.961	710.31
308.191	718.31
308.421	725.31
308.651	729.31
308.881	738.31
309.111	731.31
309.341	711.31
309.571	724.31
309.8	727.31
310.03	733.31
310.26	739.31
310.49	740.31
310.72	733.31
310.949	757.31
311.179	739.31
311.409	724.31
311.639	731.31
311.868	720.31
312.098	747.31
312.328	758.31
312.557	784.31
312.787	753.31
313.017	782.31
313.246	810.31
313.476	802.31
313.706	828.31
313.935	777.31
314.165	792.31
314.394	797.31
314.624	795.31
314.853	763.31
315.083	778.31
315.312	810.31
315.542	773.31
315.771	775.31
316.001	758.31
316.23	758.31
316.46	783.31
316.689	778.31
316.919	796.31
317.148	783.31
317.377	785.31
317.607	773.31
317.836	754.31
318.065	796.31
318.295	774.31
318.524	787.31
318.753	765.31
318.983	771.31
319.212	739.31
319.441	781.31
319.67	773.31
319.9	794.31
320.129	802.31
320.358	783.31
320.587	767.31
320.816	765.31
321.046	768.31
321.275	829.31
321.504	770.31
321.733	767.31
321.962	774.31
322.191	800.31
322.42	801.31
322.649	802.31
322.878	774.31
323.108	804.31
323.337	819.31
323.566	797.31
323.795	772.31
324.024	795.31
324.253	803.31
324.482	805.31
324.71	814.31
324.939	795.31
325.168	827.31
325.397	805.31
325.626	807.31
325.855	838.31
326.084	852.31
326.313	861.31
326.542	852.31
326.77	859.31
326.999	822.31
327.228	851.31
327.457	834.31
327.686	842.31
327.914	856.31
328.143	861.31
328.372	831.31
328.6	864.31
328.829	819.31
329.058	829.31
329.287	865.31
329.515	868.31
329.744	851.31
329.972	871.31
330.201	873.31
330.43	865.31
330.658	881.31
330.887	894.31
331.115	891.31
331.344	906.31
331.572	892.31
331.801	945.31
332.03	955.31
332.258	974.31
332.486	996.31
332.715	1013.31
332.943	1058.31
333.172	1095.31
333.4	1138.31
333.629	1171.31
333.857	1198.31
334.085	1189.31
334.314	1148.31
334.542	1108.31
334.771	1075.31
334.999	1097.31
335.227	1077.31
335.455	1078.31
335.684	1055.31
335.912	1063.31
336.14	1053.31
336.369	1025.31
336.597	1025.31
336.825	1009.31
337.053	1014.31
337.281	1013.31
337.51	987.31
337.738	966.31
337.966	976.31
338.194	985.31
338.422	930.31
338.65	922.31
338.878	945.31
339.106	925.31
339.334	935.31
339.562	922.31
339.79	905.31
340.018	887.31
340.246	892.31
340.474	885.31
340.702	894.31
340.93	882.31
341.158	911.31
341.386	889.31
341.614	904.31
341.842	896.31
342.07	898.31
342.298	879.31
342.526	855.31
342.754	887.31
342.981	892.31
343.209	906.31
343.437	965.31
343.665	1039.31
343.893	1133.31
344.12	1121.31
344.348	1092.31
344.576	1026.31
344.804	988.31
345.031	941.31
345.259	908.31
345.487	906.31
345.714	902.31
345.942	869.31
346.17	850.31
346.397	847.31
346.625	847.31
346.853	848.31
347.08	861.31
347.308	879.31
347.535	884.31
347.763	855.31
347.99	853.31
348.218	869.31
348.445	847.31
348.673	834.31
348.9	849.31
349.128	863.31
349.355	850.31
349.583	834.31
349.81	834.31
350.037	845.31
350.265	831.31
350.492	844.31
350.72	804.31
350.947	809.31
351.174	811.31
351.402	814.31
351.629	818.31
351.856	807.31
352.083	819.31
352.311	822.31
352.538	796.31
352.765	828.31
352.992	795.31
353.22	813.31
353.447	830.31
353.674	833.31
353.901	805.31
354.128	813.31
354.355	803.31
354.583	851.31
354.81	820.31
355.037	823.31
355.264	819.31
355.491	828.31
355.718	838.31
355.945	847.31
356.172	844.31
356.399	876.31
356.626	805.31
356.853	823.31
357.08	831.31
357.307	823.31
357.534	834.31
357.761	827.31
357.988	831.31
358.215	809.31
358.441	813.31
358.668	797.31
358.895	846.31
359.122	818.31
359.349	837.31
359.576	804.31
359.802	812.31
360.029	829.31
360.256	827.31
360.483	817.31
360.709	828.31
360.936	840.31
361.163	805.31
361.39	831.31
361.616	814.31
361.843	825.31
362.07	835.31
362.296	840.31
362.523	819.31
362.749	842.31
362.976	853.31
363.203	853.31
363.429	820.31
363.656	836.31
363.882	818.31
364.109	797.31
364.335	818.31
364.562	800.31
364.788	814.31
365.015	839.31
365.241	809.31
365.468	801.31
365.694	818.31
365.92	807.31
366.147	809.31
366.373	811.31
366.599	807.31
366.826	820.31
367.052	820.31
367.278	811.31
367.505	844.31
367.731	808.31
367.957	822.31
368.184	829.31
368.41	824.31
368.636	872.31
368.862	865.31
369.089	859.31
369.315	874.31
369.541	864.31
369.767	866.31
369.993	865.31
370.219	881.31
370.445	870.31
370.672	857.31
370.898	897.31
371.124	875.31
371.35	915.31
371.576	886.31
371.802	897.31
372.028	888.31
372.254	899.31
372.48	917.31
372.706	916.31
372.932	957.31
373.158	941.31
373.384	932.31
373.61	925.31
373.835	895.31
374.061	925.31
374.287	905.31
374.513	916.31
374.739	956.31
374.965	977.31
375.191	1019.31
375.416	1002.31
375.642	975.31
375.868	943.31
376.094	936.31
376.319	934.31
376.545	949.31
376.771	905.31
376.997	932.31
377.222	916.31
377.448	904.31
377.674	891.31
377.899	909.31
378.125	911.31
378.35	912.31
378.576	907.31
378.802	877.31
379.027	895.31
379.253	883.31
379.478	868.31
379.704	875.31
379.929	883.31
380.155	903.31
380.38	896.31
380.606	885.31
380.831	903.31
381.057	868.31
381.282	881.31
381.507	899.31
381.733	918.31
381.958	905.31
382.184	915.31
382.409	937.31
382.634	952.31
382.86	951.31
383.085	960.31
383.31	977.31
383.535	993.31
383.761	973.31
383.986	1031.31
384.211	1022.31
384.436	1077.31
384.662	1067.31
384.887	1100.31
385.112	1090.31
385.337	1105.31
385.562	1106.31
385.787	1078.31
386.013	1109.31
386.238	1133.31
386.463	1051.31
386.688	1092.31
386.913	1088.31
387.138	1063.31
387.363	1071.31
387.588	1070.31
387.813	1049.31
388.038	1069.31
388.263	1063.31
388.488	1069.31
388.713	1089.31
388.938	1055.31
389.163	1055.31
389.387	1068.31
389.612	1052.31
389.837	1058.31
390.062	1010.31
390.287	1064.31
390.512	1061.31
390.736	1102.31
390.961	1097.31
391.186	1102.31
391.411	1136.31
391.636	1182.31
391.86	1209.31
392.085	1245.31
392.31	1203.31
392.534	1189.31
392.759	1186.31
392.984	1160.31
393.208	1149.31
393.433	1127.31
393.658	1162.31
393.882	1147.31
394.107	1135.31
394.331	1125.31
394.556	1167.31
394.78	1168.31
395.005	1165.31
395.229	1153.31
395.454	1197.31
395.678	1217.31
395.903	1259.31
396.127	1181.31
396.352	1179.31
396.576	1166.31
396.801	1144.31
397.025	1137.31
397.249	1178.31
397.474	1199.31
397.698	1238.31
397.922	1216.31
398.147	1204.31
398.371	1241.31
398.595	1298.31
398.82	1336.31
399.044	1506.31
399.268	1605.31
399.492	1908.31
399.717	2206.31
399.941	2114.31
400.165	1866.31
400.389	1684.31
400.613	1512.31
400.837	1438.31
401.062	1424.31
401.286	1362.31
401.51	1354.31
401.734	1382.31
401.958	1385.31
402.182	1417.31
402.406	1408.31
402.63	1468.31
402.854	1470.31
403.078	1532.31
403.302	1537.31
403.526	1569.31
403.75	1575.31
403.974	1634.31
404.198	1666.31
404.422	1646.31
404.645	1581.31
404.869	1580.31
405.093	1581.31
405.317	1521.31
405.541	1494.31
405.765	1542.31
405.988	1505.31
406.212	1482.31
406.436	1481.31
406.66	1528.31
406.883	1547.31
407.107	1661.31
407.331	1727.31
407.555	1778.31
407.778	1786.31
408.002	1727.31
408.226	1681.31
408.449	1659.31
408.673	1570.31
408.896	1564.31
409.12	1501.31
409.344	1529.31
409.567	1525.31
409.791	1529.31
410.014	1530.31
410.238	1522.31
410.461	1541.31
410.685	1506.31
410.908	1475.31
411.132	1447.31
411.355	1422.31
411.578	1420.31
411.802	1390.31
412.025	1409.31
412.249	1424.31
412.472	1446.31
412.695	1376.31
412.919	1337.31
413.142	1352.31
413.365	1382.31
413.589	1355.31
413.812	1368.31
414.035	1323.31
414.258	1362.31
414.482	1384.31
414.705	1383.31
414.928	1387.31
415.151	1380.31
415.374	1383.31
415.597	1345.31
415.821	1317.31
416.044	1290.31
416.267	1305.31
416.49	1324.31
416.713	1363.31
416.936	1367.31
417.159	1299.31
417.382	1341.31
417.605	1335.31
417.828	1321.31
418.051	1346.31
418.274	1369.31
418.497	1347.31
418.72	1395.31
418.943	1385.31
419.166	1472.31
419.389	1544.31
419.611	1513.31
419.834	1460.31
420.057	1405.31
420.28	1355.31
420.503	1346.31
420.726	1341.31
420.948	1281.31
421.171	1329.31
421.394	1335.31
421.617	1333.31
421.839	1325.31
422.062	1304.31
422.285	1358.31
422.507	1391.31
422.73	1372.31
422.953	1379.31
423.175	1379.31
423.398	1438.31
423.621	1417.31
423.843	1459.31
424.066	1439.31
424.288	1416.31
424.511	1429.31
424.733	1374.31
424.956	1341.31
425.178	1335.31
425.401	1358.31
425.623	1335.31
425.846	1306.31
426.068	1279.31
426.291	1297.31
426.513	1254.31
426.735	1281.31
426.958	1270.31
427.18	1212.31
427.402	1209.31
427.625	1198.31
427.847	1193.31
428.069	1185.31
428.292	1206.31
428.514	1168.31
428.736	1149.31
428.958	1189.31
429.181	1150.31
429.403	1159.31
429.625	1173.31
429.847	1163.31
430.069	1154.31
430.292	1142.31
430.514	1149.31
430.736	1135.31
430.958	1164.31
431.18	1138.31
431.402	1138.31
431.624	1154.31
431.846	1185.31
432.068	1187.31
432.29	1199.31
432.512	1182.31
432.734	1179.31
432.956	1192.31
433.178	1167.31
433.4	1185.31
433.622	1195.31
433.844	1175.31
434.066	1161.31
434.287	1217.31
434.509	1257.31
434.731	1310.31
434.953	1328.31
435.175	1344.31
435.397	1318.31
435.618	1231.31
435.84	1217.31
436.062	1185.31
436.284	1153.31
436.505	1173.31
436.727	1176.31
436.949	1179.31
437.17	1159.31
437.392	1132.31
437.614	1149.31
437.835	1121.31
438.057	1130.31
438.278	1105.31
438.5	1124.31
438.721	1112.31
438.943	1116.31
439.165	1130.31
439.386	1150.31
439.608	1147.31
439.829	1150.31
440.05	1192.31
440.272	1161.31
440.493	1187.31
440.715	1141.31
440.936	1228.31
441.158	1230.31
441.379	1250.31
441.6	1318.31
441.822	1314.31
442.043	1342.31
442.264	1286.31
442.486	1283.31
442.707	1282.31
442.928	1295.31
443.149	1326.31
443.371	1323.31
443.592	1301.31
443.813	1293.31
444.034	1359.31
444.255	1393.31
444.476	1469.31
444.698	1543.31
444.919	1603.31
445.14	1644.31
445.361	1471.31
445.582	1327.31
445.803	1278.31
446.024	1237.31
446.245	1198.31
446.466	1209.31
446.687	1183.31
446.908	1171.31
447.129	1159.31
447.35	1147.31
447.571	1079.31
447.792	1099.31
448.013	1112.31
448.234	1098.31
448.455	1049.31
448.675	1095.31
448.896	1089.31
449.117	1058.31
449.338	1027.31
449.559	1061.31
449.779	1038.31
450	1023.31
450.221	1047.31
450.442	1068.31
450.662	1067.31
450.883	1050.31
451.104	1092.31
451.324	1062.31
451.545	1083.31
451.766	1061.31
451.986	1068.31
452.207	1065.31
452.428	1047.31
452.648	1059.31
452.869	1063.31
453.089	1015.31
453.31	1050.31
453.53	1033.31
453.751	1060.31
453.971	1009.31
454.192	1016.31
454.412	999.31
454.633	997.31
454.853	995.31
455.073	1011.31
455.294	1002.31
455.514	985.31
455.734	989.31
455.955	982.31
456.175	978.31
456.395	988.31
456.616	981.31
456.836	966.31
457.056	974.31
457.276	999.31
457.497	999.31
457.717	966.31
457.937	991.31
458.157	1012.31
458.377	1013.31
458.598	1031.31
458.818	1082.31
459.038	1086.31
459.258	1169.31
459.478	1168.31
459.698	1185.31
459.918	1235.31
460.138	1315.31
460.358	1395.31
460.578	1402.31
460.798	1386.31
461.018	1445.31
461.238	1388.31
461.458	1418.31
461.678	1411.31
461.898	1409.31
462.118	1418.31
462.338	1478.31
462.558	1534.31
462.777	1567.31
462.997	1733.31
463.217	1909.31
463.437	1842.31
463.657	1698.31
463.876	1614.31
464.096	1627.31
464.316	1624.31
464.536	1655.31
464.755	1571.31
464.975	1526.31
465.195	1419.31
465.414	1322.31
465.634	1251.31
465.854	1208.31
466.073	1187.31
466.293	1157.31
466.512	1148.31
466.732	1109.31
466.951	1132.31
467.171	1120.31
467.391	1117.31
467.61	1114.31
467.829	1126.31
468.049	1109.31
468.268	1062.31
468.488	1082.31
468.707	1071.31
468.927	1084.31
469.146	1079.31
469.365	1068.31
469.585	1058.31
469.804	1101.31
470.023	1110.31
470.243	1138.31
470.462	1177.31
470.681	1173.31
470.901	1177.31
471.12	1147.31
471.339	1087.31
471.558	1124.31
471.777	1068.31
471.997	1079.31
472.216	1099.31
472.435	1075.31
472.654	1085.31
472.873	1038.31
473.092	1074.31
473.311	1018.31
473.53	1042.31
473.749	1018.31
473.968	1014.31
474.187	1064.31
474.406	1029.31
474.625	1049.31
474.844	1032.31
475.063	1039.31
475.282	1044.31
475.501	1031.31
475.72	1083.31
475.939	1091.31
476.158	1088.31
476.377	1075.31
476.596	1075.31
476.814	1089.31
477.033	1114.31
477.252	1127.31
477.471	1147.31
477.69	1187.31
477.908	1236.31
478.127	1284.31
478.346	1262.31
478.564	1298.31
478.783	1307.31
479.002	1316.31
479.22	1281.31
479.439	1333.31
479.658	1276.31
479.876	1350.31
480.095	1324.31
480.313	1390.31
480.532	1411.31
480.751	1422.31
480.969	1319.31
481.188	1299.31
481.406	1304.31
481.624	1248.31
481.843	1210.31
482.061	1183.31
482.28	1213.31
482.498	1173.31
482.717	1166.31
482.935	1161.31
483.153	1159.31
483.372	1163.31
483.59	1189.31
483.808	1190.31
484.027	1159.31
484.245	1190.31
484.463	1182.31
484.681	1241.31
484.9	1220.31
485.118	1231.31
485.336	1215.31
485.554	1267.31
485.772	1252.31
485.99	1238.31
486.209	1293.31
486.427	1225.31
486.645	1259.31
486.863	1236.31
487.081	1220.31
487.299	1225.31
487.517	1267.31
487.735	1261.31
487.953	1243.31
488.171	1273.31
488.389	1246.31
488.607	1229.31
488.825	1205.31
489.043	1192.31
489.261	1225.31
489.479	1258.31
489.696	1244.31
489.914	1250.31
490.132	1281.31
490.35	1209.31
490.568	1238.31
490.786	1223.31
491.003	1275.31
491.221	1241.31
491.439	1279.31
491.657	1282.31
491.874	1319.31
492.092	1271.31
492.31	1299.31
492.527	1270.31
492.745	1270.31
492.963	1299.31
493.18	1309.31
493.398	1301.31
493.615	1306.31
493.833	1309.31
494.05	1307.31
494.268	1310.31
494.485	1332.31
494.703	1347.31
