Data from NiCl2@0.25M.TitratingCurve.Agarose3%dH2O.NegLispCup.LampEnergy10.LIBS07252019_HRD10591_18-25-02-573.txt Node
Date: Thu Jul 25 18:25:02 EDT 2019
User: cochatt
Spectrometer: HR+D1059
Trigger mode: 1
Integration Time (sec): 1.000000E-1
Scans to average: 1
Electric dark correction enabled: true
Nonlinearity correction enabled: false
Boxcar width: 0
XAxis mode: Wavelengths
Number of Pixels in Spectrum: 2048
>>>>>Begin Spectral Data<<<<<
223.165	-13.19
223.4	-13.19
223.635	-13.19
223.869	-23.19
224.104	-30.19
224.338	-18.19
224.573	-9.19
224.808	-20.19
225.042	1.81
225.277	-3.19
225.511	4.81
225.746	0.81
225.98	5.81
226.215	14.81
226.449	4.81
226.683	25.81
226.918	30.81
227.152	27.81
227.387	33.81
227.621	38.81
227.856	57.81
228.09	40.81
228.324	35.81
228.559	48.81
228.793	67.81
229.027	120.81
229.262	139.81
229.496	125.81
229.73	127.81
229.964	133.81
230.199	131.81
230.433	140.81
230.667	133.81
230.901	160.81
231.136	160.81
231.37	163.81
231.604	146.81
231.838	157.81
232.072	156.81
232.306	159.81
232.541	176.81
232.775	160.81
233.009	165.81
233.243	164.81
233.477	167.81
233.711	172.81
233.945	166.81
234.179	157.81
234.413	167.81
234.647	169.81
234.881	176.81
235.115	185.81
235.349	163.81
235.583	187.81
235.817	186.81
236.051	180.81
236.285	178.81
236.519	178.81
236.753	188.81
236.987	191.81
237.221	190.81
237.455	179.81
237.689	195.81
237.922	182.81
238.156	178.81
238.39	193.81
238.624	193.81
238.858	188.81
239.091	207.81
239.325	198.81
239.559	193.81
239.793	199.81
240.027	199.81
240.26	222.81
240.494	211.81
240.728	201.81
240.961	203.81
241.195	208.81
241.429	212.81
241.662	229.81
241.896	214.81
242.13	234.81
242.363	229.81
242.597	211.81
242.83	228.81
243.064	232.81
243.298	240.81
243.531	236.81
243.765	231.81
243.998	241.81
244.232	251.81
244.465	248.81
244.699	259.81
244.932	237.81
245.166	240.81
245.399	254.81
245.633	259.81
245.866	236.81
246.099	252.81
246.333	260.81
246.566	250.81
246.8	284.81
247.033	271.81
247.266	257.81
247.5	246.81
247.733	260.81
247.966	275.81
248.2	303.81
248.433	265.81
248.666	299.81
248.899	287.81
249.133	280.81
249.366	277.81
249.599	282.81
249.832	294.81
250.066	306.81
250.299	298.81
250.532	290.81
250.765	312.81
250.998	310.81
251.231	316.81
251.465	312.81
251.698	303.81
251.931	312.81
252.164	303.81
252.397	328.81
252.63	327.81
252.863	315.81
253.096	328.81
253.329	320.81
253.562	321.81
253.795	334.81
254.028	327.81
254.261	338.81
254.494	332.81
254.727	340.81
254.96	339.81
255.193	329.81
255.426	338.81
255.659	330.81
255.892	369.81
256.124	370.81
256.357	349.81
256.59	347.81
256.823	356.81
257.056	344.81
257.289	334.81
257.521	353.81
257.754	359.81
257.987	367.81
258.22	375.81
258.452	358.81
258.685	357.81
258.918	352.81
259.151	370.81
259.383	381.81
259.616	381.81
259.849	388.81
260.081	397.81
260.314	371.81
260.547	378.81
260.779	392.81
261.012	387.81
261.244	378.81
261.477	379.81
261.71	406.81
261.942	379.81
262.175	411.81
262.407	401.81
262.64	394.81
262.872	388.81
263.105	376.81
263.337	414.81
263.57	409.81
263.802	411.81
264.035	401.81
264.267	404.81
264.499	428.81
264.732	425.81
264.964	417.81
265.197	416.81
265.429	409.81
265.661	428.81
265.894	448.81
266.126	436.81
266.358	418.81
266.591	422.81
266.823	424.81
267.055	424.81
267.287	423.81
267.52	434.81
267.752	447.81
267.984	452.81
268.216	442.81
268.448	451.81
268.681	458.81
268.913	454.81
269.145	454.81
269.377	444.81
269.609	459.81
269.841	439.81
270.073	463.81
270.306	437.81
270.538	464.81
270.77	449.81
271.002	436.81
271.234	467.81
271.466	456.81
271.698	452.81
271.93	475.81
272.162	487.81
272.394	475.81
272.626	479.81
272.858	470.81
273.09	498.81
273.322	482.81
273.553	503.81
273.785	481.81
274.017	464.81
274.249	485.81
274.481	506.81
274.713	501.81
274.945	498.81
275.176	485.81
275.408	517.81
275.64	493.81
275.872	492.81
276.104	497.81
276.335	507.81
276.567	522.81
276.799	513.81
277.031	507.81
277.262	515.81
277.494	532.81
277.726	509.81
277.957	528.81
278.189	515.81
278.421	515.81
278.652	554.81
278.884	542.81
279.115	523.81
279.347	549.81
279.579	541.81
279.81	511.81
280.042	555.81
280.273	564.81
280.505	567.81
280.736	545.81
280.968	563.81
281.199	563.81
281.431	548.81
281.662	575.81
281.894	581.81
282.125	556.81
282.356	589.81
282.588	564.81
282.819	580.81
283.051	595.81
283.282	569.81
283.513	580.81
283.745	599.81
283.976	587.81
284.207	610.81
284.439	595.81
284.67	599.81
284.901	613.81
285.132	569.81
285.364	630.81
285.595	599.81
285.826	625.81
286.057	619.81
286.288	611.81
286.52	631.81
286.751	606.81
286.982	620.81
287.213	641.81
287.444	633.81
287.675	633.81
287.906	613.81
288.138	626.81
288.369	649.81
288.6	627.81
288.831	634.81
289.062	626.81
289.293	642.81
289.524	646.81
289.755	644.81
289.986	631.81
290.217	674.81
290.448	651.81
290.679	664.81
290.91	653.81
291.141	636.81
291.371	639.81
291.602	656.81
291.833	650.81
292.064	650.81
292.295	620.81
292.526	646.81
292.757	661.81
292.987	668.81
293.218	661.81
293.449	647.81
293.68	657.81
293.91	664.81
294.141	663.81
294.372	653.81
294.603	647.81
294.833	645.81
295.064	648.81
295.295	670.81
295.525	663.81
295.756	676.81
295.987	642.81
296.217	661.81
296.448	673.81
296.679	650.81
296.909	673.81
297.14	673.81
297.37	722.81
297.601	684.81
297.831	693.81
298.062	697.81
298.292	681.81
298.523	728.81
298.753	721.81
298.984	709.81
299.214	717.81
299.445	696.81
299.675	683.81
299.905	709.81
300.136	720.81
300.366	707.81
300.597	712.81
300.827	739.81
301.057	738.81
301.288	739.81
301.518	749.81
301.748	755.81
301.979	771.81
302.209	748.81
302.439	754.81
302.669	755.81
302.9	717.81
303.13	751.81
303.36	745.81
303.59	733.81
303.82	739.81
304.051	720.81
304.281	742.81
304.511	730.81
304.741	721.81
304.971	744.81
305.201	725.81
305.431	728.81
305.661	738.81
305.891	735.81
306.121	721.81
306.352	728.81
306.582	694.81
306.812	698.81
307.042	710.81
307.272	736.81
307.502	711.81
307.731	710.81
307.961	690.81
308.191	714.81
308.421	727.81
308.651	707.81
308.881	721.81
309.111	730.81
309.341	709.81
309.571	723.81
309.8	695.81
310.03	707.81
310.26	716.81
310.49	724.81
310.72	744.81
310.949	732.81
311.179	722.81
311.409	738.81
311.639	727.81
311.868	725.81
312.098	736.81
312.328	749.81
312.557	761.81
312.787	732.81
313.017	772.81
313.246	785.81
313.476	750.81
313.706	776.81
313.935	778.81
314.165	778.81
314.394	788.81
314.624	775.81
314.853	777.81
315.083	792.81
315.312	769.81
315.542	792.81
315.771	771.81
316.001	762.81
316.23	788.81
316.46	763.81
316.689	745.81
316.919	765.81
317.148	779.81
317.377	755.81
317.607	761.81
317.836	759.81
318.065	753.81
318.295	765.81
318.524	744.81
318.753	771.81
318.983	757.81
319.212	727.81
319.441	746.81
319.67	756.81
319.9	757.81
320.129	760.81
320.358	771.81
320.587	743.81
320.816	749.81
321.046	761.81
321.275	761.81
321.504	766.81
321.733	768.81
321.962	777.81
322.191	773.81
322.42	774.81
322.649	764.81
322.878	773.81
323.108	778.81
323.337	786.81
323.566	803.81
323.795	799.81
324.024	794.81
324.253	787.81
324.482	790.81
324.71	779.81
324.939	756.81
325.168	771.81
325.397	801.81
325.626	811.81
325.855	819.81
326.084	840.81
326.313	866.81
326.542	842.81
326.77	861.81
326.999	834.81
327.228	823.81
327.457	822.81
327.686	817.81
327.914	830.81
328.143	828.81
328.372	828.81
328.6	833.81
328.829	826.81
329.058	874.81
329.287	870.81
329.515	827.81
329.744	863.81
329.972	851.81
330.201	844.81
330.43	849.81
330.658	857.81
330.887	844.81
331.115	892.81
331.344	880.81
331.572	899.81
331.801	927.81
332.03	953.81
332.258	925.81
332.486	968.81
332.715	994.81
332.943	1057.81
333.172	1066.81
333.4	1147.81
333.629	1136.81
333.857	1159.81
334.085	1180.81
334.314	1111.81
334.542	1119.81
334.771	1100.81
334.999	1089.81
335.227	1083.81
335.455	1038.81
335.684	1011.81
335.912	1009.81
336.14	1044.81
336.369	1004.81
336.597	998.81
336.825	1014.81
337.053	1024.81
337.281	1007.81
337.51	1001.81
337.738	997.81
337.966	935.81
338.194	954.81
338.422	913.81
338.65	893.81
338.878	969.81
339.106	914.81
339.334	917.81
339.562	888.81
339.79	885.81
340.018	891.81
340.246	891.81
340.474	871.81
340.702	881.81
340.93	871.81
341.158	876.81
341.386	888.81
341.614	898.81
341.842	900.81
342.07	848.81
342.298	875.81
342.526	864.81
342.754	881.81
342.981	885.81
343.209	902.81
343.437	932.81
343.665	994.81
343.893	1084.81
344.12	1145.81
344.348	1063.81
344.576	1011.81
344.804	949.81
345.031	931.81
345.259	906.81
345.487	881.81
345.714	891.81
345.942	863.81
346.17	887.81
346.397	874.81
346.625	855.81
346.853	805.81
347.08	855.81
347.308	849.81
347.535	880.81
347.763	844.81
347.99	819.81
348.218	848.81
348.445	840.81
348.673	828.81
348.9	845.81
349.128	835.81
349.355	849.81
349.583	819.81
349.81	832.81
350.037	851.81
350.265	802.81
350.492	816.81
350.72	825.81
350.947	810.81
351.174	815.81
351.402	837.81
351.629	797.81
351.856	801.81
352.083	851.81
352.311	785.81
352.538	780.81
352.765	802.81
352.992	771.81
353.22	777.81
353.447	807.81
353.674	817.81
353.901	786.81
354.128	804.81
354.355	796.81
354.583	798.81
354.81	804.81
355.037	796.81
355.264	797.81
355.491	807.81
355.718	831.81
355.945	776.81
356.172	797.81
356.399	842.81
356.626	836.81
356.853	818.81
357.08	802.81
357.307	811.81
357.534	797.81
357.761	823.81
357.988	816.81
358.215	786.81
358.441	820.81
358.668	805.81
358.895	812.81
359.122	827.81
359.349	808.81
359.576	809.81
359.802	805.81
360.029	802.81
360.256	801.81
360.483	817.81
360.709	822.81
360.936	820.81
361.163	817.81
361.39	824.81
361.616	803.81
361.843	806.81
362.07	812.81
362.296	821.81
362.523	781.81
362.749	828.81
362.976	808.81
363.203	803.81
363.429	828.81
363.656	820.81
363.882	800.81
364.109	808.81
364.335	787.81
364.562	802.81
364.788	815.81
365.015	800.81
365.241	809.81
365.468	797.81
365.694	799.81
365.92	813.81
366.147	796.81
366.373	791.81
366.599	821.81
366.826	803.81
367.052	808.81
367.278	809.81
367.505	812.81
367.731	799.81
367.957	810.81
368.184	796.81
368.41	832.81
368.636	823.81
368.862	823.81
369.089	837.81
369.315	855.81
369.541	856.81
369.767	837.81
369.993	843.81
370.219	821.81
370.445	863.81
370.672	842.81
370.898	876.81
371.124	834.81
371.35	871.81
371.576	870.81
371.802	883.81
372.028	845.81
372.254	881.81
372.48	892.81
372.706	890.81
372.932	908.81
373.158	902.81
373.384	903.81
373.61	904.81
373.835	871.81
374.061	899.81
374.287	936.81
374.513	903.81
374.739	952.81
374.965	980.81
375.191	980.81
375.416	965.81
375.642	956.81
375.868	930.81
376.094	920.81
376.319	891.81
376.545	899.81
376.771	904.81
376.997	886.81
377.222	882.81
377.448	872.81
377.674	887.81
377.899	881.81
378.125	900.81
378.35	874.81
378.576	866.81
378.802	875.81
379.027	880.81
379.253	876.81
379.478	857.81
379.704	866.81
379.929	895.81
380.155	877.81
380.38	857.81
380.606	855.81
380.831	874.81
381.057	860.81
381.282	853.81
381.507	887.81
381.733	861.81
381.958	872.81
382.184	893.81
382.409	907.81
382.634	932.81
382.86	926.81
383.085	965.81
383.31	970.81
383.535	977.81
383.761	1004.81
383.986	1021.81
384.211	1011.81
384.436	1021.81
384.662	1048.81
384.887	1074.81
385.112	1078.81
385.337	1092.81
385.562	1095.81
385.787	1093.81
386.013	1081.81
386.238	1096.81
386.463	1113.81
386.688	1099.81
386.913	1086.81
387.138	1081.81
387.363	1083.81
387.588	1065.81
387.813	1066.81
388.038	1067.81
388.263	1061.81
388.488	1073.81
388.713	1083.81
388.938	1065.81
389.163	1019.81
389.387	1035.81
389.612	1016.81
389.837	1043.81
390.062	1036.81
390.287	1024.81
390.512	1031.81
390.736	1074.81
390.961	1095.81
391.186	1085.81
391.411	1138.81
391.636	1162.81
391.86	1201.81
392.085	1232.81
392.31	1215.81
392.534	1204.81
392.759	1171.81
392.984	1159.81
393.208	1143.81
393.433	1183.81
393.658	1157.81
393.882	1144.81
394.107	1123.81
394.331	1169.81
394.556	1153.81
394.78	1179.81
395.005	1181.81
395.229	1154.81
395.454	1208.81
395.678	1228.81
395.903	1224.81
396.127	1213.81
396.352	1175.81
396.576	1143.81
396.801	1130.81
397.025	1169.81
397.249	1186.81
397.474	1229.81
397.698	1242.81
397.922	1224.81
398.147	1226.81
398.371	1282.81
398.595	1300.81
398.82	1368.81
399.044	1473.81
399.268	1643.81
399.492	1877.81
399.717	2101.81
399.941	2141.81
400.165	1948.81
400.389	1740.81
400.613	1579.81
400.837	1478.81
401.062	1412.81
401.286	1408.81
401.51	1376.81
401.734	1386.81
401.958	1414.81
402.182	1403.81
402.406	1429.81
402.63	1443.81
402.854	1470.81
403.078	1491.81
403.302	1519.81
403.526	1589.81
403.75	1592.81
403.974	1637.81
404.198	1600.81
404.422	1597.81
404.645	1600.81
404.869	1579.81
405.093	1594.81
405.317	1535.81
405.541	1576.81
405.765	1513.81
405.988	1488.81
406.212	1525.81
406.436	1509.81
406.66	1575.81
406.883	1572.81
407.107	1715.81
407.331	1761.81
407.555	1813.81
407.778	1819.81
408.002	1765.81
408.226	1708.81
408.449	1668.81
408.673	1585.81
408.896	1558.81
409.12	1548.81
409.344	1552.81
409.567	1514.81
409.791	1584.81
410.014	1532.81
410.238	1522.81
410.461	1497.81
410.685	1495.81
410.908	1449.81
411.132	1468.81
411.355	1389.81
411.578	1403.81
411.802	1397.81
412.025	1427.81
412.249	1432.81
412.472	1453.81
412.695	1397.81
412.919	1376.81
413.142	1396.81
413.365	1329.81
413.589	1364.81
413.812	1370.81
414.035	1343.81
414.258	1320.81
414.482	1341.81
414.705	1405.81
414.928	1416.81
415.151	1368.81
415.374	1353.81
415.597	1336.81
415.821	1305.81
416.044	1312.81
416.267	1342.81
416.49	1336.81
416.713	1332.81
416.936	1320.81
417.159	1315.81
417.382	1341.81
417.605	1335.81
417.828	1340.81
418.051	1357.81
418.274	1377.81
418.497	1327.81
418.72	1367.81
418.943	1390.81
419.166	1484.81
419.389	1593.81
419.611	1562.81
419.834	1478.81
420.057	1409.81
420.28	1392.81
420.503	1353.81
420.726	1333.81
420.948	1325.81
421.171	1367.81
421.394	1344.81
421.617	1333.81
421.839	1347.81
422.062	1361.81
422.285	1353.81
422.507	1389.81
422.73	1390.81
422.953	1379.81
423.175	1406.81
423.398	1387.81
423.621	1401.81
423.843	1396.81
424.066	1405.81
424.288	1444.81
424.511	1407.81
424.733	1380.81
424.956	1371.81
425.178	1380.81
425.401	1365.81
425.623	1376.81
425.846	1307.81
426.068	1322.81
426.291	1321.81
426.513	1253.81
426.735	1244.81
426.958	1253.81
427.18	1214.81
427.402	1231.81
427.625	1249.81
427.847	1224.81
428.069	1197.81
428.292	1195.81
428.514	1180.81
428.736	1195.81
428.958	1176.81
429.181	1177.81
429.403	1152.81
429.625	1169.81
429.847	1133.81
430.069	1141.81
430.292	1120.81
430.514	1116.81
430.736	1168.81
430.958	1154.81
431.18	1141.81
431.402	1148.81
431.624	1172.81
431.846	1181.81
432.068	1189.81
432.29	1201.81
432.512	1178.81
432.734	1189.81
432.956	1179.81
433.178	1156.81
433.4	1200.81
433.622	1193.81
433.844	1173.81
434.066	1180.81
434.287	1205.81
434.509	1265.81
434.731	1265.81
434.953	1324.81
435.175	1351.81
435.397	1334.81
435.618	1238.81
435.84	1209.81
436.062	1179.81
436.284	1171.81
436.505	1178.81
436.727	1202.81
436.949	1171.81
437.17	1171.81
437.392	1174.81
437.614	1129.81
437.835	1128.81
438.057	1138.81
438.278	1108.81
438.5	1122.81
438.721	1112.81
438.943	1158.81
439.165	1142.81
439.386	1140.81
439.608	1179.81
439.829	1157.81
440.05	1168.81
440.272	1182.81
440.493	1237.81
440.715	1203.81
440.936	1207.81
441.158	1218.81
441.379	1263.81
441.6	1338.81
441.822	1368.81
442.043	1328.81
442.264	1323.81
442.486	1302.81
442.707	1311.81
442.928	1320.81
443.149	1319.81
443.371	1312.81
443.592	1313.81
443.813	1356.81
444.034	1353.81
444.255	1386.81
444.476	1471.81
444.698	1533.81
444.919	1599.81
445.14	1653.81
445.361	1524.81
445.582	1385.81
445.803	1335.81
446.024	1286.81
446.245	1240.81
446.466	1243.81
446.687	1199.81
446.908	1191.81
447.129	1160.81
447.35	1146.81
447.571	1109.81
447.792	1113.81
448.013	1106.81
448.234	1094.81
448.455	1050.81
448.675	1077.81
448.896	1070.81
449.117	1077.81
449.338	1049.81
449.559	1050.81
449.779	1058.81
450	1076.81
450.221	1016.81
450.442	1073.81
450.662	1062.81
450.883	1075.81
451.104	1101.81
451.324	1092.81
451.545	1067.81
451.766	1037.81
451.986	1063.81
452.207	1036.81
452.428	1078.81
452.648	1080.81
452.869	1066.81
453.089	1016.81
453.31	1044.81
453.53	1061.81
453.751	1058.81
453.971	1031.81
454.192	1038.81
454.412	996.81
454.633	996.81
454.853	1019.81
455.073	1029.81
455.294	996.81
455.514	983.81
455.734	987.81
455.955	967.81
456.175	991.81
456.395	1014.81
456.616	991.81
456.836	979.81
457.056	966.81
457.276	979.81
457.497	992.81
457.717	1005.81
457.937	989.81
458.157	1024.81
458.377	1045.81
458.598	1058.81
458.818	1096.81
459.038	1115.81
459.258	1162.81
459.478	1195.81
459.698	1245.81
459.918	1292.81
460.138	1306.81
460.358	1372.81
460.578	1404.81
460.798	1457.81
461.018	1468.81
461.238	1419.81
461.458	1403.81
461.678	1403.81
461.898	1440.81
462.118	1428.81
462.338	1550.81
462.558	1536.81
462.777	1623.81
462.997	1742.81
463.217	1908.81
463.437	1952.81
463.657	1790.81
463.876	1700.81
464.096	1700.81
464.316	1637.81
464.536	1679.81
464.755	1604.81
464.975	1580.81
465.195	1461.81
465.414	1372.81
465.634	1280.81
465.854	1227.81
466.073	1182.81
466.293	1219.81
466.512	1132.81
466.732	1151.81
466.951	1137.81
467.171	1147.81
467.391	1131.81
467.61	1143.81
467.829	1151.81
468.049	1098.81
468.268	1071.81
468.488	1055.81
468.707	1046.81
468.927	1076.81
469.146	1076.81
469.365	1079.81
469.585	1071.81
469.804	1112.81
470.023	1123.81
470.243	1147.81
470.462	1188.81
470.681	1191.81
470.901	1165.81
471.12	1168.81
471.339	1159.81
471.558	1119.81
471.777	1130.81
471.997	1103.81
472.216	1089.81
472.435	1077.81
472.654	1100.81
472.873	1041.81
473.092	1041.81
473.311	1032.81
473.53	1048.81
473.749	1060.81
473.968	1010.81
474.187	1032.81
474.406	1044.81
474.625	1034.81
474.844	1076.81
475.063	1046.81
475.282	1041.81
475.501	1059.81
475.72	1073.81
475.939	1075.81
476.158	1072.81
476.377	1090.81
476.596	1107.81
476.814	1116.81
477.033	1135.81
477.252	1130.81
477.471	1160.81
477.69	1200.81
477.908	1229.81
478.127	1247.81
478.346	1273.81
478.564	1265.81
478.783	1301.81
479.002	1343.81
479.22	1320.81
479.439	1371.81
479.658	1341.81
479.876	1319.81
480.095	1370.81
480.313	1396.81
480.532	1433.81
480.751	1440.81
480.969	1384.81
481.188	1320.81
481.406	1311.81
481.624	1273.81
481.843	1232.81
482.061	1203.81
482.28	1184.81
482.498	1153.81
482.717	1184.81
482.935	1209.81
483.153	1217.81
483.372	1194.81
483.59	1208.81
483.808	1201.81
484.027	1180.81
484.245	1199.81
484.463	1219.81
484.681	1237.81
484.9	1215.81
485.118	1213.81
485.336	1235.81
485.554	1240.81
485.772	1269.81
485.99	1258.81
486.209	1251.81
486.427	1272.81
486.645	1243.81
486.863	1285.81
487.081	1242.81
487.299	1276.81
487.517	1227.81
487.735	1247.81
487.953	1269.81
488.171	1265.81
488.389	1246.81
488.607	1224.81
488.825	1237.81
489.043	1242.81
489.261	1224.81
489.479	1251.81
489.696	1237.81
489.914	1260.81
490.132	1281.81
490.35	1257.81
490.568	1244.81
490.786	1285.81
491.003	1255.81
491.221	1255.81
491.439	1268.81
491.657	1282.81
491.874	1259.81
492.092	1299.81
492.31	1251.81
492.527	1281.81
492.745	1311.81
492.963	1305.81
493.18	1310.81
493.398	1339.81
493.615	1337.81
493.833	1315.81
494.05	1315.81
494.268	1332.81
494.485	1339.81
494.703	1318.81
