Data from NiCl2@0.125M.TitratingCurve.Agarose3%dH2O.NegLispCup.LampEnergy10.LIBS07252019_HRD10591_18-28-34-577.txt Node
Date: Thu Jul 25 18:28:34 EDT 2019
User: cochatt
Spectrometer: HR+D1059
Trigger mode: 1
Integration Time (sec): 1.000000E-1
Scans to average: 1
Electric dark correction enabled: true
Nonlinearity correction enabled: false
Boxcar width: 0
XAxis mode: Wavelengths
Number of Pixels in Spectrum: 2048
>>>>>Begin Spectral Data<<<<<
223.165	-14.31
223.4	-14.31
223.635	-14.31
223.869	-27.31
224.104	-14.31
224.338	-19.31
224.573	-22.31
224.808	-10.31
225.042	-12.31
225.277	-8.31
225.511	-4.31
225.746	7.69
225.98	13.69
226.215	6.69
226.449	22.69
226.683	38.69
226.918	9.69
227.152	33.69
227.387	30.69
227.621	30.69
227.856	35.69
228.09	43.69
228.324	57.69
228.559	63.69
228.793	71.69
229.027	92.69
229.262	121.69
229.496	104.69
229.73	131.69
229.964	123.69
230.199	133.69
230.433	136.69
230.667	145.69
230.901	139.69
231.136	125.69
231.37	120.69
231.604	141.69
231.838	140.69
232.072	149.69
232.306	141.69
232.541	147.69
232.775	171.69
233.009	143.69
233.243	147.69
233.477	155.69
233.711	152.69
233.945	147.69
234.179	140.69
234.413	138.69
234.647	152.69
234.881	163.69
235.115	159.69
235.349	160.69
235.583	157.69
235.817	152.69
236.051	164.69
236.285	168.69
236.519	177.69
236.753	165.69
236.987	151.69
237.221	167.69
237.455	162.69
237.689	165.69
237.922	155.69
238.156	169.69
238.39	187.69
238.624	181.69
238.858	162.69
239.091	173.69
239.325	173.69
239.559	195.69
239.793	183.69
240.027	183.69
240.26	179.69
240.494	181.69
240.728	179.69
240.961	186.69
241.195	194.69
241.429	205.69
241.662	186.69
241.896	192.69
242.13	194.69
242.363	188.69
242.597	194.69
242.83	205.69
243.064	210.69
243.298	194.69
243.531	207.69
243.765	219.69
243.998	223.69
244.232	202.69
244.465	202.69
244.699	207.69
244.932	220.69
245.166	221.69
245.399	221.69
245.633	206.69
245.866	237.69
246.099	233.69
246.333	214.69
246.566	242.69
246.8	227.69
247.033	240.69
247.266	239.69
247.5	240.69
247.733	223.69
247.966	228.69
248.2	228.69
248.433	231.69
248.666	244.69
248.899	243.69
249.133	245.69
249.366	255.69
249.599	256.69
249.832	258.69
250.066	263.69
250.299	244.69
250.532	257.69
250.765	263.69
250.998	255.69
251.231	257.69
251.465	274.69
251.698	268.69
251.931	263.69
252.164	270.69
252.397	278.69
252.63	265.69
252.863	249.69
253.096	269.69
253.329	279.69
253.562	277.69
253.795	287.69
254.028	259.69
254.261	297.69
254.494	303.69
254.727	292.69
254.96	277.69
255.193	300.69
255.426	279.69
255.659	292.69
255.892	300.69
256.124	283.69
256.357	291.69
256.59	271.69
256.823	279.69
257.056	305.69
257.289	308.69
257.521	296.69
257.754	303.69
257.987	324.69
258.22	308.69
258.452	328.69
258.685	312.69
258.918	301.69
259.151	309.69
259.383	305.69
259.616	324.69
259.849	308.69
260.081	343.69
260.314	327.69
260.547	325.69
260.779	337.69
261.012	313.69
261.244	351.69
261.477	331.69
261.71	324.69
261.942	330.69
262.175	346.69
262.407	332.69
262.64	330.69
262.872	339.69
263.105	337.69
263.337	319.69
263.57	341.69
263.802	328.69
264.035	342.69
264.267	357.69
264.499	348.69
264.732	357.69
264.964	336.69
265.197	358.69
265.429	375.69
265.661	369.69
265.894	361.69
266.126	359.69
266.358	361.69
266.591	368.69
266.823	380.69
267.055	370.69
267.287	359.69
267.52	365.69
267.752	370.69
267.984	356.69
268.216	378.69
268.448	379.69
268.681	379.69
268.913	378.69
269.145	373.69
269.377	390.69
269.609	375.69
269.841	382.69
270.073	375.69
270.306	395.69
270.538	378.69
270.77	376.69
271.002	365.69
271.234	383.69
271.466	411.69
271.698	396.69
271.93	389.69
272.162	398.69
272.394	393.69
272.626	408.69
272.858	416.69
273.09	404.69
273.322	387.69
273.553	391.69
273.785	406.69
274.017	440.69
274.249	396.69
274.481	423.69
274.713	403.69
274.945	415.69
275.176	417.69
275.408	432.69
275.64	444.69
275.872	413.69
276.104	433.69
276.335	420.69
276.567	423.69
276.799	435.69
277.031	433.69
277.262	446.69
277.494	441.69
277.726	441.69
277.957	437.69
278.189	441.69
278.421	431.69
278.652	433.69
278.884	438.69
279.115	449.69
279.347	437.69
279.579	455.69
279.81	456.69
280.042	443.69
280.273	475.69
280.505	443.69
280.736	461.69
280.968	452.69
281.199	443.69
281.431	467.69
281.662	461.69
281.894	477.69
282.125	476.69
282.356	466.69
282.588	481.69
282.819	462.69
283.051	477.69
283.282	482.69
283.513	465.69
283.745	485.69
283.976	488.69
284.207	491.69
284.439	496.69
284.67	490.69
284.901	495.69
285.132	517.69
285.364	488.69
285.595	503.69
285.826	502.69
286.057	511.69
286.288	507.69
286.52	532.69
286.751	481.69
286.982	481.69
287.213	496.69
287.444	513.69
287.675	514.69
287.906	501.69
288.138	496.69
288.369	526.69
288.6	523.69
288.831	516.69
289.062	530.69
289.293	531.69
289.524	511.69
289.755	515.69
289.986	512.69
290.217	527.69
290.448	523.69
290.679	538.69
290.91	545.69
291.141	529.69
291.371	524.69
291.602	521.69
291.833	538.69
292.064	543.69
292.295	527.69
292.526	556.69
292.757	551.69
292.987	539.69
293.218	526.69
293.449	549.69
293.68	556.69
293.91	548.69
294.141	535.69
294.372	540.69
294.603	539.69
294.833	533.69
295.064	552.69
295.295	543.69
295.525	535.69
295.756	556.69
295.987	535.69
296.217	568.69
296.448	549.69
296.679	562.69
296.909	569.69
297.14	590.69
297.37	567.69
297.601	561.69
297.831	568.69
298.062	581.69
298.292	571.69
298.523	600.69
298.753	608.69
298.984	602.69
299.214	575.69
299.445	583.69
299.675	584.69
299.905	564.69
300.136	566.69
300.366	571.69
300.597	595.69
300.827	601.69
301.057	612.69
301.288	616.69
301.518	616.69
301.748	620.69
301.979	601.69
302.209	603.69
302.439	605.69
302.669	626.69
302.9	623.69
303.13	607.69
303.36	602.69
303.59	628.69
303.82	583.69
304.051	588.69
304.281	606.69
304.511	588.69
304.741	595.69
304.971	605.69
305.201	598.69
305.431	596.69
305.661	595.69
305.891	585.69
306.121	600.69
306.352	598.69
306.582	602.69
306.812	563.69
307.042	594.69
307.272	605.69
307.502	576.69
307.731	566.69
307.961	587.69
308.191	597.69
308.421	591.69
308.651	612.69
308.881	582.69
309.111	581.69
309.341	578.69
309.571	582.69
309.8	596.69
310.03	613.69
310.26	609.69
310.49	597.69
310.72	604.69
310.949	601.69
311.179	596.69
311.409	594.69
311.639	607.69
311.868	601.69
312.098	610.69
312.328	623.69
312.557	611.69
312.787	589.69
313.017	635.69
313.246	615.69
313.476	634.69
313.706	636.69
313.935	639.69
314.165	623.69
314.394	671.69
314.624	657.69
314.853	643.69
315.083	630.69
315.312	627.69
315.542	645.69
315.771	639.69
316.001	649.69
316.23	613.69
316.46	625.69
316.689	625.69
316.919	637.69
317.148	644.69
317.377	633.69
317.607	625.69
317.836	620.69
318.065	617.69
318.295	617.69
318.524	626.69
318.753	593.69
318.983	629.69
319.212	603.69
319.441	609.69
319.67	601.69
319.9	626.69
320.129	617.69
320.358	622.69
320.587	626.69
320.816	634.69
321.046	647.69
321.275	621.69
321.504	639.69
321.733	619.69
321.962	651.69
322.191	629.69
322.42	631.69
322.649	628.69
322.878	629.69
323.108	621.69
323.337	654.69
323.566	629.69
323.795	636.69
324.024	656.69
324.253	627.69
324.482	654.69
324.71	625.69
324.939	633.69
325.168	652.69
325.397	636.69
325.626	657.69
325.855	647.69
326.084	678.69
326.313	684.69
326.542	674.69
326.77	668.69
326.999	678.69
327.228	647.69
327.457	672.69
327.686	674.69
327.914	658.69
328.143	706.69
328.372	689.69
328.6	650.69
328.829	685.69
329.058	677.69
329.287	652.69
329.515	680.69
329.744	678.69
329.972	693.69
330.201	671.69
330.43	676.69
330.658	687.69
330.887	684.69
331.115	680.69
331.344	723.69
331.572	687.69
331.801	716.69
332.03	741.69
332.258	769.69
332.486	788.69
332.715	796.69
332.943	787.69
333.172	850.69
333.4	887.69
333.629	927.69
333.857	925.69
334.085	921.69
334.314	907.69
334.542	897.69
334.771	879.69
334.999	868.69
335.227	847.69
335.455	861.69
335.684	864.69
335.912	817.69
336.14	817.69
336.369	824.69
336.597	828.69
336.825	808.69
337.053	821.69
337.281	844.69
337.51	788.69
337.738	775.69
337.966	768.69
338.194	770.69
338.422	749.69
338.65	745.69
338.878	728.69
339.106	756.69
339.334	727.69
339.562	723.69
339.79	733.69
340.018	705.69
340.246	699.69
340.474	675.69
340.702	709.69
340.93	708.69
341.158	734.69
341.386	716.69
341.614	714.69
341.842	724.69
342.07	711.69
342.298	721.69
342.526	713.69
342.754	701.69
342.981	729.69
343.209	725.69
343.437	762.69
343.665	787.69
343.893	829.69
344.12	911.69
344.348	858.69
344.576	816.69
344.804	785.69
345.031	759.69
345.259	739.69
345.487	723.69
345.714	731.69
345.942	706.69
346.17	695.69
346.397	708.69
346.625	699.69
346.853	687.69
347.08	680.69
347.308	685.69
347.535	701.69
347.763	712.69
347.99	706.69
348.218	716.69
348.445	689.69
348.673	688.69
348.9	666.69
349.128	678.69
349.355	686.69
349.583	679.69
349.81	678.69
350.037	659.69
350.265	669.69
350.492	694.69
350.72	643.69
350.947	673.69
351.174	680.69
351.402	642.69
351.629	649.69
351.856	662.69
352.083	668.69
352.311	672.69
352.538	667.69
352.765	665.69
352.992	652.69
353.22	645.69
353.447	642.69
353.674	633.69
353.901	673.69
354.128	643.69
354.355	668.69
354.583	658.69
354.81	651.69
355.037	656.69
355.264	669.69
355.491	677.69
355.718	680.69
355.945	689.69
356.172	679.69
356.399	683.69
356.626	661.69
356.853	685.69
357.08	660.69
357.307	646.69
357.534	659.69
357.761	696.69
357.988	675.69
358.215	663.69
358.441	651.69
358.668	689.69
358.895	659.69
359.122	651.69
359.349	666.69
359.576	675.69
359.802	671.69
360.029	685.69
360.256	660.69
360.483	677.69
360.709	680.69
360.936	683.69
361.163	664.69
361.39	671.69
361.616	668.69
361.843	681.69
362.07	668.69
362.296	699.69
362.523	693.69
362.749	680.69
362.976	659.69
363.203	646.69
363.429	669.69
363.656	648.69
363.882	660.69
364.109	666.69
364.335	646.69
364.562	676.69
364.788	641.69
365.015	667.69
365.241	678.69
365.468	660.69
365.694	636.69
365.92	665.69
366.147	662.69
366.373	669.69
366.599	681.69
366.826	684.69
367.052	664.69
367.278	661.69
367.505	684.69
367.731	676.69
367.957	666.69
368.184	677.69
368.41	684.69
368.636	669.69
368.862	684.69
369.089	680.69
369.315	709.69
369.541	682.69
369.767	689.69
369.993	677.69
370.219	698.69
370.445	710.69
370.672	686.69
370.898	723.69
371.124	721.69
371.35	714.69
371.576	717.69
371.802	737.69
372.028	692.69
372.254	697.69
372.48	725.69
372.706	749.69
372.932	774.69
373.158	727.69
373.384	766.69
373.61	720.69
373.835	703.69
374.061	717.69
374.287	732.69
374.513	754.69
374.739	764.69
374.965	781.69
375.191	803.69
375.416	811.69
375.642	789.69
375.868	777.69
376.094	769.69
376.319	740.69
376.545	751.69
376.771	735.69
376.997	703.69
377.222	740.69
377.448	708.69
377.674	728.69
377.899	710.69
378.125	700.69
378.35	711.69
378.576	713.69
378.802	712.69
379.027	731.69
379.253	714.69
379.478	729.69
379.704	730.69
379.929	727.69
380.155	683.69
380.38	720.69
380.606	728.69
380.831	708.69
381.057	716.69
381.282	695.69
381.507	703.69
381.733	735.69
381.958	733.69
382.184	736.69
382.409	747.69
382.634	764.69
382.86	751.69
383.085	774.69
383.31	762.69
383.535	789.69
383.761	793.69
383.986	822.69
384.211	829.69
384.436	817.69
384.662	865.69
384.887	873.69
385.112	872.69
385.337	861.69
385.562	875.69
385.787	879.69
386.013	893.69
386.238	892.69
386.463	893.69
386.688	914.69
386.913	870.69
387.138	895.69
387.363	869.69
387.588	884.69
387.813	866.69
388.038	863.69
388.263	865.69
388.488	897.69
388.713	890.69
388.938	848.69
389.163	835.69
389.387	855.69
389.612	870.69
389.837	861.69
390.062	864.69
390.287	854.69
390.512	851.69
390.736	850.69
390.961	877.69
391.186	905.69
391.411	908.69
391.636	955.69
391.86	982.69
392.085	987.69
392.31	945.69
392.534	933.69
392.759	953.69
392.984	933.69
393.208	912.69
393.433	893.69
393.658	930.69
393.882	903.69
394.107	938.69
394.331	933.69
394.556	960.69
394.78	945.69
395.005	919.69
395.229	937.69
395.454	933.69
395.678	997.69
395.903	963.69
396.127	962.69
396.352	940.69
396.576	921.69
396.801	897.69
397.025	930.69
397.249	950.69
397.474	947.69
397.698	986.69
397.922	982.69
398.147	971.69
398.371	1009.69
398.595	1036.69
398.82	1094.69
399.044	1151.69
399.268	1262.69
399.492	1455.69
399.717	1656.69
399.941	1684.69
400.165	1496.69
400.389	1344.69
400.613	1246.69
400.837	1161.69
401.062	1137.69
401.286	1131.69
401.51	1076.69
401.734	1099.69
401.958	1096.69
402.182	1113.69
402.406	1135.69
402.63	1121.69
402.854	1145.69
403.078	1153.69
403.302	1194.69
403.526	1212.69
403.75	1274.69
403.974	1241.69
404.198	1246.69
404.422	1259.69
404.645	1242.69
404.869	1227.69
405.093	1248.69
405.317	1210.69
405.541	1221.69
405.765	1197.69
405.988	1215.69
406.212	1241.69
406.436	1218.69
406.66	1219.69
406.883	1269.69
407.107	1285.69
407.331	1392.69
407.555	1427.69
407.778	1380.69
408.002	1384.69
408.226	1360.69
408.449	1304.69
408.673	1267.69
408.896	1242.69
409.12	1254.69
409.344	1221.69
409.567	1243.69
409.791	1242.69
410.014	1243.69
410.238	1217.69
410.461	1234.69
410.685	1196.69
410.908	1186.69
411.132	1175.69
411.355	1108.69
411.578	1156.69
411.802	1133.69
412.025	1167.69
412.249	1171.69
412.472	1154.69
412.695	1132.69
412.919	1105.69
413.142	1086.69
413.365	1054.69
413.589	1105.69
413.812	1068.69
414.035	1084.69
414.258	1075.69
414.482	1123.69
414.705	1127.69
414.928	1119.69
415.151	1095.69
415.374	1097.69
415.597	1095.69
415.821	1097.69
416.044	1088.69
416.267	1059.69
416.49	1059.69
416.713	1046.69
416.936	1096.69
417.159	1080.69
417.382	1079.69
417.605	1067.69
417.828	1087.69
418.051	1100.69
418.274	1093.69
418.497	1070.69
418.72	1127.69
418.943	1107.69
419.166	1169.69
419.389	1272.69
419.611	1240.69
419.834	1181.69
420.057	1154.69
420.28	1120.69
420.503	1088.69
420.726	1061.69
420.948	1038.69
421.171	1076.69
421.394	1085.69
421.617	1126.69
421.839	1081.69
422.062	1105.69
422.285	1108.69
422.507	1114.69
422.73	1092.69
422.953	1132.69
423.175	1146.69
423.398	1128.69
423.621	1138.69
423.843	1128.69
424.066	1150.69
424.288	1162.69
424.511	1166.69
424.733	1145.69
424.956	1122.69
425.178	1100.69
425.401	1124.69
425.623	1111.69
425.846	1099.69
426.068	1075.69
426.291	1049.69
426.513	1055.69
426.735	1029.69
426.958	1012.69
427.18	1017.69
427.402	1027.69
427.625	990.69
427.847	985.69
428.069	977.69
428.292	995.69
428.514	958.69
428.736	964.69
428.958	977.69
429.181	971.69
429.403	935.69
429.625	943.69
429.847	965.69
430.069	962.69
430.292	970.69
430.514	926.69
430.736	948.69
430.958	929.69
431.18	963.69
431.402	956.69
431.624	991.69
431.846	1001.69
432.068	1012.69
432.29	1012.69
432.512	1006.69
432.734	963.69
432.956	947.69
433.178	967.69
433.4	970.69
433.622	1008.69
433.844	971.69
434.066	995.69
434.287	1012.69
434.509	1011.69
434.731	1054.69
434.953	1090.69
435.175	1080.69
435.397	1112.69
435.618	1064.69
435.84	1037.69
436.062	996.69
436.284	989.69
436.505	985.69
436.727	983.69
436.949	978.69
437.17	1001.69
437.392	969.69
437.614	952.69
437.835	931.69
438.057	957.69
438.278	915.69
438.5	956.69
438.721	962.69
438.943	963.69
439.165	930.69
439.386	964.69
439.608	967.69
439.829	972.69
440.05	1001.69
440.272	983.69
440.493	1001.69
440.715	1016.69
440.936	999.69
441.158	1031.69
441.379	1046.69
441.6	1096.69
441.822	1143.69
442.043	1159.69
442.264	1092.69
442.486	1089.69
442.707	1089.69
442.928	1060.69
443.149	1092.69
443.371	1082.69
443.592	1088.69
443.813	1092.69
444.034	1112.69
444.255	1156.69
444.476	1198.69
444.698	1290.69
444.919	1308.69
445.14	1419.69
445.361	1289.69
445.582	1185.69
445.803	1088.69
446.024	1081.69
446.245	1067.69
446.466	1044.69
446.687	1009.69
446.908	1025.69
447.129	984.69
447.35	974.69
447.571	978.69
447.792	920.69
448.013	955.69
448.234	937.69
448.455	917.69
448.675	929.69
448.896	944.69
449.117	917.69
449.338	932.69
449.559	898.69
449.779	861.69
450	881.69
450.221	893.69
450.442	925.69
450.662	922.69
450.883	956.69
451.104	963.69
451.324	923.69
451.545	928.69
451.766	929.69
451.986	890.69
452.207	901.69
452.428	924.69
452.648	899.69
452.869	887.69
453.089	859.69
453.31	903.69
453.53	887.69
453.751	868.69
453.971	854.69
454.192	868.69
454.412	848.69
454.633	851.69
454.853	879.69
455.073	839.69
455.294	879.69
455.514	863.69
455.734	853.69
455.955	826.69
456.175	820.69
456.395	825.69
456.616	857.69
456.836	860.69
457.056	852.69
457.276	824.69
457.497	848.69
457.717	851.69
457.937	850.69
458.157	866.69
458.377	879.69
458.598	915.69
458.818	936.69
459.038	950.69
459.258	949.69
459.478	965.69
459.698	1044.69
459.918	1023.69
460.138	1090.69
460.358	1120.69
460.578	1174.69
460.798	1194.69
461.018	1199.69
461.238	1167.69
461.458	1157.69
461.678	1151.69
461.898	1197.69
462.118	1195.69
462.338	1245.69
462.558	1284.69
462.777	1351.69
462.997	1427.69
463.217	1538.69
463.437	1572.69
463.657	1467.69
463.876	1369.69
464.096	1381.69
464.316	1382.69
464.536	1362.69
464.755	1333.69
464.975	1283.69
465.195	1236.69
465.414	1128.69
465.634	1101.69
465.854	1045.69
466.073	1023.69
466.293	1022.69
466.512	982.69
466.732	947.69
466.951	945.69
467.171	980.69
467.391	952.69
467.61	952.69
467.829	946.69
468.049	956.69
468.268	940.69
468.488	927.69
468.707	917.69
468.927	916.69
469.146	907.69
469.365	923.69
469.585	934.69
469.804	938.69
470.023	933.69
470.243	957.69
470.462	997.69
470.681	996.69
470.901	995.69
471.12	969.69
471.339	958.69
471.558	927.69
471.777	936.69
471.997	891.69
472.216	881.69
472.435	920.69
472.654	887.69
472.873	899.69
473.092	885.69
473.311	876.69
473.53	889.69
473.749	872.69
473.968	879.69
474.187	879.69
474.406	906.69
474.625	897.69
474.844	888.69
475.063	885.69
475.282	911.69
475.501	898.69
475.72	901.69
475.939	918.69
476.158	904.69
476.377	949.69
476.596	924.69
476.814	956.69
477.033	941.69
477.252	940.69
477.471	977.69
477.69	1012.69
477.908	1059.69
478.127	1091.69
478.346	1090.69
478.564	1100.69
478.783	1104.69
479.002	1131.69
479.22	1122.69
479.439	1142.69
479.658	1133.69
479.876	1107.69
480.095	1121.69
480.313	1188.69
480.532	1214.69
480.751	1219.69
480.969	1144.69
481.188	1137.69
481.406	1098.69
481.624	1072.69
481.843	1059.69
482.061	1017.69
482.28	1009.69
482.498	1005.69
482.717	1025.69
482.935	1009.69
483.153	1019.69
483.372	1019.69
483.59	1060.69
483.808	1027.69
484.027	1009.69
484.245	1058.69
484.463	1035.69
484.681	1030.69
484.9	1064.69
485.118	1063.69
485.336	1071.69
485.554	1073.69
485.772	1098.69
485.99	1067.69
486.209	1091.69
486.427	1120.69
486.645	1118.69
486.863	1104.69
487.081	1077.69
487.299	1072.69
487.517	1095.69
487.735	1053.69
487.953	1096.69
488.171	1079.69
488.389	1055.69
488.607	1038.69
488.825	1067.69
489.043	1042.69
489.261	1077.69
489.479	1058.69
489.696	1083.69
489.914	1076.69
490.132	1034.69
490.35	1109.69
490.568	1083.69
490.786	1083.69
491.003	1112.69
491.221	1083.69
491.439	1075.69
491.657	1063.69
491.874	1092.69
492.092	1119.69
492.31	1091.69
492.527	1114.69
492.745	1092.69
492.963	1119.69
493.18	1091.69
493.398	1103.69
493.615	1116.69
493.833	1136.69
494.05	1128.69
494.268	1159.69
494.485	1139.69
494.703	1135.69
494.92	1140.69
495.138	1131.69
495.355	1110.69
495.573	1132.69
495.79	1133.69
496.008	1195.69
496.225	1175.69
496.442	1159.69
496.66	1159.69
496.877	1196.69
497.094	1230.69
497.312	1210.69
497.529	1254.69
