Data from NiCl2@0.0625M.TitratingCurve.Agarose3%dH2O.NegLispCup.LampEnergy10.LIBS07252019_HRD10591_18-34-56-577.txt Node
Date: Thu Jul 25 18:34:56 EDT 2019
User: cochatt
Spectrometer: HR+D1059
Trigger mode: 1
Integration Time (sec): 1.000000E-1
Scans to average: 1
Electric dark correction enabled: true
Nonlinearity correction enabled: false
Boxcar width: 0
XAxis mode: Wavelengths
Number of Pixels in Spectrum: 2048
>>>>>Begin Spectral Data<<<<<
223.165	-7.62
223.4	-7.62
223.635	-7.62
223.869	-14.62
224.104	-4.62
224.338	3.38
224.573	-9.62
224.808	-15.62
225.042	-15.62
225.277	-17.62
225.511	-9.62
225.746	2.38
225.98	9.38
226.215	0.38
226.449	9.38
226.683	26.38
226.918	23.38
227.152	20.38
227.387	29.38
227.621	29.38
227.856	49.38
228.09	39.38
228.324	53.38
228.559	51.38
228.793	88.38
229.027	143.38
229.262	150.38
229.496	158.38
229.73	146.38
229.964	178.38
230.199	166.38
230.433	160.38
230.667	157.38
230.901	164.38
231.136	166.38
231.37	168.38
231.604	171.38
231.838	182.38
232.072	193.38
232.306	205.38
232.541	188.38
232.775	204.38
233.009	196.38
233.243	200.38
233.477	199.38
233.711	194.38
233.945	199.38
234.179	200.38
234.413	183.38
234.647	202.38
234.881	208.38
235.115	204.38
235.349	188.38
235.583	194.38
235.817	207.38
236.051	194.38
236.285	222.38
236.519	203.38
236.753	195.38
236.987	211.38
237.221	200.38
237.455	209.38
237.689	231.38
237.922	208.38
238.156	230.38
238.39	225.38
238.624	241.38
238.858	232.38
239.091	232.38
239.325	234.38
239.559	249.38
239.793	260.38
240.027	256.38
240.26	250.38
240.494	254.38
240.728	256.38
240.961	246.38
241.195	237.38
241.429	272.38
241.662	268.38
241.896	265.38
242.13	275.38
242.363	268.38
242.597	280.38
242.83	293.38
243.064	293.38
243.298	290.38
243.531	285.38
243.765	294.38
243.998	268.38
244.232	307.38
244.465	298.38
244.699	302.38
244.932	314.38
245.166	320.38
245.399	318.38
245.633	307.38
245.866	318.38
246.099	322.38
246.333	325.38
246.566	322.38
246.8	322.38
247.033	321.38
247.266	327.38
247.5	317.38
247.733	324.38
247.966	342.38
248.2	338.38
248.433	354.38
248.666	374.38
248.899	353.38
249.133	352.38
249.366	368.38
249.599	374.38
249.832	360.38
250.066	362.38
250.299	359.38
250.532	371.38
250.765	349.38
250.998	362.38
251.231	384.38
251.465	380.38
251.698	372.38
251.931	407.38
252.164	402.38
252.397	372.38
252.63	393.38
252.863	419.38
253.096	397.38
253.329	398.38
253.562	397.38
253.795	396.38
254.028	424.38
254.261	422.38
254.494	406.38
254.727	418.38
254.96	427.38
255.193	419.38
255.426	419.38
255.659	416.38
255.892	425.38
256.124	433.38
256.357	417.38
256.59	453.38
256.823	429.38
257.056	431.38
257.289	433.38
257.521	462.38
257.754	435.38
257.987	442.38
258.22	452.38
258.452	465.38
258.685	452.38
258.918	462.38
259.151	465.38
259.383	459.38
259.616	467.38
259.849	467.38
260.081	472.38
260.314	478.38
260.547	507.38
260.779	460.38
261.012	472.38
261.244	485.38
261.477	477.38
261.71	475.38
261.942	467.38
262.175	489.38
262.407	508.38
262.64	498.38
262.872	506.38
263.105	491.38
263.337	490.38
263.57	502.38
263.802	519.38
264.035	497.38
264.267	498.38
264.499	538.38
264.732	509.38
264.964	516.38
265.197	498.38
265.429	522.38
265.661	526.38
265.894	520.38
266.126	533.38
266.358	525.38
266.591	534.38
266.823	536.38
267.055	545.38
267.287	547.38
267.52	540.38
267.752	554.38
267.984	546.38
268.216	555.38
268.448	566.38
268.681	564.38
268.913	550.38
269.145	544.38
269.377	584.38
269.609	585.38
269.841	572.38
270.073	581.38
270.306	604.38
270.538	587.38
270.77	572.38
271.002	580.38
271.234	603.38
271.466	594.38
271.698	579.38
271.93	592.38
272.162	584.38
272.394	592.38
272.626	596.38
272.858	608.38
273.09	631.38
273.322	618.38
273.553	622.38
273.785	633.38
274.017	619.38
274.249	621.38
274.481	633.38
274.713	612.38
274.945	645.38
275.176	638.38
275.408	618.38
275.64	653.38
275.872	651.38
276.104	664.38
276.335	661.38
276.567	636.38
276.799	646.38
277.031	668.38
277.262	659.38
277.494	651.38
277.726	673.38
277.957	664.38
278.189	690.38
278.421	658.38
278.652	661.38
278.884	685.38
279.115	677.38
279.347	657.38
279.579	665.38
279.81	692.38
280.042	675.38
280.273	704.38
280.505	700.38
280.736	698.38
280.968	730.38
281.199	708.38
281.431	707.38
281.662	683.38
281.894	714.38
282.125	732.38
282.356	707.38
282.588	723.38
282.819	735.38
283.051	694.38
283.282	716.38
283.513	744.38
283.745	735.38
283.976	738.38
284.207	748.38
284.439	781.38
284.67	786.38
284.901	763.38
285.132	763.38
285.364	773.38
285.595	789.38
285.826	754.38
286.057	774.38
286.288	773.38
286.52	771.38
286.751	769.38
286.982	777.38
287.213	765.38
287.444	791.38
287.675	805.38
287.906	777.38
288.138	792.38
288.369	794.38
288.6	777.38
288.831	813.38
289.062	806.38
289.293	786.38
289.524	808.38
289.755	781.38
289.986	800.38
290.217	782.38
290.448	800.38
290.679	829.38
290.91	815.38
291.141	825.38
291.371	825.38
291.602	825.38
291.833	796.38
292.064	824.38
292.295	796.38
292.526	817.38
292.757	816.38
292.987	802.38
293.218	800.38
293.449	825.38
293.68	818.38
293.91	824.38
294.141	814.38
294.372	797.38
294.603	803.38
294.833	827.38
295.064	817.38
295.295	821.38
295.525	830.38
295.756	836.38
295.987	824.38
296.217	857.38
296.448	851.38
296.679	869.38
296.909	844.38
297.14	863.38
297.37	860.38
297.601	871.38
297.831	855.38
298.062	896.38
298.292	904.38
298.523	898.38
298.753	890.38
298.984	885.38
299.214	899.38
299.445	878.38
299.675	896.38
299.905	878.38
300.136	853.38
300.366	863.38
300.597	925.38
300.827	930.38
301.057	913.38
301.288	900.38
301.518	911.38
301.748	935.38
301.979	966.38
302.209	939.38
302.439	939.38
302.669	952.38
302.9	945.38
303.13	915.38
303.36	928.38
303.59	930.38
303.82	937.38
304.051	942.38
304.281	921.38
304.511	927.38
304.741	917.38
304.971	929.38
305.201	914.38
305.431	892.38
305.661	908.38
305.891	926.38
306.121	909.38
306.352	940.38
306.582	921.38
306.812	876.38
307.042	898.38
307.272	928.38
307.502	898.38
307.731	933.38
307.961	906.38
308.191	916.38
308.421	881.38
308.651	887.38
308.881	900.38
309.111	898.38
309.341	918.38
309.571	947.38
309.8	926.38
310.03	934.38
310.26	922.38
310.49	917.38
310.72	936.38
310.949	928.38
311.179	916.38
311.409	971.38
311.639	944.38
311.868	955.38
312.098	948.38
312.328	972.38
312.557	966.38
312.787	954.38
313.017	966.38
313.246	969.38
313.476	986.38
313.706	973.38
313.935	970.38
314.165	962.38
314.394	980.38
314.624	986.38
314.853	989.38
315.083	1014.38
315.312	982.38
315.542	978.38
315.771	998.38
316.001	961.38
316.23	1016.38
316.46	981.38
316.689	958.38
316.919	970.38
317.148	960.38
317.377	939.38
317.607	970.38
317.836	963.38
318.065	962.38
318.295	968.38
318.524	978.38
318.753	989.38
318.983	971.38
319.212	958.38
319.441	960.38
319.67	972.38
319.9	968.38
320.129	974.38
320.358	969.38
320.587	950.38
320.816	982.38
321.046	973.38
321.275	992.38
321.504	978.38
321.733	961.38
321.962	980.38
322.191	987.38
322.42	983.38
322.649	949.38
322.878	1008.38
323.108	987.38
323.337	1027.38
323.566	970.38
323.795	997.38
324.024	1013.38
324.253	992.38
324.482	1013.38
324.71	1032.38
324.939	1033.38
325.168	1019.38
325.397	1042.38
325.626	1012.38
325.855	1036.38
326.084	1038.38
326.313	1064.38
326.542	1026.38
326.77	1056.38
326.999	1049.38
327.228	1085.38
327.457	1035.38
327.686	1025.38
327.914	1057.38
328.143	1058.38
328.372	1058.38
328.6	1067.38
328.829	1089.38
329.058	1046.38
329.287	1090.38
329.515	1104.38
329.744	1079.38
329.972	1098.38
330.201	1102.38
330.43	1116.38
330.658	1079.38
330.887	1102.38
331.115	1112.38
331.344	1129.38
331.572	1141.38
331.801	1142.38
332.03	1182.38
332.258	1185.38
332.486	1230.38
332.715	1264.38
332.943	1273.38
333.172	1349.38
333.4	1385.38
333.629	1421.38
333.857	1426.38
334.085	1425.38
334.314	1400.38
334.542	1353.38
334.771	1380.38
334.999	1375.38
335.227	1332.38
335.455	1378.38
335.684	1352.38
335.912	1357.38
336.14	1301.38
336.369	1320.38
336.597	1325.38
336.825	1315.38
337.053	1291.38
337.281	1275.38
337.51	1225.38
337.738	1206.38
337.966	1208.38
338.194	1169.38
338.422	1202.38
338.65	1184.38
338.878	1154.38
339.106	1168.38
339.334	1178.38
339.562	1147.38
339.79	1130.38
340.018	1130.38
340.246	1122.38
340.474	1118.38
340.702	1100.38
340.93	1131.38
341.158	1093.38
341.386	1122.38
341.614	1127.38
341.842	1119.38
342.07	1103.38
342.298	1122.38
342.526	1094.38
342.754	1115.38
342.981	1123.38
343.209	1118.38
343.437	1187.38
343.665	1265.38
343.893	1331.38
344.12	1409.38
344.348	1312.38
344.576	1280.38
344.804	1222.38
345.031	1159.38
345.259	1151.38
345.487	1128.38
345.714	1121.38
345.942	1082.38
346.17	1115.38
346.397	1095.38
346.625	1101.38
346.853	1043.38
347.08	1060.38
347.308	1052.38
347.535	1117.38
347.763	1089.38
347.99	1094.38
348.218	1073.38
348.445	1068.38
348.673	1047.38
348.9	1062.38
349.128	1076.38
349.355	1063.38
349.583	1056.38
349.81	1069.38
350.037	1081.38
350.265	1031.38
350.492	1066.38
350.72	1004.38
350.947	1041.38
351.174	1054.38
351.402	1059.38
351.629	1029.38
351.856	1017.38
352.083	1031.38
352.311	1010.38
352.538	1034.38
352.765	1020.38
352.992	1011.38
353.22	1034.38
353.447	998.38
353.674	1000.38
353.901	1034.38
354.128	1006.38
354.355	1011.38
354.583	1047.38
354.81	1031.38
355.037	1035.38
355.264	1041.38
355.491	1014.38
355.718	1013.38
355.945	1059.38
356.172	1036.38
356.399	1029.38
356.626	1034.38
356.853	1052.38
357.08	1056.38
357.307	1032.38
357.534	1028.38
357.761	1046.38
357.988	1017.38
358.215	1040.38
358.441	1038.38
358.668	1003.38
358.895	1055.38
359.122	1052.38
359.349	1033.38
359.576	1043.38
359.802	1062.38
360.029	1040.38
360.256	1072.38
360.483	1064.38
360.709	1004.38
360.936	1037.38
361.163	1046.38
361.39	1062.38
361.616	1029.38
361.843	1056.38
362.07	1024.38
362.296	1050.38
362.523	1021.38
362.749	1045.38
362.976	1026.38
363.203	1030.38
363.429	1013.38
363.656	1035.38
363.882	1034.38
364.109	1037.38
364.335	1022.38
364.562	1022.38
364.788	1050.38
365.015	1049.38
365.241	994.38
365.468	1034.38
365.694	998.38
365.92	1039.38
366.147	1018.38
366.373	1030.38
366.599	1052.38
366.826	1018.38
367.052	1035.38
367.278	1013.38
367.505	1026.38
367.731	1070.38
367.957	1042.38
368.184	1025.38
368.41	1060.38
368.636	1072.38
368.862	1076.38
369.089	1065.38
369.315	1037.38
369.541	1094.38
369.767	1045.38
369.993	1115.38
370.219	1085.38
370.445	1078.38
370.672	1082.38
370.898	1117.38
371.124	1112.38
371.35	1104.38
371.576	1141.38
371.802	1125.38
372.028	1086.38
372.254	1109.38
372.48	1140.38
372.706	1174.38
372.932	1152.38
373.158	1160.38
373.384	1159.38
373.61	1123.38
373.835	1127.38
374.061	1142.38
374.287	1148.38
374.513	1159.38
374.739	1195.38
374.965	1228.38
375.191	1258.38
375.416	1220.38
375.642	1174.38
375.868	1178.38
376.094	1154.38
376.319	1149.38
376.545	1136.38
376.771	1133.38
376.997	1134.38
377.222	1133.38
377.448	1123.38
377.674	1150.38
377.899	1116.38
378.125	1114.38
378.35	1107.38
378.576	1096.38
378.802	1108.38
379.027	1100.38
379.253	1098.38
379.478	1100.38
379.704	1095.38
379.929	1090.38
380.155	1121.38
380.38	1106.38
380.606	1105.38
380.831	1097.38
381.057	1117.38
381.282	1122.38
381.507	1122.38
381.733	1137.38
381.958	1129.38
382.184	1156.38
382.409	1157.38
382.634	1165.38
382.86	1147.38
383.085	1163.38
383.31	1193.38
383.535	1217.38
383.761	1240.38
383.986	1240.38
384.211	1259.38
384.436	1308.38
384.662	1285.38
384.887	1340.38
385.112	1350.38
385.337	1333.38
385.562	1328.38
385.787	1332.38
386.013	1308.38
386.238	1353.38
386.463	1359.38
386.688	1359.38
386.913	1363.38
387.138	1353.38
387.363	1360.38
387.588	1368.38
387.813	1344.38
388.038	1306.38
388.263	1364.38
388.488	1350.38
388.713	1339.38
388.938	1326.38
389.163	1346.38
389.387	1358.38
389.612	1322.38
389.837	1344.38
390.062	1336.38
390.287	1338.38
390.512	1321.38
390.736	1337.38
390.961	1381.38
391.186	1409.38
391.411	1406.38
391.636	1473.38
391.86	1486.38
392.085	1503.38
392.31	1538.38
392.534	1469.38
392.759	1450.38
392.984	1456.38
393.208	1462.38
393.433	1425.38
393.658	1404.38
393.882	1428.38
394.107	1415.38
394.331	1422.38
394.556	1419.38
394.78	1490.38
395.005	1465.38
395.229	1506.38
395.454	1483.38
395.678	1521.38
395.903	1486.38
396.127	1482.38
396.352	1443.38
396.576	1428.38
396.801	1482.38
397.025	1463.38
397.249	1497.38
397.474	1538.38
397.698	1515.38
397.922	1569.38
398.147	1556.38
398.371	1592.38
398.595	1667.38
398.82	1701.38
399.044	1818.38
399.268	1981.38
399.492	2222.38
399.717	2440.38
399.941	2485.38
400.165	2276.38
400.389	2070.38
400.613	1900.38
400.837	1813.38
401.062	1773.38
401.286	1750.38
401.51	1708.38
401.734	1707.38
401.958	1718.38
402.182	1713.38
402.406	1730.38
402.63	1737.38
402.854	1837.38
403.078	1787.38
403.302	1814.38
403.526	1846.38
403.75	1882.38
403.974	1921.38
404.198	1901.38
404.422	1906.38
404.645	1896.38
404.869	1878.38
405.093	1881.38
405.317	1858.38
405.541	1885.38
405.765	1849.38
405.988	1809.38
406.212	1861.38
406.436	1846.38
406.66	1906.38
406.883	1918.38
407.107	2022.38
407.331	2104.38
407.555	2179.38
407.778	2152.38
408.002	2139.38
408.226	2041.38
408.449	2051.38
408.673	1946.38
408.896	1929.38
409.12	1915.38
409.344	1918.38
409.567	1921.38
409.791	1930.38
410.014	1899.38
410.238	1884.38
410.461	1881.38
410.685	1865.38
410.908	1824.38
411.132	1817.38
411.355	1781.38
411.578	1793.38
411.802	1738.38
412.025	1756.38
412.249	1812.38
412.472	1796.38
412.695	1765.38
412.919	1756.38
413.142	1683.38
413.365	1732.38
413.589	1736.38
413.812	1715.38
414.035	1634.38
414.258	1672.38
414.482	1752.38
414.705	1731.38
414.928	1734.38
415.151	1740.38
415.374	1658.38
415.597	1661.38
415.821	1628.38
416.044	1646.38
416.267	1641.38
416.49	1634.38
416.713	1633.38
416.936	1633.38
417.159	1618.38
417.382	1630.38
417.605	1621.38
417.828	1625.38
418.051	1651.38
418.274	1656.38
418.497	1685.38
418.72	1687.38
418.943	1662.38
419.166	1769.38
419.389	1916.38
419.611	1884.38
419.834	1788.38
420.057	1748.38
420.28	1687.38
420.503	1652.38
420.726	1631.38
420.948	1640.38
421.171	1655.38
421.394	1637.38
421.617	1636.38
421.839	1669.38
422.062	1690.38
422.285	1640.38
422.507	1666.38
422.73	1710.38
422.953	1713.38
423.175	1659.38
423.398	1700.38
423.621	1674.38
423.843	1715.38
424.066	1714.38
424.288	1717.38
424.511	1678.38
424.733	1676.38
424.956	1684.38
425.178	1654.38
425.401	1662.38
425.623	1664.38
425.846	1579.38
426.068	1576.38
426.291	1608.38
426.513	1570.38
426.735	1578.38
426.958	1553.38
427.18	1530.38
427.402	1480.38
427.625	1482.38
427.847	1524.38
428.069	1528.38
428.292	1510.38
428.514	1497.38
428.736	1474.38
428.958	1457.38
429.181	1487.38
429.403	1449.38
429.625	1455.38
429.847	1456.38
430.069	1462.38
430.292	1455.38
430.514	1439.38
430.736	1440.38
430.958	1435.38
431.18	1467.38
431.402	1474.38
431.624	1480.38
431.846	1517.38
432.068	1525.38
432.29	1566.38
432.512	1486.38
432.734	1488.38
432.956	1511.38
433.178	1478.38
433.4	1480.38
433.622	1505.38
433.844	1583.38
434.066	1536.38
434.287	1550.38
434.509	1597.38
434.731	1608.38
434.953	1609.38
435.175	1641.38
435.397	1623.38
435.618	1588.38
435.84	1534.38
436.062	1512.38
436.284	1498.38
436.505	1467.38
436.727	1468.38
436.949	1497.38
437.17	1488.38
437.392	1445.38
437.614	1427.38
437.835	1416.38
438.057	1426.38
438.278	1394.38
438.5	1415.38
438.721	1405.38
438.943	1427.38
439.165	1426.38
439.386	1432.38
439.608	1458.38
439.829	1476.38
440.05	1456.38
440.272	1465.38
440.493	1482.38
440.715	1502.38
440.936	1513.38
441.158	1561.38
441.379	1578.38
441.6	1625.38
441.822	1660.38
442.043	1630.38
442.264	1621.38
442.486	1568.38
442.707	1613.38
442.928	1627.38
443.149	1634.38
443.371	1590.38
443.592	1663.38
443.813	1629.38
444.034	1642.38
444.255	1699.38
444.476	1752.38
444.698	1819.38
444.919	1907.38
445.14	1976.38
445.361	1817.38
445.582	1706.38
445.803	1572.38
446.024	1566.38
446.245	1529.38
446.466	1510.38
446.687	1464.38
446.908	1494.38
447.129	1448.38
447.35	1432.38
447.571	1428.38
447.792	1383.38
448.013	1357.38
448.234	1356.38
448.455	1345.38
448.675	1363.38
448.896	1360.38
449.117	1322.38
449.338	1321.38
449.559	1312.38
449.779	1293.38
450	1307.38
450.221	1318.38
450.442	1330.38
450.662	1323.38
450.883	1345.38
451.104	1332.38
451.324	1342.38
451.545	1357.38
451.766	1331.38
451.986	1297.38
452.207	1302.38
452.428	1313.38
452.648	1309.38
452.869	1306.38
453.089	1304.38
453.31	1321.38
453.53	1266.38
453.751	1259.38
453.971	1280.38
454.192	1303.38
454.412	1262.38
454.633	1247.38
454.853	1238.38
455.073	1231.38
455.294	1219.38
455.514	1246.38
455.734	1228.38
455.955	1243.38
456.175	1247.38
456.395	1238.38
456.616	1220.38
456.836	1242.38
457.056	1257.38
457.276	1232.38
457.497	1277.38
457.717	1278.38
457.937	1282.38
458.157	1289.38
458.377	1308.38
458.598	1302.38
458.818	1372.38
459.038	1389.38
459.258	1406.38
459.478	1475.38
459.698	1504.38
459.918	1526.38
460.138	1546.38
460.358	1646.38
460.578	1726.38
460.798	1724.38
461.018	1712.38
461.238	1701.38
461.458	1670.38
461.678	1685.38
461.898	1724.38
462.118	1731.38
462.338	1809.38
462.558	1882.38
462.777	1951.38
462.997	2123.38
463.217	2237.38
463.437	2182.38
463.657	2093.38
463.876	1964.38
464.096	1997.38
464.316	1965.38
464.536	1932.38
464.755	1886.38
464.975	1817.38
465.195	1759.38
465.414	1675.38
465.634	1566.38
465.854	1526.38
466.073	1505.38
466.293	1448.38
466.512	1422.38
466.732	1404.38
466.951	1426.38
467.171	1398.38
467.391	1419.38
467.61	1378.38
467.829	1378.38
468.049	1378.38
468.268	1313.38
468.488	1336.38
468.707	1341.38
468.927	1360.38
469.146	1348.38
469.365	1386.38
469.585	1345.38
469.804	1379.38
470.023	1410.38
470.243	1444.38
470.462	1423.38
470.681	1431.38
470.901	1463.38
471.12	1423.38
471.339	1383.38
471.558	1367.38
471.777	1360.38
471.997	1367.38
472.216	1365.38
472.435	1314.38
472.654	1334.38
472.873	1290.38
473.092	1322.38
473.311	1309.38
473.53	1298.38
473.749	1293.38
473.968	1299.38
474.187	1294.38
474.406	1304.38
474.625	1298.38
474.844	1323.38
475.063	1331.38
475.282	1299.38
475.501	1345.38
475.72	1337.38
475.939	1369.38
476.158	1364.38
476.377	1371.38
476.596	1370.38
476.814	1380.38
477.033	1400.38
477.252	1418.38
477.471	1449.38
477.69	1506.38
477.908	1495.38
478.127	1563.38
478.346	1592.38
478.564	1570.38
478.783	1619.38
479.002	1678.38
479.22	1658.38
479.439	1637.38
479.658	1630.38
479.876	1677.38
480.095	1661.38
480.313	1738.38
480.532	1779.38
480.751	1773.38
480.969	1708.38
481.188	1669.38
481.406	1618.38
481.624	1609.38
481.843	1589.38
482.061	1593.38
482.28	1562.38
482.498	1528.38
482.717	1553.38
482.935	1565.38
483.153	1577.38
483.372	1584.38
483.59	1593.38
483.808	1621.38
484.027	1575.38
484.245	1590.38
484.463	1613.38
484.681	1682.38
484.9	1662.38
485.118	1705.38
485.336	1720.38
485.554	1709.38
485.772	1754.38
485.99	1745.38
486.209	1737.38
486.427	1746.38
486.645	1729.38
486.863	1727.38
487.081	1699.38
487.299	1702.38
487.517	1702.38
487.735	1673.38
487.953	1660.38
488.171	1693.38
488.389	1612.38
488.607	1632.38
488.825	1630.38
489.043	1650.38
489.261	1629.38
489.479	1621.38
489.696	1657.38
489.914	1602.38
490.132	1625.38
490.35	1596.38
490.568	1601.38
490.786	1604.38
491.003	1655.38
491.221	1677.38
491.439	1628.38
