Data from NiCl2@0.125M.TitratingCurve.Agarose3%dH2O.NegLispCup.LampEnergy10.LIBS07252019_HRD10591_18-28-29-574.txt Node
Date: Thu Jul 25 18:28:29 EDT 2019
User: cochatt
Spectrometer: HR+D1059
Trigger mode: 1
Integration Time (sec): 1.000000E-1
Scans to average: 1
Electric dark correction enabled: true
Nonlinearity correction enabled: false
Boxcar width: 0
XAxis mode: Wavelengths
Number of Pixels in Spectrum: 2048
>>>>>Begin Spectral Data<<<<<
223.165	-16.69
223.4	-16.69
223.635	-16.69
223.869	-22.69
224.104	-3.69
224.338	-17.69
224.573	-24.69
224.808	-11.69
225.042	-7.69
225.277	-4.69
225.511	-0.69
225.746	10.31
225.98	11.31
226.215	11.31
226.449	14.31
226.683	11.31
226.918	35.31
227.152	16.31
227.387	36.31
227.621	36.31
227.856	40.31
228.09	45.31
228.324	48.31
228.559	51.31
228.793	82.31
229.027	128.31
229.262	133.31
229.496	130.31
229.73	138.31
229.964	159.31
230.199	150.31
230.433	156.31
230.667	162.31
230.901	169.31
231.136	162.31
231.37	165.31
231.604	154.31
231.838	169.31
232.072	172.31
232.306	169.31
232.541	170.31
232.775	181.31
233.009	180.31
233.243	188.31
233.477	170.31
233.711	171.31
233.945	179.31
234.179	181.31
234.413	189.31
234.647	172.31
234.881	174.31
235.115	186.31
235.349	184.31
235.583	172.31
235.817	177.31
236.051	187.31
236.285	190.31
236.519	184.31
236.753	196.31
236.987	192.31
237.221	193.31
237.455	183.31
237.689	217.31
237.922	204.31
238.156	218.31
238.39	216.31
238.624	216.31
238.858	209.31
239.091	210.31
239.325	205.31
239.559	214.31
239.793	205.31
240.027	227.31
240.26	211.31
240.494	214.31
240.728	220.31
240.961	237.31
241.195	223.31
241.429	233.31
241.662	235.31
241.896	240.31
242.13	234.31
242.363	260.31
242.597	242.31
242.83	259.31
243.064	273.31
243.298	266.31
243.531	260.31
243.765	256.31
243.998	267.31
244.232	268.31
244.465	275.31
244.699	264.31
244.932	280.31
245.166	280.31
245.399	285.31
245.633	281.31
245.866	287.31
246.099	273.31
246.333	293.31
246.566	288.31
246.8	304.31
247.033	305.31
247.266	309.31
247.5	287.31
247.733	297.31
247.966	292.31
248.2	304.31
248.433	317.31
248.666	315.31
248.899	293.31
249.133	331.31
249.366	327.31
249.599	310.31
249.832	323.31
250.066	310.31
250.299	315.31
250.532	333.31
250.765	332.31
250.998	355.31
251.231	314.31
251.465	344.31
251.698	371.31
251.931	347.31
252.164	353.31
252.397	369.31
252.63	355.31
252.863	347.31
253.096	351.31
253.329	355.31
253.562	376.31
253.795	364.31
254.028	371.31
254.261	372.31
254.494	361.31
254.727	367.31
254.96	373.31
255.193	371.31
255.426	377.31
255.659	406.31
255.892	383.31
256.124	379.31
256.357	383.31
256.59	385.31
256.823	369.31
257.056	393.31
257.289	390.31
257.521	380.31
257.754	392.31
257.987	388.31
258.22	406.31
258.452	411.31
258.685	415.31
258.918	410.31
259.151	414.31
259.383	398.31
259.616	423.31
259.849	441.31
260.081	414.31
260.314	408.31
260.547	421.31
260.779	420.31
261.012	433.31
261.244	437.31
261.477	422.31
261.71	435.31
261.942	431.31
262.175	431.31
262.407	425.31
262.64	404.31
262.872	440.31
263.105	444.31
263.337	452.31
263.57	470.31
263.802	466.31
264.035	452.31
264.267	458.31
264.499	437.31
264.732	452.31
264.964	464.31
265.197	453.31
265.429	462.31
265.661	458.31
265.894	471.31
266.126	479.31
266.358	497.31
266.591	467.31
266.823	484.31
267.055	487.31
267.287	486.31
267.52	465.31
267.752	481.31
267.984	501.31
268.216	491.31
268.448	497.31
268.681	471.31
268.913	508.31
269.145	475.31
269.377	489.31
269.609	492.31
269.841	515.31
270.073	509.31
270.306	491.31
270.538	499.31
270.77	509.31
271.002	514.31
271.234	524.31
271.466	520.31
271.698	517.31
271.93	529.31
272.162	528.31
272.394	514.31
272.626	524.31
272.858	535.31
273.09	522.31
273.322	542.31
273.553	536.31
273.785	542.31
274.017	535.31
274.249	546.31
274.481	529.31
274.713	545.31
274.945	531.31
275.176	558.31
275.408	562.31
275.64	587.31
275.872	573.31
276.104	572.31
276.335	578.31
276.567	568.31
276.799	573.31
277.031	569.31
277.262	580.31
277.494	581.31
277.726	586.31
277.957	564.31
278.189	585.31
278.421	607.31
278.652	593.31
278.884	590.31
279.115	627.31
279.347	593.31
279.579	600.31
279.81	601.31
280.042	603.31
280.273	620.31
280.505	617.31
280.736	618.31
280.968	643.31
281.199	622.31
281.431	619.31
281.662	637.31
281.894	611.31
282.125	618.31
282.356	656.31
282.588	648.31
282.819	657.31
283.051	655.31
283.282	657.31
283.513	648.31
283.745	663.31
283.976	661.31
284.207	646.31
284.439	629.31
284.67	651.31
284.901	668.31
285.132	657.31
285.364	683.31
285.595	677.31
285.826	671.31
286.057	681.31
286.288	654.31
286.52	649.31
286.751	684.31
286.982	692.31
287.213	695.31
287.444	682.31
287.675	696.31
287.906	672.31
288.138	685.31
288.369	699.31
288.6	698.31
288.831	705.31
289.062	704.31
289.293	709.31
289.524	699.31
289.755	691.31
289.986	706.31
290.217	699.31
290.448	694.31
290.679	713.31
290.91	706.31
291.141	719.31
291.371	722.31
291.602	730.31
291.833	723.31
292.064	709.31
292.295	715.31
292.526	696.31
292.757	717.31
292.987	714.31
293.218	704.31
293.449	727.31
293.68	757.31
293.91	757.31
294.141	699.31
294.372	709.31
294.603	726.31
294.833	744.31
295.064	732.31
295.295	730.31
295.525	703.31
295.756	739.31
295.987	731.31
296.217	752.31
296.448	742.31
296.679	751.31
296.909	746.31
297.14	777.31
297.37	755.31
297.601	794.31
297.831	776.31
298.062	784.31
298.292	803.31
298.523	812.31
298.753	794.31
298.984	804.31
299.214	799.31
299.445	785.31
299.675	782.31
299.905	787.31
300.136	799.31
300.366	786.31
300.597	818.31
300.827	810.31
301.057	821.31
301.288	824.31
301.518	814.31
301.748	801.31
301.979	834.31
302.209	831.31
302.439	833.31
302.669	809.31
302.9	820.31
303.13	803.31
303.36	816.31
303.59	813.31
303.82	800.31
304.051	818.31
304.281	781.31
304.511	791.31
304.741	825.31
304.971	823.31
305.201	806.31
305.431	783.31
305.661	821.31
305.891	812.31
306.121	806.31
306.352	800.31
306.582	793.31
306.812	821.31
307.042	787.31
307.272	784.31
307.502	824.31
307.731	815.31
307.961	803.31
308.191	779.31
308.421	795.31
308.651	792.31
308.881	801.31
309.111	772.31
309.341	784.31
309.571	800.31
309.8	772.31
310.03	784.31
310.26	823.31
310.49	786.31
310.72	791.31
310.949	819.31
311.179	802.31
311.409	819.31
311.639	801.31
311.868	831.31
312.098	807.31
312.328	821.31
312.557	838.31
312.787	817.31
313.017	858.31
313.246	833.31
313.476	863.31
313.706	869.31
313.935	884.31
314.165	833.31
314.394	828.31
314.624	881.31
314.853	881.31
315.083	844.31
315.312	841.31
315.542	866.31
315.771	879.31
316.001	828.31
316.23	824.31
316.46	850.31
316.689	853.31
316.919	863.31
317.148	848.31
317.377	838.31
317.607	838.31
317.836	808.31
318.065	803.31
318.295	857.31
318.524	837.31
318.753	832.31
318.983	826.31
319.212	833.31
319.441	845.31
319.67	805.31
319.9	810.31
320.129	830.31
320.358	852.31
320.587	847.31
320.816	807.31
321.046	840.31
321.275	857.31
321.504	856.31
321.733	845.31
321.962	860.31
322.191	853.31
322.42	824.31
322.649	844.31
322.878	874.31
323.108	855.31
323.337	876.31
323.566	889.31
323.795	850.31
324.024	890.31
324.253	855.31
324.482	873.31
324.71	855.31
324.939	856.31
325.168	857.31
325.397	885.31
325.626	881.31
325.855	891.31
326.084	904.31
326.313	955.31
326.542	946.31
326.77	945.31
326.999	934.31
327.228	898.31
327.457	896.31
327.686	938.31
327.914	897.31
328.143	890.31
328.372	922.31
328.6	950.31
328.829	908.31
329.058	922.31
329.287	929.31
329.515	939.31
329.744	928.31
329.972	947.31
330.201	937.31
330.43	958.31
330.658	935.31
330.887	922.31
331.115	948.31
331.344	955.31
331.572	992.31
331.801	1011.31
332.03	1007.31
332.258	1027.31
332.486	1072.31
332.715	1128.31
332.943	1177.31
333.172	1229.31
333.4	1253.31
333.629	1284.31
333.857	1305.31
334.085	1229.31
334.314	1207.31
334.542	1218.31
334.771	1184.31
334.999	1163.31
335.227	1173.31
335.455	1182.31
335.684	1150.31
335.912	1144.31
336.14	1099.31
336.369	1115.31
336.597	1140.31
336.825	1137.31
337.053	1120.31
337.281	1099.31
337.51	1074.31
337.738	1048.31
337.966	1063.31
338.194	1018.31
338.422	1003.31
338.65	1015.31
338.878	1001.31
339.106	988.31
339.334	1004.31
339.562	1002.31
339.79	963.31
340.018	946.31
340.246	930.31
340.474	989.31
340.702	966.31
340.93	965.31
341.158	962.31
341.386	982.31
341.614	957.31
341.842	954.31
342.07	937.31
342.298	945.31
342.526	949.31
342.754	943.31
342.981	951.31
343.209	978.31
343.437	1047.31
343.665	1105.31
343.893	1187.31
344.12	1256.31
344.348	1166.31
344.576	1068.31
344.804	1030.31
345.031	1005.31
345.259	986.31
345.487	977.31
345.714	954.31
345.942	931.31
346.17	887.31
346.397	931.31
346.625	945.31
346.853	920.31
347.08	914.31
347.308	920.31
347.535	944.31
347.763	913.31
347.99	959.31
348.218	943.31
348.445	922.31
348.673	910.31
348.9	954.31
349.128	917.31
349.355	897.31
349.583	910.31
349.81	915.31
350.037	900.31
350.265	896.31
350.492	893.31
350.72	883.31
350.947	885.31
351.174	866.31
351.402	890.31
351.629	891.31
351.856	882.31
352.083	871.31
352.311	889.31
352.538	887.31
352.765	852.31
352.992	868.31
353.22	881.31
353.447	876.31
353.674	872.31
353.901	848.31
354.128	895.31
354.355	901.31
354.583	876.31
354.81	885.31
355.037	895.31
355.264	891.31
355.491	872.31
355.718	907.31
355.945	882.31
356.172	888.31
356.399	876.31
356.626	909.31
356.853	919.31
357.08	885.31
357.307	896.31
357.534	882.31
357.761	893.31
357.988	889.31
358.215	896.31
358.441	898.31
358.668	881.31
358.895	890.31
359.122	892.31
359.349	911.31
359.576	876.31
359.802	910.31
360.029	917.31
360.256	898.31
360.483	900.31
360.709	889.31
360.936	928.31
361.163	904.31
361.39	887.31
361.616	868.31
361.843	908.31
362.07	897.31
362.296	883.31
362.523	869.31
362.749	887.31
362.976	879.31
363.203	891.31
363.429	882.31
363.656	888.31
363.882	915.31
364.109	873.31
364.335	893.31
364.562	892.31
364.788	883.31
365.015	852.31
365.241	869.31
365.468	864.31
365.694	877.31
365.92	870.31
366.147	881.31
366.373	897.31
366.599	898.31
366.826	881.31
367.052	862.31
367.278	870.31
367.505	892.31
367.731	888.31
367.957	876.31
368.184	907.31
368.41	895.31
368.636	915.31
368.862	905.31
369.089	912.31
369.315	901.31
369.541	920.31
369.767	923.31
369.993	908.31
370.219	928.31
370.445	945.31
370.672	937.31
370.898	945.31
371.124	980.31
371.35	984.31
371.576	1000.31
371.802	968.31
372.028	935.31
372.254	960.31
372.48	948.31
372.706	994.31
372.932	1027.31
373.158	1027.31
373.384	982.31
373.61	990.31
373.835	990.31
374.061	980.31
374.287	982.31
374.513	1001.31
374.739	1031.31
374.965	1069.31
375.191	1089.31
375.416	1093.31
375.642	1040.31
375.868	1029.31
376.094	1029.31
376.319	997.31
376.545	1001.31
376.771	985.31
376.997	982.31
377.222	970.31
377.448	969.31
377.674	976.31
377.899	954.31
378.125	963.31
378.35	969.31
378.576	964.31
378.802	944.31
379.027	983.31
379.253	947.31
379.478	957.31
379.704	995.31
379.929	941.31
380.155	945.31
380.38	919.31
380.606	948.31
380.831	955.31
381.057	972.31
381.282	956.31
381.507	962.31
381.733	983.31
381.958	983.31
382.184	977.31
382.409	1032.31
382.634	1025.31
382.86	1027.31
383.085	1027.31
383.31	1066.31
383.535	1078.31
383.761	1099.31
383.986	1103.31
384.211	1144.31
384.436	1132.31
384.662	1165.31
384.887	1205.31
385.112	1175.31
385.337	1176.31
385.562	1201.31
385.787	1165.31
386.013	1211.31
386.238	1169.31
386.463	1196.31
386.688	1220.31
386.913	1162.31
387.138	1192.31
387.363	1161.31
387.588	1163.31
387.813	1134.31
388.038	1136.31
388.263	1143.31
388.488	1157.31
388.713	1161.31
388.938	1155.31
389.163	1144.31
389.387	1127.31
389.612	1161.31
389.837	1153.31
390.062	1143.31
390.287	1112.31
390.512	1155.31
390.736	1155.31
390.961	1181.31
391.186	1194.31
391.411	1233.31
391.636	1276.31
391.86	1323.31
392.085	1345.31
392.31	1347.31
392.534	1317.31
392.759	1279.31
392.984	1264.31
393.208	1232.31
393.433	1202.31
393.658	1266.31
393.882	1249.31
394.107	1261.31
394.331	1272.31
394.556	1271.31
394.78	1279.31
395.005	1259.31
395.229	1264.31
395.454	1319.31
395.678	1314.31
395.903	1347.31
396.127	1323.31
396.352	1265.31
396.576	1232.31
396.801	1235.31
397.025	1265.31
397.249	1239.31
397.474	1304.31
397.698	1314.31
397.922	1294.31
398.147	1304.31
398.371	1319.31
398.595	1385.31
398.82	1447.31
399.044	1568.31
399.268	1723.31
399.492	2037.31
399.717	2354.31
399.941	2393.31
400.165	2035.31
400.389	1762.31
400.613	1684.31
400.837	1565.31
401.062	1491.31
401.286	1507.31
401.51	1476.31
401.734	1499.31
401.958	1501.31
402.182	1472.31
402.406	1510.31
402.63	1592.31
402.854	1616.31
403.078	1623.31
403.302	1670.31
403.526	1726.31
403.75	1727.31
403.974	1781.31
404.198	1771.31
404.422	1810.31
404.645	1764.31
404.869	1732.31
405.093	1723.31
405.317	1682.31
405.541	1712.31
405.765	1610.31
405.988	1631.31
406.212	1665.31
406.436	1635.31
406.66	1708.31
406.883	1715.31
407.107	1817.31
407.331	1863.31
407.555	1949.31
407.778	1945.31
408.002	1885.31
408.226	1858.31
408.449	1799.31
408.673	1738.31
408.896	1673.31
409.12	1666.31
409.344	1701.31
409.567	1645.31
409.791	1696.31
410.014	1683.31
410.238	1626.31
410.461	1693.31
410.685	1652.31
410.908	1614.31
411.132	1583.31
411.355	1531.31
411.578	1556.31
411.802	1551.31
412.025	1575.31
412.249	1577.31
412.472	1605.31
412.695	1487.31
412.919	1474.31
413.142	1479.31
413.365	1479.31
413.589	1462.31
413.812	1467.31
414.035	1425.31
414.258	1436.31
414.482	1491.31
414.705	1514.31
414.928	1531.31
415.151	1493.31
415.374	1503.31
415.597	1499.31
415.821	1457.31
416.044	1428.31
416.267	1461.31
416.49	1410.31
416.713	1396.31
416.936	1444.31
417.159	1434.31
417.382	1457.31
417.605	1435.31
417.828	1471.31
418.051	1465.31
418.274	1501.31
418.497	1483.31
418.72	1494.31
418.943	1504.31
419.166	1628.31
419.389	1741.31
419.611	1677.31
419.834	1581.31
420.057	1531.31
420.28	1503.31
420.503	1467.31
420.726	1465.31
420.948	1436.31
421.171	1464.31
421.394	1458.31
421.617	1449.31
421.839	1463.31
422.062	1475.31
422.285	1445.31
422.507	1523.31
422.73	1506.31
422.953	1527.31
423.175	1543.31
423.398	1599.31
423.621	1541.31
423.843	1626.31
424.066	1577.31
424.288	1571.31
424.511	1572.31
424.733	1543.31
424.956	1534.31
425.178	1545.31
425.401	1497.31
425.623	1456.31
425.846	1438.31
426.068	1433.31
426.291	1439.31
426.513	1401.31
426.735	1314.31
426.958	1360.31
427.18	1355.31
427.402	1366.31
427.625	1315.31
427.847	1271.31
428.069	1330.31
428.292	1293.31
428.514	1268.31
428.736	1285.31
428.958	1294.31
429.181	1260.31
429.403	1266.31
429.625	1300.31
429.847	1244.31
430.069	1285.31
430.292	1241.31
430.514	1261.31
430.736	1263.31
430.958	1263.31
431.18	1276.31
431.402	1275.31
431.624	1262.31
431.846	1319.31
432.068	1283.31
432.29	1349.31
432.512	1259.31
432.734	1327.31
432.956	1282.31
433.178	1323.31
433.4	1331.31
433.622	1290.31
433.844	1333.31
434.066	1277.31
434.287	1335.31
434.509	1359.31
434.731	1422.31
434.953	1441.31
435.175	1495.31
435.397	1421.31
435.618	1370.31
435.84	1349.31
436.062	1349.31
436.284	1309.31
436.505	1272.31
436.727	1331.31
436.949	1327.31
437.17	1313.31
437.392	1276.31
437.614	1237.31
437.835	1222.31
438.057	1231.31
438.278	1232.31
438.5	1236.31
438.721	1238.31
438.943	1256.31
439.165	1264.31
439.386	1243.31
439.608	1304.31
439.829	1277.31
440.05	1269.31
440.272	1309.31
440.493	1316.31
440.715	1329.31
440.936	1357.31
441.158	1360.31
441.379	1423.31
441.6	1479.31
441.822	1498.31
442.043	1505.31
442.264	1447.31
442.486	1411.31
442.707	1438.31
442.928	1441.31
443.149	1468.31
443.371	1405.31
443.592	1464.31
443.813	1458.31
444.034	1481.31
444.255	1568.31
444.476	1627.31
444.698	1718.31
444.919	1791.31
445.14	1869.31
445.361	1646.31
445.582	1498.31
445.803	1433.31
446.024	1379.31
446.245	1365.31
446.466	1336.31
446.687	1308.31
446.908	1332.31
447.129	1277.31
447.35	1252.31
447.571	1238.31
447.792	1226.31
448.013	1228.31
448.234	1207.31
448.455	1211.31
448.675	1203.31
448.896	1207.31
449.117	1155.31
449.338	1178.31
449.559	1148.31
449.779	1166.31
450	1183.31
450.221	1165.31
450.442	1168.31
450.662	1173.31
450.883	1174.31
451.104	1239.31
451.324	1185.31
451.545	1232.31
451.766	1186.31
451.986	1204.31
452.207	1187.31
452.428	1174.31
452.648	1213.31
452.869	1196.31
453.089	1170.31
453.31	1184.31
453.53	1165.31
453.751	1167.31
453.971	1151.31
454.192	1125.31
454.412	1111.31
454.633	1136.31
454.853	1125.31
455.073	1106.31
455.294	1147.31
455.514	1091.31
455.734	1105.31
455.955	1079.31
456.175	1117.31
456.395	1108.31
456.616	1112.31
456.836	1113.31
457.056	1076.31
457.276	1075.31
457.497	1101.31
457.717	1101.31
457.937	1106.31
458.157	1117.31
458.377	1137.31
458.598	1161.31
458.818	1203.31
459.038	1241.31
459.258	1242.31
459.478	1288.31
459.698	1340.31
459.918	1405.31
460.138	1448.31
460.358	1537.31
460.578	1539.31
460.798	1543.31
461.018	1614.31
461.238	1557.31
461.458	1533.31
461.678	1549.31
461.898	1565.31
462.118	1567.31
462.338	1675.31
462.558	1701.31
462.777	1757.31
462.997	1924.31
463.217	2108.31
463.437	2147.31
463.657	1969.31
463.876	1862.31
464.096	1847.31
464.316	1779.31
464.536	1852.31
464.755	1762.31
464.975	1688.31
465.195	1623.31
465.414	1523.31
465.634	1414.31
465.854	1338.31
466.073	1331.31
466.293	1313.31
466.512	1286.31
466.732	1265.31
466.951	1280.31
467.171	1255.31
467.391	1267.31
467.61	1220.31
467.829	1247.31
468.049	1243.31
468.268	1199.31
468.488	1181.31
468.707	1157.31
468.927	1193.31
469.146	1156.31
469.365	1172.31
469.585	1206.31
469.804	1268.31
470.023	1255.31
470.243	1269.31
470.462	1337.31
470.681	1301.31
470.901	1285.31
471.12	1290.31
471.339	1257.31
471.558	1231.31
471.777	1213.31
471.997	1238.31
472.216	1173.31
472.435	1171.31
472.654	1150.31
472.873	1148.31
473.092	1191.31
473.311	1122.31
473.53	1171.31
473.749	1161.31
473.968	1141.31
474.187	1117.31
474.406	1123.31
474.625	1153.31
474.844	1154.31
475.063	1159.31
475.282	1174.31
475.501	1155.31
475.72	1185.31
475.939	1162.31
476.158	1199.31
476.377	1209.31
476.596	1206.31
476.814	1218.31
477.033	1203.31
477.252	1219.31
477.471	1250.31
477.69	1291.31
477.908	1337.31
478.127	1404.31
478.346	1391.31
478.564	1393.31
478.783	1427.31
479.002	1472.31
479.22	1466.31
479.439	1415.31
479.658	1456.31
479.876	1435.31
480.095	1451.31
480.313	1565.31
480.532	1579.31
480.751	1590.31
480.969	1505.31
481.188	1447.31
481.406	1403.31
481.624	1374.31
481.843	1333.31
482.061	1359.31
482.28	1277.31
482.498	1304.31
482.717	1283.31
482.935	1293.31
483.153	1298.31
483.372	1285.31
483.59	1285.31
483.808	1304.31
484.027	1321.31
484.245	1357.31
484.463	1341.31
484.681	1357.31
484.9	1359.31
485.118	1347.31
485.336	1378.31
485.554	1356.31
485.772	1371.31
485.99	1413.31
486.209	1422.31
486.427	1403.31
486.645	1366.31
486.863	1382.31
487.081	1370.31
487.299	1363.31
487.517	1348.31
487.735	1335.31
487.953	1361.31
488.171	1398.31
488.389	1366.31
488.607	1341.31
488.825	1393.31
489.043	1340.31
489.261	1342.31
489.479	1356.31
489.696	1386.31
489.914	1352.31
490.132	1350.31
490.35	1391.31
490.568	1412.31
490.786	1368.31
491.003	1371.31
491.221	1354.31
491.439	1369.31
491.657	1361.31
491.874	1388.31
492.092	1381.31
492.31	1381.31
492.527	1379.31
492.745	1410.31
492.963	1401.31
493.18	1398.31
493.398	1429.31
493.615	1414.31
493.833	1439.31
