Data from NiCl2@0.125M.TitratingCurve.Agarose3%dH2O.NegLispCup.LampEnergy10.LIBS07252019_HRD10591_18-30-20-575.txt Node
Date: Thu Jul 25 18:30:20 EDT 2019
User: cochatt
Spectrometer: HR+D1059
Trigger mode: 1
Integration Time (sec): 1.000000E-1
Scans to average: 1
Electric dark correction enabled: true
Nonlinearity correction enabled: false
Boxcar width: 0
XAxis mode: Wavelengths
Number of Pixels in Spectrum: 2048
>>>>>Begin Spectral Data<<<<<
223.165	-26.69
223.4	-26.69
223.635	-26.69
223.869	-14.69
224.104	-17.69
224.338	-12.69
224.573	-22.69
224.808	-9.69
225.042	-11.69
225.277	-13.69
225.511	11.31
225.746	3.31
225.98	6.31
226.215	-0.69
226.449	12.31
226.683	45.31
226.918	14.31
227.152	37.31
227.387	33.31
227.621	30.31
227.856	36.31
228.09	51.31
228.324	49.31
228.559	55.31
228.793	70.31
229.027	101.31
229.262	120.31
229.496	107.31
229.73	121.31
229.964	121.31
230.199	127.31
230.433	124.31
230.667	118.31
230.901	123.31
231.136	142.31
231.37	138.31
231.604	143.31
231.838	136.31
232.072	159.31
232.306	155.31
232.541	145.31
232.775	150.31
233.009	131.31
233.243	137.31
233.477	148.31
233.711	144.31
233.945	149.31
234.179	145.31
234.413	137.31
234.647	152.31
234.881	136.31
235.115	142.31
235.349	153.31
235.583	151.31
235.817	134.31
236.051	132.31
236.285	158.31
236.519	153.31
236.753	162.31
236.987	159.31
237.221	158.31
237.455	155.31
237.689	166.31
237.922	144.31
238.156	156.31
238.39	177.31
238.624	158.31
238.858	153.31
239.091	163.31
239.325	156.31
239.559	178.31
239.793	179.31
240.027	162.31
240.26	176.31
240.494	184.31
240.728	174.31
240.961	164.31
241.195	179.31
241.429	180.31
241.662	176.31
241.896	180.31
242.13	203.31
242.363	184.31
242.597	178.31
242.83	179.31
243.064	188.31
243.298	203.31
243.531	184.31
243.765	187.31
243.998	211.31
244.232	198.31
244.465	183.31
244.699	199.31
244.932	205.31
245.166	210.31
245.399	197.31
245.633	217.31
245.866	204.31
246.099	209.31
246.333	208.31
246.566	213.31
246.8	214.31
247.033	205.31
247.266	212.31
247.5	224.31
247.733	224.31
247.966	222.31
248.2	233.31
248.433	231.31
248.666	231.31
248.899	222.31
249.133	231.31
249.366	241.31
249.599	242.31
249.832	245.31
250.066	230.31
250.299	218.31
250.532	270.31
250.765	239.31
250.998	248.31
251.231	254.31
251.465	244.31
251.698	245.31
251.931	234.31
252.164	254.31
252.397	244.31
252.63	258.31
252.863	272.31
253.096	262.31
253.329	263.31
253.562	268.31
253.795	278.31
254.028	239.31
254.261	274.31
254.494	278.31
254.727	288.31
254.96	287.31
255.193	262.31
255.426	276.31
255.659	281.31
255.892	273.31
256.124	288.31
256.357	278.31
256.59	273.31
256.823	292.31
257.056	290.31
257.289	276.31
257.521	268.31
257.754	300.31
257.987	289.31
258.22	291.31
258.452	286.31
258.685	278.31
258.918	303.31
259.151	285.31
259.383	307.31
259.616	313.31
259.849	287.31
260.081	306.31
260.314	302.31
260.547	302.31
260.779	307.31
261.012	308.31
261.244	315.31
261.477	321.31
261.71	309.31
261.942	322.31
262.175	340.31
262.407	321.31
262.64	317.31
262.872	321.31
263.105	310.31
263.337	310.31
263.57	316.31
263.802	313.31
264.035	316.31
264.267	341.31
264.499	331.31
264.732	339.31
264.964	329.31
265.197	330.31
265.429	345.31
265.661	331.31
265.894	342.31
266.126	343.31
266.358	324.31
266.591	318.31
266.823	339.31
267.055	336.31
267.287	358.31
267.52	337.31
267.752	350.31
267.984	354.31
268.216	354.31
268.448	365.31
268.681	358.31
268.913	349.31
269.145	357.31
269.377	366.31
269.609	361.31
269.841	359.31
270.073	358.31
270.306	363.31
270.538	354.31
270.77	359.31
271.002	341.31
271.234	359.31
271.466	371.31
271.698	364.31
271.93	372.31
272.162	371.31
272.394	369.31
272.626	384.31
272.858	386.31
273.09	385.31
273.322	366.31
273.553	373.31
273.785	373.31
274.017	369.31
274.249	392.31
274.481	395.31
274.713	384.31
274.945	390.31
275.176	409.31
275.408	397.31
275.64	394.31
275.872	390.31
276.104	374.31
276.335	385.31
276.567	405.31
276.799	393.31
277.031	424.31
277.262	413.31
277.494	387.31
277.726	422.31
277.957	427.31
278.189	415.31
278.421	438.31
278.652	420.31
278.884	412.31
279.115	397.31
279.347	411.31
279.579	401.31
279.81	424.31
280.042	405.31
280.273	432.31
280.505	428.31
280.736	432.31
280.968	438.31
281.199	423.31
281.431	450.31
281.662	432.31
281.894	446.31
282.125	466.31
282.356	452.31
282.588	433.31
282.819	443.31
283.051	440.31
283.282	441.31
283.513	451.31
283.745	457.31
283.976	445.31
284.207	451.31
284.439	466.31
284.67	467.31
284.901	455.31
285.132	455.31
285.364	446.31
285.595	479.31
285.826	481.31
286.057	479.31
286.288	462.31
286.52	467.31
286.751	452.31
286.982	464.31
287.213	475.31
287.444	479.31
287.675	487.31
287.906	491.31
288.138	498.31
288.369	488.31
288.6	498.31
288.831	494.31
289.062	486.31
289.293	471.31
289.524	486.31
289.755	481.31
289.986	504.31
290.217	488.31
290.448	497.31
290.679	506.31
290.91	498.31
291.141	495.31
291.371	469.31
291.602	501.31
291.833	496.31
292.064	488.31
292.295	491.31
292.526	499.31
292.757	520.31
292.987	516.31
293.218	504.31
293.449	516.31
293.68	482.31
293.91	521.31
294.141	488.31
294.372	514.31
294.603	522.31
294.833	521.31
295.064	508.31
295.295	513.31
295.525	484.31
295.756	514.31
295.987	498.31
296.217	510.31
296.448	507.31
296.679	516.31
296.909	511.31
297.14	530.31
297.37	552.31
297.601	545.31
297.831	527.31
298.062	538.31
298.292	541.31
298.523	563.31
298.753	567.31
298.984	554.31
299.214	541.31
299.445	551.31
299.675	548.31
299.905	548.31
300.136	547.31
300.366	542.31
300.597	568.31
300.827	550.31
301.057	574.31
301.288	591.31
301.518	582.31
301.748	578.31
301.979	569.31
302.209	568.31
302.439	592.31
302.669	596.31
302.9	576.31
303.13	580.31
303.36	573.31
303.59	558.31
303.82	576.31
304.051	576.31
304.281	569.31
304.511	561.31
304.741	582.31
304.971	584.31
305.201	575.31
305.431	569.31
305.661	586.31
305.891	542.31
306.121	564.31
306.352	554.31
306.582	566.31
306.812	551.31
307.042	553.31
307.272	547.31
307.502	553.31
307.731	557.31
307.961	543.31
308.191	551.31
308.421	536.31
308.651	562.31
308.881	541.31
309.111	575.31
309.341	553.31
309.571	542.31
309.8	572.31
310.03	564.31
310.26	566.31
310.49	546.31
310.72	549.31
310.949	574.31
311.179	563.31
311.409	569.31
311.639	571.31
311.868	595.31
312.098	564.31
312.328	588.31
312.557	585.31
312.787	560.31
313.017	560.31
313.246	598.31
313.476	598.31
313.706	604.31
313.935	598.31
314.165	582.31
314.394	590.31
314.624	597.31
314.853	603.31
315.083	591.31
315.312	602.31
315.542	600.31
315.771	580.31
316.001	599.31
316.23	595.31
316.46	578.31
316.689	575.31
316.919	555.31
317.148	565.31
317.377	575.31
317.607	571.31
317.836	578.31
318.065	572.31
318.295	587.31
318.524	572.31
318.753	587.31
318.983	583.31
319.212	575.31
319.441	589.31
319.67	597.31
319.9	576.31
320.129	592.31
320.358	581.31
320.587	576.31
320.816	571.31
321.046	592.31
321.275	597.31
321.504	571.31
321.733	574.31
321.962	575.31
322.191	579.31
322.42	570.31
322.649	582.31
322.878	570.31
323.108	587.31
323.337	600.31
323.566	584.31
323.795	603.31
324.024	576.31
324.253	574.31
324.482	588.31
324.71	611.31
324.939	608.31
325.168	598.31
325.397	610.31
325.626	601.31
325.855	593.31
326.084	638.31
326.313	629.31
326.542	658.31
326.77	638.31
326.999	638.31
327.228	630.31
327.457	638.31
327.686	628.31
327.914	642.31
328.143	631.31
328.372	632.31
328.6	643.31
328.829	627.31
329.058	651.31
329.287	660.31
329.515	634.31
329.744	636.31
329.972	648.31
330.201	651.31
330.43	639.31
330.658	651.31
330.887	667.31
331.115	647.31
331.344	663.31
331.572	665.31
331.801	680.31
332.03	694.31
332.258	710.31
332.486	732.31
332.715	770.31
332.943	786.31
333.172	840.31
333.4	856.31
333.629	873.31
333.857	874.31
334.085	870.31
334.314	841.31
334.542	806.31
334.771	824.31
334.999	770.31
335.227	783.31
335.455	794.31
335.684	784.31
335.912	782.31
336.14	776.31
336.369	758.31
336.597	739.31
336.825	768.31
337.053	770.31
337.281	758.31
337.51	740.31
337.738	739.31
337.966	691.31
338.194	682.31
338.422	674.31
338.65	667.31
338.878	715.31
339.106	698.31
339.334	696.31
339.562	663.31
339.79	673.31
340.018	675.31
340.246	657.31
340.474	660.31
340.702	649.31
340.93	663.31
341.158	668.31
341.386	660.31
341.614	671.31
341.842	652.31
342.07	649.31
342.298	661.31
342.526	644.31
342.754	654.31
342.981	657.31
343.209	680.31
343.437	686.31
343.665	727.31
343.893	793.31
344.12	861.31
344.348	791.31
344.576	754.31
344.804	692.31
345.031	694.31
345.259	686.31
345.487	678.31
345.714	687.31
345.942	661.31
346.17	656.31
346.397	651.31
346.625	653.31
346.853	644.31
347.08	634.31
347.308	642.31
347.535	623.31
347.763	650.31
347.99	668.31
348.218	664.31
348.445	677.31
348.673	654.31
348.9	657.31
349.128	639.31
349.355	632.31
349.583	627.31
349.81	624.31
350.037	609.31
350.265	641.31
350.492	626.31
350.72	629.31
350.947	628.31
351.174	605.31
351.402	605.31
351.629	624.31
351.856	618.31
352.083	626.31
352.311	629.31
352.538	611.31
352.765	626.31
352.992	602.31
353.22	596.31
353.447	603.31
353.674	595.31
353.901	601.31
354.128	616.31
354.355	611.31
354.583	625.31
354.81	614.31
355.037	606.31
355.264	628.31
355.491	620.31
355.718	599.31
355.945	610.31
356.172	631.31
356.399	620.31
356.626	638.31
356.853	644.31
357.08	614.31
357.307	632.31
357.534	610.31
357.761	630.31
357.988	629.31
358.215	610.31
358.441	626.31
358.668	612.31
358.895	616.31
359.122	634.31
359.349	620.31
359.576	608.31
359.802	615.31
360.029	622.31
360.256	630.31
360.483	617.31
360.709	604.31
360.936	624.31
361.163	630.31
361.39	616.31
361.616	636.31
361.843	630.31
362.07	610.31
362.296	631.31
362.523	610.31
362.749	610.31
362.976	624.31
363.203	646.31
363.429	611.31
363.656	616.31
363.882	613.31
364.109	625.31
364.335	601.31
364.562	630.31
364.788	628.31
365.015	631.31
365.241	620.31
365.468	609.31
365.694	606.31
365.92	624.31
366.147	624.31
366.373	604.31
366.599	634.31
366.826	600.31
367.052	623.31
367.278	639.31
367.505	601.31
367.731	638.31
367.957	636.31
368.184	632.31
368.41	642.31
368.636	614.31
368.862	626.31
369.089	638.31
369.315	663.31
369.541	641.31
369.767	653.31
369.993	646.31
370.219	664.31
370.445	650.31
370.672	640.31
370.898	652.31
371.124	674.31
371.35	672.31
371.576	672.31
371.802	666.31
372.028	662.31
372.254	643.31
372.48	685.31
372.706	664.31
372.932	715.31
373.158	693.31
373.384	662.31
373.61	669.31
373.835	667.31
374.061	653.31
374.287	672.31
374.513	696.31
374.739	689.31
374.965	725.31
375.191	755.31
375.416	761.31
375.642	734.31
375.868	729.31
376.094	723.31
376.319	693.31
376.545	672.31
376.771	702.31
376.997	686.31
377.222	680.31
377.448	671.31
377.674	679.31
377.899	661.31
378.125	685.31
378.35	672.31
378.576	688.31
378.802	666.31
379.027	669.31
379.253	675.31
379.478	670.31
379.704	656.31
379.929	640.31
380.155	657.31
380.38	658.31
380.606	680.31
380.831	659.31
381.057	654.31
381.282	664.31
381.507	671.31
381.733	689.31
381.958	665.31
382.184	689.31
382.409	689.31
382.634	702.31
382.86	700.31
383.085	688.31
383.31	727.31
383.535	768.31
383.761	734.31
383.986	778.31
384.211	782.31
384.436	802.31
384.662	800.31
384.887	832.31
385.112	829.31
385.337	806.31
385.562	823.31
385.787	806.31
386.013	845.31
386.238	850.31
386.463	866.31
386.688	815.31
386.913	835.31
387.138	811.31
387.363	817.31
387.588	794.31
387.813	808.31
388.038	823.31
388.263	777.31
388.488	790.31
388.713	780.31
388.938	792.31
389.163	769.31
389.387	784.31
389.612	774.31
389.837	766.31
390.062	775.31
390.287	800.31
390.512	779.31
390.736	801.31
390.961	797.31
391.186	833.31
391.411	834.31
391.636	863.31
391.86	864.31
392.085	920.31
392.31	903.31
392.534	911.31
392.759	863.31
392.984	880.31
393.208	861.31
393.433	856.31
393.658	859.31
393.882	849.31
394.107	841.31
394.331	854.31
394.556	833.31
394.78	866.31
395.005	891.31
395.229	875.31
395.454	903.31
395.678	904.31
395.903	939.31
396.127	902.31
396.352	888.31
396.576	852.31
396.801	841.31
397.025	859.31
397.249	873.31
397.474	917.31
397.698	908.31
397.922	908.31
398.147	872.31
398.371	936.31
398.595	945.31
398.82	992.31
399.044	1032.31
399.268	1164.31
399.492	1355.31
399.717	1544.31
399.941	1554.31
400.165	1375.31
400.389	1218.31
400.613	1118.31
400.837	1076.31
401.062	1045.31
401.286	988.31
401.51	996.31
401.734	1038.31
401.958	1027.31
402.182	1028.31
402.406	1056.31
402.63	1050.31
402.854	1067.31
403.078	1086.31
403.302	1141.31
403.526	1168.31
403.75	1187.31
403.974	1178.31
404.198	1181.31
404.422	1223.31
404.645	1164.31
404.869	1146.31
405.093	1160.31
405.317	1136.31
405.541	1170.31
405.765	1150.31
405.988	1102.31
406.212	1100.31
406.436	1092.31
406.66	1159.31
406.883	1114.31
407.107	1218.31
407.331	1258.31
407.555	1339.31
407.778	1318.31
408.002	1298.31
408.226	1268.31
408.449	1228.31
408.673	1176.31
408.896	1148.31
409.12	1140.31
409.344	1145.31
409.567	1144.31
409.791	1165.31
410.014	1150.31
410.238	1156.31
410.461	1141.31
410.685	1151.31
410.908	1097.31
411.132	1098.31
411.355	1056.31
411.578	1095.31
411.802	1040.31
412.025	1052.31
412.249	1050.31
412.472	1076.31
412.695	1034.31
412.919	991.31
413.142	1006.31
413.365	1010.31
413.589	1026.31
413.812	1020.31
414.035	997.31
414.258	979.31
414.482	1013.31
414.705	1038.31
414.928	1056.31
415.151	1008.31
415.374	1024.31
415.597	1034.31
415.821	1000.31
416.044	1036.31
416.267	979.31
416.49	984.31
416.713	995.31
416.936	1023.31
417.159	971.31
417.382	994.31
417.605	971.31
417.828	1003.31
418.051	1009.31
418.274	995.31
418.497	1036.31
418.72	994.31
418.943	1066.31
419.166	1100.31
419.389	1185.31
419.611	1149.31
419.834	1112.31
420.057	1057.31
420.28	1009.31
420.503	1002.31
420.726	976.31
420.948	981.31
421.171	980.31
421.394	1002.31
421.617	997.31
421.839	1003.31
422.062	1042.31
422.285	1008.31
422.507	1045.31
422.73	1009.31
422.953	1049.31
423.175	1074.31
423.398	1088.31
423.621	1068.31
423.843	1084.31
424.066	1090.31
424.288	1086.31
424.511	1090.31
424.733	1045.31
424.956	1029.31
425.178	1017.31
425.401	1035.31
425.623	1017.31
425.846	984.31
426.068	976.31
426.291	963.31
426.513	938.31
426.735	922.31
426.958	944.31
427.18	916.31
427.402	920.31
427.625	934.31
427.847	915.31
428.069	903.31
428.292	902.31
428.514	897.31
428.736	874.31
428.958	904.31
429.181	866.31
429.403	876.31
429.625	884.31
429.847	891.31
430.069	868.31
430.292	889.31
430.514	855.31
430.736	868.31
430.958	891.31
431.18	889.31
431.402	902.31
431.624	896.31
431.846	921.31
432.068	911.31
432.29	930.31
432.512	905.31
432.734	926.31
432.956	931.31
433.178	905.31
433.4	917.31
433.622	921.31
433.844	924.31
434.066	939.31
434.287	954.31
434.509	959.31
434.731	1000.31
434.953	1030.31
435.175	1033.31
435.397	1023.31
435.618	951.31
435.84	946.31
436.062	930.31
436.284	885.31
436.505	916.31
436.727	915.31
436.949	908.31
437.17	904.31
437.392	891.31
437.614	898.31
437.835	856.31
438.057	875.31
438.278	867.31
438.5	851.31
438.721	898.31
438.943	894.31
439.165	867.31
439.386	894.31
439.608	898.31
439.829	914.31
440.05	918.31
440.272	923.31
440.493	936.31
440.715	933.31
440.936	940.31
441.158	965.31
441.379	986.31
441.6	1024.31
441.822	1060.31
442.043	1011.31
442.264	1031.31
442.486	993.31
442.707	996.31
442.928	1007.31
443.149	1002.31
443.371	982.31
443.592	1034.31
443.813	1053.31
444.034	1042.31
444.255	1092.31
444.476	1101.31
444.698	1189.31
444.919	1228.31
445.14	1324.31
445.361	1154.31
445.582	1033.31
445.803	1013.31
446.024	958.31
446.245	967.31
446.466	944.31
446.687	933.31
446.908	931.31
447.129	885.31
447.35	898.31
447.571	876.31
447.792	869.31
448.013	884.31
448.234	869.31
448.455	842.31
448.675	822.31
448.896	856.31
449.117	836.31
449.338	835.31
449.559	836.31
449.779	844.31
450	833.31
450.221	853.31
450.442	854.31
450.662	847.31
450.883	883.31
451.104	875.31
451.324	891.31
451.545	884.31
451.766	879.31
451.986	839.31
452.207	856.31
452.428	847.31
452.648	834.31
452.869	818.31
453.089	822.31
453.31	839.31
453.53	827.31
453.751	852.31
453.971	814.31
454.192	815.31
454.412	795.31
454.633	792.31
454.853	788.31
455.073	780.31
455.294	841.31
455.514	771.31
455.734	800.31
455.955	779.31
456.175	792.31
456.395	798.31
456.616	776.31
456.836	773.31
457.056	792.31
457.276	743.31
457.497	788.31
457.717	788.31
457.937	790.31
458.157	812.31
458.377	834.31
458.598	814.31
458.818	836.31
459.038	859.31
459.258	899.31
459.478	918.31
459.698	964.31
459.918	981.31
460.138	1012.31
460.358	1081.31
460.578	1074.31
460.798	1111.31
461.018	1135.31
461.238	1072.31
461.458	1053.31
461.678	1065.31
461.898	1071.31
462.118	1095.31
462.338	1147.31
462.558	1202.31
462.777	1208.31
462.997	1350.31
463.217	1470.31
463.437	1491.31
463.657	1363.31
463.876	1280.31
464.096	1273.31
464.316	1260.31
464.536	1268.31
464.755	1255.31
464.975	1210.31
465.195	1134.31
465.414	1040.31
465.634	988.31
465.854	972.31
466.073	930.31
466.293	948.31
466.512	894.31
466.732	904.31
466.951	917.31
467.171	872.31
467.391	900.31
467.61	908.31
467.829	889.31
468.049	873.31
468.268	842.31
468.488	856.31
468.707	850.31
468.927	842.31
469.146	854.31
469.365	869.31
469.585	863.31
469.804	872.31
470.023	895.31
470.243	888.31
470.462	892.31
470.681	903.31
470.901	920.31
471.12	908.31
471.339	897.31
471.558	837.31
471.777	848.31
471.997	867.31
472.216	846.31
472.435	839.31
472.654	809.31
472.873	844.31
473.092	829.31
473.311	822.31
473.53	858.31
473.749	841.31
473.968	800.31
474.187	814.31
474.406	814.31
474.625	818.31
474.844	830.31
475.063	816.31
475.282	823.31
475.501	830.31
475.72	820.31
475.939	843.31
476.158	851.31
476.377	878.31
476.596	844.31
476.814	851.31
477.033	875.31
477.252	880.31
477.471	902.31
477.69	922.31
477.908	945.31
478.127	964.31
478.346	979.31
478.564	1002.31
478.783	1038.31
479.002	1054.31
479.22	1046.31
479.439	1052.31
479.658	1009.31
479.876	1016.31
480.095	1048.31
480.313	1098.31
480.532	1129.31
480.751	1127.31
480.969	1100.31
481.188	1037.31
481.406	1006.31
481.624	975.31
481.843	962.31
482.061	953.31
482.28	944.31
482.498	936.31
482.717	953.31
482.935	930.31
483.153	938.31
483.372	937.31
483.59	964.31
483.808	948.31
484.027	949.31
484.245	974.31
484.463	985.31
484.681	1008.31
484.9	976.31
485.118	977.31
485.336	988.31
485.554	990.31
485.772	1027.31
485.99	1025.31
486.209	1013.31
486.427	995.31
486.645	998.31
486.863	1002.31
487.081	998.31
487.299	1001.31
487.517	1022.31
487.735	998.31
487.953	966.31
488.171	970.31
488.389	995.31
488.607	1006.31
488.825	968.31
489.043	974.31
489.261	1006.31
489.479	990.31
489.696	971.31
489.914	997.31
490.132	1012.31
490.35	1006.31
490.568	1026.31
490.786	1003.31
491.003	983.31
491.221	1026.31
491.439	1028.31
491.657	1006.31
491.874	1020.31
492.092	1023.31
492.31	993.31
492.527	1012.31
492.745	1016.31
492.963	1044.31
493.18	1036.31
493.398	1041.31
493.615	1028.31
493.833	1034.31
494.05	1030.31
494.268	1061.31
494.485	1053.31
494.703	1058.31
494.92	1026.31
495.138	1066.31
495.355	1048.31
495.573	1072.31
495.79	1062.31
496.008	1071.31
496.225	1075.31
496.442	1043.31
496.66	1077.31
496.877	1107.31
497.094	1079.31
497.312	1103.31
497.529	1126.31
497.746	1148.31
497.963	1175.31
498.181	1220.31
498.398	1303.31
498.615	1373.31
