Data from NiCl2@0.0625M.TitratingCurve.Agarose3%dH2O.NegLispCup.LampEnergy10.LIBS07252019_HRD10591_18-34-29-576.txt Node
Date: Thu Jul 25 18:34:29 EDT 2019
User: cochatt
Spectrometer: HR+D1059
Trigger mode: 1
Integration Time (sec): 1.000000E-1
Scans to average: 1
Electric dark correction enabled: true
Nonlinearity correction enabled: false
Boxcar width: 0
XAxis mode: Wavelengths
Number of Pixels in Spectrum: 2048
>>>>>Begin Spectral Data<<<<<
223.165	-13.25
223.4	-13.25
223.635	-13.25
223.869	-26.25
224.104	5.75
224.338	-21.25
224.573	-9.25
224.808	-9.25
225.042	-11.25
225.277	-15.25
225.511	-3.25
225.746	6.75
225.98	24.75
226.215	14.75
226.449	4.75
226.683	18.75
226.918	13.75
227.152	19.75
227.387	27.75
227.621	29.75
227.856	47.75
228.09	55.75
228.324	46.75
228.559	54.75
228.793	84.75
229.027	133.75
229.262	155.75
229.496	146.75
229.73	151.75
229.964	182.75
230.199	147.75
230.433	175.75
230.667	172.75
230.901	168.75
231.136	182.75
231.37	174.75
231.604	188.75
231.838	202.75
232.072	190.75
232.306	200.75
232.541	211.75
232.775	191.75
233.009	211.75
233.243	200.75
233.477	188.75
233.711	206.75
233.945	209.75
234.179	209.75
234.413	207.75
234.647	209.75
234.881	207.75
235.115	225.75
235.349	219.75
235.583	210.75
235.817	217.75
236.051	222.75
236.285	206.75
236.519	221.75
236.753	216.75
236.987	222.75
237.221	217.75
237.455	204.75
237.689	221.75
237.922	240.75
238.156	238.75
238.39	236.75
238.624	247.75
238.858	237.75
239.091	248.75
239.325	245.75
239.559	259.75
239.793	274.75
240.027	257.75
240.26	237.75
240.494	271.75
240.728	267.75
240.961	255.75
241.195	269.75
241.429	279.75
241.662	291.75
241.896	270.75
242.13	296.75
242.363	288.75
242.597	292.75
242.83	300.75
243.064	271.75
243.298	280.75
243.531	307.75
243.765	307.75
243.998	302.75
244.232	302.75
244.465	315.75
244.699	316.75
244.932	321.75
245.166	326.75
245.399	332.75
245.633	322.75
245.866	344.75
246.099	320.75
246.333	332.75
246.566	339.75
246.8	340.75
247.033	365.75
247.266	355.75
247.5	351.75
247.733	356.75
247.966	344.75
248.2	351.75
248.433	378.75
248.666	362.75
248.899	400.75
249.133	369.75
249.366	375.75
249.599	366.75
249.832	389.75
250.066	385.75
250.299	395.75
250.532	399.75
250.765	377.75
250.998	389.75
251.231	394.75
251.465	403.75
251.698	405.75
251.931	391.75
252.164	395.75
252.397	405.75
252.63	404.75
252.863	410.75
253.096	434.75
253.329	416.75
253.562	427.75
253.795	417.75
254.028	431.75
254.261	449.75
254.494	454.75
254.727	435.75
254.96	438.75
255.193	444.75
255.426	437.75
255.659	439.75
255.892	445.75
256.124	427.75
256.357	453.75
256.59	452.75
256.823	471.75
257.056	467.75
257.289	466.75
257.521	457.75
257.754	455.75
257.987	478.75
258.22	467.75
258.452	489.75
258.685	484.75
258.918	461.75
259.151	483.75
259.383	495.75
259.616	466.75
259.849	492.75
260.081	506.75
260.314	486.75
260.547	513.75
260.779	505.75
261.012	496.75
261.244	501.75
261.477	528.75
261.71	534.75
261.942	516.75
262.175	530.75
262.407	522.75
262.64	537.75
262.872	523.75
263.105	522.75
263.337	531.75
263.57	561.75
263.802	544.75
264.035	549.75
264.267	520.75
264.499	533.75
264.732	545.75
264.964	543.75
265.197	521.75
265.429	573.75
265.661	560.75
265.894	574.75
266.126	568.75
266.358	572.75
266.591	563.75
266.823	580.75
267.055	585.75
267.287	570.75
267.52	563.75
267.752	546.75
267.984	577.75
268.216	613.75
268.448	601.75
268.681	579.75
268.913	591.75
269.145	599.75
269.377	605.75
269.609	602.75
269.841	614.75
270.073	611.75
270.306	608.75
270.538	606.75
270.77	626.75
271.002	625.75
271.234	612.75
271.466	623.75
271.698	626.75
271.93	613.75
272.162	619.75
272.394	636.75
272.626	646.75
272.858	626.75
273.09	633.75
273.322	633.75
273.553	646.75
273.785	647.75
274.017	648.75
274.249	680.75
274.481	654.75
274.713	658.75
274.945	677.75
275.176	657.75
275.408	686.75
275.64	679.75
275.872	669.75
276.104	677.75
276.335	681.75
276.567	673.75
276.799	670.75
277.031	684.75
277.262	690.75
277.494	669.75
277.726	699.75
277.957	721.75
278.189	709.75
278.421	714.75
278.652	730.75
278.884	711.75
279.115	730.75
279.347	729.75
279.579	748.75
279.81	739.75
280.042	744.75
280.273	747.75
280.505	715.75
280.736	750.75
280.968	737.75
281.199	741.75
281.431	763.75
281.662	755.75
281.894	753.75
282.125	789.75
282.356	753.75
282.588	765.75
282.819	781.75
283.051	774.75
283.282	789.75
283.513	786.75
283.745	781.75
283.976	788.75
284.207	784.75
284.439	815.75
284.67	789.75
284.901	799.75
285.132	812.75
285.364	803.75
285.595	838.75
285.826	811.75
286.057	805.75
286.288	823.75
286.52	801.75
286.751	809.75
286.982	835.75
287.213	800.75
287.444	837.75
287.675	835.75
287.906	835.75
288.138	853.75
288.369	855.75
288.6	831.75
288.831	839.75
289.062	854.75
289.293	840.75
289.524	855.75
289.755	863.75
289.986	855.75
290.217	852.75
290.448	878.75
290.679	845.75
290.91	839.75
291.141	862.75
291.371	866.75
291.602	853.75
291.833	871.75
292.064	851.75
292.295	869.75
292.526	876.75
292.757	855.75
292.987	848.75
293.218	853.75
293.449	894.75
293.68	903.75
293.91	842.75
294.141	888.75
294.372	855.75
294.603	874.75
294.833	858.75
295.064	891.75
295.295	869.75
295.525	880.75
295.756	906.75
295.987	877.75
296.217	881.75
296.448	877.75
296.679	890.75
296.909	889.75
297.14	877.75
297.37	905.75
297.601	916.75
297.831	924.75
298.062	914.75
298.292	925.75
298.523	952.75
298.753	955.75
298.984	923.75
299.214	966.75
299.445	917.75
299.675	906.75
299.905	919.75
300.136	947.75
300.366	923.75
300.597	941.75
300.827	955.75
301.057	977.75
301.288	980.75
301.518	980.75
301.748	971.75
301.979	989.75
302.209	989.75
302.439	1016.75
302.669	1001.75
302.9	987.75
303.13	957.75
303.36	986.75
303.59	994.75
303.82	975.75
304.051	999.75
304.281	991.75
304.511	981.75
304.741	963.75
304.971	986.75
305.201	976.75
305.431	998.75
305.661	974.75
305.891	958.75
306.121	972.75
306.352	975.75
306.582	953.75
306.812	966.75
307.042	969.75
307.272	960.75
307.502	981.75
307.731	963.75
307.961	967.75
308.191	967.75
308.421	969.75
308.651	982.75
308.881	970.75
309.111	972.75
309.341	983.75
309.571	986.75
309.8	1003.75
310.03	984.75
310.26	982.75
310.49	963.75
310.72	968.75
310.949	946.75
311.179	973.75
311.409	987.75
311.639	1013.75
311.868	1014.75
312.098	996.75
312.328	992.75
312.557	1027.75
312.787	1025.75
313.017	1009.75
313.246	1021.75
313.476	1025.75
313.706	1035.75
313.935	1021.75
314.165	1033.75
314.394	1069.75
314.624	1055.75
314.853	1034.75
315.083	1048.75
315.312	1079.75
315.542	1013.75
315.771	1049.75
316.001	1040.75
316.23	1039.75
316.46	1042.75
316.689	1048.75
316.919	1037.75
317.148	1035.75
317.377	1030.75
317.607	1037.75
317.836	1032.75
318.065	1010.75
318.295	1043.75
318.524	1023.75
318.753	1048.75
318.983	1035.75
319.212	1027.75
319.441	1032.75
319.67	1045.75
319.9	1033.75
320.129	1017.75
320.358	1023.75
320.587	1049.75
320.816	1054.75
321.046	1049.75
321.275	1028.75
321.504	1046.75
321.733	1036.75
321.962	1065.75
322.191	1041.75
322.42	1066.75
322.649	1067.75
322.878	1061.75
323.108	1058.75
323.337	1057.75
323.566	1049.75
323.795	1093.75
324.024	1073.75
324.253	1079.75
324.482	1063.75
324.71	1096.75
324.939	1085.75
325.168	1074.75
325.397	1086.75
325.626	1109.75
325.855	1121.75
326.084	1109.75
326.313	1128.75
326.542	1178.75
326.77	1159.75
326.999	1125.75
327.228	1103.75
327.457	1115.75
327.686	1133.75
327.914	1133.75
328.143	1115.75
328.372	1140.75
328.6	1141.75
328.829	1120.75
329.058	1126.75
329.287	1123.75
329.515	1127.75
329.744	1154.75
329.972	1166.75
330.201	1174.75
330.43	1182.75
330.658	1148.75
330.887	1149.75
331.115	1174.75
331.344	1185.75
331.572	1175.75
331.801	1198.75
332.03	1188.75
332.258	1224.75
332.486	1290.75
332.715	1294.75
332.943	1334.75
333.172	1360.75
333.4	1416.75
333.629	1438.75
333.857	1445.75
334.085	1480.75
334.314	1409.75
334.542	1449.75
334.771	1441.75
334.999	1416.75
335.227	1397.75
335.455	1410.75
335.684	1406.75
335.912	1406.75
336.14	1357.75
336.369	1374.75
336.597	1403.75
336.825	1345.75
337.053	1367.75
337.281	1364.75
337.51	1310.75
337.738	1285.75
337.966	1259.75
338.194	1289.75
338.422	1273.75
338.65	1265.75
338.878	1266.75
339.106	1240.75
339.334	1245.75
339.562	1199.75
339.79	1211.75
340.018	1203.75
340.246	1202.75
340.474	1211.75
340.702	1190.75
340.93	1227.75
341.158	1185.75
341.386	1209.75
341.614	1177.75
341.842	1170.75
342.07	1173.75
342.298	1164.75
342.526	1191.75
342.754	1148.75
342.981	1182.75
343.209	1229.75
343.437	1281.75
343.665	1318.75
343.893	1347.75
344.12	1407.75
344.348	1393.75
344.576	1335.75
344.804	1298.75
345.031	1265.75
345.259	1230.75
345.487	1213.75
345.714	1207.75
345.942	1198.75
346.17	1150.75
346.397	1173.75
346.625	1141.75
346.853	1154.75
347.08	1155.75
347.308	1146.75
347.535	1182.75
347.763	1148.75
347.99	1130.75
348.218	1124.75
348.445	1143.75
348.673	1106.75
348.9	1141.75
349.128	1115.75
349.355	1129.75
349.583	1130.75
349.81	1124.75
350.037	1096.75
350.265	1130.75
350.492	1103.75
350.72	1070.75
350.947	1116.75
351.174	1092.75
351.402	1135.75
351.629	1107.75
351.856	1088.75
352.083	1091.75
352.311	1124.75
352.538	1099.75
352.765	1100.75
352.992	1094.75
353.22	1074.75
353.447	1066.75
353.674	1104.75
353.901	1103.75
354.128	1082.75
354.355	1099.75
354.583	1077.75
354.81	1071.75
355.037	1109.75
355.264	1109.75
355.491	1093.75
355.718	1111.75
355.945	1094.75
356.172	1100.75
356.399	1100.75
356.626	1123.75
356.853	1107.75
357.08	1149.75
357.307	1119.75
357.534	1125.75
357.761	1092.75
357.988	1150.75
358.215	1063.75
358.441	1095.75
358.668	1086.75
358.895	1106.75
359.122	1081.75
359.349	1089.75
359.576	1087.75
359.802	1110.75
360.029	1092.75
360.256	1126.75
360.483	1117.75
360.709	1087.75
360.936	1118.75
361.163	1100.75
361.39	1083.75
361.616	1097.75
361.843	1116.75
362.07	1108.75
362.296	1110.75
362.523	1102.75
362.749	1114.75
362.976	1110.75
363.203	1128.75
363.429	1062.75
363.656	1115.75
363.882	1081.75
364.109	1086.75
364.335	1079.75
364.562	1118.75
364.788	1092.75
365.015	1102.75
365.241	1110.75
365.468	1090.75
365.694	1104.75
365.92	1122.75
366.147	1103.75
366.373	1136.75
366.599	1112.75
366.826	1093.75
367.052	1071.75
367.278	1102.75
367.505	1122.75
367.731	1144.75
367.957	1111.75
368.184	1113.75
368.41	1143.75
368.636	1132.75
368.862	1133.75
369.089	1134.75
369.315	1126.75
369.541	1143.75
369.767	1153.75
369.993	1142.75
370.219	1161.75
370.445	1163.75
370.672	1189.75
370.898	1161.75
371.124	1192.75
371.35	1209.75
371.576	1186.75
371.802	1203.75
372.028	1212.75
372.254	1215.75
372.48	1204.75
372.706	1225.75
372.932	1219.75
373.158	1246.75
373.384	1208.75
373.61	1182.75
373.835	1223.75
374.061	1233.75
374.287	1223.75
374.513	1244.75
374.739	1246.75
374.965	1275.75
375.191	1315.75
375.416	1277.75
375.642	1259.75
375.868	1260.75
376.094	1208.75
376.319	1234.75
376.545	1223.75
376.771	1227.75
376.997	1211.75
377.222	1211.75
377.448	1186.75
377.674	1164.75
377.899	1173.75
378.125	1184.75
378.35	1203.75
378.576	1212.75
378.802	1196.75
379.027	1180.75
379.253	1191.75
379.478	1180.75
379.704	1176.75
379.929	1198.75
380.155	1174.75
380.38	1184.75
380.606	1175.75
380.831	1147.75
381.057	1185.75
381.282	1187.75
381.507	1193.75
381.733	1207.75
381.958	1211.75
382.184	1224.75
382.409	1235.75
382.634	1239.75
382.86	1243.75
383.085	1257.75
383.31	1278.75
383.535	1274.75
383.761	1266.75
383.986	1300.75
384.211	1319.75
384.436	1354.75
384.662	1372.75
384.887	1407.75
385.112	1380.75
385.337	1390.75
385.562	1408.75
385.787	1411.75
386.013	1440.75
386.238	1419.75
386.463	1446.75
386.688	1439.75
386.913	1433.75
387.138	1409.75
387.363	1402.75
387.588	1421.75
387.813	1382.75
388.038	1407.75
388.263	1427.75
388.488	1458.75
388.713	1433.75
388.938	1422.75
389.163	1383.75
389.387	1402.75
389.612	1397.75
389.837	1409.75
390.062	1385.75
390.287	1385.75
390.512	1433.75
390.736	1422.75
390.961	1475.75
391.186	1451.75
391.411	1510.75
391.636	1540.75
391.86	1562.75
392.085	1559.75
392.31	1574.75
392.534	1551.75
392.759	1522.75
392.984	1516.75
393.208	1481.75
393.433	1546.75
393.658	1511.75
393.882	1486.75
394.107	1526.75
394.331	1534.75
394.556	1476.75
394.78	1508.75
395.005	1557.75
395.229	1520.75
395.454	1566.75
395.678	1601.75
395.903	1597.75
396.127	1569.75
396.352	1551.75
396.576	1514.75
396.801	1523.75
397.025	1546.75
397.249	1564.75
397.474	1601.75
397.698	1612.75
397.922	1631.75
398.147	1606.75
398.371	1643.75
398.595	1708.75
398.82	1764.75
399.044	1863.75
399.268	1958.75
399.492	2224.75
399.717	2446.75
399.941	2410.75
400.165	2301.75
400.389	2114.75
400.613	1982.75
400.837	1894.75
401.062	1850.75
401.286	1811.75
401.51	1803.75
401.734	1785.75
401.958	1796.75
402.182	1767.75
402.406	1832.75
402.63	1847.75
402.854	1829.75
403.078	1833.75
403.302	1865.75
403.526	1911.75
403.75	1903.75
403.974	1974.75
404.198	1911.75
404.422	1949.75
404.645	1930.75
404.869	1930.75
405.093	1940.75
405.317	1918.75
405.541	1915.75
405.765	1894.75
405.988	1897.75
406.212	1934.75
406.436	1929.75
406.66	1972.75
406.883	1976.75
407.107	2117.75
407.331	2177.75
407.555	2204.75
407.778	2234.75
408.002	2166.75
408.226	2113.75
408.449	2086.75
408.673	2044.75
408.896	1977.75
409.12	1971.75
409.344	1998.75
409.567	1969.75
409.791	1988.75
410.014	1928.75
410.238	1922.75
410.461	1929.75
410.685	1943.75
410.908	1876.75
411.132	1867.75
411.355	1859.75
411.578	1878.75
411.802	1851.75
412.025	1868.75
412.249	1878.75
412.472	1863.75
412.695	1831.75
412.919	1765.75
413.142	1780.75
413.365	1774.75
413.589	1803.75
413.812	1794.75
414.035	1744.75
414.258	1763.75
414.482	1773.75
414.705	1803.75
414.928	1773.75
415.151	1771.75
415.374	1749.75
415.597	1755.75
415.821	1713.75
416.044	1725.75
416.267	1698.75
416.49	1708.75
416.713	1712.75
416.936	1731.75
417.159	1696.75
417.382	1681.75
417.605	1678.75
417.828	1698.75
418.051	1707.75
418.274	1727.75
418.497	1719.75
418.72	1738.75
418.943	1715.75
419.166	1863.75
419.389	1948.75
419.611	1918.75
419.834	1868.75
420.057	1813.75
420.28	1752.75
420.503	1698.75
420.726	1697.75
420.948	1685.75
421.171	1643.75
421.394	1725.75
421.617	1678.75
421.839	1711.75
422.062	1692.75
422.285	1704.75
422.507	1762.75
422.73	1751.75
422.953	1735.75
423.175	1734.75
423.398	1767.75
423.621	1726.75
423.843	1767.75
424.066	1754.75
424.288	1770.75
424.511	1760.75
424.733	1711.75
424.956	1729.75
425.178	1721.75
425.401	1707.75
425.623	1721.75
425.846	1678.75
426.068	1682.75
426.291	1631.75
426.513	1591.75
426.735	1609.75
426.958	1619.75
427.18	1572.75
427.402	1597.75
427.625	1591.75
427.847	1562.75
428.069	1537.75
428.292	1590.75
428.514	1551.75
428.736	1564.75
428.958	1561.75
429.181	1512.75
429.403	1537.75
429.625	1561.75
429.847	1498.75
430.069	1518.75
430.292	1522.75
430.514	1510.75
430.736	1526.75
430.958	1551.75
431.18	1513.75
431.402	1553.75
431.624	1564.75
431.846	1542.75
432.068	1585.75
432.29	1602.75
432.512	1548.75
432.734	1558.75
432.956	1550.75
433.178	1552.75
433.4	1569.75
433.622	1609.75
433.844	1591.75
434.066	1647.75
434.287	1635.75
434.509	1646.75
434.731	1699.75
434.953	1737.75
435.175	1761.75
435.397	1719.75
435.618	1655.75
435.84	1646.75
436.062	1579.75
436.284	1587.75
436.505	1509.75
436.727	1568.75
436.949	1556.75
437.17	1540.75
437.392	1534.75
437.614	1578.75
437.835	1483.75
438.057	1510.75
438.278	1472.75
438.5	1504.75
438.721	1493.75
438.943	1477.75
439.165	1492.75
439.386	1497.75
439.608	1505.75
439.829	1541.75
440.05	1510.75
440.272	1522.75
440.493	1551.75
440.715	1565.75
440.936	1538.75
441.158	1573.75
441.379	1608.75
441.6	1684.75
441.822	1683.75
442.043	1676.75
442.264	1649.75
442.486	1600.75
442.707	1627.75
442.928	1661.75
443.149	1669.75
443.371	1632.75
443.592	1681.75
443.813	1689.75
444.034	1684.75
444.255	1711.75
444.476	1799.75
444.698	1885.75
444.919	1938.75
445.14	1933.75
445.361	1860.75
445.582	1725.75
445.803	1672.75
446.024	1599.75
446.245	1568.75
446.466	1600.75
446.687	1541.75
446.908	1558.75
447.129	1507.75
447.35	1470.75
447.571	1475.75
447.792	1397.75
448.013	1426.75
448.234	1428.75
448.455	1406.75
448.675	1417.75
448.896	1396.75
449.117	1365.75
449.338	1394.75
449.559	1381.75
449.779	1393.75
450	1381.75
450.221	1380.75
450.442	1370.75
450.662	1384.75
450.883	1378.75
451.104	1402.75
451.324	1396.75
451.545	1379.75
451.766	1391.75
451.986	1382.75
452.207	1387.75
452.428	1379.75
452.648	1334.75
452.869	1311.75
453.089	1307.75
453.31	1337.75
453.53	1313.75
453.751	1329.75
453.971	1333.75
454.192	1318.75
454.412	1300.75
454.633	1289.75
454.853	1320.75
455.073	1299.75
455.294	1305.75
455.514	1267.75
455.734	1254.75
455.955	1290.75
456.175	1283.75
456.395	1304.75
456.616	1257.75
456.836	1285.75
457.056	1305.75
457.276	1292.75
457.497	1334.75
457.717	1326.75
457.937	1343.75
458.157	1348.75
458.377	1358.75
458.598	1401.75
458.818	1445.75
459.038	1439.75
459.258	1464.75
459.478	1523.75
459.698	1570.75
459.918	1586.75
460.138	1638.75
460.358	1697.75
460.578	1710.75
460.798	1735.75
461.018	1744.75
461.238	1748.75
461.458	1752.75
461.678	1724.75
461.898	1825.75
462.118	1773.75
462.338	1818.75
462.558	1916.75
462.777	1970.75
462.997	2084.75
463.217	2211.75
463.437	2191.75
463.657	2052.75
463.876	2070.75
464.096	2026.75
464.316	2005.75
464.536	1998.75
464.755	1957.75
464.975	1865.75
465.195	1781.75
465.414	1729.75
465.634	1645.75
465.854	1571.75
466.073	1553.75
466.293	1519.75
466.512	1500.75
466.732	1488.75
466.951	1443.75
467.171	1461.75
467.391	1433.75
467.61	1401.75
467.829	1410.75
468.049	1446.75
468.268	1441.75
468.488	1386.75
468.707	1382.75
468.927	1403.75
469.146	1406.75
469.365	1446.75
469.585	1405.75
469.804	1473.75
470.023	1454.75
470.243	1458.75
470.462	1488.75
470.681	1474.75
470.901	1499.75
471.12	1491.75
471.339	1491.75
471.558	1423.75
471.777	1420.75
471.997	1418.75
472.216	1451.75
472.435	1409.75
472.654	1396.75
472.873	1393.75
473.092	1379.75
473.311	1390.75
473.53	1379.75
473.749	1359.75
473.968	1382.75
474.187	1351.75
474.406	1390.75
474.625	1419.75
474.844	1421.75
475.063	1404.75
475.282	1399.75
475.501	1399.75
475.72	1385.75
475.939	1401.75
476.158	1418.75
476.377	1491.75
476.596	1470.75
476.814	1465.75
477.033	1485.75
477.252	1524.75
477.471	1510.75
477.69	1564.75
477.908	1574.75
478.127	1620.75
478.346	1661.75
478.564	1674.75
478.783	1695.75
479.002	1750.75
479.22	1720.75
479.439	1735.75
479.658	1744.75
479.876	1749.75
480.095	1776.75
480.313	1831.75
480.532	1810.75
480.751	1812.75
480.969	1830.75
481.188	1770.75
481.406	1686.75
481.624	1722.75
481.843	1659.75
482.061	1668.75
482.28	1674.75
482.498	1682.75
482.717	1666.75
482.935	1710.75
483.153	1661.75
483.372	1713.75
483.59	1720.75
483.808	1717.75
484.027	1728.75
484.245	1742.75
484.463	1819.75
484.681	1783.75
484.9	1790.75
485.118	1830.75
485.336	1828.75
485.554	1838.75
485.772	1876.75
485.99	1855.75
486.209	1861.75
486.427	1884.75
486.645	1859.75
486.863	1861.75
487.081	1831.75
487.299	1854.75
487.517	1847.75
487.735	1816.75
487.953	1806.75
488.171	1825.75
488.389	1806.75
488.607	1798.75
488.825	1760.75
489.043	1777.75
489.261	1736.75
489.479	1766.75
489.696	1764.75
489.914	1743.75
490.132	1735.75
490.35	1767.75
490.568	1762.75
