Data from NiCl2@0.0625M.TitratingCurve.Agarose3%dH2O.NegLispCup.LampEnergy10.LIBS07252019_HRD10591_18-32-48-578.txt Node
Date: Thu Jul 25 18:32:48 EDT 2019
User: cochatt
Spectrometer: HR+D1059
Trigger mode: 1
Integration Time (sec): 1.000000E-1
Scans to average: 1
Electric dark correction enabled: true
Nonlinearity correction enabled: false
Boxcar width: 0
XAxis mode: Wavelengths
Number of Pixels in Spectrum: 2048
>>>>>Begin Spectral Data<<<<<
223.165	-7.44
223.4	-7.44
223.635	-7.44
223.869	-17.44
224.104	-18.44
224.338	-21.44
224.573	-4.44
224.808	-17.44
225.042	-12.44
225.277	-5.44
225.511	-13.44
225.746	7.56
225.98	4.56
226.215	14.56
226.449	14.56
226.683	23.56
226.918	29.56
227.152	23.56
227.387	34.56
227.621	51.56
227.856	38.56
228.09	52.56
228.324	65.56
228.559	58.56
228.793	79.56
229.027	153.56
229.262	151.56
229.496	183.56
229.73	180.56
229.964	183.56
230.199	186.56
230.433	197.56
230.667	198.56
230.901	203.56
231.136	173.56
231.37	199.56
231.604	194.56
231.838	214.56
232.072	205.56
232.306	215.56
232.541	208.56
232.775	217.56
233.009	214.56
233.243	208.56
233.477	221.56
233.711	225.56
233.945	207.56
234.179	232.56
234.413	198.56
234.647	236.56
234.881	225.56
235.115	233.56
235.349	225.56
235.583	225.56
235.817	225.56
236.051	240.56
236.285	235.56
236.519	232.56
236.753	242.56
236.987	260.56
237.221	244.56
237.455	252.56
237.689	258.56
237.922	272.56
238.156	268.56
238.39	263.56
238.624	275.56
238.858	265.56
239.091	256.56
239.325	266.56
239.559	278.56
239.793	264.56
240.027	302.56
240.26	289.56
240.494	282.56
240.728	283.56
240.961	297.56
241.195	281.56
241.429	321.56
241.662	315.56
241.896	320.56
242.13	312.56
242.363	312.56
242.597	321.56
242.83	314.56
243.064	322.56
243.298	300.56
243.531	330.56
243.765	332.56
243.998	358.56
244.232	345.56
244.465	338.56
244.699	360.56
244.932	371.56
245.166	346.56
245.399	366.56
245.633	355.56
245.866	355.56
246.099	348.56
246.333	370.56
246.566	378.56
246.8	382.56
247.033	357.56
247.266	377.56
247.5	386.56
247.733	368.56
247.966	395.56
248.2	395.56
248.433	417.56
248.666	397.56
248.899	404.56
249.133	420.56
249.366	408.56
249.599	446.56
249.832	422.56
250.066	424.56
250.299	420.56
250.532	428.56
250.765	449.56
250.998	420.56
251.231	456.56
251.465	453.56
251.698	473.56
251.931	453.56
252.164	461.56
252.397	466.56
252.63	450.56
252.863	466.56
253.096	450.56
253.329	471.56
253.562	457.56
253.795	498.56
254.028	461.56
254.261	484.56
254.494	514.56
254.727	496.56
254.96	475.56
255.193	499.56
255.426	499.56
255.659	496.56
255.892	487.56
256.124	495.56
256.357	501.56
256.59	530.56
256.823	514.56
257.056	511.56
257.289	514.56
257.521	525.56
257.754	536.56
257.987	507.56
258.22	518.56
258.452	501.56
258.685	529.56
258.918	554.56
259.151	533.56
259.383	541.56
259.616	535.56
259.849	561.56
260.081	572.56
260.314	587.56
260.547	568.56
260.779	551.56
261.012	561.56
261.244	571.56
261.477	595.56
261.71	566.56
261.942	578.56
262.175	581.56
262.407	575.56
262.64	577.56
262.872	574.56
263.105	581.56
263.337	574.56
263.57	620.56
263.802	586.56
264.035	575.56
264.267	610.56
264.499	605.56
264.732	583.56
264.964	597.56
265.197	627.56
265.429	607.56
265.661	618.56
265.894	619.56
266.126	607.56
266.358	644.56
266.591	627.56
266.823	634.56
267.055	653.56
267.287	653.56
267.52	634.56
267.752	636.56
267.984	638.56
268.216	629.56
268.448	658.56
268.681	683.56
268.913	668.56
269.145	643.56
269.377	655.56
269.609	650.56
269.841	662.56
270.073	674.56
270.306	667.56
270.538	670.56
270.77	702.56
271.002	675.56
271.234	683.56
271.466	668.56
271.698	683.56
271.93	692.56
272.162	692.56
272.394	695.56
272.626	691.56
272.858	719.56
273.09	733.56
273.322	702.56
273.553	711.56
273.785	727.56
274.017	732.56
274.249	747.56
274.481	758.56
274.713	757.56
274.945	781.56
275.176	773.56
275.408	795.56
275.64	766.56
275.872	777.56
276.104	766.56
276.335	739.56
276.567	742.56
276.799	774.56
277.031	786.56
277.262	758.56
277.494	764.56
277.726	773.56
277.957	779.56
278.189	773.56
278.421	785.56
278.652	800.56
278.884	765.56
279.115	812.56
279.347	826.56
279.579	838.56
279.81	860.56
280.042	841.56
280.273	840.56
280.505	839.56
280.736	828.56
280.968	849.56
281.199	810.56
281.431	850.56
281.662	821.56
281.894	843.56
282.125	826.56
282.356	871.56
282.588	850.56
282.819	843.56
283.051	844.56
283.282	850.56
283.513	853.56
283.745	846.56
283.976	849.56
284.207	881.56
284.439	847.56
284.67	868.56
284.901	870.56
285.132	896.56
285.364	875.56
285.595	893.56
285.826	868.56
286.057	896.56
286.288	887.56
286.52	902.56
286.751	918.56
286.982	913.56
287.213	923.56
287.444	928.56
287.675	932.56
287.906	888.56
288.138	922.56
288.369	903.56
288.6	916.56
288.831	938.56
289.062	917.56
289.293	958.56
289.524	946.56
289.755	942.56
289.986	940.56
290.217	963.56
290.448	949.56
290.679	939.56
290.91	936.56
291.141	954.56
291.371	957.56
291.602	950.56
291.833	957.56
292.064	931.56
292.295	918.56
292.526	960.56
292.757	940.56
292.987	938.56
293.218	928.56
293.449	969.56
293.68	958.56
293.91	952.56
294.141	965.56
294.372	953.56
294.603	963.56
294.833	957.56
295.064	947.56
295.295	981.56
295.525	957.56
295.756	962.56
295.987	956.56
296.217	976.56
296.448	978.56
296.679	975.56
296.909	978.56
297.14	1008.56
297.37	986.56
297.601	1029.56
297.831	999.56
298.062	1012.56
298.292	1036.56
298.523	1068.56
298.753	1042.56
298.984	1034.56
299.214	1030.56
299.445	1016.56
299.675	1017.56
299.905	1013.56
300.136	1036.56
300.366	1028.56
300.597	1043.56
300.827	1082.56
301.057	1075.56
301.288	1091.56
301.518	1089.56
301.748	1092.56
301.979	1078.56
302.209	1094.56
302.439	1107.56
302.669	1084.56
302.9	1080.56
303.13	1064.56
303.36	1081.56
303.59	1094.56
303.82	1078.56
304.051	1104.56
304.281	1102.56
304.511	1081.56
304.741	1058.56
304.971	1117.56
305.201	1084.56
305.431	1124.56
305.661	1080.56
305.891	1065.56
306.121	1084.56
306.352	1097.56
306.582	1056.56
306.812	1048.56
307.042	1072.56
307.272	1063.56
307.502	1058.56
307.731	1059.56
307.961	1058.56
308.191	1074.56
308.421	1066.56
308.651	1054.56
308.881	1057.56
309.111	1069.56
309.341	1055.56
309.571	1090.56
309.8	1105.56
310.03	1079.56
310.26	1070.56
310.49	1097.56
310.72	1099.56
310.949	1083.56
311.179	1101.56
311.409	1084.56
311.639	1114.56
311.868	1110.56
312.098	1106.56
312.328	1144.56
312.557	1124.56
312.787	1112.56
313.017	1145.56
313.246	1147.56
313.476	1126.56
313.706	1151.56
313.935	1158.56
314.165	1169.56
314.394	1168.56
314.624	1143.56
314.853	1143.56
315.083	1133.56
315.312	1149.56
315.542	1183.56
315.771	1181.56
316.001	1125.56
316.23	1170.56
316.46	1141.56
316.689	1142.56
316.919	1163.56
317.148	1160.56
317.377	1159.56
317.607	1166.56
317.836	1140.56
318.065	1139.56
318.295	1157.56
318.524	1167.56
318.753	1162.56
318.983	1138.56
319.212	1136.56
319.441	1118.56
319.67	1174.56
319.9	1167.56
320.129	1150.56
320.358	1144.56
320.587	1165.56
320.816	1171.56
321.046	1188.56
321.275	1159.56
321.504	1127.56
321.733	1163.56
321.962	1154.56
322.191	1170.56
322.42	1156.56
322.649	1162.56
322.878	1194.56
323.108	1154.56
323.337	1206.56
323.566	1188.56
323.795	1163.56
324.024	1195.56
324.253	1226.56
324.482	1199.56
324.71	1176.56
324.939	1202.56
325.168	1206.56
325.397	1192.56
325.626	1204.56
325.855	1230.56
326.084	1229.56
326.313	1261.56
326.542	1264.56
326.77	1278.56
326.999	1250.56
327.228	1232.56
327.457	1265.56
327.686	1251.56
327.914	1248.56
328.143	1227.56
328.372	1226.56
328.6	1250.56
328.829	1246.56
329.058	1248.56
329.287	1273.56
329.515	1282.56
329.744	1272.56
329.972	1290.56
330.201	1315.56
330.43	1290.56
330.658	1301.56
330.887	1285.56
331.115	1300.56
331.344	1338.56
331.572	1306.56
331.801	1370.56
332.03	1371.56
332.258	1381.56
332.486	1413.56
332.715	1417.56
332.943	1489.56
333.172	1506.56
333.4	1560.56
333.629	1582.56
333.857	1620.56
334.085	1627.56
334.314	1580.56
334.542	1582.56
334.771	1615.56
334.999	1556.56
335.227	1569.56
335.455	1564.56
335.684	1536.56
335.912	1539.56
336.14	1523.56
336.369	1528.56
336.597	1499.56
336.825	1516.56
337.053	1528.56
337.281	1478.56
337.51	1476.56
337.738	1444.56
337.966	1408.56
338.194	1406.56
338.422	1372.56
338.65	1382.56
338.878	1379.56
339.106	1371.56
339.334	1361.56
339.562	1369.56
339.79	1330.56
340.018	1335.56
340.246	1310.56
340.474	1310.56
340.702	1319.56
340.93	1338.56
341.158	1340.56
341.386	1335.56
341.614	1326.56
341.842	1319.56
342.07	1309.56
342.298	1302.56
342.526	1304.56
342.754	1339.56
342.981	1319.56
343.209	1324.56
343.437	1399.56
343.665	1449.56
343.893	1509.56
344.12	1573.56
344.348	1533.56
344.576	1462.56
344.804	1411.56
345.031	1387.56
345.259	1322.56
345.487	1304.56
345.714	1305.56
345.942	1278.56
346.17	1305.56
346.397	1272.56
346.625	1245.56
346.853	1234.56
347.08	1280.56
347.308	1287.56
347.535	1288.56
347.763	1267.56
347.99	1242.56
348.218	1291.56
348.445	1265.56
348.673	1269.56
348.9	1267.56
349.128	1259.56
349.355	1246.56
349.583	1245.56
349.81	1244.56
350.037	1212.56
350.265	1206.56
350.492	1234.56
350.72	1217.56
350.947	1227.56
351.174	1244.56
351.402	1202.56
351.629	1220.56
351.856	1201.56
352.083	1248.56
352.311	1204.56
352.538	1233.56
352.765	1218.56
352.992	1218.56
353.22	1188.56
353.447	1198.56
353.674	1216.56
353.901	1189.56
354.128	1216.56
354.355	1202.56
354.583	1196.56
354.81	1178.56
355.037	1220.56
355.264	1204.56
355.491	1242.56
355.718	1235.56
355.945	1196.56
356.172	1226.56
356.399	1232.56
356.626	1237.56
356.853	1260.56
357.08	1241.56
357.307	1222.56
357.534	1216.56
357.761	1225.56
357.988	1205.56
358.215	1218.56
358.441	1252.56
358.668	1219.56
358.895	1216.56
359.122	1225.56
359.349	1224.56
359.576	1220.56
359.802	1216.56
360.029	1249.56
360.256	1221.56
360.483	1232.56
360.709	1216.56
360.936	1238.56
361.163	1237.56
361.39	1215.56
361.616	1192.56
361.843	1206.56
362.07	1248.56
362.296	1217.56
362.523	1230.56
362.749	1222.56
362.976	1240.56
363.203	1224.56
363.429	1227.56
363.656	1225.56
363.882	1240.56
364.109	1212.56
364.335	1198.56
364.562	1219.56
364.788	1226.56
365.015	1243.56
365.241	1214.56
365.468	1211.56
365.694	1229.56
365.92	1235.56
366.147	1219.56
366.373	1233.56
366.599	1234.56
366.826	1226.56
367.052	1245.56
367.278	1224.56
367.505	1232.56
367.731	1244.56
367.957	1235.56
368.184	1253.56
368.41	1233.56
368.636	1290.56
368.862	1282.56
369.089	1244.56
369.315	1233.56
369.541	1253.56
369.767	1252.56
369.993	1267.56
370.219	1262.56
370.445	1288.56
370.672	1287.56
370.898	1295.56
371.124	1313.56
371.35	1318.56
371.576	1360.56
371.802	1347.56
372.028	1350.56
372.254	1358.56
372.48	1324.56
372.706	1361.56
372.932	1371.56
373.158	1389.56
373.384	1348.56
373.61	1356.56
373.835	1322.56
374.061	1337.56
374.287	1344.56
374.513	1399.56
374.739	1412.56
374.965	1447.56
375.191	1475.56
375.416	1443.56
375.642	1397.56
375.868	1393.56
376.094	1381.56
376.319	1379.56
376.545	1370.56
376.771	1343.56
376.997	1342.56
377.222	1340.56
377.448	1356.56
377.674	1313.56
377.899	1323.56
378.125	1300.56
378.35	1311.56
378.576	1296.56
378.802	1323.56
379.027	1321.56
379.253	1310.56
379.478	1284.56
379.704	1320.56
379.929	1315.56
380.155	1312.56
380.38	1320.56
380.606	1332.56
380.831	1284.56
381.057	1329.56
381.282	1328.56
381.507	1336.56
381.733	1328.56
381.958	1332.56
382.184	1320.56
382.409	1393.56
382.634	1396.56
382.86	1389.56
383.085	1401.56
383.31	1412.56
383.535	1441.56
383.761	1398.56
383.986	1463.56
384.211	1489.56
384.436	1500.56
384.662	1502.56
384.887	1517.56
385.112	1556.56
385.337	1571.56
385.562	1568.56
385.787	1560.56
386.013	1626.56
386.238	1581.56
386.463	1603.56
386.688	1602.56
386.913	1592.56
387.138	1581.56
387.363	1554.56
387.588	1545.56
387.813	1573.56
388.038	1533.56
388.263	1580.56
388.488	1622.56
388.713	1566.56
388.938	1545.56
389.163	1577.56
389.387	1571.56
389.612	1509.56
389.837	1564.56
390.062	1584.56
390.287	1551.56
390.512	1604.56
390.736	1592.56
390.961	1587.56
391.186	1626.56
391.411	1665.56
391.636	1667.56
391.86	1750.56
392.085	1735.56
392.31	1784.56
392.534	1756.56
392.759	1690.56
392.984	1704.56
393.208	1690.56
393.433	1752.56
393.658	1793.56
393.882	1672.56
394.107	1691.56
394.331	1683.56
394.556	1657.56
394.78	1704.56
395.005	1658.56
395.229	1718.56
395.454	1736.56
395.678	1769.56
395.903	1749.56
396.127	1772.56
396.352	1703.56
396.576	1719.56
396.801	1701.56
397.025	1774.56
397.249	1754.56
397.474	1793.56
397.698	1765.56
397.922	1809.56
398.147	1770.56
398.371	1830.56
398.595	1873.56
398.82	1927.56
399.044	2086.56
399.268	2226.56
399.492	2498.56
399.717	2706.56
399.941	2713.56
400.165	2523.56
400.389	2344.56
400.613	2221.56
400.837	2073.56
401.062	1994.56
401.286	1994.56
401.51	1943.56
401.734	1962.56
401.958	2005.56
402.182	1978.56
402.406	1956.56
402.63	2023.56
402.854	2066.56
403.078	2029.56
403.302	2077.56
403.526	2130.56
403.75	2112.56
403.974	2122.56
404.198	2148.56
404.422	2170.56
404.645	2154.56
404.869	2120.56
405.093	2167.56
405.317	2113.56
405.541	2124.56
405.765	2113.56
405.988	2088.56
406.212	2165.56
406.436	2124.56
406.66	2174.56
406.883	2184.56
407.107	2334.56
407.331	2372.56
407.555	2483.56
407.778	2450.56
408.002	2416.56
408.226	2377.56
408.449	2365.56
408.673	2263.56
408.896	2214.56
409.12	2190.56
409.344	2209.56
409.567	2192.56
409.791	2173.56
410.014	2137.56
410.238	2136.56
410.461	2150.56
410.685	2104.56
410.908	2097.56
411.132	2099.56
411.355	2055.56
411.578	2013.56
411.802	2029.56
412.025	2025.56
412.249	2097.56
412.472	2050.56
412.695	2023.56
412.919	1989.56
413.142	2015.56
413.365	1995.56
413.589	1981.56
413.812	1972.56
414.035	1914.56
414.258	1945.56
414.482	1944.56
414.705	1991.56
414.928	1950.56
415.151	2000.56
415.374	1923.56
415.597	1969.56
415.821	1901.56
416.044	1872.56
416.267	1861.56
416.49	1854.56
416.713	1924.56
416.936	1909.56
417.159	1840.56
417.382	1876.56
417.605	1896.56
417.828	1856.56
418.051	1872.56
418.274	1900.56
418.497	1922.56
418.72	1908.56
418.943	1884.56
419.166	2043.56
419.389	2183.56
419.611	2160.56
419.834	2059.56
420.057	1965.56
420.28	1929.56
420.503	1842.56
420.726	1863.56
420.948	1853.56
421.171	1893.56
421.394	1894.56
421.617	1867.56
421.839	1862.56
422.062	1893.56
422.285	1852.56
422.507	1925.56
422.73	1901.56
422.953	1928.56
423.175	1957.56
423.398	1953.56
423.621	1900.56
423.843	1968.56
424.066	1968.56
424.288	1901.56
424.511	1928.56
424.733	1910.56
424.956	1905.56
425.178	1874.56
425.401	1886.56
425.623	1865.56
425.846	1864.56
426.068	1861.56
426.291	1833.56
426.513	1815.56
426.735	1776.56
426.958	1814.56
427.18	1800.56
427.402	1799.56
427.625	1769.56
427.847	1729.56
428.069	1719.56
428.292	1733.56
428.514	1716.56
428.736	1701.56
428.958	1724.56
429.181	1663.56
429.403	1710.56
429.625	1698.56
429.847	1709.56
430.069	1684.56
430.292	1694.56
430.514	1676.56
430.736	1701.56
430.958	1724.56
431.18	1706.56
431.402	1698.56
431.624	1704.56
431.846	1698.56
432.068	1736.56
432.29	1738.56
432.512	1688.56
432.734	1752.56
432.956	1721.56
433.178	1713.56
433.4	1747.56
433.622	1742.56
433.844	1737.56
434.066	1765.56
434.287	1764.56
434.509	1843.56
434.731	1857.56
434.953	1897.56
435.175	1918.56
435.397	1926.56
435.618	1802.56
435.84	1772.56
436.062	1798.56
436.284	1760.56
436.505	1686.56
436.727	1730.56
436.949	1712.56
437.17	1692.56
437.392	1689.56
437.614	1680.56
437.835	1607.56
438.057	1639.56
438.278	1652.56
438.5	1680.56
438.721	1649.56
438.943	1656.56
439.165	1609.56
439.386	1648.56
439.608	1672.56
439.829	1659.56
440.05	1689.56
440.272	1668.56
440.493	1677.56
440.715	1739.56
440.936	1756.56
441.158	1730.56
441.379	1765.56
441.6	1856.56
441.822	1877.56
442.043	1863.56
442.264	1872.56
442.486	1793.56
442.707	1831.56
442.928	1808.56
443.149	1832.56
443.371	1796.56
443.592	1862.56
443.813	1897.56
444.034	1912.56
444.255	1920.56
444.476	2024.56
444.698	2040.56
444.919	2107.56
445.14	2179.56
445.361	2032.56
445.582	1908.56
445.803	1842.56
446.024	1805.56
446.245	1802.56
446.466	1741.56
446.687	1680.56
446.908	1688.56
447.129	1648.56
447.35	1613.56
447.571	1674.56
447.792	1573.56
448.013	1578.56
448.234	1580.56
448.455	1566.56
448.675	1567.56
448.896	1554.56
449.117	1534.56
449.338	1525.56
449.559	1528.56
449.779	1540.56
450	1520.56
450.221	1544.56
450.442	1545.56
450.662	1531.56
450.883	1531.56
451.104	1549.56
451.324	1554.56
451.545	1562.56
451.766	1506.56
451.986	1512.56
452.207	1497.56
452.428	1507.56
452.648	1473.56
452.869	1486.56
453.089	1472.56
453.31	1502.56
453.53	1492.56
453.751	1531.56
453.971	1452.56
454.192	1463.56
454.412	1476.56
454.633	1450.56
454.853	1449.56
455.073	1433.56
455.294	1445.56
455.514	1461.56
455.734	1445.56
455.955	1401.56
456.175	1453.56
456.395	1422.56
456.616	1418.56
456.836	1478.56
457.056	1462.56
457.276	1420.56
457.497	1444.56
457.717	1466.56
457.937	1468.56
458.157	1492.56
458.377	1516.56
458.598	1511.56
458.818	1569.56
459.038	1601.56
459.258	1657.56
459.478	1699.56
459.698	1717.56
459.918	1760.56
460.138	1821.56
460.358	1909.56
460.578	1890.56
460.798	1925.56
461.018	1939.56
461.238	1935.56
461.458	1913.56
461.678	1935.56
461.898	1996.56
462.118	1951.56
462.338	2032.56
462.558	2063.56
462.777	2133.56
462.997	2312.56
463.217	2418.56
463.437	2417.56
463.657	2315.56
463.876	2282.56
464.096	2265.56
464.316	2223.56
464.536	2212.56
464.755	2100.56
464.975	2096.56
465.195	1996.56
465.414	1887.56
465.634	1784.56
465.854	1785.56
466.073	1734.56
466.293	1686.56
466.512	1646.56
466.732	1617.56
466.951	1652.56
467.171	1617.56
467.391	1654.56
467.61	1616.56
467.829	1602.56
468.049	1584.56
468.268	1560.56
468.488	1566.56
468.707	1566.56
468.927	1547.56
469.146	1574.56
469.365	1614.56
469.585	1555.56
469.804	1574.56
470.023	1630.56
470.243	1641.56
470.462	1657.56
470.681	1656.56
470.901	1667.56
471.12	1654.56
471.339	1630.56
471.558	1600.56
471.777	1568.56
471.997	1570.56
472.216	1600.56
472.435	1575.56
472.654	1546.56
472.873	1488.56
473.092	1526.56
473.311	1573.56
473.53	1528.56
473.749	1528.56
473.968	1552.56
474.187	1563.56
474.406	1539.56
474.625	1538.56
474.844	1528.56
475.063	1541.56
475.282	1569.56
475.501	1579.56
475.72	1610.56
475.939	1567.56
476.158	1607.56
476.377	1618.56
476.596	1617.56
476.814	1657.56
477.033	1688.56
477.252	1697.56
477.471	1701.56
477.69	1737.56
477.908	1749.56
478.127	1779.56
478.346	1821.56
478.564	1873.56
478.783	1898.56
479.002	1924.56
479.22	1952.56
479.439	1938.56
479.658	1959.56
479.876	1939.56
480.095	1993.56
480.313	2052.56
480.532	2083.56
480.751	2017.56
480.969	2019.56
481.188	1973.56
481.406	1915.56
481.624	1906.56
481.843	1867.56
482.061	1837.56
482.28	1885.56
482.498	1846.56
482.717	1842.56
482.935	1864.56
483.153	1885.56
483.372	1852.56
483.59	1915.56
483.808	1865.56
484.027	1894.56
484.245	1905.56
484.463	1880.56
484.681	1951.56
484.9	1968.56
485.118	1964.56
485.336	1967.56
485.554	1984.56
485.772	2018.56
485.99	1991.56
486.209	1946.56
486.427	1934.56
486.645	1971.56
486.863	1940.56
487.081	2001.56
487.299	1976.56
487.517	1951.56
487.735	1940.56
487.953	1936.56
488.171	1948.56
488.389	1954.56
488.607	1960.56
488.825	1918.56
489.043	1878.56
489.261	1948.56
489.479	1935.56
489.696	1928.56
489.914	1917.56
