Data from NiCl2@0.25M.TitratingCurve.Agarose3%dH2O.NegLispCup.LampEnergy10.LIBS07252019_HRD10591_18-25-08-573.txt Node
Date: Thu Jul 25 18:25:08 EDT 2019
User: cochatt
Spectrometer: HR+D1059
Trigger mode: 1
Integration Time (sec): 1.000000E-1
Scans to average: 1
Electric dark correction enabled: true
Nonlinearity correction enabled: false
Boxcar width: 0
XAxis mode: Wavelengths
Number of Pixels in Spectrum: 2048
>>>>>Begin Spectral Data<<<<<
223.165	-9.25
223.4	-9.25
223.635	-9.25
223.869	-16.25
224.104	-8.25
224.338	-15.25
224.573	-18.25
224.808	-18.25
225.042	-16.25
225.277	-0.25
225.511	-11.25
225.746	3.75
225.98	7.75
226.215	6.75
226.449	13.75
226.683	20.75
226.918	35.75
227.152	24.75
227.387	33.75
227.621	35.75
227.856	48.75
228.09	51.75
228.324	69.75
228.559	63.75
228.793	68.75
229.027	123.75
229.262	121.75
229.496	130.75
229.73	125.75
229.964	145.75
230.199	140.75
230.433	139.75
230.667	146.75
230.901	139.75
231.136	141.75
231.37	141.75
231.604	141.75
231.838	148.75
232.072	144.75
232.306	160.75
232.541	163.75
232.775	159.75
233.009	167.75
233.243	159.75
233.477	156.75
233.711	163.75
233.945	157.75
234.179	155.75
234.413	161.75
234.647	162.75
234.881	162.75
235.115	164.75
235.349	168.75
235.583	163.75
235.817	175.75
236.051	156.75
236.285	171.75
236.519	177.75
236.753	174.75
236.987	184.75
237.221	185.75
237.455	179.75
237.689	171.75
237.922	182.75
238.156	175.75
238.39	179.75
238.624	176.75
238.858	186.75
239.091	181.75
239.325	178.75
239.559	184.75
239.793	186.75
240.027	195.75
240.26	179.75
240.494	196.75
240.728	197.75
240.961	204.75
241.195	220.75
241.429	205.75
241.662	222.75
241.896	213.75
242.13	219.75
242.363	206.75
242.597	216.75
242.83	210.75
243.064	202.75
243.298	223.75
243.531	219.75
243.765	233.75
243.998	216.75
244.232	225.75
244.465	235.75
244.699	225.75
244.932	235.75
245.166	228.75
245.399	226.75
245.633	226.75
245.866	240.75
246.099	246.75
246.333	243.75
246.566	239.75
246.8	259.75
247.033	275.75
247.266	236.75
247.5	235.75
247.733	266.75
247.966	248.75
248.2	269.75
248.433	262.75
248.666	251.75
248.899	259.75
249.133	256.75
249.366	258.75
249.599	281.75
249.832	287.75
250.066	275.75
250.299	275.75
250.532	267.75
250.765	282.75
250.998	281.75
251.231	296.75
251.465	276.75
251.698	275.75
251.931	289.75
252.164	297.75
252.397	299.75
252.63	285.75
252.863	299.75
253.096	289.75
253.329	304.75
253.562	313.75
253.795	311.75
254.028	309.75
254.261	299.75
254.494	312.75
254.727	312.75
254.96	308.75
255.193	316.75
255.426	321.75
255.659	341.75
255.892	307.75
256.124	303.75
256.357	319.75
256.59	329.75
256.823	321.75
257.056	323.75
257.289	315.75
257.521	324.75
257.754	323.75
257.987	323.75
258.22	339.75
258.452	335.75
258.685	346.75
258.918	312.75
259.151	336.75
259.383	349.75
259.616	343.75
259.849	330.75
260.081	356.75
260.314	345.75
260.547	346.75
260.779	364.75
261.012	346.75
261.244	355.75
261.477	360.75
261.71	360.75
261.942	356.75
262.175	367.75
262.407	371.75
262.64	376.75
262.872	370.75
263.105	369.75
263.337	382.75
263.57	368.75
263.802	380.75
264.035	404.75
264.267	391.75
264.499	378.75
264.732	381.75
264.964	379.75
265.197	377.75
265.429	405.75
265.661	382.75
265.894	387.75
266.126	393.75
266.358	397.75
266.591	403.75
266.823	419.75
267.055	401.75
267.287	402.75
267.52	403.75
267.752	400.75
267.984	401.75
268.216	415.75
268.448	416.75
268.681	392.75
268.913	419.75
269.145	414.75
269.377	423.75
269.609	425.75
269.841	423.75
270.073	402.75
270.306	436.75
270.538	421.75
270.77	415.75
271.002	424.75
271.234	426.75
271.466	428.75
271.698	429.75
271.93	429.75
272.162	431.75
272.394	443.75
272.626	452.75
272.858	443.75
273.09	461.75
273.322	421.75
273.553	448.75
273.785	456.75
274.017	449.75
274.249	442.75
274.481	451.75
274.713	460.75
274.945	458.75
275.176	442.75
275.408	474.75
275.64	475.75
275.872	477.75
276.104	487.75
276.335	473.75
276.567	453.75
276.799	467.75
277.031	487.75
277.262	472.75
277.494	487.75
277.726	485.75
277.957	469.75
278.189	509.75
278.421	469.75
278.652	475.75
278.884	492.75
279.115	487.75
279.347	500.75
279.579	487.75
279.81	490.75
280.042	507.75
280.273	481.75
280.505	519.75
280.736	526.75
280.968	532.75
281.199	518.75
281.431	544.75
281.662	525.75
281.894	475.75
282.125	521.75
282.356	518.75
282.588	525.75
282.819	512.75
283.051	519.75
283.282	520.75
283.513	532.75
283.745	523.75
283.976	536.75
284.207	520.75
284.439	552.75
284.67	574.75
284.901	574.75
285.132	552.75
285.364	549.75
285.595	536.75
285.826	539.75
286.057	565.75
286.288	565.75
286.52	579.75
286.751	561.75
286.982	559.75
287.213	584.75
287.444	562.75
287.675	551.75
287.906	578.75
288.138	560.75
288.369	559.75
288.6	587.75
288.831	592.75
289.062	579.75
289.293	597.75
289.524	556.75
289.755	589.75
289.986	603.75
290.217	585.75
290.448	588.75
290.679	600.75
290.91	599.75
291.141	556.75
291.371	587.75
291.602	602.75
291.833	570.75
292.064	584.75
292.295	588.75
292.526	591.75
292.757	581.75
292.987	596.75
293.218	581.75
293.449	594.75
293.68	593.75
293.91	592.75
294.141	600.75
294.372	580.75
294.603	587.75
294.833	599.75
295.064	613.75
295.295	609.75
295.525	596.75
295.756	602.75
295.987	621.75
296.217	619.75
296.448	617.75
296.679	611.75
296.909	597.75
297.14	631.75
297.37	614.75
297.601	633.75
297.831	631.75
298.062	631.75
298.292	642.75
298.523	637.75
298.753	646.75
298.984	650.75
299.214	645.75
299.445	633.75
299.675	660.75
299.905	631.75
300.136	643.75
300.366	643.75
300.597	653.75
300.827	680.75
301.057	658.75
301.288	706.75
301.518	691.75
301.748	687.75
301.979	655.75
302.209	681.75
302.439	651.75
302.669	652.75
302.9	669.75
303.13	662.75
303.36	667.75
303.59	670.75
303.82	668.75
304.051	636.75
304.281	667.75
304.511	664.75
304.741	679.75
304.971	688.75
305.201	674.75
305.431	659.75
305.661	671.75
305.891	657.75
306.121	685.75
306.352	672.75
306.582	647.75
306.812	652.75
307.042	662.75
307.272	661.75
307.502	651.75
307.731	667.75
307.961	647.75
308.191	640.75
308.421	652.75
308.651	651.75
308.881	662.75
309.111	666.75
309.341	669.75
309.571	675.75
309.8	658.75
310.03	671.75
310.26	653.75
310.49	631.75
310.72	650.75
310.949	669.75
311.179	662.75
311.409	703.75
311.639	687.75
311.868	682.75
312.098	677.75
312.328	704.75
312.557	703.75
312.787	679.75
313.017	701.75
313.246	720.75
313.476	705.75
313.706	705.75
313.935	714.75
314.165	710.75
314.394	693.75
314.624	725.75
314.853	683.75
315.083	731.75
315.312	712.75
315.542	713.75
315.771	721.75
316.001	689.75
316.23	712.75
316.46	692.75
316.689	714.75
316.919	687.75
317.148	735.75
317.377	714.75
317.607	699.75
317.836	694.75
318.065	684.75
318.295	679.75
318.524	704.75
318.753	711.75
318.983	722.75
319.212	708.75
319.441	707.75
319.67	686.75
319.9	703.75
320.129	705.75
320.358	712.75
320.587	701.75
320.816	707.75
321.046	721.75
321.275	693.75
321.504	712.75
321.733	714.75
321.962	704.75
322.191	712.75
322.42	691.75
322.649	704.75
322.878	709.75
323.108	714.75
323.337	709.75
323.566	723.75
323.795	747.75
324.024	729.75
324.253	729.75
324.482	712.75
324.71	744.75
324.939	731.75
325.168	743.75
325.397	743.75
325.626	753.75
325.855	736.75
326.084	791.75
326.313	783.75
326.542	755.75
326.77	779.75
326.999	767.75
327.228	754.75
327.457	738.75
327.686	770.75
327.914	781.75
328.143	766.75
328.372	765.75
328.6	782.75
328.829	751.75
329.058	776.75
329.287	771.75
329.515	769.75
329.744	787.75
329.972	768.75
330.201	773.75
330.43	775.75
330.658	772.75
330.887	793.75
331.115	794.75
331.344	795.75
331.572	829.75
331.801	825.75
332.03	877.75
332.258	887.75
332.486	903.75
332.715	938.75
332.943	1013.75
333.172	1009.75
333.4	1060.75
333.629	1056.75
333.857	1060.75
334.085	1065.75
334.314	1000.75
334.542	1004.75
334.771	1000.75
334.999	934.75
335.227	980.75
335.455	975.75
335.684	940.75
335.912	949.75
336.14	935.75
336.369	962.75
336.597	932.75
336.825	937.75
337.053	941.75
337.281	936.75
337.51	898.75
337.738	880.75
337.966	867.75
338.194	862.75
338.422	863.75
338.65	858.75
338.878	834.75
339.106	837.75
339.334	840.75
339.562	843.75
339.79	816.75
340.018	785.75
340.246	795.75
340.474	791.75
340.702	818.75
340.93	833.75
341.158	807.75
341.386	816.75
341.614	800.75
341.842	801.75
342.07	789.75
342.298	797.75
342.526	799.75
342.754	788.75
342.981	786.75
343.209	839.75
343.437	845.75
343.665	894.75
343.893	982.75
344.12	1002.75
344.348	970.75
344.576	889.75
344.804	886.75
345.031	824.75
345.259	825.75
345.487	795.75
345.714	797.75
345.942	812.75
346.17	796.75
346.397	767.75
346.625	773.75
346.853	796.75
347.08	779.75
347.308	779.75
347.535	792.75
347.763	799.75
347.99	791.75
348.218	800.75
348.445	794.75
348.673	757.75
348.9	749.75
349.128	777.75
349.355	775.75
349.583	763.75
349.81	761.75
350.037	757.75
350.265	741.75
350.492	752.75
350.72	732.75
350.947	763.75
351.174	748.75
351.402	729.75
351.629	744.75
351.856	720.75
352.083	730.75
352.311	703.75
352.538	745.75
352.765	719.75
352.992	737.75
353.22	728.75
353.447	755.75
353.674	756.75
353.901	751.75
354.128	705.75
354.355	729.75
354.583	740.75
354.81	737.75
355.037	747.75
355.264	736.75
355.491	763.75
355.718	720.75
355.945	751.75
356.172	758.75
356.399	728.75
356.626	727.75
356.853	741.75
357.08	759.75
357.307	742.75
357.534	745.75
357.761	757.75
357.988	765.75
358.215	701.75
358.441	724.75
358.668	735.75
358.895	739.75
359.122	744.75
359.349	754.75
359.576	737.75
359.802	743.75
360.029	751.75
360.256	725.75
360.483	749.75
360.709	725.75
360.936	757.75
361.163	737.75
361.39	731.75
361.616	747.75
361.843	741.75
362.07	757.75
362.296	737.75
362.523	737.75
362.749	744.75
362.976	755.75
363.203	748.75
363.429	742.75
363.656	731.75
363.882	741.75
364.109	720.75
364.335	703.75
364.562	737.75
364.788	750.75
365.015	745.75
365.241	727.75
365.468	763.75
365.694	726.75
365.92	743.75
366.147	721.75
366.373	731.75
366.599	732.75
366.826	740.75
367.052	757.75
367.278	732.75
367.505	760.75
367.731	780.75
367.957	740.75
368.184	744.75
368.41	740.75
368.636	744.75
368.862	769.75
369.089	775.75
369.315	772.75
369.541	781.75
369.767	777.75
369.993	786.75
370.219	755.75
370.445	798.75
370.672	798.75
370.898	776.75
371.124	781.75
371.35	813.75
371.576	810.75
371.802	801.75
372.028	800.75
372.254	826.75
372.48	814.75
372.706	826.75
372.932	862.75
373.158	865.75
373.384	859.75
373.61	793.75
373.835	830.75
374.061	819.75
374.287	818.75
374.513	852.75
374.739	885.75
374.965	884.75
375.191	908.75
375.416	909.75
375.642	875.75
375.868	866.75
376.094	831.75
376.319	846.75
376.545	814.75
376.771	846.75
376.997	835.75
377.222	817.75
377.448	816.75
377.674	810.75
377.899	792.75
378.125	803.75
378.35	804.75
378.576	795.75
378.802	825.75
379.027	789.75
379.253	826.75
379.478	826.75
379.704	798.75
379.929	801.75
380.155	807.75
380.38	777.75
380.606	812.75
380.831	828.75
381.057	835.75
381.282	827.75
381.507	816.75
381.733	805.75
381.958	815.75
382.184	847.75
382.409	833.75
382.634	838.75
382.86	867.75
383.085	856.75
383.31	866.75
383.535	879.75
383.761	890.75
383.986	947.75
384.211	933.75
384.436	961.75
384.662	959.75
384.887	989.75
385.112	1005.75
385.337	1013.75
385.562	1003.75
385.787	995.75
386.013	1030.75
386.238	999.75
386.463	999.75
386.688	985.75
386.913	973.75
387.138	984.75
387.363	985.75
387.588	960.75
387.813	970.75
388.038	940.75
388.263	969.75
388.488	990.75
388.713	996.75
388.938	961.75
389.163	959.75
389.387	946.75
389.612	945.75
389.837	947.75
390.062	947.75
390.287	981.75
390.512	923.75
390.736	969.75
390.961	993.75
391.186	984.75
391.411	1050.75
391.636	1081.75
391.86	1101.75
392.085	1141.75
392.31	1113.75
392.534	1067.75
392.759	1047.75
392.984	1036.75
393.208	1063.75
393.433	1066.75
393.658	1064.75
393.882	1028.75
394.107	1059.75
394.331	1051.75
394.556	1079.75
394.78	1089.75
395.005	1076.75
395.229	1040.75
395.454	1109.75
395.678	1117.75
395.903	1116.75
396.127	1079.75
396.352	1035.75
396.576	1032.75
396.801	1019.75
397.025	1063.75
397.249	1057.75
397.474	1079.75
397.698	1128.75
397.922	1092.75
398.147	1099.75
398.371	1140.75
398.595	1180.75
398.82	1200.75
399.044	1301.75
399.268	1461.75
399.492	1704.75
399.717	1954.75
399.941	1920.75
400.165	1694.75
400.389	1478.75
400.613	1393.75
400.837	1301.75
401.062	1290.75
401.286	1233.75
401.51	1212.75
401.734	1233.75
401.958	1280.75
402.182	1295.75
402.406	1277.75
402.63	1306.75
402.854	1340.75
403.078	1344.75
403.302	1398.75
403.526	1411.75
403.75	1453.75
403.974	1451.75
404.198	1491.75
404.422	1508.75
404.645	1445.75
404.869	1403.75
405.093	1435.75
405.317	1368.75
405.541	1388.75
405.765	1376.75
405.988	1344.75
406.212	1344.75
406.436	1347.75
406.66	1433.75
406.883	1408.75
407.107	1542.75
407.331	1576.75
407.555	1626.75
407.778	1604.75
408.002	1596.75
408.226	1495.75
408.449	1474.75
408.673	1434.75
408.896	1425.75
409.12	1391.75
409.344	1433.75
409.567	1398.75
409.791	1419.75
410.014	1417.75
410.238	1373.75
410.461	1371.75
410.685	1371.75
410.908	1317.75
411.132	1349.75
411.355	1265.75
411.578	1325.75
411.802	1284.75
412.025	1268.75
412.249	1315.75
412.472	1317.75
412.695	1252.75
412.919	1223.75
413.142	1212.75
413.365	1247.75
413.589	1237.75
413.812	1217.75
414.035	1220.75
414.258	1249.75
414.482	1255.75
414.705	1267.75
414.928	1303.75
415.151	1250.75
415.374	1229.75
415.597	1237.75
415.821	1238.75
416.044	1201.75
416.267	1195.75
416.49	1203.75
416.713	1176.75
416.936	1235.75
417.159	1196.75
417.382	1199.75
417.605	1192.75
417.828	1205.75
418.051	1236.75
418.274	1231.75
418.497	1228.75
418.72	1251.75
418.943	1238.75
419.166	1306.75
419.389	1414.75
419.611	1371.75
419.834	1269.75
420.057	1281.75
420.28	1236.75
420.503	1240.75
420.726	1205.75
420.948	1188.75
421.171	1215.75
421.394	1194.75
421.617	1208.75
421.839	1215.75
422.062	1237.75
422.285	1206.75
422.507	1229.75
422.73	1242.75
422.953	1234.75
423.175	1283.75
423.398	1283.75
423.621	1281.75
423.843	1338.75
424.066	1331.75
424.288	1306.75
424.511	1268.75
424.733	1252.75
424.956	1267.75
425.178	1244.75
425.401	1185.75
425.623	1212.75
425.846	1180.75
426.068	1158.75
426.291	1150.75
426.513	1146.75
426.735	1140.75
426.958	1137.75
427.18	1066.75
427.402	1097.75
427.625	1110.75
427.847	1074.75
428.069	1088.75
428.292	1062.75
428.514	1060.75
428.736	1066.75
428.958	1105.75
429.181	1038.75
429.403	1030.75
429.625	1034.75
429.847	1068.75
430.069	1064.75
430.292	1056.75
430.514	1037.75
430.736	1076.75
430.958	1049.75
431.18	1055.75
431.402	1047.75
431.624	1014.75
431.846	1073.75
432.068	1087.75
432.29	1113.75
432.512	1080.75
432.734	1102.75
432.956	1064.75
433.178	1072.75
433.4	1066.75
433.622	1085.75
433.844	1080.75
434.066	1081.75
434.287	1094.75
434.509	1138.75
434.731	1193.75
434.953	1217.75
435.175	1186.75
435.397	1224.75
435.618	1137.75
435.84	1107.75
436.062	1101.75
436.284	1064.75
436.505	1066.75
436.727	1071.75
436.949	1093.75
437.17	1064.75
437.392	1048.75
437.614	1056.75
437.835	1018.75
438.057	1035.75
438.278	990.75
438.5	1007.75
438.721	1028.75
438.943	1041.75
439.165	1024.75
439.386	1044.75
439.608	1050.75
439.829	1081.75
440.05	1036.75
440.272	1063.75
440.493	1075.75
440.715	1099.75
440.936	1101.75
441.158	1122.75
441.379	1164.75
441.6	1201.75
441.822	1211.75
442.043	1227.75
442.264	1195.75
442.486	1204.75
442.707	1191.75
442.928	1173.75
443.149	1188.75
443.371	1149.75
443.592	1207.75
443.813	1184.75
444.034	1203.75
444.255	1260.75
444.476	1311.75
444.698	1441.75
444.919	1471.75
445.14	1500.75
445.361	1375.75
445.582	1216.75
445.803	1178.75
446.024	1129.75
446.245	1111.75
446.466	1093.75
446.687	1075.75
446.908	1099.75
447.129	1018.75
447.35	1004.75
447.571	1033.75
447.792	980.75
448.013	1007.75
448.234	1005.75
448.455	983.75
448.675	952.75
448.896	964.75
449.117	928.75
449.338	945.75
449.559	936.75
449.779	943.75
450	919.75
450.221	948.75
450.442	962.75
450.662	984.75
450.883	1000.75
451.104	1020.75
451.324	1003.75
451.545	994.75
451.766	1002.75
451.986	979.75
452.207	982.75
452.428	949.75
452.648	945.75
452.869	946.75
453.089	950.75
453.31	968.75
453.53	949.75
453.751	953.75
453.971	932.75
454.192	948.75
454.412	909.75
454.633	906.75
454.853	915.75
455.073	907.75
455.294	927.75
455.514	896.75
455.734	901.75
455.955	871.75
456.175	892.75
456.395	893.75
456.616	907.75
456.836	915.75
457.056	922.75
457.276	906.75
457.497	900.75
457.717	912.75
457.937	913.75
458.157	953.75
458.377	914.75
458.598	965.75
458.818	971.75
459.038	1020.75
459.258	1051.75
459.478	1080.75
459.698	1092.75
459.918	1119.75
460.138	1169.75
460.358	1243.75
460.578	1250.75
460.798	1279.75
461.018	1304.75
461.238	1256.75
461.458	1251.75
461.678	1241.75
461.898	1267.75
462.118	1254.75
462.338	1349.75
462.558	1392.75
462.777	1431.75
462.997	1579.75
463.217	1733.75
463.437	1733.75
463.657	1587.75
463.876	1495.75
464.096	1486.75
464.316	1471.75
464.536	1519.75
464.755	1440.75
464.975	1405.75
465.195	1281.75
465.414	1199.75
465.634	1141.75
465.854	1110.75
466.073	1100.75
466.293	1099.75
466.512	1049.75
466.732	1032.75
466.951	1012.75
467.171	1004.75
467.391	1017.75
467.61	1025.75
467.829	1028.75
468.049	1004.75
468.268	979.75
468.488	997.75
468.707	967.75
468.927	968.75
469.146	982.75
469.365	994.75
469.585	966.75
469.804	1029.75
470.023	1058.75
470.243	1034.75
470.462	1042.75
470.681	1047.75
470.901	1065.75
471.12	1019.75
471.339	1014.75
471.558	1032.75
471.777	994.75
471.997	983.75
472.216	952.75
472.435	1002.75
472.654	968.75
472.873	963.75
473.092	923.75
473.311	993.75
473.53	964.75
473.749	963.75
473.968	936.75
474.187	919.75
474.406	929.75
474.625	970.75
474.844	959.75
475.063	951.75
475.282	953.75
475.501	960.75
475.72	960.75
475.939	980.75
476.158	976.75
476.377	943.75
476.596	968.75
476.814	1010.75
477.033	1019.75
477.252	1036.75
477.471	1048.75
477.69	1080.75
477.908	1071.75
478.127	1132.75
478.346	1147.75
478.564	1144.75
478.783	1162.75
479.002	1153.75
479.22	1214.75
479.439	1154.75
479.658	1199.75
479.876	1194.75
480.095	1189.75
480.313	1252.75
480.532	1277.75
480.751	1295.75
480.969	1217.75
481.188	1165.75
481.406	1126.75
481.624	1136.75
481.843	1077.75
482.061	1093.75
482.28	1105.75
482.498	1075.75
482.717	1066.75
482.935	1079.75
483.153	1095.75
483.372	1079.75
483.59	1087.75
483.808	1075.75
484.027	1125.75
484.245	1096.75
484.463	1115.75
484.681	1099.75
484.9	1097.75
485.118	1091.75
485.336	1136.75
485.554	1137.75
485.772	1131.75
485.99	1145.75
486.209	1151.75
486.427	1159.75
486.645	1143.75
486.863	1130.75
487.081	1159.75
487.299	1151.75
487.517	1152.75
487.735	1131.75
487.953	1149.75
488.171	1139.75
488.389	1129.75
488.607	1132.75
488.825	1124.75
489.043	1087.75
489.261	1112.75
489.479	1155.75
489.696	1159.75
489.914	1136.75
490.132	1130.75
490.35	1129.75
490.568	1125.75
490.786	1137.75
491.003	1145.75
491.221	1163.75
491.439	1143.75
491.657	1151.75
491.874	1165.75
492.092	1188.75
492.31	1175.75
492.527	1158.75
492.745	1183.75
492.963	1169.75
493.18	1169.75
493.398	1184.75
493.615	1184.75
493.833	1185.75
494.05	1228.75
494.268	1194.75
494.485	1210.75
494.703	1215.75
494.92	1233.75
495.138	1216.75
495.355	1207.75
495.573	1202.75
495.79	1232.75
496.008	1257.75
