Data from NiCl2@0.0625M.TitratingCurve.Agarose3%dH2O.NegLispCup.LampEnergy10.LIBS07252019_HRD10591_18-35-24-576.txt Node
Date: Thu Jul 25 18:35:24 EDT 2019
User: cochatt
Spectrometer: HR+D1059
Trigger mode: 1
Integration Time (sec): 1.000000E-1
Scans to average: 1
Electric dark correction enabled: true
Nonlinearity correction enabled: false
Boxcar width: 0
XAxis mode: Wavelengths
Number of Pixels in Spectrum: 2048
>>>>>Begin Spectral Data<<<<<
223.165	-9.81
223.4	-9.81
223.635	-9.81
223.869	-15.81
224.104	-9.81
224.338	-9.81
224.573	-10.81
224.808	-13.81
225.042	-7.81
225.277	-10.81
225.511	1.19
225.746	-1.81
225.98	-3.81
226.215	7.19
226.449	21.19
226.683	21.19
226.918	21.19
227.152	22.19
227.387	19.19
227.621	35.19
227.856	40.19
228.09	36.19
228.324	45.19
228.559	59.19
228.793	80.19
229.027	133.19
229.262	144.19
229.496	144.19
229.73	145.19
229.964	146.19
230.199	165.19
230.433	177.19
230.667	158.19
230.901	197.19
231.136	182.19
231.37	172.19
231.604	170.19
231.838	183.19
232.072	190.19
232.306	200.19
232.541	189.19
232.775	197.19
233.009	191.19
233.243	186.19
233.477	198.19
233.711	200.19
233.945	208.19
234.179	208.19
234.413	205.19
234.647	192.19
234.881	193.19
235.115	196.19
235.349	201.19
235.583	223.19
235.817	201.19
236.051	212.19
236.285	194.19
236.519	221.19
236.753	228.19
236.987	224.19
237.221	210.19
237.455	214.19
237.689	232.19
237.922	214.19
238.156	214.19
238.39	210.19
238.624	226.19
238.858	231.19
239.091	233.19
239.325	255.19
239.559	228.19
239.793	270.19
240.027	253.19
240.26	250.19
240.494	248.19
240.728	261.19
240.961	248.19
241.195	266.19
241.429	265.19
241.662	275.19
241.896	272.19
242.13	255.19
242.363	283.19
242.597	290.19
242.83	266.19
243.064	271.19
243.298	300.19
243.531	302.19
243.765	315.19
243.998	310.19
244.232	298.19
244.465	308.19
244.699	304.19
244.932	323.19
245.166	309.19
245.399	330.19
245.633	320.19
245.866	329.19
246.099	322.19
246.333	317.19
246.566	325.19
246.8	323.19
247.033	333.19
247.266	340.19
247.5	341.19
247.733	328.19
247.966	340.19
248.2	360.19
248.433	365.19
248.666	354.19
248.899	346.19
249.133	363.19
249.366	368.19
249.599	372.19
249.832	352.19
250.066	359.19
250.299	360.19
250.532	374.19
250.765	382.19
250.998	413.19
251.231	389.19
251.465	391.19
251.698	394.19
251.931	407.19
252.164	390.19
252.397	409.19
252.63	406.19
252.863	433.19
253.096	422.19
253.329	419.19
253.562	418.19
253.795	418.19
254.028	411.19
254.261	417.19
254.494	431.19
254.727	402.19
254.96	414.19
255.193	431.19
255.426	432.19
255.659	434.19
255.892	445.19
256.124	421.19
256.357	440.19
256.59	436.19
256.823	457.19
257.056	448.19
257.289	457.19
257.521	464.19
257.754	471.19
257.987	457.19
258.22	455.19
258.452	460.19
258.685	482.19
258.918	476.19
259.151	459.19
259.383	463.19
259.616	496.19
259.849	452.19
260.081	493.19
260.314	494.19
260.547	478.19
260.779	504.19
261.012	494.19
261.244	480.19
261.477	510.19
261.71	484.19
261.942	508.19
262.175	492.19
262.407	522.19
262.64	496.19
262.872	529.19
263.105	510.19
263.337	543.19
263.57	511.19
263.802	520.19
264.035	528.19
264.267	529.19
264.499	519.19
264.732	534.19
264.964	539.19
265.197	532.19
265.429	553.19
265.661	536.19
265.894	552.19
266.126	557.19
266.358	549.19
266.591	562.19
266.823	561.19
267.055	557.19
267.287	568.19
267.52	542.19
267.752	566.19
267.984	577.19
268.216	596.19
268.448	582.19
268.681	590.19
268.913	580.19
269.145	592.19
269.377	599.19
269.609	601.19
269.841	585.19
270.073	597.19
270.306	573.19
270.538	597.19
270.77	600.19
271.002	616.19
271.234	612.19
271.466	616.19
271.698	624.19
271.93	604.19
272.162	601.19
272.394	627.19
272.626	636.19
272.858	630.19
273.09	616.19
273.322	629.19
273.553	638.19
273.785	624.19
274.017	638.19
274.249	650.19
274.481	641.19
274.713	646.19
274.945	654.19
275.176	652.19
275.408	651.19
275.64	678.19
275.872	658.19
276.104	676.19
276.335	645.19
276.567	669.19
276.799	665.19
277.031	678.19
277.262	686.19
277.494	696.19
277.726	693.19
277.957	693.19
278.189	707.19
278.421	669.19
278.652	696.19
278.884	688.19
279.115	705.19
279.347	729.19
279.579	699.19
279.81	737.19
280.042	725.19
280.273	715.19
280.505	729.19
280.736	736.19
280.968	703.19
281.199	737.19
281.431	727.19
281.662	714.19
281.894	720.19
282.125	719.19
282.356	757.19
282.588	749.19
282.819	712.19
283.051	756.19
283.282	739.19
283.513	750.19
283.745	750.19
283.976	772.19
284.207	768.19
284.439	775.19
284.67	751.19
284.901	787.19
285.132	766.19
285.364	776.19
285.595	790.19
285.826	793.19
286.057	802.19
286.288	765.19
286.52	780.19
286.751	817.19
286.982	809.19
287.213	790.19
287.444	809.19
287.675	784.19
287.906	825.19
288.138	807.19
288.369	838.19
288.6	839.19
288.831	809.19
289.062	830.19
289.293	817.19
289.524	833.19
289.755	838.19
289.986	836.19
290.217	834.19
290.448	810.19
290.679	821.19
290.91	826.19
291.141	850.19
291.371	822.19
291.602	841.19
291.833	842.19
292.064	841.19
292.295	840.19
292.526	840.19
292.757	828.19
292.987	850.19
293.218	822.19
293.449	840.19
293.68	827.19
293.91	825.19
294.141	840.19
294.372	829.19
294.603	854.19
294.833	861.19
295.064	832.19
295.295	854.19
295.525	845.19
295.756	846.19
295.987	846.19
296.217	855.19
296.448	889.19
296.679	886.19
296.909	875.19
297.14	863.19
297.37	884.19
297.601	906.19
297.831	915.19
298.062	914.19
298.292	907.19
298.523	915.19
298.753	934.19
298.984	889.19
299.214	909.19
299.445	889.19
299.675	910.19
299.905	908.19
300.136	904.19
300.366	911.19
300.597	958.19
300.827	931.19
301.057	927.19
301.288	905.19
301.518	937.19
301.748	960.19
301.979	1002.19
302.209	981.19
302.439	974.19
302.669	983.19
302.9	978.19
303.13	952.19
303.36	909.19
303.59	959.19
303.82	942.19
304.051	968.19
304.281	974.19
304.511	928.19
304.741	969.19
304.971	983.19
305.201	940.19
305.431	946.19
305.661	966.19
305.891	949.19
306.121	970.19
306.352	947.19
306.582	956.19
306.812	970.19
307.042	961.19
307.272	943.19
307.502	906.19
307.731	974.19
307.961	948.19
308.191	975.19
308.421	950.19
308.651	938.19
308.881	964.19
309.111	940.19
309.341	952.19
309.571	935.19
309.8	966.19
310.03	969.19
310.26	971.19
310.49	941.19
310.72	970.19
310.949	950.19
311.179	968.19
311.409	951.19
311.639	980.19
311.868	970.19
312.098	990.19
312.328	988.19
312.557	1031.19
312.787	967.19
313.017	963.19
313.246	989.19
313.476	1008.19
313.706	991.19
313.935	1033.19
314.165	1005.19
314.394	1005.19
314.624	1045.19
314.853	1028.19
315.083	1042.19
315.312	1031.19
315.542	1015.19
315.771	1008.19
316.001	1008.19
316.23	1009.19
316.46	1015.19
316.689	998.19
316.919	986.19
317.148	1033.19
317.377	1046.19
317.607	1004.19
317.836	990.19
318.065	993.19
318.295	982.19
318.524	1033.19
318.753	1009.19
318.983	1018.19
319.212	1007.19
319.441	1016.19
319.67	1026.19
319.9	984.19
320.129	1034.19
320.358	1009.19
320.587	1020.19
320.816	1026.19
321.046	1034.19
321.275	998.19
321.504	999.19
321.733	1014.19
321.962	998.19
322.191	1017.19
322.42	1024.19
322.649	1026.19
322.878	1012.19
323.108	997.19
323.337	1038.19
323.566	1033.19
323.795	1052.19
324.024	1057.19
324.253	1068.19
324.482	1067.19
324.71	1040.19
324.939	1042.19
325.168	1078.19
325.397	1085.19
325.626	1076.19
325.855	1065.19
326.084	1084.19
326.313	1073.19
326.542	1091.19
326.77	1109.19
326.999	1087.19
327.228	1105.19
327.457	1084.19
327.686	1098.19
327.914	1119.19
328.143	1088.19
328.372	1118.19
328.6	1119.19
328.829	1104.19
329.058	1086.19
329.287	1093.19
329.515	1109.19
329.744	1121.19
329.972	1112.19
330.201	1144.19
330.43	1117.19
330.658	1133.19
330.887	1165.19
331.115	1160.19
331.344	1170.19
331.572	1188.19
331.801	1203.19
332.03	1207.19
332.258	1232.19
332.486	1245.19
332.715	1256.19
332.943	1321.19
333.172	1328.19
333.4	1376.19
333.629	1357.19
333.857	1416.19
334.085	1410.19
334.314	1405.19
334.542	1394.19
334.771	1390.19
334.999	1374.19
335.227	1349.19
335.455	1360.19
335.684	1358.19
335.912	1325.19
336.14	1327.19
336.369	1369.19
336.597	1341.19
336.825	1290.19
337.053	1310.19
337.281	1294.19
337.51	1265.19
337.738	1287.19
337.966	1255.19
338.194	1219.19
338.422	1212.19
338.65	1208.19
338.878	1210.19
339.106	1218.19
339.334	1211.19
339.562	1198.19
339.79	1190.19
340.018	1160.19
340.246	1173.19
340.474	1145.19
340.702	1162.19
340.93	1183.19
341.158	1176.19
341.386	1196.19
341.614	1172.19
341.842	1182.19
342.07	1167.19
342.298	1166.19
342.526	1135.19
342.754	1143.19
342.981	1155.19
343.209	1202.19
343.437	1219.19
343.665	1263.19
343.893	1312.19
344.12	1332.19
344.348	1321.19
344.576	1309.19
344.804	1268.19
345.031	1218.19
345.259	1215.19
345.487	1189.19
345.714	1172.19
345.942	1121.19
346.17	1152.19
346.397	1133.19
346.625	1132.19
346.853	1123.19
347.08	1108.19
347.308	1153.19
347.535	1134.19
347.763	1114.19
347.99	1118.19
348.218	1109.19
348.445	1097.19
348.673	1131.19
348.9	1093.19
349.128	1097.19
349.355	1088.19
349.583	1083.19
349.81	1085.19
350.037	1073.19
350.265	1051.19
350.492	1091.19
350.72	1060.19
350.947	1080.19
351.174	1082.19
351.402	1077.19
351.629	1077.19
351.856	1073.19
352.083	1074.19
352.311	1069.19
352.538	1057.19
352.765	1104.19
352.992	1087.19
353.22	1044.19
353.447	1064.19
353.674	1066.19
353.901	1046.19
354.128	1060.19
354.355	1069.19
354.583	1089.19
354.81	1061.19
355.037	1093.19
355.264	1082.19
355.491	1054.19
355.718	1076.19
355.945	1084.19
356.172	1077.19
356.399	1061.19
356.626	1117.19
356.853	1104.19
357.08	1072.19
357.307	1080.19
357.534	1075.19
357.761	1071.19
357.988	1094.19
358.215	1068.19
358.441	1080.19
358.668	1065.19
358.895	1066.19
359.122	1077.19
359.349	1099.19
359.576	1050.19
359.802	1063.19
360.029	1077.19
360.256	1084.19
360.483	1086.19
360.709	1075.19
360.936	1068.19
361.163	1087.19
361.39	1052.19
361.616	1052.19
361.843	1118.19
362.07	1079.19
362.296	1104.19
362.523	1053.19
362.749	1062.19
362.976	1078.19
363.203	1085.19
363.429	1072.19
363.656	1070.19
363.882	1074.19
364.109	1073.19
364.335	1080.19
364.562	1095.19
364.788	1065.19
365.015	1038.19
365.241	1104.19
365.468	1059.19
365.694	1078.19
365.92	1056.19
366.147	1082.19
366.373	1090.19
366.599	1097.19
366.826	1086.19
367.052	1066.19
367.278	1081.19
367.505	1110.19
367.731	1092.19
367.957	1083.19
368.184	1080.19
368.41	1118.19
368.636	1093.19
368.862	1114.19
369.089	1137.19
369.315	1105.19
369.541	1112.19
369.767	1134.19
369.993	1117.19
370.219	1127.19
370.445	1149.19
370.672	1161.19
370.898	1116.19
371.124	1155.19
371.35	1190.19
371.576	1177.19
371.802	1174.19
372.028	1173.19
372.254	1190.19
372.48	1168.19
372.706	1173.19
372.932	1225.19
373.158	1184.19
373.384	1180.19
373.61	1200.19
373.835	1160.19
374.061	1167.19
374.287	1159.19
374.513	1168.19
374.739	1231.19
374.965	1276.19
375.191	1308.19
375.416	1259.19
375.642	1244.19
375.868	1233.19
376.094	1212.19
376.319	1180.19
376.545	1150.19
376.771	1182.19
376.997	1144.19
377.222	1166.19
377.448	1146.19
377.674	1171.19
377.899	1144.19
378.125	1149.19
378.35	1129.19
378.576	1129.19
378.802	1163.19
379.027	1157.19
379.253	1173.19
379.478	1171.19
379.704	1184.19
379.929	1123.19
380.155	1142.19
380.38	1137.19
380.606	1172.19
380.831	1168.19
381.057	1180.19
381.282	1156.19
381.507	1152.19
381.733	1179.19
381.958	1185.19
382.184	1176.19
382.409	1223.19
382.634	1199.19
382.86	1178.19
383.085	1244.19
383.31	1237.19
383.535	1255.19
383.761	1265.19
383.986	1298.19
384.211	1292.19
384.436	1315.19
384.662	1318.19
384.887	1324.19
385.112	1325.19
385.337	1369.19
385.562	1372.19
385.787	1368.19
386.013	1418.19
386.238	1388.19
386.463	1400.19
386.688	1409.19
386.913	1365.19
387.138	1397.19
387.363	1381.19
387.588	1372.19
387.813	1371.19
388.038	1364.19
388.263	1391.19
388.488	1394.19
388.713	1379.19
388.938	1380.19
389.163	1370.19
389.387	1358.19
389.612	1352.19
389.837	1375.19
390.062	1378.19
390.287	1393.19
390.512	1368.19
390.736	1358.19
390.961	1397.19
391.186	1442.19
391.411	1454.19
391.636	1490.19
391.86	1530.19
392.085	1538.19
392.31	1547.19
392.534	1512.19
392.759	1484.19
392.984	1463.19
393.208	1468.19
393.433	1444.19
393.658	1441.19
393.882	1478.19
394.107	1459.19
394.331	1482.19
394.556	1480.19
394.78	1437.19
395.005	1497.19
395.229	1482.19
395.454	1552.19
395.678	1520.19
395.903	1528.19
396.127	1526.19
396.352	1506.19
396.576	1472.19
396.801	1493.19
397.025	1516.19
397.249	1530.19
397.474	1536.19
397.698	1569.19
397.922	1598.19
398.147	1564.19
398.371	1627.19
398.595	1702.19
398.82	1708.19
399.044	1809.19
399.268	1964.19
399.492	2154.19
399.717	2358.19
399.941	2402.19
400.165	2193.19
400.389	2019.19
400.613	1937.19
400.837	1868.19
401.062	1802.19
401.286	1734.19
401.51	1748.19
401.734	1748.19
401.958	1759.19
402.182	1730.19
402.406	1745.19
402.63	1740.19
402.854	1785.19
403.078	1805.19
403.302	1812.19
403.526	1852.19
403.75	1874.19
403.974	1894.19
404.198	1902.19
404.422	1873.19
404.645	1873.19
404.869	1870.19
405.093	1862.19
405.317	1812.19
405.541	1903.19
405.765	1876.19
405.988	1846.19
406.212	1863.19
406.436	1833.19
406.66	1934.19
406.883	1943.19
407.107	2076.19
407.331	2112.19
407.555	2229.19
407.778	2136.19
408.002	2114.19
408.226	2050.19
408.449	2040.19
408.673	1961.19
408.896	1956.19
409.12	1932.19
409.344	1914.19
409.567	1878.19
409.791	1933.19
410.014	1914.19
410.238	1904.19
410.461	1886.19
410.685	1902.19
410.908	1811.19
411.132	1824.19
411.355	1772.19
411.578	1823.19
411.802	1786.19
412.025	1780.19
412.249	1832.19
412.472	1830.19
412.695	1779.19
412.919	1745.19
413.142	1744.19
413.365	1740.19
413.589	1758.19
413.812	1686.19
414.035	1696.19
414.258	1736.19
414.482	1694.19
414.705	1716.19
414.928	1708.19
415.151	1738.19
415.374	1727.19
415.597	1688.19
415.821	1669.19
416.044	1674.19
416.267	1648.19
416.49	1691.19
416.713	1650.19
416.936	1689.19
417.159	1665.19
417.382	1655.19
417.605	1613.19
417.828	1649.19
418.051	1678.19
418.274	1654.19
418.497	1664.19
418.72	1702.19
418.943	1715.19
419.166	1794.19
419.389	1889.19
419.611	1873.19
419.834	1806.19
420.057	1722.19
420.28	1674.19
420.503	1648.19
420.726	1652.19
420.948	1635.19
421.171	1620.19
421.394	1687.19
421.617	1664.19
421.839	1657.19
422.062	1639.19
422.285	1638.19
422.507	1681.19
422.73	1701.19
422.953	1651.19
423.175	1685.19
423.398	1713.19
423.621	1673.19
423.843	1686.19
424.066	1686.19
424.288	1708.19
424.511	1700.19
424.733	1698.19
424.956	1655.19
425.178	1635.19
425.401	1688.19
425.623	1710.19
425.846	1623.19
426.068	1598.19
426.291	1592.19
426.513	1628.19
426.735	1599.19
426.958	1606.19
427.18	1540.19
427.402	1561.19
427.625	1557.19
427.847	1491.19
428.069	1511.19
428.292	1494.19
428.514	1497.19
428.736	1512.19
428.958	1526.19
429.181	1448.19
429.403	1484.19
429.625	1499.19
429.847	1488.19
430.069	1480.19
430.292	1502.19
430.514	1460.19
430.736	1492.19
430.958	1501.19
431.18	1506.19
431.402	1532.19
431.624	1442.19
431.846	1546.19
432.068	1528.19
432.29	1575.19
432.512	1509.19
432.734	1544.19
432.956	1501.19
433.178	1542.19
433.4	1541.19
433.622	1558.19
433.844	1620.19
434.066	1565.19
434.287	1605.19
434.509	1616.19
434.731	1681.19
434.953	1661.19
435.175	1672.19
435.397	1668.19
435.618	1601.19
435.84	1558.19
436.062	1569.19
436.284	1529.19
436.505	1527.19
436.727	1533.19
436.949	1509.19
437.17	1518.19
437.392	1520.19
437.614	1488.19
437.835	1420.19
438.057	1436.19
438.278	1451.19
438.5	1451.19
438.721	1455.19
438.943	1462.19
439.165	1464.19
439.386	1439.19
439.608	1454.19
439.829	1493.19
440.05	1489.19
440.272	1486.19
440.493	1520.19
440.715	1524.19
440.936	1561.19
441.158	1581.19
441.379	1560.19
441.6	1686.19
441.822	1647.19
442.043	1613.19
442.264	1629.19
442.486	1570.19
442.707	1635.19
442.928	1622.19
443.149	1626.19
443.371	1637.19
443.592	1658.19
443.813	1608.19
444.034	1657.19
444.255	1724.19
444.476	1733.19
444.698	1796.19
444.919	1831.19
445.14	1974.19
445.361	1813.19
445.582	1701.19
445.803	1629.19
446.024	1614.19
446.245	1561.19
446.466	1505.19
446.687	1477.19
446.908	1502.19
447.129	1445.19
447.35	1467.19
447.571	1453.19
447.792	1393.19
448.013	1418.19
448.234	1414.19
448.455	1391.19
448.675	1390.19
448.896	1372.19
449.117	1339.19
449.338	1376.19
449.559	1319.19
449.779	1298.19
450	1337.19
450.221	1341.19
450.442	1364.19
450.662	1349.19
450.883	1347.19
451.104	1378.19
451.324	1362.19
451.545	1375.19
451.766	1347.19
451.986	1321.19
452.207	1326.19
452.428	1324.19
452.648	1339.19
452.869	1306.19
453.089	1300.19
453.31	1314.19
453.53	1282.19
453.751	1306.19
453.971	1296.19
454.192	1278.19
454.412	1290.19
454.633	1281.19
454.853	1299.19
455.073	1279.19
455.294	1248.19
455.514	1265.19
455.734	1264.19
455.955	1260.19
456.175	1212.19
456.395	1261.19
456.616	1239.19
456.836	1268.19
457.056	1279.19
457.276	1271.19
457.497	1288.19
457.717	1281.19
457.937	1284.19
458.157	1287.19
458.377	1306.19
458.598	1340.19
458.818	1364.19
459.038	1377.19
459.258	1441.19
459.478	1489.19
459.698	1522.19
459.918	1562.19
460.138	1629.19
460.358	1660.19
460.578	1686.19
460.798	1685.19
461.018	1706.19
461.238	1684.19
461.458	1676.19
461.678	1719.19
461.898	1673.19
462.118	1727.19
462.338	1807.19
462.558	1861.19
462.777	1964.19
462.997	2070.19
463.217	2130.19
463.437	2135.19
463.657	2004.19
463.876	1964.19
464.096	2002.19
464.316	1913.19
464.536	1940.19
464.755	1918.19
464.975	1856.19
465.195	1761.19
465.414	1662.19
465.634	1603.19
465.854	1572.19
466.073	1520.19
466.293	1498.19
466.512	1427.19
466.732	1446.19
466.951	1434.19
467.171	1429.19
467.391	1419.19
467.61	1412.19
467.829	1406.19
468.049	1380.19
468.268	1378.19
468.488	1386.19
468.707	1360.19
468.927	1378.19
469.146	1338.19
469.365	1396.19
469.585	1376.19
469.804	1438.19
470.023	1458.19
470.243	1440.19
470.462	1479.19
470.681	1453.19
470.901	1434.19
471.12	1444.19
471.339	1443.19
471.558	1429.19
471.777	1390.19
471.997	1372.19
472.216	1366.19
472.435	1362.19
472.654	1366.19
472.873	1337.19
473.092	1352.19
473.311	1366.19
473.53	1336.19
473.749	1349.19
473.968	1367.19
474.187	1363.19
474.406	1339.19
474.625	1373.19
474.844	1344.19
475.063	1334.19
475.282	1380.19
475.501	1391.19
475.72	1394.19
475.939	1393.19
476.158	1438.19
476.377	1460.19
476.596	1436.19
476.814	1450.19
477.033	1463.19
477.252	1452.19
477.471	1497.19
477.69	1512.19
477.908	1575.19
478.127	1587.19
478.346	1612.19
478.564	1599.19
478.783	1627.19
479.002	1678.19
479.22	1711.19
479.439	1692.19
479.658	1674.19
479.876	1722.19
480.095	1752.19
480.313	1753.19
480.532	1829.19
480.751	1768.19
480.969	1754.19
481.188	1721.19
481.406	1694.19
481.624	1654.19
481.843	1670.19
482.061	1662.19
482.28	1669.19
482.498	1650.19
482.717	1599.19
482.935	1640.19
483.153	1648.19
483.372	1685.19
483.59	1679.19
483.808	1693.19
484.027	1671.19
484.245	1721.19
484.463	1731.19
484.681	1742.19
484.9	1776.19
485.118	1799.19
485.336	1827.19
485.554	1830.19
485.772	1838.19
485.99	1818.19
486.209	1798.19
486.427	1828.19
486.645	1824.19
486.863	1794.19
487.081	1750.19
487.299	1815.19
487.517	1769.19
487.735	1767.19
487.953	1780.19
488.171	1786.19
488.389	1756.19
488.607	1720.19
488.825	1735.19
489.043	1695.19
489.261	1708.19
489.479	1693.19
489.696	1736.19
489.914	1732.19
490.132	1713.19
490.35	1710.19
490.568	1735.19
490.786	1712.19
