Data from NiCl2@0.25M.TitratingCurve.Agarose3%dH2O.NegLispCup.LampEnergy10.LIBS07252019_HRD10591_18-26-08-575.txt Node
Date: Thu Jul 25 18:26:08 EDT 2019
User: cochatt
Spectrometer: HR+D1059
Trigger mode: 1
Integration Time (sec): 1.000000E-1
Scans to average: 1
Electric dark correction enabled: true
Nonlinearity correction enabled: false
Boxcar width: 0
XAxis mode: Wavelengths
Number of Pixels in Spectrum: 2048
>>>>>Begin Spectral Data<<<<<
223.165	-15.44
223.4	-15.44
223.635	-15.44
223.869	-1.44
224.104	-25.44
224.338	-22.44
224.573	-13.44
224.808	-3.44
225.042	4.56
225.277	-6.44
225.511	6.56
225.746	-0.44
225.98	10.56
226.215	14.56
226.449	-9.44
226.683	21.56
226.918	13.56
227.152	26.56
227.387	26.56
227.621	32.56
227.856	46.56
228.09	60.56
228.324	58.56
228.559	54.56
228.793	62.56
229.027	121.56
229.262	123.56
229.496	145.56
229.73	141.56
229.964	147.56
230.199	154.56
230.433	170.56
230.667	161.56
230.901	160.56
231.136	163.56
231.37	158.56
231.604	167.56
231.838	166.56
232.072	182.56
232.306	191.56
232.541	181.56
232.775	180.56
233.009	213.56
233.243	201.56
233.477	185.56
233.711	188.56
233.945	198.56
234.179	183.56
234.413	195.56
234.647	184.56
234.881	179.56
235.115	191.56
235.349	181.56
235.583	207.56
235.817	193.56
236.051	198.56
236.285	192.56
236.519	193.56
236.753	207.56
236.987	189.56
237.221	176.56
237.455	211.56
237.689	203.56
237.922	201.56
238.156	207.56
238.39	200.56
238.624	219.56
238.858	224.56
239.091	234.56
239.325	220.56
239.559	238.56
239.793	235.56
240.027	234.56
240.26	224.56
240.494	229.56
240.728	230.56
240.961	251.56
241.195	246.56
241.429	235.56
241.662	250.56
241.896	261.56
242.13	247.56
242.363	275.56
242.597	258.56
242.83	258.56
243.064	262.56
243.298	280.56
243.531	260.56
243.765	278.56
243.998	283.56
244.232	302.56
244.465	304.56
244.699	297.56
244.932	298.56
245.166	300.56
245.399	311.56
245.633	298.56
245.866	298.56
246.099	299.56
246.333	287.56
246.566	310.56
246.8	298.56
247.033	303.56
247.266	315.56
247.5	310.56
247.733	308.56
247.966	328.56
248.2	318.56
248.433	337.56
248.666	330.56
248.899	340.56
249.133	329.56
249.366	337.56
249.599	341.56
249.832	354.56
250.066	347.56
250.299	356.56
250.532	356.56
250.765	362.56
250.998	362.56
251.231	355.56
251.465	356.56
251.698	381.56
251.931	372.56
252.164	385.56
252.397	379.56
252.63	358.56
252.863	379.56
253.096	370.56
253.329	380.56
253.562	399.56
253.795	382.56
254.028	386.56
254.261	386.56
254.494	392.56
254.727	374.56
254.96	404.56
255.193	395.56
255.426	406.56
255.659	383.56
255.892	399.56
256.124	403.56
256.357	411.56
256.59	406.56
256.823	416.56
257.056	407.56
257.289	403.56
257.521	438.56
257.754	438.56
257.987	435.56
258.22	439.56
258.452	407.56
258.685	415.56
258.918	443.56
259.151	445.56
259.383	428.56
259.616	420.56
259.849	420.56
260.081	463.56
260.314	463.56
260.547	442.56
260.779	432.56
261.012	465.56
261.244	465.56
261.477	459.56
261.71	475.56
261.942	462.56
262.175	439.56
262.407	463.56
262.64	460.56
262.872	478.56
263.105	462.56
263.337	489.56
263.57	487.56
263.802	480.56
264.035	472.56
264.267	491.56
264.499	465.56
264.732	491.56
264.964	520.56
265.197	498.56
265.429	500.56
265.661	506.56
265.894	497.56
266.126	516.56
266.358	480.56
266.591	506.56
266.823	510.56
267.055	506.56
267.287	529.56
267.52	522.56
267.752	499.56
267.984	499.56
268.216	531.56
268.448	530.56
268.681	538.56
268.913	516.56
269.145	543.56
269.377	525.56
269.609	516.56
269.841	537.56
270.073	532.56
270.306	546.56
270.538	534.56
270.77	544.56
271.002	540.56
271.234	544.56
271.466	555.56
271.698	549.56
271.93	564.56
272.162	554.56
272.394	583.56
272.626	564.56
272.858	562.56
273.09	572.56
273.322	577.56
273.553	566.56
273.785	575.56
274.017	576.56
274.249	585.56
274.481	596.56
274.713	598.56
274.945	618.56
275.176	599.56
275.408	633.56
275.64	617.56
275.872	593.56
276.104	596.56
276.335	611.56
276.567	598.56
276.799	586.56
277.031	610.56
277.262	616.56
277.494	618.56
277.726	636.56
277.957	622.56
278.189	606.56
278.421	623.56
278.652	622.56
278.884	632.56
279.115	625.56
279.347	638.56
279.579	637.56
279.81	642.56
280.042	675.56
280.273	650.56
280.505	654.56
280.736	665.56
280.968	649.56
281.199	665.56
281.431	654.56
281.662	678.56
281.894	688.56
282.125	678.56
282.356	672.56
282.588	699.56
282.819	681.56
283.051	682.56
283.282	681.56
283.513	698.56
283.745	670.56
283.976	674.56
284.207	710.56
284.439	714.56
284.67	689.56
284.901	718.56
285.132	707.56
285.364	713.56
285.595	708.56
285.826	717.56
286.057	715.56
286.288	730.56
286.52	747.56
286.751	724.56
286.982	715.56
287.213	695.56
287.444	736.56
287.675	753.56
287.906	743.56
288.138	721.56
288.369	723.56
288.6	732.56
288.831	775.56
289.062	743.56
289.293	740.56
289.524	738.56
289.755	735.56
289.986	739.56
290.217	764.56
290.448	737.56
290.679	750.56
290.91	736.56
291.141	745.56
291.371	766.56
291.602	771.56
291.833	737.56
292.064	740.56
292.295	775.56
292.526	741.56
292.757	775.56
292.987	732.56
293.218	737.56
293.449	786.56
293.68	778.56
293.91	775.56
294.141	787.56
294.372	753.56
294.603	764.56
294.833	780.56
295.064	773.56
295.295	789.56
295.525	811.56
295.756	789.56
295.987	790.56
296.217	821.56
296.448	782.56
296.679	797.56
296.909	824.56
297.14	800.56
297.37	820.56
297.601	809.56
297.831	808.56
298.062	835.56
298.292	835.56
298.523	860.56
298.753	859.56
298.984	834.56
299.214	846.56
299.445	835.56
299.675	810.56
299.905	852.56
300.136	844.56
300.366	842.56
300.597	844.56
300.827	876.56
301.057	868.56
301.288	889.56
301.518	853.56
301.748	858.56
301.979	924.56
302.209	914.56
302.439	876.56
302.669	869.56
302.9	881.56
303.13	848.56
303.36	884.56
303.59	866.56
303.82	857.56
304.051	867.56
304.281	860.56
304.511	878.56
304.741	870.56
304.971	857.56
305.201	880.56
305.431	875.56
305.661	862.56
305.891	866.56
306.121	840.56
306.352	844.56
306.582	835.56
306.812	870.56
307.042	871.56
307.272	846.56
307.502	828.56
307.731	859.56
307.961	857.56
308.191	843.56
308.421	829.56
308.651	851.56
308.881	852.56
309.111	855.56
309.341	854.56
309.571	860.56
309.8	857.56
310.03	857.56
310.26	860.56
310.49	850.56
310.72	852.56
310.949	860.56
311.179	882.56
311.409	844.56
311.639	878.56
311.868	859.56
312.098	860.56
312.328	904.56
312.557	878.56
312.787	890.56
313.017	908.56
313.246	901.56
313.476	888.56
313.706	914.56
313.935	898.56
314.165	936.56
314.394	906.56
314.624	923.56
314.853	943.56
315.083	916.56
315.312	929.56
315.542	932.56
315.771	906.56
316.001	873.56
316.23	893.56
316.46	889.56
316.689	879.56
316.919	901.56
317.148	920.56
317.377	926.56
317.607	907.56
317.836	905.56
318.065	859.56
318.295	872.56
318.524	904.56
318.753	869.56
318.983	904.56
319.212	889.56
319.441	890.56
319.67	903.56
319.9	890.56
320.129	908.56
320.358	911.56
320.587	888.56
320.816	913.56
321.046	902.56
321.275	922.56
321.504	903.56
321.733	905.56
321.962	909.56
322.191	898.56
322.42	916.56
322.649	900.56
322.878	913.56
323.108	902.56
323.337	926.56
323.566	919.56
323.795	904.56
324.024	933.56
324.253	934.56
324.482	924.56
324.71	950.56
324.939	966.56
325.168	938.56
325.397	931.56
325.626	965.56
325.855	958.56
326.084	985.56
326.313	976.56
326.542	994.56
326.77	1000.56
326.999	972.56
327.228	969.56
327.457	971.56
327.686	970.56
327.914	972.56
328.143	982.56
328.372	990.56
328.6	972.56
328.829	968.56
329.058	996.56
329.287	995.56
329.515	993.56
329.744	980.56
329.972	991.56
330.201	1006.56
330.43	998.56
330.658	1051.56
330.887	1028.56
331.115	1037.56
331.344	1022.56
331.572	1053.56
331.801	1063.56
332.03	1076.56
332.258	1110.56
332.486	1120.56
332.715	1135.56
332.943	1192.56
333.172	1233.56
333.4	1251.56
333.629	1312.56
333.857	1280.56
334.085	1326.56
334.314	1350.56
334.542	1296.56
334.771	1327.56
334.999	1262.56
335.227	1271.56
335.455	1269.56
335.684	1249.56
335.912	1249.56
336.14	1243.56
336.369	1193.56
336.597	1223.56
336.825	1210.56
337.053	1203.56
337.281	1181.56
337.51	1153.56
337.738	1106.56
337.966	1124.56
338.194	1117.56
338.422	1090.56
338.65	1065.56
338.878	1088.56
339.106	1096.56
339.334	1093.56
339.562	1066.56
339.79	1047.56
340.018	1015.56
340.246	1014.56
340.474	1012.56
340.702	1017.56
340.93	1001.56
341.158	1008.56
341.386	1022.56
341.614	1046.56
341.842	1017.56
342.07	1029.56
342.298	985.56
342.526	1028.56
342.754	1040.56
342.981	1034.56
343.209	1040.56
343.437	1111.56
343.665	1137.56
343.893	1214.56
344.12	1250.56
344.348	1254.56
344.576	1171.56
344.804	1146.56
345.031	1111.56
345.259	1062.56
345.487	1049.56
345.714	1008.56
345.942	1031.56
346.17	1030.56
346.397	1006.56
346.625	986.56
346.853	997.56
347.08	972.56
347.308	1006.56
347.535	1000.56
347.763	1003.56
347.99	1038.56
348.218	991.56
348.445	1006.56
348.673	1003.56
348.9	983.56
349.128	989.56
349.355	971.56
349.583	994.56
349.81	975.56
350.037	971.56
350.265	953.56
350.492	983.56
350.72	952.56
350.947	959.56
351.174	959.56
351.402	931.56
351.629	981.56
351.856	974.56
352.083	958.56
352.311	941.56
352.538	948.56
352.765	986.56
352.992	927.56
353.22	920.56
353.447	942.56
353.674	942.56
353.901	932.56
354.128	930.56
354.355	961.56
354.583	946.56
354.81	934.56
355.037	946.56
355.264	964.56
355.491	927.56
355.718	954.56
355.945	973.56
356.172	980.56
356.399	982.56
356.626	973.56
356.853	981.56
357.08	946.56
357.307	926.56
357.534	933.56
357.761	965.56
357.988	955.56
358.215	979.56
358.441	984.56
358.668	959.56
358.895	917.56
359.122	945.56
359.349	919.56
359.576	944.56
359.802	964.56
360.029	970.56
360.256	947.56
360.483	935.56
360.709	960.56
360.936	968.56
361.163	959.56
361.39	954.56
361.616	964.56
361.843	953.56
362.07	955.56
362.296	948.56
362.523	976.56
362.749	960.56
362.976	964.56
363.203	957.56
363.429	926.56
363.656	948.56
363.882	947.56
364.109	962.56
364.335	947.56
364.562	954.56
364.788	931.56
365.015	970.56
365.241	968.56
365.468	954.56
365.694	954.56
365.92	947.56
366.147	917.56
366.373	952.56
366.599	931.56
366.826	934.56
367.052	945.56
367.278	968.56
367.505	955.56
367.731	939.56
367.957	982.56
368.184	950.56
368.41	977.56
368.636	956.56
368.862	978.56
369.089	978.56
369.315	980.56
369.541	968.56
369.767	958.56
369.993	960.56
370.219	1008.56
370.445	962.56
370.672	1004.56
370.898	1022.56
371.124	1040.56
371.35	1048.56
371.576	1046.56
371.802	1065.56
372.028	1034.56
372.254	1037.56
372.48	1044.56
372.706	1054.56
372.932	1096.56
373.158	1100.56
373.384	1089.56
373.61	1050.56
373.835	1053.56
374.061	1048.56
374.287	1051.56
374.513	1051.56
374.739	1109.56
374.965	1184.56
375.191	1153.56
375.416	1182.56
375.642	1119.56
375.868	1140.56
376.094	1117.56
376.319	1100.56
376.545	1049.56
376.771	1023.56
376.997	1051.56
377.222	1064.56
377.448	1073.56
377.674	1036.56
377.899	1039.56
378.125	1028.56
378.35	1015.56
378.576	1028.56
378.802	1051.56
379.027	1018.56
379.253	1017.56
379.478	1034.56
379.704	1046.56
379.929	1044.56
380.155	1043.56
380.38	1072.56
380.606	1037.56
380.831	1036.56
381.057	1046.56
381.282	1044.56
381.507	1035.56
381.733	1054.56
381.958	1035.56
382.184	1076.56
382.409	1071.56
382.634	1059.56
382.86	1108.56
383.085	1103.56
383.31	1119.56
383.535	1089.56
383.761	1137.56
383.986	1167.56
384.211	1192.56
384.436	1211.56
384.662	1209.56
384.887	1215.56
385.112	1225.56
385.337	1236.56
385.562	1258.56
385.787	1256.56
386.013	1278.56
386.238	1290.56
386.463	1300.56
386.688	1299.56
386.913	1259.56
387.138	1268.56
387.363	1290.56
387.588	1262.56
387.813	1283.56
388.038	1248.56
388.263	1258.56
388.488	1301.56
388.713	1260.56
388.938	1262.56
389.163	1273.56
389.387	1236.56
389.612	1227.56
389.837	1256.56
390.062	1225.56
390.287	1254.56
390.512	1267.56
390.736	1255.56
390.961	1308.56
391.186	1304.56
391.411	1322.56
391.636	1368.56
391.86	1418.56
392.085	1424.56
392.31	1463.56
392.534	1431.56
392.759	1374.56
392.984	1344.56
393.208	1355.56
393.433	1374.56
393.658	1328.56
393.882	1346.56
394.107	1352.56
394.331	1363.56
394.556	1376.56
394.78	1347.56
395.005	1346.56
395.229	1368.56
395.454	1404.56
395.678	1422.56
395.903	1426.56
396.127	1440.56
396.352	1395.56
396.576	1382.56
396.801	1361.56
397.025	1361.56
397.249	1424.56
397.474	1448.56
397.698	1445.56
397.922	1471.56
398.147	1458.56
398.371	1510.56
398.595	1543.56
398.82	1628.56
399.044	1737.56
399.268	1852.56
399.492	2080.56
399.717	2328.56
399.941	2308.56
400.165	2231.56
400.389	2046.56
400.613	1926.56
400.837	1784.56
401.062	1723.56
401.286	1701.56
401.51	1652.56
401.734	1659.56
401.958	1638.56
402.182	1630.56
402.406	1657.56
402.63	1694.56
402.854	1659.56
403.078	1710.56
403.302	1768.56
403.526	1749.56
403.75	1791.56
403.974	1790.56
404.198	1774.56
404.422	1798.56
404.645	1778.56
404.869	1800.56
405.093	1813.56
405.317	1792.56
405.541	1774.56
405.765	1778.56
405.988	1719.56
406.212	1808.56
406.436	1810.56
406.66	1826.56
406.883	1819.56
407.107	1947.56
407.331	1990.56
407.555	2104.56
407.778	2102.56
408.002	2063.56
408.226	2009.56
408.449	1980.56
408.673	1894.56
408.896	1838.56
409.12	1822.56
409.344	1864.56
409.567	1837.56
409.791	1892.56
410.014	1808.56
410.238	1774.56
410.461	1768.56
410.685	1776.56
410.908	1734.56
411.132	1723.56
411.355	1679.56
411.578	1676.56
411.802	1673.56
412.025	1714.56
412.249	1703.56
412.472	1698.56
412.695	1699.56
412.919	1650.56
413.142	1585.56
413.365	1592.56
413.589	1633.56
413.812	1591.56
414.035	1584.56
414.258	1618.56
414.482	1629.56
414.705	1658.56
414.928	1628.56
415.151	1655.56
415.374	1601.56
415.597	1620.56
415.821	1570.56
416.044	1586.56
416.267	1534.56
416.49	1551.56
416.713	1559.56
416.936	1585.56
417.159	1521.56
417.382	1541.56
417.605	1551.56
417.828	1546.56
418.051	1566.56
418.274	1617.56
418.497	1553.56
418.72	1642.56
418.943	1609.56
419.166	1742.56
419.389	1856.56
419.611	1817.56
419.834	1751.56
420.057	1684.56
420.28	1643.56
420.503	1565.56
420.726	1576.56
420.948	1576.56
421.171	1611.56
421.394	1587.56
421.617	1571.56
421.839	1567.56
422.062	1575.56
422.285	1528.56
422.507	1573.56
422.73	1604.56
422.953	1599.56
423.175	1628.56
423.398	1635.56
423.621	1613.56
423.843	1639.56
424.066	1632.56
424.288	1602.56
424.511	1607.56
424.733	1615.56
424.956	1632.56
425.178	1595.56
425.401	1598.56
425.623	1563.56
425.846	1539.56
426.068	1533.56
426.291	1563.56
426.513	1522.56
426.735	1456.56
426.958	1496.56
427.18	1445.56
427.402	1478.56
427.625	1464.56
427.847	1438.56
428.069	1446.56
428.292	1437.56
428.514	1401.56
428.736	1433.56
428.958	1400.56
429.181	1402.56
429.403	1368.56
429.625	1396.56
429.847	1384.56
430.069	1402.56
430.292	1374.56
430.514	1355.56
430.736	1368.56
430.958	1394.56
431.18	1370.56
431.402	1414.56
431.624	1378.56
431.846	1424.56
432.068	1440.56
432.29	1410.56
432.512	1394.56
432.734	1414.56
432.956	1388.56
433.178	1390.56
433.4	1376.56
433.622	1396.56
433.844	1442.56
434.066	1435.56
434.287	1461.56
434.509	1495.56
434.731	1547.56
434.953	1574.56
435.175	1563.56
435.397	1570.56
435.618	1498.56
435.84	1472.56
436.062	1451.56
436.284	1444.56
436.505	1421.56
436.727	1406.56
436.949	1411.56
437.17	1376.56
437.392	1386.56
437.614	1380.56
437.835	1330.56
438.057	1342.56
438.278	1302.56
438.5	1338.56
438.721	1360.56
438.943	1359.56
439.165	1328.56
439.386	1330.56
439.608	1357.56
439.829	1400.56
440.05	1371.56
440.272	1394.56
440.493	1391.56
440.715	1410.56
440.936	1419.56
441.158	1469.56
441.379	1494.56
441.6	1545.56
441.822	1556.56
442.043	1541.56
442.264	1562.56
442.486	1501.56
442.707	1537.56
442.928	1490.56
443.149	1499.56
443.371	1510.56
443.592	1525.56
443.813	1526.56
444.034	1548.56
444.255	1639.56
444.476	1697.56
444.698	1769.56
444.919	1794.56
445.14	1870.56
445.361	1733.56
445.582	1654.56
445.803	1553.56
446.024	1495.56
446.245	1478.56
446.466	1466.56
446.687	1418.56
446.908	1408.56
447.129	1350.56
447.35	1364.56
447.571	1353.56
447.792	1328.56
448.013	1335.56
448.234	1298.56
448.455	1287.56
448.675	1292.56
448.896	1282.56
449.117	1247.56
449.338	1267.56
449.559	1275.56
449.779	1264.56
450	1238.56
450.221	1249.56
450.442	1217.56
450.662	1253.56
450.883	1300.56
451.104	1294.56
451.324	1293.56
451.545	1267.56
451.766	1241.56
451.986	1264.56
452.207	1287.56
452.428	1239.56
452.648	1239.56
452.869	1187.56
453.089	1211.56
453.31	1226.56
453.53	1186.56
453.751	1222.56
453.971	1211.56
454.192	1224.56
454.412	1188.56
454.633	1174.56
454.853	1180.56
455.073	1203.56
455.294	1232.56
455.514	1167.56
455.734	1210.56
455.955	1144.56
456.175	1159.56
456.395	1190.56
456.616	1167.56
456.836	1206.56
457.056	1213.56
457.276	1151.56
457.497	1210.56
457.717	1223.56
457.937	1210.56
458.157	1249.56
458.377	1226.56
458.598	1271.56
458.818	1328.56
459.038	1303.56
459.258	1374.56
459.478	1400.56
459.698	1464.56
459.918	1501.56
460.138	1568.56
460.358	1622.56
460.578	1640.56
460.798	1668.56
461.018	1646.56
461.238	1679.56
461.458	1652.56
461.678	1670.56
461.898	1733.56
462.118	1717.56
462.338	1770.56
462.558	1835.56
462.777	1926.56
462.997	2027.56
463.217	2138.56
463.437	2155.56
463.657	2064.56
463.876	1990.56
464.096	2004.56
464.316	1958.56
464.536	1932.56
464.755	1837.56
464.975	1844.56
465.195	1694.56
465.414	1608.56
465.634	1509.56
465.854	1499.56
466.073	1400.56
466.293	1396.56
466.512	1396.56
466.732	1351.56
466.951	1369.56
467.171	1340.56
467.391	1326.56
467.61	1316.56
467.829	1321.56
468.049	1313.56
468.268	1292.56
468.488	1234.56
468.707	1254.56
468.927	1300.56
469.146	1299.56
469.365	1314.56
469.585	1288.56
469.804	1360.56
470.023	1348.56
470.243	1332.56
470.462	1387.56
470.681	1370.56
470.901	1391.56
471.12	1356.56
471.339	1345.56
471.558	1332.56
471.777	1352.56
471.997	1307.56
472.216	1294.56
472.435	1308.56
472.654	1271.56
472.873	1263.56
473.092	1259.56
473.311	1251.56
473.53	1272.56
473.749	1230.56
473.968	1213.56
474.187	1246.56
474.406	1251.56
474.625	1278.56
474.844	1268.56
475.063	1266.56
475.282	1273.56
475.501	1259.56
475.72	1278.56
475.939	1295.56
476.158	1287.56
476.377	1313.56
476.596	1303.56
476.814	1319.56
477.033	1348.56
477.252	1386.56
477.471	1402.56
477.69	1423.56
477.908	1421.56
478.127	1454.56
478.346	1480.56
478.564	1543.56
478.783	1546.56
479.002	1580.56
479.22	1577.56
479.439	1591.56
479.658	1618.56
479.876	1603.56
480.095	1625.56
480.313	1676.56
480.532	1662.56
480.751	1684.56
480.969	1648.56
481.188	1571.56
481.406	1542.56
481.624	1527.56
481.843	1501.56
482.061	1480.56
482.28	1454.56
482.498	1472.56
482.717	1427.56
482.935	1446.56
483.153	1476.56
483.372	1403.56
483.59	1445.56
483.808	1449.56
484.027	1440.56
484.245	1443.56
484.463	1443.56
484.681	1461.56
484.9	1468.56
485.118	1502.56
485.336	1497.56
485.554	1485.56
485.772	1525.56
485.99	1476.56
486.209	1546.56
486.427	1559.56
486.645	1550.56
486.863	1561.56
487.081	1527.56
487.299	1518.56
487.517	1542.56
487.735	1491.56
487.953	1516.56
488.171	1512.56
488.389	1490.56
488.607	1481.56
488.825	1518.56
489.043	1490.56
489.261	1487.56
489.479	1520.56
489.696	1515.56
489.914	1501.56
490.132	1525.56
490.35	1533.56
490.568	1491.56
490.786	1506.56
491.003	1533.56
491.221	1523.56
491.439	1531.56
491.657	1569.56
491.874	1530.56
492.092	1523.56
492.31	1577.56
492.527	1535.56
492.745	1576.56
492.963	1591.56
