Data from NiCl2@0.5M.TitratingCurve.Agarose3%dH2O.NegLispCup.LampEnergy10.LIBS07252019_HRD10591_18-21-16-572.txt Node
Date: Thu Jul 25 18:21:16 EDT 2019
User: cochatt
Spectrometer: HR+D1059
Trigger mode: 1
Integration Time (sec): 1.000000E-1
Scans to average: 1
Electric dark correction enabled: true
Nonlinearity correction enabled: false
Boxcar width: 0
XAxis mode: Wavelengths
Number of Pixels in Spectrum: 2048
>>>>>Begin Spectral Data<<<<<
223.165	2.31
223.4	2.31
223.635	2.31
223.869	-3.69
224.104	-20.69
224.338	-5.69
224.573	-15.69
224.808	-23.69
225.042	-5.69
225.277	-5.69
225.511	-12.69
225.746	4.31
225.98	11.31
226.215	-10.69
226.449	7.31
226.683	18.31
226.918	29.31
227.152	31.31
227.387	28.31
227.621	35.31
227.856	40.31
228.09	36.31
228.324	46.31
228.559	64.31
228.793	89.31
229.027	99.31
229.262	102.31
229.496	97.31
229.73	114.31
229.964	101.31
230.199	122.31
230.433	107.31
230.667	116.31
230.901	111.31
231.136	104.31
231.37	105.31
231.604	123.31
231.838	110.31
232.072	124.31
232.306	109.31
232.541	113.31
232.775	132.31
233.009	134.31
233.243	110.31
233.477	120.31
233.711	136.31
233.945	136.31
234.179	122.31
234.413	133.31
234.647	126.31
234.881	122.31
235.115	137.31
235.349	122.31
235.583	134.31
235.817	136.31
236.051	123.31
236.285	123.31
236.519	114.31
236.753	126.31
236.987	131.31
237.221	147.31
237.455	134.31
237.689	116.31
237.922	115.31
238.156	134.31
238.39	120.31
238.624	124.31
238.858	142.31
239.091	128.31
239.325	137.31
239.559	138.31
239.793	124.31
240.027	158.31
240.26	138.31
240.494	156.31
240.728	137.31
240.961	138.31
241.195	155.31
241.429	144.31
241.662	146.31
241.896	155.31
242.13	152.31
242.363	158.31
242.597	148.31
242.83	162.31
243.064	140.31
243.298	166.31
243.531	169.31
243.765	156.31
243.998	168.31
244.232	157.31
244.465	171.31
244.699	161.31
244.932	172.31
245.166	166.31
245.399	168.31
245.633	161.31
245.866	170.31
246.099	169.31
246.333	180.31
246.566	181.31
246.8	160.31
247.033	152.31
247.266	164.31
247.5	165.31
247.733	182.31
247.966	180.31
248.2	200.31
248.433	187.31
248.666	195.31
248.899	177.31
249.133	180.31
249.366	194.31
249.599	186.31
249.832	182.31
250.066	193.31
250.299	181.31
250.532	197.31
250.765	218.31
250.998	194.31
251.231	195.31
251.465	196.31
251.698	197.31
251.931	210.31
252.164	201.31
252.397	204.31
252.63	207.31
252.863	203.31
253.096	212.31
253.329	211.31
253.562	203.31
253.795	202.31
254.028	190.31
254.261	212.31
254.494	199.31
254.727	203.31
254.96	221.31
255.193	210.31
255.426	184.31
255.659	220.31
255.892	211.31
256.124	211.31
256.357	220.31
256.59	213.31
256.823	222.31
257.056	236.31
257.289	222.31
257.521	228.31
257.754	215.31
257.987	223.31
258.22	214.31
258.452	228.31
258.685	221.31
258.918	216.31
259.151	229.31
259.383	232.31
259.616	226.31
259.849	246.31
260.081	238.31
260.314	229.31
260.547	252.31
260.779	244.31
261.012	243.31
261.244	221.31
261.477	245.31
261.71	236.31
261.942	245.31
262.175	253.31
262.407	246.31
262.64	214.31
262.872	251.31
263.105	256.31
263.337	243.31
263.57	244.31
263.802	244.31
264.035	247.31
264.267	250.31
264.499	255.31
264.732	245.31
264.964	248.31
265.197	263.31
265.429	259.31
265.661	240.31
265.894	252.31
266.126	260.31
266.358	259.31
266.591	280.31
266.823	276.31
267.055	265.31
267.287	270.31
267.52	261.31
267.752	268.31
267.984	268.31
268.216	280.31
268.448	280.31
268.681	281.31
268.913	269.31
269.145	288.31
269.377	267.31
269.609	270.31
269.841	266.31
270.073	270.31
270.306	264.31
270.538	255.31
270.77	282.31
271.002	274.31
271.234	283.31
271.466	253.31
271.698	284.31
271.93	292.31
272.162	293.31
272.394	290.31
272.626	304.31
272.858	289.31
273.09	286.31
273.322	310.31
273.553	270.31
273.785	295.31
274.017	302.31
274.249	295.31
274.481	299.31
274.713	318.31
274.945	285.31
275.176	317.31
275.408	307.31
275.64	298.31
275.872	300.31
276.104	299.31
276.335	304.31
276.567	310.31
276.799	289.31
277.031	308.31
277.262	318.31
277.494	323.31
277.726	304.31
277.957	312.31
278.189	312.31
278.421	338.31
278.652	321.31
278.884	329.31
279.115	314.31
279.347	316.31
279.579	303.31
279.81	322.31
280.042	323.31
280.273	326.31
280.505	321.31
280.736	333.31
280.968	329.31
281.199	333.31
281.431	349.31
281.662	347.31
281.894	341.31
282.125	351.31
282.356	338.31
282.588	322.31
282.819	333.31
283.051	338.31
283.282	351.31
283.513	354.31
283.745	342.31
283.976	353.31
284.207	343.31
284.439	345.31
284.67	370.31
284.901	368.31
285.132	349.31
285.364	345.31
285.595	357.31
285.826	361.31
286.057	374.31
286.288	364.31
286.52	380.31
286.751	360.31
286.982	377.31
287.213	361.31
287.444	372.31
287.675	355.31
287.906	375.31
288.138	352.31
288.369	373.31
288.6	388.31
288.831	376.31
289.062	390.31
289.293	411.31
289.524	352.31
289.755	360.31
289.986	366.31
290.217	386.31
290.448	379.31
290.679	407.31
290.91	386.31
291.141	379.31
291.371	389.31
291.602	380.31
291.833	382.31
292.064	378.31
292.295	385.31
292.526	390.31
292.757	384.31
292.987	376.31
293.218	383.31
293.449	383.31
293.68	386.31
293.91	390.31
294.141	394.31
294.372	402.31
294.603	388.31
294.833	384.31
295.064	403.31
295.295	376.31
295.525	375.31
295.756	390.31
295.987	396.31
296.217	409.31
296.448	414.31
296.679	413.31
296.909	416.31
297.14	413.31
297.37	389.31
297.601	410.31
297.831	408.31
298.062	429.31
298.292	412.31
298.523	425.31
298.753	424.31
298.984	426.31
299.214	422.31
299.445	422.31
299.675	442.31
299.905	419.31
300.136	434.31
300.366	446.31
300.597	424.31
300.827	438.31
301.057	438.31
301.288	466.31
301.518	435.31
301.748	466.31
301.979	465.31
302.209	452.31
302.439	443.31
302.669	446.31
302.9	449.31
303.13	448.31
303.36	436.31
303.59	462.31
303.82	455.31
304.051	454.31
304.281	438.31
304.511	444.31
304.741	442.31
304.971	439.31
305.201	443.31
305.431	444.31
305.661	438.31
305.891	435.31
306.121	446.31
306.352	450.31
306.582	435.31
306.812	418.31
307.042	426.31
307.272	440.31
307.502	449.31
307.731	443.31
307.961	446.31
308.191	452.31
308.421	441.31
308.651	440.31
308.881	431.31
309.111	425.31
309.341	424.31
309.571	446.31
309.8	438.31
310.03	461.31
310.26	454.31
310.49	452.31
310.72	432.31
310.949	441.31
311.179	460.31
311.409	448.31
311.639	439.31
311.868	434.31
312.098	460.31
312.328	463.31
312.557	457.31
312.787	466.31
313.017	462.31
313.246	461.31
313.476	449.31
313.706	467.31
313.935	498.31
314.165	474.31
314.394	471.31
314.624	457.31
314.853	453.31
315.083	470.31
315.312	455.31
315.542	503.31
315.771	485.31
316.001	469.31
316.23	469.31
316.46	451.31
316.689	458.31
316.919	471.31
317.148	475.31
317.377	473.31
317.607	445.31
317.836	471.31
318.065	450.31
318.295	461.31
318.524	446.31
318.753	461.31
318.983	461.31
319.212	459.31
319.441	455.31
319.67	456.31
319.9	466.31
320.129	465.31
320.358	466.31
320.587	455.31
320.816	460.31
321.046	451.31
321.275	478.31
321.504	479.31
321.733	468.31
321.962	489.31
322.191	486.31
322.42	478.31
322.649	468.31
322.878	486.31
323.108	484.31
323.337	472.31
323.566	478.31
323.795	492.31
324.024	490.31
324.253	469.31
324.482	467.31
324.71	480.31
324.939	489.31
325.168	476.31
325.397	487.31
325.626	496.31
325.855	494.31
326.084	510.31
326.313	508.31
326.542	476.31
326.77	523.31
326.999	514.31
327.228	508.31
327.457	488.31
327.686	486.31
327.914	516.31
328.143	526.31
328.372	499.31
328.6	528.31
328.829	492.31
329.058	514.31
329.287	490.31
329.515	507.31
329.744	496.31
329.972	495.31
330.201	521.31
330.43	517.31
330.658	516.31
330.887	561.31
331.115	549.31
331.344	530.31
331.572	540.31
331.801	544.31
332.03	579.31
332.258	570.31
332.486	559.31
332.715	578.31
332.943	619.31
333.172	631.31
333.4	652.31
333.629	660.31
333.857	667.31
334.085	649.31
334.314	677.31
334.542	649.31
334.771	650.31
334.999	631.31
335.227	635.31
335.455	644.31
335.684	633.31
335.912	618.31
336.14	645.31
336.369	597.31
336.597	625.31
336.825	622.31
337.053	603.31
337.281	596.31
337.51	605.31
337.738	580.31
337.966	566.31
338.194	550.31
338.422	563.31
338.65	538.31
338.878	542.31
339.106	573.31
339.334	572.31
339.562	565.31
339.79	543.31
340.018	532.31
340.246	542.31
340.474	554.31
340.702	515.31
340.93	523.31
341.158	540.31
341.386	534.31
341.614	540.31
341.842	541.31
342.07	546.31
342.298	540.31
342.526	520.31
342.754	522.31
342.981	522.31
343.209	535.31
343.437	577.31
343.665	579.31
343.893	622.31
344.12	618.31
344.348	614.31
344.576	605.31
344.804	585.31
345.031	561.31
345.259	532.31
345.487	541.31
345.714	551.31
345.942	539.31
346.17	541.31
346.397	559.31
346.625	542.31
346.853	506.31
347.08	518.31
347.308	514.31
347.535	500.31
347.763	508.31
347.99	496.31
348.218	538.31
348.445	510.31
348.673	502.31
348.9	499.31
349.128	516.31
349.355	519.31
349.583	508.31
349.81	510.31
350.037	486.31
350.265	514.31
350.492	514.31
350.72	503.31
350.947	486.31
351.174	504.31
351.402	510.31
351.629	498.31
351.856	479.31
352.083	503.31
352.311	509.31
352.538	489.31
352.765	496.31
352.992	510.31
353.22	481.31
353.447	492.31
353.674	484.31
353.901	481.31
354.128	460.31
354.355	478.31
354.583	492.31
354.81	502.31
355.037	487.31
355.264	500.31
355.491	499.31
355.718	480.31
355.945	504.31
356.172	494.31
356.399	501.31
356.626	514.31
356.853	512.31
357.08	504.31
357.307	480.31
357.534	502.31
357.761	492.31
357.988	492.31
358.215	476.31
358.441	493.31
358.668	487.31
358.895	486.31
359.122	466.31
359.349	504.31
359.576	467.31
359.802	502.31
360.029	500.31
360.256	485.31
360.483	496.31
360.709	481.31
360.936	509.31
361.163	506.31
361.39	494.31
361.616	501.31
361.843	487.31
362.07	512.31
362.296	508.31
362.523	506.31
362.749	494.31
362.976	481.31
363.203	491.31
363.429	486.31
363.656	487.31
363.882	490.31
364.109	496.31
364.335	489.31
364.562	482.31
364.788	490.31
365.015	506.31
365.241	475.31
365.468	467.31
365.694	479.31
365.92	468.31
366.147	482.31
366.373	464.31
366.599	464.31
366.826	497.31
367.052	474.31
367.278	500.31
367.505	500.31
367.731	505.31
367.957	480.31
368.184	487.31
368.41	500.31
368.636	487.31
368.862	490.31
369.089	489.31
369.315	523.31
369.541	515.31
369.767	503.31
369.993	511.31
370.219	494.31
370.445	512.31
370.672	528.31
370.898	517.31
371.124	516.31
371.35	521.31
371.576	510.31
371.802	519.31
372.028	531.31
372.254	525.31
372.48	538.31
372.706	545.31
372.932	550.31
373.158	535.31
373.384	520.31
373.61	540.31
373.835	516.31
374.061	521.31
374.287	560.31
374.513	528.31
374.739	564.31
374.965	580.31
375.191	570.31
375.416	572.31
375.642	553.31
375.868	572.31
376.094	558.31
376.319	522.31
376.545	508.31
376.771	536.31
376.997	515.31
377.222	525.31
377.448	528.31
377.674	530.31
377.899	533.31
378.125	523.31
378.35	516.31
378.576	519.31
378.802	490.31
379.027	538.31
379.253	530.31
379.478	506.31
379.704	519.31
379.929	515.31
380.155	520.31
380.38	502.31
380.606	540.31
380.831	521.31
381.057	518.31
381.282	522.31
381.507	521.31
381.733	517.31
381.958	536.31
382.184	534.31
382.409	539.31
382.634	557.31
382.86	548.31
383.085	552.31
383.31	561.31
383.535	578.31
383.761	548.31
383.986	564.31
384.211	589.31
384.436	602.31
384.662	604.31
384.887	597.31
385.112	618.31
385.337	624.31
385.562	630.31
385.787	651.31
386.013	622.31
386.238	648.31
386.463	606.31
386.688	642.31
386.913	621.31
387.138	614.31
387.363	608.31
387.588	624.31
387.813	620.31
388.038	604.31
388.263	612.31
388.488	625.31
388.713	618.31
388.938	630.31
389.163	603.31
389.387	605.31
389.612	594.31
389.837	625.31
390.062	621.31
390.287	603.31
390.512	599.31
390.736	620.31
390.961	630.31
391.186	623.31
391.411	651.31
391.636	654.31
391.86	673.31
392.085	668.31
392.31	656.31
392.534	690.31
392.759	663.31
392.984	680.31
393.208	640.31
393.433	649.31
393.658	666.31
393.882	639.31
394.107	660.31
394.331	664.31
394.556	659.31
394.78	680.31
395.005	671.31
395.229	675.31
395.454	715.31
395.678	689.31
395.903	678.31
396.127	682.31
396.352	674.31
396.576	655.31
396.801	677.31
397.025	656.31
397.249	679.31
397.474	690.31
397.698	698.31
397.922	715.31
398.147	703.31
398.371	712.31
398.595	731.31
398.82	786.31
399.044	822.31
399.268	873.31
399.492	1010.31
399.717	1139.31
399.941	1084.31
400.165	990.31
400.389	898.31
400.613	864.31
400.837	812.31
401.062	801.31
401.286	782.31
401.51	776.31
401.734	772.31
401.958	780.31
402.182	796.31
402.406	818.31
402.63	791.31
402.854	781.31
403.078	847.31
403.302	850.31
403.526	840.31
403.75	870.31
403.974	893.31
404.198	866.31
404.422	883.31
404.645	880.31
404.869	860.31
405.093	854.31
405.317	865.31
405.541	850.31
405.765	857.31
405.988	843.31
406.212	812.31
406.436	830.31
406.66	865.31
406.883	869.31
407.107	925.31
407.331	974.31
407.555	968.31
407.778	986.31
408.002	970.31
408.226	955.31
408.449	926.31
408.673	897.31
408.896	878.31
409.12	878.31
409.344	891.31
409.567	865.31
409.791	890.31
410.014	850.31
410.238	847.31
410.461	862.31
410.685	850.31
410.908	835.31
411.132	824.31
411.355	790.31
411.578	796.31
411.802	796.31
412.025	838.31
412.249	832.31
412.472	813.31
412.695	807.31
412.919	801.31
413.142	786.31
413.365	766.31
413.589	789.31
413.812	786.31
414.035	773.31
414.258	775.31
414.482	782.31
414.705	795.31
414.928	793.31
415.151	801.31
415.374	785.31
415.597	786.31
415.821	771.31
416.044	763.31
416.267	769.31
416.49	749.31
416.713	736.31
416.936	770.31
417.159	734.31
417.382	746.31
417.605	752.31
417.828	769.31
418.051	784.31
418.274	757.31
418.497	769.31
418.72	795.31
418.943	786.31
419.166	844.31
419.389	892.31
419.611	867.31
419.834	828.31
420.057	806.31
420.28	778.31
420.503	754.31
420.726	764.31
420.948	783.31
421.171	797.31
421.394	792.31
421.617	770.31
421.839	776.31
422.062	791.31
422.285	790.31
422.507	788.31
422.73	807.31
422.953	793.31
423.175	802.31
423.398	774.31
423.621	795.31
423.843	809.31
424.066	804.31
424.288	805.31
424.511	807.31
424.733	781.31
424.956	794.31
425.178	791.31
425.401	796.31
425.623	752.31
425.846	738.31
426.068	722.31
426.291	739.31
426.513	732.31
426.735	730.31
426.958	735.31
427.18	715.31
427.402	731.31
427.625	691.31
427.847	699.31
428.069	725.31
428.292	685.31
428.514	695.31
428.736	706.31
428.958	709.31
429.181	693.31
429.403	674.31
429.625	708.31
429.847	692.31
430.069	720.31
430.292	690.31
430.514	698.31
430.736	678.31
430.958	683.31
431.18	691.31
431.402	693.31
431.624	685.31
431.846	686.31
432.068	719.31
432.29	724.31
432.512	702.31
432.734	703.31
432.956	702.31
433.178	737.31
433.4	686.31
433.622	725.31
433.844	714.31
434.066	736.31
434.287	723.31
434.509	728.31
434.731	785.31
434.953	804.31
435.175	820.31
435.397	736.31
435.618	770.31
435.84	737.31
436.062	713.31
436.284	697.31
436.505	725.31
436.727	716.31
436.949	710.31
437.17	704.31
437.392	704.31
437.614	709.31
437.835	655.31
438.057	674.31
438.278	666.31
438.5	653.31
438.721	679.31
438.943	716.31
439.165	700.31
439.386	691.31
439.608	715.31
439.829	710.31
440.05	701.31
440.272	737.31
440.493	733.31
440.715	726.31
440.936	731.31
441.158	744.31
441.379	737.31
441.6	808.31
441.822	799.31
442.043	819.31
442.264	781.31
442.486	776.31
442.707	755.31
442.928	775.31
443.149	782.31
443.371	782.31
443.592	784.31
443.813	780.31
444.034	811.31
444.255	824.31
444.476	857.31
444.698	892.31
444.919	960.31
445.14	985.31
445.361	896.31
445.582	824.31
445.803	785.31
446.024	766.31
446.245	743.31
446.466	743.31
446.687	719.31
446.908	708.31
447.129	726.31
447.35	709.31
447.571	688.31
447.792	685.31
448.013	692.31
448.234	673.31
448.455	654.31
448.675	653.31
448.896	678.31
449.117	681.31
449.338	666.31
449.559	660.31
449.779	639.31
450	655.31
450.221	643.31
450.442	689.31
450.662	680.31
450.883	678.31
451.104	661.31
451.324	679.31
451.545	662.31
451.766	664.31
451.986	655.31
452.207	666.31
452.428	686.31
452.648	655.31
452.869	647.31
453.089	661.31
453.31	639.31
453.53	642.31
453.751	636.31
453.971	634.31
454.192	632.31
454.412	612.31
454.633	638.31
454.853	643.31
455.073	608.31
455.294	642.31
455.514	618.31
455.734	622.31
455.955	623.31
456.175	594.31
456.395	611.31
456.616	613.31
456.836	618.31
457.056	655.31
457.276	626.31
457.497	607.31
457.717	621.31
457.937	616.31
458.157	622.31
458.377	663.31
458.598	652.31
458.818	658.31
459.038	677.31
459.258	702.31
459.478	707.31
459.698	710.31
459.918	750.31
460.138	796.31
460.358	826.31
460.578	818.31
460.798	825.31
461.018	829.31
461.238	827.31
461.458	834.31
461.678	851.31
461.898	845.31
462.118	865.31
462.338	885.31
462.558	933.31
462.777	921.31
462.997	1027.31
463.217	1094.31
463.437	1068.31
463.657	994.31
463.876	997.31
464.096	962.31
464.316	969.31
464.536	972.31
464.755	928.31
464.975	895.31
465.195	872.31
465.414	801.31
465.634	759.31
465.854	769.31
466.073	753.31
466.293	720.31
466.512	717.31
466.732	698.31
466.951	674.31
467.171	693.31
467.391	685.31
467.61	715.31
467.829	688.31
468.049	702.31
468.268	671.31
468.488	670.31
468.707	653.31
468.927	690.31
469.146	672.31
469.365	700.31
469.585	699.31
469.804	711.31
470.023	722.31
470.243	712.31
470.462	734.31
470.681	725.31
470.901	747.31
471.12	720.31
471.339	683.31
471.558	722.31
471.777	676.31
471.997	681.31
472.216	671.31
472.435	642.31
472.654	636.31
472.873	644.31
473.092	646.31
473.311	663.31
473.53	656.31
473.749	626.31
473.968	636.31
474.187	654.31
474.406	652.31
474.625	637.31
474.844	643.31
475.063	654.31
475.282	670.31
475.501	697.31
475.72	668.31
475.939	677.31
476.158	684.31
476.377	699.31
476.596	702.31
476.814	684.31
477.033	679.31
477.252	709.31
477.471	726.31
477.69	744.31
477.908	744.31
478.127	772.31
478.346	795.31
478.564	799.31
478.783	777.31
479.002	812.31
479.22	801.31
479.439	819.31
479.658	830.31
479.876	799.31
480.095	811.31
480.313	870.31
480.532	861.31
480.751	849.31
480.969	821.31
481.188	788.31
481.406	779.31
481.624	758.31
481.843	738.31
482.061	735.31
482.28	758.31
482.498	768.31
482.717	762.31
482.935	748.31
483.153	745.31
483.372	777.31
483.59	789.31
483.808	752.31
484.027	740.31
484.245	778.31
484.463	785.31
484.681	786.31
484.9	780.31
485.118	778.31
485.336	770.31
485.554	782.31
485.772	770.31
485.99	778.31
486.209	784.31
486.427	773.31
486.645	784.31
486.863	776.31
487.081	772.31
487.299	775.31
487.517	776.31
487.735	770.31
487.953	781.31
488.171	806.31
488.389	807.31
488.607	788.31
488.825	772.31
489.043	784.31
489.261	770.31
489.479	776.31
489.696	765.31
489.914	779.31
490.132	817.31
490.35	788.31
490.568	763.31
490.786	800.31
491.003	798.31
491.221	816.31
491.439	798.31
491.657	800.31
491.874	828.31
492.092	821.31
492.31	838.31
492.527	829.31
492.745	809.31
492.963	811.31
493.18	816.31
493.398	854.31
493.615	845.31
493.833	835.31
494.05	842.31
494.268	824.31
494.485	852.31
494.703	835.31
494.92	804.31
495.138	836.31
495.355	841.31
495.573	843.31
495.79	835.31
496.008	857.31
496.225	858.31
496.442	867.31
496.66	860.31
496.877	898.31
497.094	869.31
497.312	916.31
497.529	926.31
497.746	912.31
497.963	987.31
498.181	1018.31
498.398	1044.31
498.615	1106.31
498.832	1161.31
499.049	1260.31
499.267	1344.31
499.484	1454.31
499.701	1606.31
499.918	1788.31
500.135	2018.31
500.352	2222.31
500.569	2311.31
500.786	2302.31
501.003	2135.31
501.22	1922.31
501.437	1779.31
