Data from NiCl2@0.0625M.TitratingCurve.Agarose3%dH2O.NegLispCup.LampEnergy10.LIBS07252019_HRD10591_18-33-01-576.txt Node
Date: Thu Jul 25 18:33:01 EDT 2019
User: cochatt
Spectrometer: HR+D1059
Trigger mode: 1
Integration Time (sec): 1.000000E-1
Scans to average: 1
Electric dark correction enabled: true
Nonlinearity correction enabled: false
Boxcar width: 0
XAxis mode: Wavelengths
Number of Pixels in Spectrum: 2048
>>>>>Begin Spectral Data<<<<<
223.165	-13.56
223.4	-13.56
223.635	-13.56
223.869	-25.56
224.104	-21.56
224.338	-17.56
224.573	-22.56
224.808	-16.56
225.042	2.44
225.277	6.44
225.511	-5.56
225.746	2.44
225.98	4.44
226.215	4.44
226.449	23.44
226.683	30.44
226.918	17.44
227.152	31.44
227.387	38.44
227.621	38.44
227.856	41.44
228.09	55.44
228.324	41.44
228.559	54.44
228.793	75.44
229.027	140.44
229.262	158.44
229.496	158.44
229.73	170.44
229.964	176.44
230.199	181.44
230.433	182.44
230.667	177.44
230.901	196.44
231.136	181.44
231.37	196.44
231.604	196.44
231.838	207.44
232.072	213.44
232.306	193.44
232.541	210.44
232.775	208.44
233.009	201.44
233.243	206.44
233.477	206.44
233.711	203.44
233.945	214.44
234.179	222.44
234.413	224.44
234.647	216.44
234.881	229.44
235.115	215.44
235.349	205.44
235.583	223.44
235.817	218.44
236.051	238.44
236.285	218.44
236.519	220.44
236.753	232.44
236.987	242.44
237.221	231.44
237.455	236.44
237.689	246.44
237.922	246.44
238.156	232.44
238.39	250.44
238.624	268.44
238.858	258.44
239.091	259.44
239.325	270.44
239.559	258.44
239.793	292.44
240.027	282.44
240.26	298.44
240.494	281.44
240.728	272.44
240.961	272.44
241.195	284.44
241.429	288.44
241.662	307.44
241.896	298.44
242.13	310.44
242.363	318.44
242.597	318.44
242.83	312.44
243.064	309.44
243.298	308.44
243.531	325.44
243.765	331.44
243.998	345.44
244.232	336.44
244.465	330.44
244.699	327.44
244.932	347.44
245.166	334.44
245.399	363.44
245.633	359.44
245.866	354.44
246.099	355.44
246.333	346.44
246.566	343.44
246.8	370.44
247.033	369.44
247.266	336.44
247.5	368.44
247.733	390.44
247.966	380.44
248.2	401.44
248.433	392.44
248.666	408.44
248.899	395.44
249.133	393.44
249.366	397.44
249.599	407.44
249.832	395.44
250.066	410.44
250.299	409.44
250.532	425.44
250.765	410.44
250.998	407.44
251.231	424.44
251.465	446.44
251.698	430.44
251.931	445.44
252.164	439.44
252.397	450.44
252.63	439.44
252.863	441.44
253.096	477.44
253.329	466.44
253.562	447.44
253.795	439.44
254.028	464.44
254.261	478.44
254.494	468.44
254.727	482.44
254.96	468.44
255.193	483.44
255.426	466.44
255.659	468.44
255.892	485.44
256.124	500.44
256.357	497.44
256.59	488.44
256.823	508.44
257.056	519.44
257.289	501.44
257.521	498.44
257.754	499.44
257.987	521.44
258.22	512.44
258.452	506.44
258.685	514.44
258.918	532.44
259.151	497.44
259.383	515.44
259.616	518.44
259.849	530.44
260.081	537.44
260.314	572.44
260.547	557.44
260.779	547.44
261.012	548.44
261.244	564.44
261.477	538.44
261.71	548.44
261.942	532.44
262.175	544.44
262.407	576.44
262.64	546.44
262.872	564.44
263.105	578.44
263.337	604.44
263.57	575.44
263.802	568.44
264.035	575.44
264.267	590.44
264.499	595.44
264.732	586.44
264.964	569.44
265.197	601.44
265.429	593.44
265.661	583.44
265.894	582.44
266.126	603.44
266.358	599.44
266.591	604.44
266.823	631.44
267.055	620.44
267.287	617.44
267.52	595.44
267.752	611.44
267.984	608.44
268.216	626.44
268.448	636.44
268.681	649.44
268.913	646.44
269.145	640.44
269.377	632.44
269.609	635.44
269.841	635.44
270.073	632.44
270.306	662.44
270.538	644.44
270.77	639.44
271.002	640.44
271.234	658.44
271.466	675.44
271.698	680.44
271.93	647.44
272.162	671.44
272.394	667.44
272.626	664.44
272.858	681.44
273.09	678.44
273.322	683.44
273.553	706.44
273.785	687.44
274.017	673.44
274.249	738.44
274.481	752.44
274.713	713.44
274.945	748.44
275.176	735.44
275.408	742.44
275.64	725.44
275.872	738.44
276.104	747.44
276.335	758.44
276.567	720.44
276.799	730.44
277.031	752.44
277.262	776.44
277.494	739.44
277.726	755.44
277.957	766.44
278.189	759.44
278.421	759.44
278.652	767.44
278.884	743.44
279.115	744.44
279.347	768.44
279.579	794.44
279.81	793.44
280.042	803.44
280.273	804.44
280.505	777.44
280.736	807.44
280.968	794.44
281.199	779.44
281.431	786.44
281.662	788.44
281.894	820.44
282.125	819.44
282.356	822.44
282.588	808.44
282.819	818.44
283.051	820.44
283.282	819.44
283.513	848.44
283.745	827.44
283.976	837.44
284.207	830.44
284.439	812.44
284.67	874.44
284.901	859.44
285.132	860.44
285.364	887.44
285.595	842.44
285.826	851.44
286.057	852.44
286.288	854.44
286.52	878.44
286.751	867.44
286.982	881.44
287.213	884.44
287.444	859.44
287.675	889.44
287.906	858.44
288.138	891.44
288.369	891.44
288.6	929.44
288.831	896.44
289.062	904.44
289.293	906.44
289.524	889.44
289.755	907.44
289.986	900.44
290.217	901.44
290.448	914.44
290.679	909.44
290.91	908.44
291.141	912.44
291.371	889.44
291.602	912.44
291.833	918.44
292.064	927.44
292.295	911.44
292.526	892.44
292.757	893.44
292.987	900.44
293.218	903.44
293.449	942.44
293.68	921.44
293.91	900.44
294.141	927.44
294.372	896.44
294.603	939.44
294.833	948.44
295.064	938.44
295.295	926.44
295.525	928.44
295.756	945.44
295.987	904.44
296.217	940.44
296.448	919.44
296.679	946.44
296.909	944.44
297.14	942.44
297.37	974.44
297.601	965.44
297.831	980.44
298.062	976.44
298.292	1006.44
298.523	985.44
298.753	1015.44
298.984	986.44
299.214	991.44
299.445	1000.44
299.675	978.44
299.905	974.44
300.136	994.44
300.366	991.44
300.597	993.44
300.827	1039.44
301.057	1043.44
301.288	1014.44
301.518	1024.44
301.748	1059.44
301.979	1058.44
302.209	1075.44
302.439	1070.44
302.669	1059.44
302.9	1017.44
303.13	1060.44
303.36	1066.44
303.59	1069.44
303.82	1059.44
304.051	1043.44
304.281	1047.44
304.511	1032.44
304.741	1027.44
304.971	1041.44
305.201	1036.44
305.431	1028.44
305.661	1043.44
305.891	1058.44
306.121	1007.44
306.352	1048.44
306.582	1055.44
306.812	1010.44
307.042	1028.44
307.272	1043.44
307.502	1041.44
307.731	1011.44
307.961	1015.44
308.191	1022.44
308.421	1013.44
308.651	1052.44
308.881	1024.44
309.111	1031.44
309.341	1054.44
309.571	1051.44
309.8	1047.44
310.03	1063.44
310.26	1047.44
310.49	1055.44
310.72	1031.44
310.949	1030.44
311.179	1051.44
311.409	1054.44
311.639	1042.44
311.868	1073.44
312.098	1081.44
312.328	1077.44
312.557	1079.44
312.787	1114.44
313.017	1101.44
313.246	1104.44
313.476	1090.44
313.706	1110.44
313.935	1104.44
314.165	1111.44
314.394	1172.44
314.624	1136.44
314.853	1111.44
315.083	1104.44
315.312	1102.44
315.542	1096.44
315.771	1120.44
316.001	1076.44
316.23	1119.44
316.46	1098.44
316.689	1095.44
316.919	1127.44
317.148	1145.44
317.377	1094.44
317.607	1099.44
317.836	1090.44
318.065	1114.44
318.295	1097.44
318.524	1096.44
318.753	1134.44
318.983	1117.44
319.212	1090.44
319.441	1087.44
319.67	1099.44
319.9	1115.44
320.129	1113.44
320.358	1130.44
320.587	1120.44
320.816	1123.44
321.046	1087.44
321.275	1114.44
321.504	1100.44
321.733	1122.44
321.962	1149.44
322.191	1140.44
322.42	1149.44
322.649	1108.44
322.878	1113.44
323.108	1141.44
323.337	1138.44
323.566	1143.44
323.795	1151.44
324.024	1172.44
324.253	1159.44
324.482	1160.44
324.71	1169.44
324.939	1160.44
325.168	1150.44
325.397	1159.44
325.626	1182.44
325.855	1182.44
326.084	1247.44
326.313	1226.44
326.542	1210.44
326.77	1248.44
326.999	1197.44
327.228	1222.44
327.457	1186.44
327.686	1209.44
327.914	1206.44
328.143	1215.44
328.372	1179.44
328.6	1218.44
328.829	1214.44
329.058	1200.44
329.287	1208.44
329.515	1228.44
329.744	1239.44
329.972	1226.44
330.201	1246.44
330.43	1234.44
330.658	1259.44
330.887	1266.44
331.115	1250.44
331.344	1282.44
331.572	1275.44
331.801	1307.44
332.03	1310.44
332.258	1338.44
332.486	1348.44
332.715	1377.44
332.943	1423.44
333.172	1454.44
333.4	1510.44
333.629	1522.44
333.857	1538.44
334.085	1574.44
334.314	1534.44
334.542	1551.44
334.771	1535.44
334.999	1508.44
335.227	1477.44
335.455	1505.44
335.684	1504.44
335.912	1505.44
336.14	1457.44
336.369	1466.44
336.597	1468.44
336.825	1442.44
337.053	1462.44
337.281	1422.44
337.51	1408.44
337.738	1403.44
337.966	1400.44
338.194	1358.44
338.422	1348.44
338.65	1361.44
338.878	1343.44
339.106	1300.44
339.334	1358.44
339.562	1304.44
339.79	1310.44
340.018	1288.44
340.246	1306.44
340.474	1265.44
340.702	1268.44
340.93	1293.44
341.158	1298.44
341.386	1274.44
341.614	1290.44
341.842	1262.44
342.07	1255.44
342.298	1264.44
342.526	1265.44
342.754	1251.44
342.981	1269.44
343.209	1313.44
343.437	1318.44
343.665	1410.44
343.893	1466.44
344.12	1499.44
344.348	1506.44
344.576	1433.44
344.804	1383.44
345.031	1320.44
345.259	1293.44
345.487	1259.44
345.714	1282.44
345.942	1256.44
346.17	1230.44
346.397	1233.44
346.625	1215.44
346.853	1237.44
347.08	1219.44
347.308	1245.44
347.535	1240.44
347.763	1202.44
347.99	1215.44
348.218	1262.44
348.445	1220.44
348.673	1206.44
348.9	1240.44
349.128	1203.44
349.355	1215.44
349.583	1210.44
349.81	1176.44
350.037	1199.44
350.265	1185.44
350.492	1177.44
350.72	1188.44
350.947	1187.44
351.174	1194.44
351.402	1186.44
351.629	1166.44
351.856	1175.44
352.083	1182.44
352.311	1172.44
352.538	1178.44
352.765	1192.44
352.992	1172.44
353.22	1170.44
353.447	1138.44
353.674	1181.44
353.901	1173.44
354.128	1164.44
354.355	1172.44
354.583	1153.44
354.81	1164.44
355.037	1180.44
355.264	1160.44
355.491	1176.44
355.718	1198.44
355.945	1189.44
356.172	1186.44
356.399	1176.44
356.626	1195.44
356.853	1191.44
357.08	1183.44
357.307	1183.44
357.534	1162.44
357.761	1210.44
357.988	1194.44
358.215	1176.44
358.441	1203.44
358.668	1162.44
358.895	1200.44
359.122	1186.44
359.349	1178.44
359.576	1204.44
359.802	1206.44
360.029	1168.44
360.256	1191.44
360.483	1203.44
360.709	1200.44
360.936	1169.44
361.163	1198.44
361.39	1168.44
361.616	1159.44
361.843	1188.44
362.07	1217.44
362.296	1204.44
362.523	1204.44
362.749	1188.44
362.976	1202.44
363.203	1177.44
363.429	1178.44
363.656	1206.44
363.882	1171.44
364.109	1196.44
364.335	1177.44
364.562	1177.44
364.788	1179.44
365.015	1167.44
365.241	1143.44
365.468	1161.44
365.694	1186.44
365.92	1169.44
366.147	1178.44
366.373	1221.44
366.599	1182.44
366.826	1163.44
367.052	1172.44
367.278	1185.44
367.505	1211.44
367.731	1206.44
367.957	1164.44
368.184	1181.44
368.41	1210.44
368.636	1184.44
368.862	1224.44
369.089	1199.44
369.315	1209.44
369.541	1216.44
369.767	1236.44
369.993	1230.44
370.219	1233.44
370.445	1239.44
370.672	1262.44
370.898	1236.44
371.124	1271.44
371.35	1304.44
371.576	1299.44
371.802	1303.44
372.028	1299.44
372.254	1297.44
372.48	1332.44
372.706	1275.44
372.932	1331.44
373.158	1316.44
373.384	1297.44
373.61	1296.44
373.835	1304.44
374.061	1281.44
374.287	1323.44
374.513	1323.44
374.739	1360.44
374.965	1410.44
375.191	1406.44
375.416	1410.44
375.642	1354.44
375.868	1312.44
376.094	1346.44
376.319	1334.44
376.545	1270.44
376.771	1305.44
376.997	1313.44
377.222	1265.44
377.448	1280.44
377.674	1290.44
377.899	1258.44
378.125	1250.44
378.35	1262.44
378.576	1232.44
378.802	1238.44
379.027	1281.44
379.253	1287.44
379.478	1271.44
379.704	1255.44
379.929	1299.44
380.155	1280.44
380.38	1258.44
380.606	1271.44
380.831	1286.44
381.057	1260.44
381.282	1303.44
381.507	1267.44
381.733	1315.44
381.958	1272.44
382.184	1312.44
382.409	1324.44
382.634	1342.44
382.86	1313.44
383.085	1369.44
383.31	1359.44
383.535	1389.44
383.761	1377.44
383.986	1412.44
384.211	1412.44
384.436	1446.44
384.662	1496.44
384.887	1449.44
385.112	1499.44
385.337	1511.44
385.562	1508.44
385.787	1538.44
386.013	1507.44
386.238	1547.44
386.463	1525.44
386.688	1544.44
386.913	1498.44
387.138	1511.44
387.363	1527.44
387.588	1528.44
387.813	1520.44
388.038	1530.44
388.263	1550.44
388.488	1535.44
388.713	1533.44
388.938	1498.44
389.163	1509.44
389.387	1519.44
389.612	1544.44
389.837	1526.44
390.062	1506.44
390.287	1507.44
390.512	1524.44
390.736	1559.44
390.961	1520.44
391.186	1560.44
391.411	1637.44
391.636	1627.44
391.86	1629.44
392.085	1679.44
392.31	1704.44
392.534	1668.44
392.759	1664.44
392.984	1636.44
393.208	1621.44
393.433	1658.44
393.658	1684.44
393.882	1666.44
394.107	1635.44
394.331	1616.44
394.556	1593.44
394.78	1650.44
395.005	1655.44
395.229	1648.44
395.454	1629.44
395.678	1686.44
395.903	1689.44
396.127	1663.44
396.352	1638.44
396.576	1629.44
396.801	1626.44
397.025	1690.44
397.249	1704.44
397.474	1705.44
397.698	1739.44
397.922	1717.44
398.147	1714.44
398.371	1786.44
398.595	1795.44
398.82	1877.44
399.044	1958.44
399.268	2157.44
399.492	2400.44
399.717	2587.44
399.941	2619.44
400.165	2427.44
400.389	2261.44
400.613	2108.44
400.837	1977.44
401.062	1946.44
401.286	1943.44
401.51	1902.44
401.734	1918.44
401.958	1928.44
402.182	1890.44
402.406	1926.44
402.63	1920.44
402.854	1930.44
403.078	1951.44
403.302	1983.44
403.526	1998.44
403.75	2026.44
403.974	2050.44
404.198	2086.44
404.422	2088.44
404.645	2056.44
404.869	2074.44
405.093	2053.44
405.317	2017.44
405.541	2092.44
405.765	2046.44
405.988	2040.44
406.212	2078.44
406.436	2071.44
406.66	2120.44
406.883	2099.44
407.107	2251.44
407.331	2328.44
407.555	2367.44
407.778	2366.44
408.002	2322.44
408.226	2277.44
408.449	2226.44
408.673	2175.44
408.896	2150.44
409.12	2076.44
409.344	2122.44
409.567	2104.44
409.791	2114.44
410.014	2125.44
410.238	2066.44
410.461	2078.44
410.685	2051.44
410.908	2011.44
411.132	2005.44
411.355	1985.44
411.578	2008.44
411.802	1980.44
412.025	1981.44
412.249	1986.44
412.472	1999.44
412.695	1926.44
412.919	1926.44
413.142	1923.44
413.365	1926.44
413.589	1910.44
413.812	1932.44
414.035	1914.44
414.258	1892.44
414.482	1905.44
414.705	1920.44
414.928	1947.44
415.151	1906.44
415.374	1878.44
415.597	1890.44
415.821	1856.44
416.044	1785.44
416.267	1846.44
416.49	1804.44
416.713	1810.44
416.936	1767.44
417.159	1808.44
417.382	1838.44
417.605	1777.44
417.828	1798.44
418.051	1847.44
418.274	1846.44
418.497	1825.44
418.72	1858.44
418.943	1839.44
419.166	1974.44
419.389	2091.44
419.611	2049.44
419.834	1943.44
420.057	1920.44
420.28	1861.44
420.503	1790.44
420.726	1820.44
420.948	1789.44
421.171	1820.44
421.394	1835.44
421.617	1798.44
421.839	1817.44
422.062	1816.44
422.285	1813.44
422.507	1824.44
422.73	1837.44
422.953	1832.44
423.175	1872.44
423.398	1894.44
423.621	1847.44
423.843	1894.44
424.066	1894.44
424.288	1885.44
424.511	1897.44
424.733	1857.44
424.956	1835.44
425.178	1817.44
425.401	1827.44
425.623	1809.44
425.846	1816.44
426.068	1751.44
426.291	1777.44
426.513	1742.44
426.735	1728.44
426.958	1745.44
427.18	1726.44
427.402	1708.44
427.625	1740.44
427.847	1722.44
428.069	1681.44
428.292	1694.44
428.514	1671.44
428.736	1651.44
428.958	1698.44
429.181	1642.44
429.403	1630.44
429.625	1635.44
429.847	1642.44
430.069	1624.44
430.292	1635.44
430.514	1630.44
430.736	1641.44
430.958	1680.44
431.18	1610.44
431.402	1647.44
431.624	1652.44
431.846	1654.44
432.068	1650.44
432.29	1686.44
432.512	1696.44
432.734	1685.44
432.956	1666.44
433.178	1675.44
433.4	1669.44
433.622	1728.44
433.844	1740.44
434.066	1719.44
434.287	1706.44
434.509	1756.44
434.731	1780.44
434.953	1816.44
435.175	1855.44
435.397	1868.44
435.618	1755.44
435.84	1743.44
436.062	1695.44
436.284	1657.44
436.505	1652.44
436.727	1695.44
436.949	1664.44
437.17	1656.44
437.392	1629.44
437.614	1609.44
437.835	1564.44
438.057	1594.44
438.278	1600.44
438.5	1591.44
438.721	1595.44
438.943	1578.44
439.165	1558.44
439.386	1590.44
439.608	1630.44
439.829	1638.44
440.05	1652.44
440.272	1610.44
440.493	1634.44
440.715	1688.44
440.936	1647.44
441.158	1704.44
441.379	1747.44
441.6	1787.44
441.822	1806.44
442.043	1811.44
442.264	1763.44
442.486	1753.44
442.707	1775.44
442.928	1738.44
443.149	1763.44
443.371	1757.44
443.592	1798.44
443.813	1814.44
444.034	1827.44
444.255	1867.44
444.476	1880.44
444.698	1970.44
444.919	2038.44
445.14	2085.44
445.361	1951.44
445.582	1871.44
445.803	1816.44
446.024	1728.44
446.245	1758.44
446.466	1690.44
446.687	1648.44
446.908	1633.44
447.129	1603.44
447.35	1611.44
447.571	1569.44
447.792	1564.44
448.013	1539.44
448.234	1518.44
448.455	1497.44
448.675	1495.44
448.896	1496.44
449.117	1479.44
449.338	1506.44
449.559	1497.44
449.779	1442.44
450	1487.44
450.221	1476.44
450.442	1502.44
450.662	1452.44
450.883	1464.44
451.104	1494.44
451.324	1480.44
451.545	1488.44
451.766	1463.44
451.986	1489.44
452.207	1478.44
452.428	1457.44
452.648	1435.44
452.869	1416.44
453.089	1387.44
453.31	1439.44
453.53	1439.44
453.751	1420.44
453.971	1433.44
454.192	1413.44
454.412	1379.44
454.633	1399.44
454.853	1432.44
455.073	1402.44
455.294	1397.44
455.514	1400.44
455.734	1378.44
455.955	1378.44
456.175	1367.44
456.395	1345.44
456.616	1355.44
456.836	1411.44
457.056	1393.44
457.276	1370.44
457.497	1404.44
457.717	1383.44
457.937	1410.44
458.157	1414.44
458.377	1451.44
458.598	1470.44
458.818	1528.44
459.038	1532.44
459.258	1609.44
459.478	1659.44
459.698	1662.44
459.918	1682.44
460.138	1727.44
460.358	1778.44
460.578	1850.44
460.798	1885.44
461.018	1858.44
461.238	1870.44
461.458	1849.44
461.678	1874.44
461.898	1883.44
462.118	1865.44
462.338	1982.44
462.558	2025.44
462.777	2108.44
462.997	2234.44
463.217	2344.44
463.437	2394.44
463.657	2206.44
463.876	2139.44
464.096	2152.44
464.316	2143.44
464.536	2100.44
464.755	2043.44
464.975	2033.44
465.195	1935.44
465.414	1850.44
465.634	1753.44
465.854	1703.44
466.073	1666.44
466.293	1603.44
466.512	1574.44
466.732	1600.44
466.951	1595.44
467.171	1558.44
467.391	1564.44
467.61	1551.44
467.829	1565.44
468.049	1552.44
468.268	1500.44
468.488	1466.44
468.707	1505.44
468.927	1502.44
469.146	1529.44
469.365	1552.44
469.585	1513.44
469.804	1567.44
470.023	1577.44
470.243	1598.44
470.462	1592.44
470.681	1591.44
470.901	1601.44
471.12	1582.44
471.339	1551.44
471.558	1545.44
471.777	1571.44
471.997	1540.44
472.216	1496.44
472.435	1491.44
472.654	1476.44
472.873	1472.44
473.092	1504.44
473.311	1466.44
473.53	1484.44
473.749	1497.44
473.968	1486.44
474.187	1473.44
474.406	1449.44
474.625	1470.44
474.844	1492.44
475.063	1488.44
475.282	1566.44
475.501	1503.44
475.72	1552.44
475.939	1532.44
476.158	1513.44
476.377	1562.44
476.596	1596.44
476.814	1592.44
477.033	1587.44
477.252	1643.44
477.471	1654.44
477.69	1688.44
477.908	1692.44
478.127	1719.44
478.346	1746.44
478.564	1819.44
478.783	1806.44
479.002	1856.44
479.22	1873.44
479.439	1858.44
479.658	1877.44
479.876	1872.44
480.095	1895.44
480.313	1949.44
480.532	1986.44
480.751	2000.44
480.969	1945.44
481.188	1900.44
481.406	1867.44
481.624	1852.44
481.843	1823.44
482.061	1842.44
482.28	1802.44
482.498	1803.44
482.717	1839.44
482.935	1801.44
483.153	1804.44
483.372	1783.44
483.59	1842.44
483.808	1828.44
484.027	1822.44
484.245	1880.44
484.463	1867.44
484.681	1924.44
484.9	1949.44
485.118	1982.44
485.336	1906.44
485.554	1978.44
485.772	1943.44
485.99	1934.44
486.209	1934.44
486.427	1942.44
486.645	1939.44
486.863	1983.44
487.081	1915.44
487.299	1940.44
487.517	1949.44
487.735	1920.44
487.953	1914.44
488.171	1952.44
488.389	1925.44
488.607	1945.44
488.825	1886.44
489.043	1840.44
489.261	1906.44
489.479	1898.44
489.696	1831.44
489.914	1902.44
