Data from NiCl2@0.125M.TitratingCurve.Agarose3%dH2O.NegLispCup.LampEnergy10.LIBS07252019_HRD10591_18-27-30-574.txt Node
Date: Thu Jul 25 18:27:30 EDT 2019
User: cochatt
Spectrometer: HR+D1059
Trigger mode: 1
Integration Time (sec): 1.000000E-1
Scans to average: 1
Electric dark correction enabled: true
Nonlinearity correction enabled: false
Boxcar width: 0
XAxis mode: Wavelengths
Number of Pixels in Spectrum: 2048
>>>>>Begin Spectral Data<<<<<
223.165	-23.25
223.4	-23.25
223.635	-23.25
223.869	-17.25
224.104	-23.25
224.338	-17.25
224.573	-22.25
224.808	-9.25
225.042	-2.25
225.277	-7.25
225.511	0.75
225.746	-6.25
225.98	2.75
226.215	17.75
226.449	12.75
226.683	22.75
226.918	32.75
227.152	38.75
227.387	20.75
227.621	30.75
227.856	38.75
228.09	40.75
228.324	56.75
228.559	41.75
228.793	67.75
229.027	82.75
229.262	107.75
229.496	108.75
229.73	110.75
229.964	114.75
230.199	120.75
230.433	132.75
230.667	125.75
230.901	126.75
231.136	124.75
231.37	129.75
231.604	142.75
231.838	126.75
232.072	148.75
232.306	162.75
232.541	149.75
232.775	132.75
233.009	142.75
233.243	148.75
233.477	158.75
233.711	145.75
233.945	136.75
234.179	136.75
234.413	138.75
234.647	142.75
234.881	163.75
235.115	167.75
235.349	160.75
235.583	142.75
235.817	133.75
236.051	143.75
236.285	148.75
236.519	153.75
236.753	155.75
236.987	158.75
237.221	161.75
237.455	153.75
237.689	158.75
237.922	144.75
238.156	149.75
238.39	152.75
238.624	153.75
238.858	161.75
239.091	169.75
239.325	170.75
239.559	183.75
239.793	168.75
240.027	188.75
240.26	179.75
240.494	168.75
240.728	187.75
240.961	174.75
241.195	184.75
241.429	193.75
241.662	183.75
241.896	185.75
242.13	183.75
242.363	167.75
242.597	179.75
242.83	185.75
243.064	181.75
243.298	196.75
243.531	209.75
243.765	215.75
243.998	208.75
244.232	193.75
244.465	192.75
244.699	215.75
244.932	215.75
245.166	209.75
245.399	208.75
245.633	222.75
245.866	207.75
246.099	218.75
246.333	224.75
246.566	200.75
246.8	214.75
247.033	214.75
247.266	236.75
247.5	227.75
247.733	242.75
247.966	215.75
248.2	231.75
248.433	234.75
248.666	235.75
248.899	237.75
249.133	233.75
249.366	244.75
249.599	239.75
249.832	246.75
250.066	234.75
250.299	239.75
250.532	244.75
250.765	257.75
250.998	261.75
251.231	264.75
251.465	246.75
251.698	251.75
251.931	262.75
252.164	274.75
252.397	264.75
252.63	270.75
252.863	257.75
253.096	264.75
253.329	274.75
253.562	270.75
253.795	264.75
254.028	284.75
254.261	281.75
254.494	277.75
254.727	280.75
254.96	264.75
255.193	284.75
255.426	260.75
255.659	282.75
255.892	304.75
256.124	291.75
256.357	296.75
256.59	259.75
256.823	289.75
257.056	278.75
257.289	304.75
257.521	298.75
257.754	296.75
257.987	297.75
258.22	303.75
258.452	287.75
258.685	297.75
258.918	317.75
259.151	308.75
259.383	308.75
259.616	312.75
259.849	307.75
260.081	317.75
260.314	309.75
260.547	309.75
260.779	302.75
261.012	319.75
261.244	333.75
261.477	321.75
261.71	322.75
261.942	328.75
262.175	308.75
262.407	325.75
262.64	318.75
262.872	309.75
263.105	323.75
263.337	337.75
263.57	344.75
263.802	330.75
264.035	340.75
264.267	368.75
264.499	329.75
264.732	344.75
264.964	343.75
265.197	354.75
265.429	375.75
265.661	350.75
265.894	348.75
266.126	347.75
266.358	366.75
266.591	338.75
266.823	362.75
267.055	325.75
267.287	372.75
267.52	355.75
267.752	338.75
267.984	373.75
268.216	353.75
268.448	376.75
268.681	366.75
268.913	366.75
269.145	361.75
269.377	333.75
269.609	368.75
269.841	362.75
270.073	357.75
270.306	360.75
270.538	356.75
270.77	370.75
271.002	361.75
271.234	380.75
271.466	376.75
271.698	361.75
271.93	382.75
272.162	392.75
272.394	384.75
272.626	413.75
272.858	416.75
273.09	380.75
273.322	386.75
273.553	379.75
273.785	384.75
274.017	375.75
274.249	399.75
274.481	398.75
274.713	408.75
274.945	394.75
275.176	397.75
275.408	380.75
275.64	406.75
275.872	399.75
276.104	412.75
276.335	412.75
276.567	401.75
276.799	404.75
277.031	417.75
277.262	402.75
277.494	394.75
277.726	416.75
277.957	430.75
278.189	430.75
278.421	412.75
278.652	428.75
278.884	438.75
279.115	426.75
279.347	419.75
279.579	438.75
279.81	465.75
280.042	437.75
280.273	441.75
280.505	438.75
280.736	439.75
280.968	444.75
281.199	461.75
281.431	441.75
281.662	440.75
281.894	470.75
282.125	464.75
282.356	462.75
282.588	476.75
282.819	468.75
283.051	447.75
283.282	457.75
283.513	455.75
283.745	457.75
283.976	457.75
284.207	470.75
284.439	486.75
284.67	475.75
284.901	472.75
285.132	473.75
285.364	486.75
285.595	474.75
285.826	456.75
286.057	466.75
286.288	476.75
286.52	497.75
286.751	478.75
286.982	485.75
287.213	484.75
287.444	490.75
287.675	505.75
287.906	495.75
288.138	481.75
288.369	521.75
288.6	497.75
288.831	494.75
289.062	490.75
289.293	514.75
289.524	497.75
289.755	504.75
289.986	518.75
290.217	513.75
290.448	502.75
290.679	493.75
290.91	504.75
291.141	527.75
291.371	513.75
291.602	510.75
291.833	510.75
292.064	515.75
292.295	503.75
292.526	511.75
292.757	506.75
292.987	515.75
293.218	494.75
293.449	515.75
293.68	512.75
293.91	524.75
294.141	511.75
294.372	522.75
294.603	530.75
294.833	500.75
295.064	526.75
295.295	543.75
295.525	527.75
295.756	521.75
295.987	512.75
296.217	533.75
296.448	556.75
296.679	538.75
296.909	559.75
297.14	542.75
297.37	531.75
297.601	534.75
297.831	556.75
298.062	559.75
298.292	574.75
298.523	563.75
298.753	598.75
298.984	598.75
299.214	573.75
299.445	576.75
299.675	560.75
299.905	568.75
300.136	564.75
300.366	578.75
300.597	568.75
300.827	580.75
301.057	585.75
301.288	586.75
301.518	590.75
301.748	620.75
301.979	595.75
302.209	609.75
302.439	580.75
302.669	583.75
302.9	592.75
303.13	574.75
303.36	566.75
303.59	578.75
303.82	576.75
304.051	569.75
304.281	580.75
304.511	578.75
304.741	587.75
304.971	593.75
305.201	590.75
305.431	596.75
305.661	569.75
305.891	578.75
306.121	575.75
306.352	586.75
306.582	595.75
306.812	554.75
307.042	577.75
307.272	553.75
307.502	563.75
307.731	576.75
307.961	594.75
308.191	572.75
308.421	564.75
308.651	556.75
308.881	567.75
309.111	564.75
309.341	572.75
309.571	578.75
309.8	583.75
310.03	585.75
310.26	589.75
310.49	586.75
310.72	603.75
310.949	584.75
311.179	574.75
311.409	593.75
311.639	586.75
311.868	587.75
312.098	594.75
312.328	601.75
312.557	603.75
312.787	607.75
313.017	577.75
313.246	616.75
313.476	624.75
313.706	608.75
313.935	618.75
314.165	625.75
314.394	627.75
314.624	622.75
314.853	584.75
315.083	627.75
315.312	615.75
315.542	611.75
315.771	604.75
316.001	590.75
316.23	625.75
316.46	602.75
316.689	608.75
316.919	596.75
317.148	606.75
317.377	615.75
317.607	605.75
317.836	574.75
318.065	589.75
318.295	592.75
318.524	607.75
318.753	615.75
318.983	600.75
319.212	589.75
319.441	601.75
319.67	593.75
319.9	615.75
320.129	605.75
320.358	591.75
320.587	616.75
320.816	609.75
321.046	612.75
321.275	590.75
321.504	606.75
321.733	638.75
321.962	617.75
322.191	614.75
322.42	624.75
322.649	612.75
322.878	596.75
323.108	595.75
323.337	631.75
323.566	624.75
323.795	623.75
324.024	623.75
324.253	621.75
324.482	628.75
324.71	601.75
324.939	594.75
325.168	646.75
325.397	628.75
325.626	643.75
325.855	651.75
326.084	659.75
326.313	678.75
326.542	673.75
326.77	686.75
326.999	657.75
327.228	645.75
327.457	667.75
327.686	662.75
327.914	665.75
328.143	662.75
328.372	665.75
328.6	678.75
328.829	669.75
329.058	660.75
329.287	673.75
329.515	666.75
329.744	662.75
329.972	693.75
330.201	664.75
330.43	682.75
330.658	704.75
330.887	694.75
331.115	656.75
331.344	672.75
331.572	695.75
331.801	705.75
332.03	734.75
332.258	733.75
332.486	752.75
332.715	790.75
332.943	802.75
333.172	800.75
333.4	857.75
333.629	892.75
333.857	900.75
334.085	876.75
334.314	888.75
334.542	849.75
334.771	851.75
334.999	824.75
335.227	847.75
335.455	812.75
335.684	821.75
335.912	809.75
336.14	799.75
336.369	804.75
336.597	795.75
336.825	806.75
337.053	785.75
337.281	768.75
337.51	763.75
337.738	749.75
337.966	757.75
338.194	753.75
338.422	720.75
338.65	714.75
338.878	717.75
339.106	688.75
339.334	721.75
339.562	698.75
339.79	704.75
340.018	695.75
340.246	693.75
340.474	681.75
340.702	701.75
340.93	696.75
341.158	697.75
341.386	705.75
341.614	720.75
341.842	713.75
342.07	698.75
342.298	681.75
342.526	687.75
342.754	669.75
342.981	714.75
343.209	700.75
343.437	736.75
343.665	745.75
343.893	814.75
344.12	849.75
344.348	820.75
344.576	782.75
344.804	777.75
345.031	733.75
345.259	730.75
345.487	721.75
345.714	698.75
345.942	677.75
346.17	670.75
346.397	704.75
346.625	685.75
346.853	665.75
347.08	654.75
347.308	692.75
347.535	706.75
347.763	670.75
347.99	692.75
348.218	693.75
348.445	689.75
348.673	677.75
348.9	652.75
349.128	661.75
349.355	644.75
349.583	679.75
349.81	638.75
350.037	668.75
350.265	650.75
350.492	647.75
350.72	651.75
350.947	643.75
351.174	646.75
351.402	631.75
351.629	644.75
351.856	651.75
352.083	666.75
352.311	640.75
352.538	658.75
352.765	630.75
352.992	649.75
353.22	642.75
353.447	641.75
353.674	645.75
353.901	633.75
354.128	641.75
354.355	648.75
354.583	659.75
354.81	648.75
355.037	643.75
355.264	642.75
355.491	660.75
355.718	668.75
355.945	654.75
356.172	639.75
356.399	660.75
356.626	656.75
356.853	657.75
357.08	655.75
357.307	652.75
357.534	654.75
357.761	654.75
357.988	637.75
358.215	652.75
358.441	630.75
358.668	627.75
358.895	662.75
359.122	650.75
359.349	651.75
359.576	643.75
359.802	657.75
360.029	650.75
360.256	662.75
360.483	660.75
360.709	647.75
360.936	630.75
361.163	651.75
361.39	658.75
361.616	626.75
361.843	647.75
362.07	653.75
362.296	654.75
362.523	645.75
362.749	647.75
362.976	638.75
363.203	653.75
363.429	615.75
363.656	638.75
363.882	642.75
364.109	644.75
364.335	630.75
364.562	630.75
364.788	630.75
365.015	650.75
365.241	647.75
365.468	632.75
365.694	655.75
365.92	657.75
366.147	629.75
366.373	645.75
366.599	647.75
366.826	645.75
367.052	638.75
367.278	646.75
367.505	665.75
367.731	663.75
367.957	641.75
368.184	649.75
368.41	676.75
368.636	661.75
368.862	656.75
369.089	670.75
369.315	667.75
369.541	661.75
369.767	680.75
369.993	679.75
370.219	663.75
370.445	681.75
370.672	702.75
370.898	694.75
371.124	677.75
371.35	695.75
371.576	688.75
371.802	713.75
372.028	709.75
372.254	694.75
372.48	724.75
372.706	721.75
372.932	737.75
373.158	723.75
373.384	705.75
373.61	690.75
373.835	711.75
374.061	705.75
374.287	725.75
374.513	723.75
374.739	751.75
374.965	790.75
375.191	796.75
375.416	766.75
375.642	772.75
375.868	750.75
376.094	732.75
376.319	718.75
376.545	732.75
376.771	706.75
376.997	705.75
377.222	727.75
377.448	706.75
377.674	715.75
377.899	684.75
378.125	698.75
378.35	687.75
378.576	697.75
378.802	679.75
379.027	686.75
379.253	699.75
379.478	666.75
379.704	679.75
379.929	700.75
380.155	708.75
380.38	692.75
380.606	688.75
380.831	700.75
381.057	706.75
381.282	691.75
381.507	714.75
381.733	679.75
381.958	726.75
382.184	718.75
382.409	736.75
382.634	709.75
382.86	742.75
383.085	744.75
383.31	764.75
383.535	776.75
383.761	745.75
383.986	768.75
384.211	779.75
384.436	785.75
384.662	805.75
384.887	822.75
385.112	821.75
385.337	860.75
385.562	831.75
385.787	838.75
386.013	880.75
386.238	849.75
386.463	844.75
386.688	866.75
386.913	845.75
387.138	829.75
387.363	838.75
387.588	836.75
387.813	842.75
388.038	814.75
388.263	848.75
388.488	838.75
388.713	819.75
388.938	818.75
389.163	798.75
389.387	835.75
389.612	836.75
389.837	815.75
390.062	838.75
390.287	812.75
390.512	821.75
390.736	853.75
390.961	845.75
391.186	869.75
391.411	920.75
391.636	916.75
391.86	902.75
392.085	952.75
392.31	943.75
392.534	944.75
392.759	916.75
392.984	906.75
393.208	907.75
393.433	872.75
393.658	922.75
393.882	899.75
394.107	903.75
394.331	928.75
394.556	905.75
394.78	900.75
395.005	926.75
395.229	908.75
395.454	935.75
395.678	965.75
395.903	965.75
396.127	958.75
396.352	889.75
396.576	892.75
396.801	932.75
397.025	881.75
397.249	919.75
397.474	968.75
397.698	952.75
397.922	930.75
398.147	943.75
398.371	944.75
398.595	991.75
398.82	1053.75
399.044	1129.75
399.268	1220.75
399.492	1372.75
399.717	1545.75
399.941	1562.75
400.165	1414.75
400.389	1278.75
400.613	1201.75
400.837	1142.75
401.062	1124.75
401.286	1076.75
401.51	1042.75
401.734	1092.75
401.958	1096.75
402.182	1086.75
402.406	1084.75
402.63	1098.75
402.854	1096.75
403.078	1126.75
403.302	1173.75
403.526	1180.75
403.75	1188.75
403.974	1218.75
404.198	1193.75
404.422	1216.75
404.645	1214.75
404.869	1198.75
405.093	1187.75
405.317	1176.75
405.541	1158.75
405.765	1166.75
405.988	1136.75
406.212	1138.75
406.436	1150.75
406.66	1200.75
406.883	1221.75
407.107	1287.75
407.331	1303.75
407.555	1366.75
407.778	1358.75
408.002	1358.75
408.226	1271.75
408.449	1274.75
408.673	1193.75
408.896	1210.75
409.12	1190.75
409.344	1192.75
409.567	1211.75
409.791	1185.75
410.014	1162.75
410.238	1133.75
410.461	1149.75
410.685	1168.75
410.908	1132.75
411.132	1124.75
411.355	1120.75
411.578	1096.75
411.802	1111.75
412.025	1081.75
412.249	1116.75
412.472	1132.75
412.695	1081.75
412.919	1035.75
413.142	1076.75
413.365	1063.75
413.589	1083.75
413.812	1065.75
414.035	1051.75
414.258	1043.75
414.482	1073.75
414.705	1084.75
414.928	1067.75
415.151	1061.75
415.374	1028.75
415.597	1033.75
415.821	1036.75
416.044	1045.75
416.267	1038.75
416.49	1028.75
416.713	1024.75
416.936	1040.75
417.159	1025.75
417.382	1045.75
417.605	1046.75
417.828	1037.75
418.051	1064.75
418.274	1037.75
418.497	1044.75
418.72	1106.75
418.943	1074.75
419.166	1146.75
419.389	1227.75
419.611	1175.75
419.834	1135.75
420.057	1116.75
420.28	1089.75
420.503	1034.75
420.726	1026.75
420.948	1027.75
421.171	1031.75
421.394	1062.75
421.617	1033.75
421.839	1045.75
422.062	1042.75
422.285	1061.75
422.507	1064.75
422.73	1069.75
422.953	1072.75
423.175	1090.75
423.398	1110.75
423.621	1065.75
423.843	1089.75
424.066	1126.75
424.288	1105.75
424.511	1058.75
424.733	1096.75
424.956	1058.75
425.178	1114.75
425.401	1132.75
425.623	1036.75
425.846	1034.75
426.068	1021.75
426.291	1031.75
426.513	999.75
426.735	971.75
426.958	994.75
427.18	977.75
427.402	968.75
427.625	963.75
427.847	966.75
428.069	960.75
428.292	970.75
428.514	930.75
428.736	940.75
428.958	946.75
429.181	921.75
429.403	939.75
429.625	916.75
429.847	917.75
430.069	910.75
430.292	930.75
430.514	909.75
430.736	952.75
430.958	906.75
431.18	902.75
431.402	911.75
431.624	937.75
431.846	921.75
432.068	952.75
432.29	949.75
432.512	933.75
432.734	954.75
432.956	946.75
433.178	928.75
433.4	943.75
433.622	996.75
433.844	978.75
434.066	937.75
434.287	977.75
434.509	986.75
434.731	982.75
434.953	1044.75
435.175	1012.75
435.397	1061.75
435.618	1004.75
435.84	990.75
436.062	961.75
436.284	954.75
436.505	930.75
436.727	943.75
436.949	955.75
437.17	948.75
437.392	926.75
437.614	914.75
437.835	906.75
438.057	910.75
438.278	892.75
438.5	868.75
438.721	894.75
438.943	933.75
439.165	917.75
439.386	932.75
439.608	924.75
439.829	964.75
440.05	950.75
440.272	959.75
440.493	956.75
440.715	960.75
440.936	961.75
441.158	976.75
441.379	1046.75
441.6	1073.75
441.822	1078.75
442.043	1061.75
442.264	1045.75
442.486	1018.75
442.707	1018.75
442.928	1032.75
443.149	1034.75
443.371	1043.75
443.592	1069.75
443.813	1066.75
444.034	1070.75
444.255	1126.75
444.476	1122.75
444.698	1199.75
444.919	1237.75
445.14	1351.75
445.361	1206.75
445.582	1094.75
445.803	1060.75
446.024	1046.75
446.245	1012.75
446.466	985.75
446.687	975.75
446.908	951.75
447.129	956.75
447.35	933.75
447.571	940.75
447.792	918.75
448.013	883.75
448.234	879.75
448.455	877.75
448.675	864.75
448.896	888.75
449.117	881.75
449.338	862.75
449.559	872.75
449.779	858.75
450	852.75
450.221	885.75
450.442	867.75
450.662	851.75
450.883	882.75
451.104	899.75
451.324	892.75
451.545	902.75
451.766	902.75
451.986	878.75
452.207	862.75
452.428	850.75
452.648	865.75
452.869	824.75
453.089	823.75
453.31	885.75
453.53	815.75
453.751	823.75
453.971	827.75
454.192	850.75
454.412	813.75
454.633	838.75
454.853	862.75
455.073	830.75
455.294	822.75
455.514	825.75
455.734	837.75
455.955	802.75
456.175	806.75
456.395	817.75
456.616	814.75
456.836	802.75
457.056	818.75
457.276	804.75
457.497	832.75
457.717	805.75
457.937	836.75
458.157	826.75
458.377	823.75
458.598	863.75
458.818	875.75
459.038	888.75
459.258	892.75
459.478	960.75
459.698	950.75
459.918	975.75
460.138	1053.75
460.358	1084.75
460.578	1103.75
460.798	1089.75
461.018	1110.75
461.238	1080.75
461.458	1113.75
461.678	1118.75
461.898	1118.75
462.118	1117.75
462.338	1173.75
462.558	1226.75
462.777	1231.75
462.997	1338.75
463.217	1452.75
463.437	1456.75
463.657	1360.75
463.876	1306.75
464.096	1305.75
464.316	1287.75
464.536	1257.75
464.755	1241.75
464.975	1220.75
465.195	1137.75
465.414	1101.75
465.634	1033.75
465.854	994.75
466.073	982.75
466.293	912.75
466.512	954.75
466.732	939.75
466.951	936.75
467.171	924.75
467.391	921.75
467.61	888.75
467.829	914.75
468.049	932.75
468.268	868.75
468.488	860.75
468.707	907.75
468.927	877.75
469.146	870.75
469.365	878.75
469.585	904.75
469.804	931.75
470.023	924.75
470.243	943.75
470.462	931.75
470.681	939.75
470.901	973.75
471.12	911.75
471.339	907.75
471.558	919.75
471.777	901.75
471.997	894.75
472.216	842.75
472.435	869.75
472.654	849.75
472.873	833.75
473.092	842.75
473.311	857.75
473.53	862.75
473.749	843.75
473.968	854.75
474.187	847.75
474.406	831.75
474.625	852.75
474.844	853.75
475.063	864.75
475.282	845.75
475.501	854.75
475.72	881.75
475.939	855.75
476.158	896.75
476.377	906.75
476.596	898.75
476.814	892.75
477.033	902.75
477.252	907.75
477.471	944.75
477.69	942.75
477.908	998.75
478.127	985.75
478.346	1018.75
478.564	1020.75
478.783	1046.75
479.002	1073.75
479.22	1055.75
479.439	1094.75
479.658	1050.75
479.876	1063.75
480.095	1055.75
480.313	1111.75
480.532	1140.75
480.751	1150.75
480.969	1081.75
481.188	1058.75
481.406	1019.75
481.624	1001.75
481.843	996.75
482.061	961.75
482.28	965.75
482.498	953.75
482.717	1002.75
482.935	957.75
483.153	972.75
483.372	983.75
483.59	971.75
483.808	980.75
484.027	953.75
484.245	977.75
484.463	1001.75
484.681	989.75
484.9	1005.75
485.118	998.75
485.336	997.75
485.554	1001.75
485.772	1004.75
485.99	1029.75
486.209	1022.75
486.427	1018.75
486.645	1009.75
486.863	1044.75
487.081	999.75
487.299	1012.75
487.517	993.75
487.735	995.75
487.953	1001.75
488.171	1015.75
488.389	1004.75
488.607	1010.75
488.825	978.75
489.043	970.75
489.261	984.75
489.479	1006.75
489.696	997.75
489.914	1048.75
490.132	1050.75
490.35	1027.75
490.568	1011.75
490.786	1015.75
491.003	1023.75
491.221	1042.75
491.439	1037.75
491.657	1047.75
491.874	1053.75
492.092	1046.75
492.31	1039.75
492.527	1047.75
492.745	1061.75
492.963	1052.75
493.18	1024.75
493.398	1039.75
493.615	1064.75
493.833	1076.75
494.05	1050.75
494.268	1078.75
494.485	1073.75
494.703	1088.75
494.92	1073.75
495.138	1077.75
495.355	1072.75
495.573	1104.75
495.79	1073.75
496.008	1098.75
496.225	1116.75
496.442	1132.75
496.66	1143.75
496.877	1129.75
497.094	1144.75
497.312	1160.75
497.529	1172.75
497.746	1247.75
497.963	1284.75
498.181	1313.75
