Data from NiCl2@0.25M.TitratingCurve.Agarose3%dH2O.NegLispCup.LampEnergy10.LIBS07252019_HRD10591_18-23-39-573.txt Node
Date: Thu Jul 25 18:23:39 EDT 2019
User: cochatt
Spectrometer: HR+D1059
Trigger mode: 1
Integration Time (sec): 1.000000E-1
Scans to average: 1
Electric dark correction enabled: true
Nonlinearity correction enabled: false
Boxcar width: 0
XAxis mode: Wavelengths
Number of Pixels in Spectrum: 2048
>>>>>Begin Spectral Data<<<<<
223.165	-5.81
223.4	-5.81
223.635	-5.81
223.869	-11.81
224.104	-12.81
224.338	-20.81
224.573	-20.81
224.808	-17.81
225.042	7.19
225.277	-13.81
225.511	8.19
225.746	6.19
225.98	-5.81
226.215	9.19
226.449	19.19
226.683	9.19
226.918	28.19
227.152	22.19
227.387	38.19
227.621	33.19
227.856	51.19
228.09	46.19
228.324	61.19
228.559	67.19
228.793	86.19
229.027	91.19
229.262	117.19
229.496	106.19
229.73	99.19
229.964	99.19
230.199	131.19
230.433	108.19
230.667	123.19
230.901	126.19
231.136	125.19
231.37	133.19
231.604	146.19
231.838	130.19
232.072	138.19
232.306	152.19
232.541	148.19
232.775	139.19
233.009	142.19
233.243	135.19
233.477	149.19
233.711	151.19
233.945	137.19
234.179	131.19
234.413	155.19
234.647	138.19
234.881	159.19
235.115	146.19
235.349	133.19
235.583	136.19
235.817	152.19
236.051	146.19
236.285	140.19
236.519	137.19
236.753	155.19
236.987	149.19
237.221	140.19
237.455	159.19
237.689	156.19
237.922	159.19
238.156	172.19
238.39	161.19
238.624	163.19
238.858	164.19
239.091	166.19
239.325	166.19
239.559	157.19
239.793	168.19
240.027	177.19
240.26	163.19
240.494	168.19
240.728	168.19
240.961	168.19
241.195	166.19
241.429	197.19
241.662	178.19
241.896	172.19
242.13	178.19
242.363	176.19
242.597	172.19
242.83	178.19
243.064	163.19
243.298	173.19
243.531	195.19
243.765	192.19
243.998	186.19
244.232	183.19
244.465	191.19
244.699	196.19
244.932	203.19
245.166	195.19
245.399	199.19
245.633	204.19
245.866	202.19
246.099	193.19
246.333	214.19
246.566	201.19
246.8	202.19
247.033	202.19
247.266	207.19
247.5	212.19
247.733	212.19
247.966	207.19
248.2	234.19
248.433	214.19
248.666	214.19
248.899	207.19
249.133	220.19
249.366	228.19
249.599	211.19
249.832	217.19
250.066	218.19
250.299	226.19
250.532	231.19
250.765	251.19
250.998	229.19
251.231	230.19
251.465	242.19
251.698	236.19
251.931	241.19
252.164	240.19
252.397	265.19
252.63	254.19
252.863	252.19
253.096	239.19
253.329	246.19
253.562	247.19
253.795	249.19
254.028	244.19
254.261	253.19
254.494	245.19
254.727	243.19
254.96	261.19
255.193	251.19
255.426	269.19
255.659	262.19
255.892	255.19
256.124	254.19
256.357	264.19
256.59	265.19
256.823	253.19
257.056	276.19
257.289	264.19
257.521	269.19
257.754	263.19
257.987	271.19
258.22	277.19
258.452	279.19
258.685	284.19
258.918	270.19
259.151	278.19
259.383	272.19
259.616	264.19
259.849	286.19
260.081	296.19
260.314	292.19
260.547	303.19
260.779	291.19
261.012	282.19
261.244	261.19
261.477	287.19
261.71	289.19
261.942	296.19
262.175	293.19
262.407	306.19
262.64	296.19
262.872	290.19
263.105	301.19
263.337	304.19
263.57	276.19
263.802	307.19
264.035	300.19
264.267	323.19
264.499	301.19
264.732	301.19
264.964	319.19
265.197	341.19
265.429	323.19
265.661	308.19
265.894	311.19
266.126	334.19
266.358	306.19
266.591	318.19
266.823	321.19
267.055	316.19
267.287	329.19
267.52	312.19
267.752	338.19
267.984	319.19
268.216	314.19
268.448	339.19
268.681	332.19
268.913	334.19
269.145	343.19
269.377	331.19
269.609	328.19
269.841	350.19
270.073	334.19
270.306	353.19
270.538	331.19
270.77	336.19
271.002	338.19
271.234	334.19
271.466	344.19
271.698	348.19
271.93	341.19
272.162	351.19
272.394	355.19
272.626	348.19
272.858	353.19
273.09	354.19
273.322	378.19
273.553	372.19
273.785	359.19
274.017	353.19
274.249	354.19
274.481	388.19
274.713	378.19
274.945	361.19
275.176	360.19
275.408	365.19
275.64	364.19
275.872	393.19
276.104	388.19
276.335	378.19
276.567	380.19
276.799	376.19
277.031	386.19
277.262	384.19
277.494	385.19
277.726	397.19
277.957	379.19
278.189	397.19
278.421	381.19
278.652	379.19
278.884	405.19
279.115	404.19
279.347	410.19
279.579	410.19
279.81	386.19
280.042	421.19
280.273	411.19
280.505	398.19
280.736	405.19
280.968	427.19
281.199	396.19
281.431	404.19
281.662	418.19
281.894	388.19
282.125	412.19
282.356	429.19
282.588	407.19
282.819	444.19
283.051	445.19
283.282	429.19
283.513	408.19
283.745	429.19
283.976	438.19
284.207	419.19
284.439	428.19
284.67	430.19
284.901	433.19
285.132	438.19
285.364	448.19
285.595	448.19
285.826	445.19
286.057	443.19
286.288	451.19
286.52	448.19
286.751	453.19
286.982	454.19
287.213	451.19
287.444	455.19
287.675	457.19
287.906	460.19
288.138	451.19
288.369	456.19
288.6	457.19
288.831	461.19
289.062	462.19
289.293	457.19
289.524	445.19
289.755	474.19
289.986	463.19
290.217	450.19
290.448	459.19
290.679	485.19
290.91	461.19
291.141	483.19
291.371	470.19
291.602	476.19
291.833	468.19
292.064	458.19
292.295	476.19
292.526	470.19
292.757	441.19
292.987	484.19
293.218	464.19
293.449	485.19
293.68	467.19
293.91	467.19
294.141	471.19
294.372	450.19
294.603	459.19
294.833	473.19
295.064	484.19
295.295	471.19
295.525	479.19
295.756	491.19
295.987	472.19
296.217	494.19
296.448	500.19
296.679	489.19
296.909	498.19
297.14	505.19
297.37	497.19
297.601	507.19
297.831	501.19
298.062	505.19
298.292	506.19
298.523	527.19
298.753	530.19
298.984	537.19
299.214	516.19
299.445	529.19
299.675	500.19
299.905	533.19
300.136	523.19
300.366	520.19
300.597	532.19
300.827	538.19
301.057	545.19
301.288	562.19
301.518	561.19
301.748	556.19
301.979	558.19
302.209	555.19
302.439	542.19
302.669	533.19
302.9	525.19
303.13	541.19
303.36	543.19
303.59	545.19
303.82	546.19
304.051	527.19
304.281	537.19
304.511	524.19
304.741	523.19
304.971	522.19
305.201	542.19
305.431	543.19
305.661	540.19
305.891	526.19
306.121	528.19
306.352	533.19
306.582	528.19
306.812	510.19
307.042	537.19
307.272	554.19
307.502	533.19
307.731	525.19
307.961	503.19
308.191	533.19
308.421	532.19
308.651	498.19
308.881	520.19
309.111	518.19
309.341	518.19
309.571	512.19
309.8	527.19
310.03	540.19
310.26	527.19
310.49	521.19
310.72	537.19
310.949	540.19
311.179	522.19
311.409	547.19
311.639	516.19
311.868	519.19
312.098	546.19
312.328	547.19
312.557	547.19
312.787	567.19
313.017	551.19
313.246	527.19
313.476	578.19
313.706	579.19
313.935	568.19
314.165	567.19
314.394	573.19
314.624	576.19
314.853	537.19
315.083	549.19
315.312	562.19
315.542	584.19
315.771	581.19
316.001	546.19
316.23	570.19
316.46	554.19
316.689	576.19
316.919	554.19
317.148	554.19
317.377	546.19
317.607	537.19
317.836	545.19
318.065	561.19
318.295	559.19
318.524	565.19
318.753	522.19
318.983	560.19
319.212	550.19
319.441	554.19
319.67	538.19
319.9	557.19
320.129	563.19
320.358	548.19
320.587	546.19
320.816	540.19
321.046	565.19
321.275	545.19
321.504	575.19
321.733	564.19
321.962	568.19
322.191	572.19
322.42	595.19
322.649	585.19
322.878	568.19
323.108	575.19
323.337	570.19
323.566	569.19
323.795	586.19
324.024	557.19
324.253	552.19
324.482	588.19
324.71	575.19
324.939	594.19
325.168	590.19
325.397	589.19
325.626	583.19
325.855	581.19
326.084	617.19
326.313	614.19
326.542	600.19
326.77	629.19
326.999	636.19
327.228	599.19
327.457	604.19
327.686	602.19
327.914	601.19
328.143	621.19
328.372	617.19
328.6	600.19
328.829	626.19
329.058	632.19
329.287	607.19
329.515	617.19
329.744	636.19
329.972	624.19
330.201	660.19
330.43	632.19
330.658	634.19
330.887	629.19
331.115	632.19
331.344	671.19
331.572	641.19
331.801	642.19
332.03	688.19
332.258	711.19
332.486	709.19
332.715	728.19
332.943	745.19
333.172	780.19
333.4	812.19
333.629	847.19
333.857	829.19
334.085	850.19
334.314	809.19
334.542	794.19
334.771	761.19
334.999	766.19
335.227	761.19
335.455	746.19
335.684	770.19
335.912	755.19
336.14	724.19
336.369	742.19
336.597	734.19
336.825	741.19
337.053	739.19
337.281	704.19
337.51	698.19
337.738	704.19
337.966	671.19
338.194	669.19
338.422	670.19
338.65	639.19
338.878	654.19
339.106	656.19
339.334	666.19
339.562	688.19
339.79	658.19
340.018	628.19
340.246	621.19
340.474	644.19
340.702	611.19
340.93	631.19
341.158	622.19
341.386	648.19
341.614	643.19
341.842	644.19
342.07	640.19
342.298	642.19
342.526	625.19
342.754	661.19
342.981	655.19
343.209	663.19
343.437	674.19
343.665	732.19
343.893	806.19
344.12	826.19
344.348	766.19
344.576	718.19
344.804	697.19
345.031	661.19
345.259	648.19
345.487	639.19
345.714	660.19
345.942	642.19
346.17	652.19
346.397	608.19
346.625	632.19
346.853	631.19
347.08	635.19
347.308	616.19
347.535	626.19
347.763	641.19
347.99	617.19
348.218	648.19
348.445	631.19
348.673	601.19
348.9	593.19
349.128	643.19
349.355	619.19
349.583	612.19
349.81	598.19
350.037	602.19
350.265	625.19
350.492	614.19
350.72	598.19
350.947	611.19
351.174	601.19
351.402	588.19
351.629	586.19
351.856	608.19
352.083	581.19
352.311	594.19
352.538	586.19
352.765	588.19
352.992	570.19
353.22	577.19
353.447	588.19
353.674	592.19
353.901	578.19
354.128	591.19
354.355	605.19
354.583	598.19
354.81	584.19
355.037	595.19
355.264	590.19
355.491	609.19
355.718	580.19
355.945	605.19
356.172	587.19
356.399	565.19
356.626	583.19
356.853	615.19
357.08	580.19
357.307	604.19
357.534	593.19
357.761	602.19
357.988	598.19
358.215	614.19
358.441	609.19
358.668	601.19
358.895	591.19
359.122	607.19
359.349	587.19
359.576	590.19
359.802	595.19
360.029	611.19
360.256	591.19
360.483	590.19
360.709	614.19
360.936	590.19
361.163	597.19
361.39	611.19
361.616	590.19
361.843	578.19
362.07	573.19
362.296	599.19
362.523	609.19
362.749	604.19
362.976	618.19
363.203	622.19
363.429	604.19
363.656	605.19
363.882	579.19
364.109	594.19
364.335	564.19
364.562	591.19
364.788	593.19
365.015	593.19
365.241	608.19
365.468	582.19
365.694	628.19
365.92	590.19
366.147	596.19
366.373	609.19
366.599	595.19
366.826	578.19
367.052	578.19
367.278	625.19
367.505	588.19
367.731	592.19
367.957	590.19
368.184	598.19
368.41	619.19
368.636	596.19
368.862	588.19
369.089	586.19
369.315	616.19
369.541	602.19
369.767	613.19
369.993	615.19
370.219	636.19
370.445	628.19
370.672	636.19
370.898	637.19
371.124	643.19
371.35	656.19
371.576	650.19
371.802	660.19
372.028	633.19
372.254	658.19
372.48	666.19
372.706	672.19
372.932	670.19
373.158	669.19
373.384	654.19
373.61	664.19
373.835	662.19
374.061	641.19
374.287	648.19
374.513	651.19
374.739	707.19
374.965	717.19
375.191	732.19
375.416	730.19
375.642	684.19
375.868	691.19
376.094	687.19
376.319	685.19
376.545	642.19
376.771	650.19
376.997	652.19
377.222	653.19
377.448	664.19
377.674	648.19
377.899	661.19
378.125	654.19
378.35	648.19
378.576	665.19
378.802	624.19
379.027	650.19
379.253	619.19
379.478	637.19
379.704	644.19
379.929	640.19
380.155	645.19
380.38	643.19
380.606	643.19
380.831	612.19
381.057	646.19
381.282	641.19
381.507	633.19
381.733	633.19
381.958	635.19
382.184	666.19
382.409	649.19
382.634	686.19
382.86	675.19
383.085	667.19
383.31	695.19
383.535	714.19
383.761	716.19
383.986	735.19
384.211	734.19
384.436	786.19
384.662	764.19
384.887	782.19
385.112	772.19
385.337	793.19
385.562	802.19
385.787	766.19
386.013	768.19
386.238	790.19
386.463	804.19
386.688	788.19
386.913	749.19
387.138	746.19
387.363	762.19
387.588	790.19
387.813	757.19
388.038	745.19
388.263	795.19
388.488	789.19
388.713	766.19
388.938	750.19
389.163	728.19
389.387	744.19
389.612	746.19
389.837	774.19
390.062	729.19
390.287	760.19
390.512	754.19
390.736	765.19
390.961	766.19
391.186	803.19
391.411	829.19
391.636	827.19
391.86	861.19
392.085	889.19
392.31	877.19
392.534	849.19
392.759	852.19
392.984	829.19
393.208	826.19
393.433	823.19
393.658	825.19
393.882	849.19
394.107	850.19
394.331	833.19
394.556	836.19
394.78	831.19
395.005	857.19
395.229	807.19
395.454	865.19
395.678	862.19
395.903	898.19
396.127	873.19
396.352	828.19
396.576	810.19
396.801	828.19
397.025	827.19
397.249	839.19
397.474	860.19
397.698	873.19
397.922	857.19
398.147	883.19
398.371	900.19
398.595	917.19
398.82	936.19
399.044	1022.19
399.268	1143.19
399.492	1332.19
399.717	1474.19
399.941	1490.19
400.165	1289.19
400.389	1167.19
400.613	1060.19
400.837	1021.19
401.062	979.19
401.286	987.19
401.51	978.19
401.734	959.19
401.958	983.19
402.182	1016.19
402.406	1048.19
402.63	1014.19
402.854	1032.19
403.078	1087.19
403.302	1070.19
403.526	1106.19
403.75	1110.19
403.974	1156.19
404.198	1136.19
404.422	1173.19
404.645	1148.19
404.869	1125.19
405.093	1128.19
405.317	1074.19
405.541	1102.19
405.765	1053.19
405.988	1069.19
406.212	1059.19
406.436	1044.19
406.66	1097.19
406.883	1132.19
407.107	1202.19
407.331	1244.19
407.555	1239.19
407.778	1287.19
408.002	1263.19
408.226	1224.19
408.449	1152.19
408.673	1139.19
408.896	1108.19
409.12	1105.19
409.344	1133.19
409.567	1101.19
409.791	1136.19
410.014	1098.19
410.238	1088.19
410.461	1087.19
410.685	1086.19
410.908	1065.19
411.132	1012.19
411.355	989.19
411.578	1017.19
411.802	1005.19
412.025	1020.19
412.249	1057.19
412.472	1051.19
412.695	979.19
412.919	970.19
413.142	964.19
413.365	958.19
413.589	989.19
413.812	993.19
414.035	973.19
414.258	996.19
414.482	987.19
414.705	984.19
414.928	1001.19
415.151	981.19
415.374	976.19
415.597	972.19
415.821	976.19
416.044	952.19
416.267	958.19
416.49	922.19
416.713	978.19
416.936	971.19
417.159	957.19
417.382	964.19
417.605	954.19
417.828	958.19
418.051	962.19
418.274	976.19
418.497	1005.19
418.72	997.19
418.943	974.19
419.166	1054.19
419.389	1092.19
419.611	1099.19
419.834	1054.19
420.057	1009.19
420.28	978.19
420.503	976.19
420.726	945.19
420.948	948.19
421.171	910.19
421.394	969.19
421.617	955.19
421.839	935.19
422.062	953.19
422.285	962.19
422.507	971.19
422.73	974.19
422.953	970.19
423.175	995.19
423.398	1047.19
423.621	986.19
423.843	1041.19
424.066	1080.19
424.288	1033.19
424.511	1029.19
424.733	1004.19
424.956	985.19
425.178	975.19
425.401	968.19
425.623	980.19
425.846	958.19
426.068	920.19
426.291	906.19
426.513	883.19
426.735	908.19
426.958	913.19
427.18	874.19
427.402	884.19
427.625	910.19
427.847	858.19
428.069	861.19
428.292	881.19
428.514	840.19
428.736	844.19
428.958	858.19
429.181	857.19
429.403	844.19
429.625	832.19
429.847	832.19
430.069	831.19
430.292	823.19
430.514	821.19
430.736	851.19
430.958	861.19
431.18	843.19
431.402	820.19
431.624	833.19
431.846	846.19
432.068	850.19
432.29	886.19
432.512	844.19
432.734	881.19
432.956	826.19
433.178	868.19
433.4	861.19
433.622	851.19
433.844	861.19
434.066	866.19
434.287	855.19
434.509	891.19
434.731	928.19
434.953	965.19
435.175	949.19
435.397	957.19
435.618	906.19
435.84	886.19
436.062	863.19
436.284	818.19
436.505	840.19
436.727	864.19
436.949	847.19
437.17	842.19
437.392	840.19
437.614	802.19
437.835	802.19
438.057	819.19
438.278	805.19
438.5	837.19
438.721	814.19
438.943	843.19
439.165	800.19
439.386	832.19
439.608	842.19
439.829	878.19
440.05	846.19
440.272	867.19
440.493	869.19
440.715	862.19
440.936	882.19
441.158	893.19
441.379	891.19
441.6	957.19
441.822	964.19
442.043	952.19
442.264	938.19
442.486	922.19
442.707	947.19
442.928	928.19
443.149	930.19
443.371	925.19
443.592	956.19
443.813	925.19
444.034	957.19
444.255	981.19
444.476	1040.19
444.698	1100.19
444.919	1171.19
445.14	1227.19
445.361	1097.19
445.582	998.19
445.803	940.19
446.024	909.19
446.245	907.19
446.466	875.19
446.687	857.19
446.908	860.19
447.129	835.19
447.35	821.19
447.571	810.19
447.792	811.19
448.013	797.19
448.234	785.19
448.455	782.19
448.675	794.19
448.896	755.19
449.117	756.19
449.338	781.19
449.559	760.19
449.779	764.19
450	744.19
450.221	768.19
450.442	795.19
450.662	800.19
450.883	799.19
451.104	798.19
451.324	806.19
451.545	827.19
451.766	794.19
451.986	806.19
452.207	771.19
452.428	788.19
452.648	768.19
452.869	775.19
453.089	764.19
453.31	791.19
453.53	744.19
453.751	746.19
453.971	746.19
454.192	734.19
454.412	718.19
454.633	740.19
454.853	746.19
455.073	749.19
455.294	717.19
455.514	740.19
455.734	717.19
455.955	726.19
456.175	719.19
456.395	707.19
456.616	718.19
456.836	726.19
457.056	726.19
457.276	718.19
457.497	722.19
457.717	725.19
457.937	729.19
458.157	721.19
458.377	736.19
458.598	743.19
458.818	776.19
459.038	776.19
459.258	857.19
459.478	880.19
459.698	897.19
459.918	938.19
460.138	940.19
460.358	969.19
460.578	994.19
460.798	1004.19
461.018	987.19
461.238	1001.19
461.458	985.19
461.678	997.19
461.898	1020.19
462.118	996.19
462.338	1074.19
462.558	1111.19
462.777	1155.19
462.997	1254.19
463.217	1369.19
463.437	1360.19
463.657	1199.19
463.876	1188.19
464.096	1216.19
464.316	1171.19
464.536	1162.19
464.755	1128.19
464.975	1089.19
465.195	1034.19
465.414	969.19
465.634	902.19
465.854	880.19
466.073	873.19
466.293	841.19
466.512	814.19
466.732	801.19
466.951	791.19
467.171	802.19
467.391	829.19
467.61	807.19
467.829	812.19
468.049	804.19
468.268	777.19
468.488	777.19
468.707	789.19
468.927	782.19
469.146	802.19
469.365	795.19
469.585	786.19
469.804	807.19
470.023	842.19
470.243	844.19
470.462	833.19
470.681	865.19
470.901	846.19
471.12	823.19
471.339	831.19
471.558	810.19
471.777	812.19
471.997	788.19
472.216	819.19
472.435	763.19
472.654	765.19
472.873	777.19
473.092	767.19
473.311	753.19
473.53	741.19
473.749	754.19
473.968	772.19
474.187	756.19
474.406	755.19
474.625	751.19
474.844	752.19
475.063	756.19
475.282	756.19
475.501	774.19
475.72	780.19
475.939	773.19
476.158	805.19
476.377	777.19
476.596	790.19
476.814	790.19
477.033	793.19
477.252	838.19
477.471	824.19
477.69	853.19
477.908	871.19
478.127	889.19
478.346	888.19
478.564	908.19
478.783	972.19
479.002	961.19
479.22	960.19
479.439	962.19
479.658	925.19
479.876	965.19
480.095	934.19
480.313	982.19
480.532	1010.19
480.751	1013.19
480.969	1004.19
481.188	934.19
481.406	900.19
481.624	896.19
481.843	864.19
482.061	880.19
482.28	847.19
482.498	865.19
482.717	836.19
482.935	868.19
483.153	860.19
483.372	849.19
483.59	858.19
483.808	902.19
484.027	865.19
484.245	853.19
484.463	867.19
484.681	877.19
484.9	866.19
485.118	909.19
485.336	889.19
485.554	892.19
485.772	912.19
485.99	920.19
486.209	908.19
486.427	920.19
486.645	896.19
486.863	897.19
487.081	921.19
487.299	917.19
487.517	910.19
487.735	899.19
487.953	908.19
488.171	919.19
488.389	890.19
488.607	876.19
488.825	889.19
489.043	884.19
489.261	858.19
489.479	868.19
489.696	868.19
489.914	909.19
490.132	903.19
490.35	917.19
490.568	914.19
490.786	910.19
491.003	884.19
491.221	916.19
491.439	934.19
491.657	938.19
491.874	902.19
492.092	941.19
492.31	952.19
492.527	917.19
492.745	938.19
492.963	921.19
493.18	938.19
493.398	939.19
493.615	951.19
493.833	931.19
494.05	942.19
494.268	946.19
494.485	964.19
494.703	955.19
494.92	980.19
495.138	965.19
495.355	991.19
495.573	980.19
495.79	949.19
496.008	968.19
496.225	958.19
496.442	984.19
496.66	999.19
496.877	1030.19
497.094	1030.19
497.312	1049.19
497.529	1072.19
497.746	1102.19
497.963	1124.19
498.181	1165.19
498.398	1240.19
498.615	1308.19
498.832	1401.19
499.049	1482.19
499.267	1619.19
499.484	1787.19
499.701	2003.19
499.918	2193.19
500.135	2528.19
