Data from NiCl2@0.5M.TitratingCurve.Agarose3%dH2O.NegLispCup.LampEnergy10.LIBS07252019_HRD10591_18-19-33-571.txt Node
Date: Thu Jul 25 18:19:33 EDT 2019
User: cochatt
Spectrometer: HR+D1059
Trigger mode: 1
Integration Time (sec): 1.000000E-1
Scans to average: 1
Electric dark correction enabled: true
Nonlinearity correction enabled: false
Boxcar width: 0
XAxis mode: Wavelengths
Number of Pixels in Spectrum: 2048
>>>>>Begin Spectral Data<<<<<
223.165	-11.5
223.4	-11.5
223.635	-11.5
223.869	-18.5
224.104	-17.5
224.338	-4.5
224.573	-12.5
224.808	-19.5
225.042	-12.5
225.277	-9.5
225.511	3.5
225.746	-1.5
225.98	7.5
226.215	-2.5
226.449	13.5
226.683	28.5
226.918	18.5
227.152	38.5
227.387	40.5
227.621	56.5
227.856	46.5
228.09	40.5
228.324	45.5
228.559	66.5
228.793	62.5
229.027	104.5
229.262	106.5
229.496	111.5
229.73	105.5
229.964	104.5
230.199	122.5
230.433	124.5
230.667	132.5
230.901	124.5
231.136	110.5
231.37	124.5
231.604	118.5
231.838	122.5
232.072	126.5
232.306	132.5
232.541	133.5
232.775	123.5
233.009	132.5
233.243	142.5
233.477	148.5
233.711	132.5
233.945	141.5
234.179	154.5
234.413	136.5
234.647	118.5
234.881	145.5
235.115	138.5
235.349	140.5
235.583	130.5
235.817	128.5
236.051	127.5
236.285	123.5
236.519	136.5
236.753	149.5
236.987	140.5
237.221	124.5
237.455	131.5
237.689	143.5
237.922	140.5
238.156	140.5
238.39	149.5
238.624	138.5
238.858	147.5
239.091	133.5
239.325	150.5
239.559	156.5
239.793	152.5
240.027	155.5
240.26	158.5
240.494	151.5
240.728	150.5
240.961	148.5
241.195	154.5
241.429	145.5
241.662	157.5
241.896	184.5
242.13	158.5
242.363	166.5
242.597	156.5
242.83	160.5
243.064	153.5
243.298	173.5
243.531	168.5
243.765	158.5
243.998	165.5
244.232	170.5
244.465	146.5
244.699	174.5
244.932	185.5
245.166	169.5
245.399	181.5
245.633	165.5
245.866	160.5
246.099	188.5
246.333	167.5
246.566	184.5
246.8	190.5
247.033	189.5
247.266	186.5
247.5	186.5
247.733	198.5
247.966	181.5
248.2	190.5
248.433	184.5
248.666	183.5
248.899	200.5
249.133	195.5
249.366	200.5
249.599	220.5
249.832	206.5
250.066	190.5
250.299	198.5
250.532	202.5
250.765	199.5
250.998	202.5
251.231	209.5
251.465	212.5
251.698	216.5
251.931	206.5
252.164	203.5
252.397	220.5
252.63	221.5
252.863	211.5
253.096	206.5
253.329	214.5
253.562	205.5
253.795	221.5
254.028	219.5
254.261	204.5
254.494	214.5
254.727	234.5
254.96	247.5
255.193	228.5
255.426	216.5
255.659	211.5
255.892	221.5
256.124	226.5
256.357	235.5
256.59	228.5
256.823	227.5
257.056	239.5
257.289	248.5
257.521	224.5
257.754	248.5
257.987	240.5
258.22	243.5
258.452	220.5
258.685	246.5
258.918	241.5
259.151	256.5
259.383	237.5
259.616	241.5
259.849	248.5
260.081	268.5
260.314	245.5
260.547	254.5
260.779	239.5
261.012	234.5
261.244	249.5
261.477	246.5
261.71	270.5
261.942	247.5
262.175	257.5
262.407	254.5
262.64	252.5
262.872	245.5
263.105	252.5
263.337	272.5
263.57	260.5
263.802	265.5
264.035	286.5
264.267	282.5
264.499	257.5
264.732	288.5
264.964	280.5
265.197	253.5
265.429	275.5
265.661	288.5
265.894	281.5
266.126	260.5
266.358	278.5
266.591	284.5
266.823	286.5
267.055	281.5
267.287	268.5
267.52	280.5
267.752	282.5
267.984	284.5
268.216	298.5
268.448	284.5
268.681	293.5
268.913	286.5
269.145	293.5
269.377	310.5
269.609	292.5
269.841	290.5
270.073	293.5
270.306	293.5
270.538	322.5
270.77	310.5
271.002	318.5
271.234	300.5
271.466	295.5
271.698	296.5
271.93	323.5
272.162	328.5
272.394	311.5
272.626	311.5
272.858	302.5
273.09	322.5
273.322	304.5
273.553	316.5
273.785	310.5
274.017	314.5
274.249	313.5
274.481	316.5
274.713	313.5
274.945	322.5
275.176	320.5
275.408	335.5
275.64	327.5
275.872	330.5
276.104	330.5
276.335	318.5
276.567	325.5
276.799	337.5
277.031	344.5
277.262	339.5
277.494	341.5
277.726	337.5
277.957	338.5
278.189	326.5
278.421	331.5
278.652	334.5
278.884	333.5
279.115	350.5
279.347	355.5
279.579	349.5
279.81	352.5
280.042	362.5
280.273	334.5
280.505	340.5
280.736	359.5
280.968	344.5
281.199	355.5
281.431	373.5
281.662	352.5
281.894	358.5
282.125	368.5
282.356	361.5
282.588	356.5
282.819	354.5
283.051	368.5
283.282	378.5
283.513	377.5
283.745	373.5
283.976	382.5
284.207	375.5
284.439	373.5
284.67	374.5
284.901	365.5
285.132	396.5
285.364	390.5
285.595	365.5
285.826	372.5
286.057	388.5
286.288	384.5
286.52	411.5
286.751	388.5
286.982	384.5
287.213	380.5
287.444	380.5
287.675	388.5
287.906	386.5
288.138	414.5
288.369	399.5
288.6	400.5
288.831	402.5
289.062	401.5
289.293	408.5
289.524	396.5
289.755	402.5
289.986	403.5
290.217	406.5
290.448	406.5
290.679	413.5
290.91	417.5
291.141	403.5
291.371	411.5
291.602	420.5
291.833	406.5
292.064	407.5
292.295	390.5
292.526	408.5
292.757	410.5
292.987	424.5
293.218	414.5
293.449	425.5
293.68	423.5
293.91	412.5
294.141	428.5
294.372	417.5
294.603	412.5
294.833	419.5
295.064	426.5
295.295	444.5
295.525	411.5
295.756	426.5
295.987	419.5
296.217	406.5
296.448	439.5
296.679	421.5
296.909	424.5
297.14	430.5
297.37	441.5
297.601	453.5
297.831	467.5
298.062	449.5
298.292	456.5
298.523	474.5
298.753	453.5
298.984	462.5
299.214	454.5
299.445	454.5
299.675	424.5
299.905	453.5
300.136	462.5
300.366	456.5
300.597	475.5
300.827	475.5
301.057	487.5
301.288	500.5
301.518	476.5
301.748	468.5
301.979	503.5
302.209	469.5
302.439	482.5
302.669	484.5
302.9	486.5
303.13	489.5
303.36	460.5
303.59	456.5
303.82	473.5
304.051	503.5
304.281	474.5
304.511	489.5
304.741	496.5
304.971	492.5
305.201	494.5
305.431	525.5
305.661	493.5
305.891	483.5
306.121	467.5
306.352	466.5
306.582	469.5
306.812	484.5
307.042	468.5
307.272	473.5
307.502	476.5
307.731	467.5
307.961	461.5
308.191	466.5
308.421	453.5
308.651	453.5
308.881	489.5
309.111	480.5
309.341	469.5
309.571	491.5
309.8	484.5
310.03	500.5
310.26	488.5
310.49	508.5
310.72	480.5
310.949	475.5
311.179	489.5
311.409	475.5
311.639	502.5
311.868	476.5
312.098	479.5
312.328	520.5
312.557	521.5
312.787	497.5
313.017	497.5
313.246	513.5
313.476	506.5
313.706	505.5
313.935	516.5
314.165	527.5
314.394	526.5
314.624	509.5
314.853	486.5
315.083	522.5
315.312	522.5
315.542	508.5
315.771	493.5
316.001	499.5
316.23	512.5
316.46	502.5
316.689	512.5
316.919	509.5
317.148	510.5
317.377	517.5
317.607	513.5
317.836	519.5
318.065	536.5
318.295	517.5
318.524	508.5
318.753	524.5
318.983	505.5
319.212	492.5
319.441	512.5
319.67	500.5
319.9	494.5
320.129	516.5
320.358	520.5
320.587	516.5
320.816	516.5
321.046	512.5
321.275	530.5
321.504	516.5
321.733	516.5
321.962	517.5
322.191	524.5
322.42	513.5
322.649	525.5
322.878	532.5
323.108	518.5
323.337	539.5
323.566	544.5
323.795	536.5
324.024	531.5
324.253	524.5
324.482	529.5
324.71	558.5
324.939	542.5
325.168	565.5
325.397	564.5
325.626	557.5
325.855	542.5
326.084	567.5
326.313	580.5
326.542	555.5
326.77	568.5
326.999	553.5
327.228	557.5
327.457	546.5
327.686	562.5
327.914	574.5
328.143	547.5
328.372	578.5
328.6	554.5
328.829	578.5
329.058	552.5
329.287	586.5
329.515	551.5
329.744	553.5
329.972	580.5
330.201	564.5
330.43	582.5
330.658	588.5
330.887	584.5
331.115	567.5
331.344	580.5
331.572	592.5
331.801	582.5
332.03	579.5
332.258	588.5
332.486	627.5
332.715	644.5
332.943	636.5
333.172	667.5
333.4	709.5
333.629	697.5
333.857	698.5
334.085	683.5
334.314	696.5
334.542	704.5
334.771	674.5
334.999	671.5
335.227	661.5
335.455	654.5
335.684	689.5
335.912	643.5
336.14	653.5
336.369	668.5
336.597	670.5
336.825	680.5
337.053	688.5
337.281	658.5
337.51	642.5
337.738	634.5
337.966	630.5
338.194	617.5
338.422	618.5
338.65	607.5
338.878	600.5
339.106	586.5
339.334	646.5
339.562	621.5
339.79	589.5
340.018	572.5
340.246	587.5
340.474	578.5
340.702	589.5
340.93	574.5
341.158	589.5
341.386	613.5
341.614	616.5
341.842	610.5
342.07	586.5
342.298	569.5
342.526	575.5
342.754	587.5
342.981	587.5
343.209	571.5
343.437	624.5
343.665	646.5
343.893	642.5
344.12	692.5
344.348	636.5
344.576	659.5
344.804	635.5
345.031	621.5
345.259	617.5
345.487	597.5
345.714	609.5
345.942	582.5
346.17	613.5
346.397	584.5
346.625	566.5
346.853	578.5
347.08	565.5
347.308	582.5
347.535	579.5
347.763	586.5
347.99	580.5
348.218	564.5
348.445	568.5
348.673	554.5
348.9	566.5
349.128	570.5
349.355	550.5
349.583	577.5
349.81	550.5
350.037	556.5
350.265	537.5
350.492	564.5
350.72	558.5
350.947	574.5
351.174	562.5
351.402	567.5
351.629	578.5
351.856	568.5
352.083	540.5
352.311	566.5
352.538	566.5
352.765	583.5
352.992	540.5
353.22	501.5
353.447	530.5
353.674	531.5
353.901	538.5
354.128	511.5
354.355	531.5
354.583	534.5
354.81	505.5
355.037	534.5
355.264	540.5
355.491	535.5
355.718	555.5
355.945	534.5
356.172	539.5
356.399	550.5
356.626	532.5
356.853	568.5
357.08	553.5
357.307	546.5
357.534	556.5
357.761	523.5
357.988	546.5
358.215	528.5
358.441	538.5
358.668	541.5
358.895	530.5
359.122	517.5
359.349	532.5
359.576	534.5
359.802	538.5
360.029	534.5
360.256	540.5
360.483	516.5
360.709	522.5
360.936	523.5
361.163	542.5
361.39	532.5
361.616	529.5
361.843	543.5
362.07	564.5
362.296	561.5
362.523	517.5
362.749	534.5
362.976	521.5
363.203	527.5
363.429	517.5
363.656	538.5
363.882	554.5
364.109	540.5
364.335	533.5
364.562	527.5
364.788	524.5
365.015	538.5
365.241	539.5
365.468	532.5
365.694	510.5
365.92	530.5
366.147	544.5
366.373	520.5
366.599	515.5
366.826	501.5
367.052	511.5
367.278	533.5
367.505	522.5
367.731	518.5
367.957	516.5
368.184	525.5
368.41	546.5
368.636	530.5
368.862	525.5
369.089	528.5
369.315	517.5
369.541	536.5
369.767	530.5
369.993	526.5
370.219	562.5
370.445	555.5
370.672	551.5
370.898	562.5
371.124	556.5
371.35	576.5
371.576	558.5
371.802	549.5
372.028	552.5
372.254	539.5
372.48	551.5
372.706	580.5
372.932	573.5
373.158	576.5
373.384	548.5
373.61	554.5
373.835	542.5
374.061	524.5
374.287	581.5
374.513	568.5
374.739	586.5
374.965	589.5
375.191	601.5
375.416	617.5
375.642	596.5
375.868	591.5
376.094	565.5
376.319	553.5
376.545	555.5
376.771	550.5
376.997	549.5
377.222	533.5
377.448	563.5
377.674	532.5
377.899	548.5
378.125	556.5
378.35	554.5
378.576	535.5
378.802	532.5
379.027	526.5
379.253	521.5
379.478	541.5
379.704	528.5
379.929	530.5
380.155	528.5
380.38	530.5
380.606	525.5
380.831	552.5
381.057	539.5
381.282	543.5
381.507	541.5
381.733	526.5
381.958	536.5
382.184	552.5
382.409	536.5
382.634	549.5
382.86	570.5
383.085	548.5
383.31	570.5
383.535	568.5
383.761	589.5
383.986	600.5
384.211	599.5
384.436	602.5
384.662	601.5
384.887	593.5
385.112	610.5
385.337	605.5
385.562	639.5
385.787	624.5
386.013	638.5
386.238	610.5
386.463	614.5
386.688	618.5
386.913	610.5
387.138	618.5
387.363	612.5
387.588	630.5
387.813	613.5
388.038	591.5
388.263	622.5
388.488	636.5
388.713	608.5
388.938	578.5
389.163	613.5
389.387	613.5
389.612	595.5
389.837	595.5
390.062	628.5
390.287	620.5
390.512	612.5
390.736	599.5
390.961	632.5
391.186	632.5
391.411	660.5
391.636	669.5
391.86	674.5
392.085	679.5
392.31	674.5
392.534	669.5
392.759	642.5
392.984	607.5
393.208	640.5
393.433	644.5
393.658	655.5
393.882	646.5
394.107	676.5
394.331	653.5
394.556	663.5
394.78	678.5
395.005	652.5
395.229	648.5
395.454	659.5
395.678	668.5
395.903	669.5
396.127	675.5
396.352	660.5
396.576	662.5
396.801	639.5
397.025	658.5
397.249	692.5
397.474	694.5
397.698	703.5
397.922	712.5
398.147	706.5
398.371	678.5
398.595	724.5
398.82	745.5
399.044	806.5
399.268	845.5
399.492	924.5
399.717	1046.5
399.941	1021.5
400.165	931.5
400.389	864.5
400.613	830.5
400.837	798.5
401.062	796.5
401.286	762.5
401.51	748.5
401.734	773.5
401.958	776.5
402.182	758.5
402.406	774.5
402.63	783.5
402.854	807.5
403.078	802.5
403.302	813.5
403.526	826.5
403.75	836.5
403.974	851.5
404.198	829.5
404.422	851.5
404.645	838.5
404.869	849.5
405.093	854.5
405.317	821.5
405.541	829.5
405.765	827.5
405.988	836.5
406.212	836.5
406.436	835.5
406.66	868.5
406.883	873.5
407.107	892.5
407.331	914.5
407.555	944.5
407.778	949.5
408.002	928.5
408.226	924.5
408.449	910.5
408.673	854.5
408.896	873.5
409.12	843.5
409.344	905.5
409.567	840.5
409.791	856.5
410.014	867.5
410.238	859.5
410.461	851.5
410.685	843.5
410.908	841.5
411.132	811.5
411.355	792.5
411.578	808.5
411.802	810.5
412.025	806.5
412.249	841.5
412.472	817.5
412.695	794.5
412.919	783.5
413.142	772.5
413.365	801.5
413.589	797.5
413.812	776.5
414.035	765.5
414.258	787.5
414.482	772.5
414.705	776.5
414.928	785.5
415.151	786.5
415.374	735.5
415.597	800.5
415.821	792.5
416.044	757.5
416.267	771.5
416.49	768.5
416.713	788.5
416.936	791.5
417.159	774.5
417.382	752.5
417.605	774.5
417.828	765.5
418.051	769.5
418.274	802.5
418.497	775.5
418.72	826.5
418.943	781.5
419.166	835.5
419.389	880.5
419.611	878.5
419.834	841.5
420.057	819.5
420.28	792.5
420.503	799.5
420.726	756.5
420.948	756.5
421.171	785.5
421.394	796.5
421.617	751.5
421.839	825.5
422.062	789.5
422.285	783.5
422.507	764.5
422.73	776.5
422.953	805.5
423.175	814.5
423.398	843.5
423.621	798.5
423.843	831.5
424.066	824.5
424.288	821.5
424.511	830.5
424.733	796.5
424.956	788.5
425.178	806.5
425.401	783.5
425.623	809.5
425.846	779.5
426.068	787.5
426.291	766.5
426.513	773.5
426.735	749.5
426.958	741.5
427.18	741.5
427.402	767.5
427.625	754.5
427.847	724.5
428.069	733.5
428.292	749.5
428.514	730.5
428.736	748.5
428.958	721.5
429.181	696.5
429.403	715.5
429.625	729.5
429.847	729.5
430.069	745.5
430.292	749.5
430.514	745.5
430.736	731.5
430.958	724.5
431.18	747.5
431.402	740.5
431.624	721.5
431.846	733.5
432.068	722.5
432.29	748.5
432.512	726.5
432.734	726.5
432.956	757.5
433.178	768.5
433.4	759.5
433.622	756.5
433.844	787.5
434.066	758.5
434.287	790.5
434.509	775.5
434.731	786.5
434.953	810.5
435.175	796.5
435.397	835.5
435.618	757.5
435.84	792.5
436.062	764.5
436.284	774.5
436.505	745.5
436.727	762.5
436.949	746.5
437.17	763.5
437.392	762.5
437.614	741.5
437.835	710.5
438.057	724.5
438.278	715.5
438.5	733.5
438.721	724.5
438.943	729.5
439.165	737.5
439.386	733.5
439.608	737.5
439.829	762.5
440.05	753.5
440.272	784.5
440.493	767.5
440.715	764.5
440.936	787.5
441.158	771.5
441.379	791.5
441.6	813.5
441.822	832.5
442.043	821.5
442.264	822.5
442.486	828.5
442.707	819.5
442.928	807.5
443.149	838.5
443.371	824.5
443.592	828.5
443.813	832.5
444.034	826.5
444.255	876.5
444.476	874.5
444.698	915.5
444.919	950.5
445.14	1036.5
445.361	913.5
445.582	845.5
445.803	828.5
446.024	809.5
446.245	804.5
446.466	790.5
446.687	786.5
446.908	758.5
447.129	787.5
447.35	775.5
447.571	759.5
447.792	731.5
448.013	718.5
448.234	741.5
448.455	731.5
448.675	692.5
448.896	722.5
449.117	707.5
449.338	717.5
449.559	730.5
449.779	719.5
450	696.5
450.221	707.5
450.442	719.5
450.662	716.5
450.883	724.5
451.104	744.5
451.324	738.5
451.545	706.5
451.766	724.5
451.986	711.5
452.207	697.5
452.428	693.5
452.648	730.5
452.869	690.5
453.089	677.5
453.31	708.5
453.53	676.5
453.751	683.5
453.971	678.5
454.192	688.5
454.412	680.5
454.633	696.5
454.853	694.5
455.073	677.5
455.294	704.5
455.514	681.5
455.734	663.5
455.955	682.5
456.175	683.5
456.395	650.5
456.616	658.5
456.836	681.5
457.056	668.5
457.276	631.5
457.497	648.5
457.717	686.5
457.937	682.5
458.157	686.5
458.377	709.5
458.598	702.5
458.818	702.5
459.038	727.5
459.258	733.5
459.478	776.5
459.698	792.5
459.918	813.5
460.138	809.5
460.358	844.5
460.578	856.5
460.798	883.5
461.018	896.5
461.238	880.5
461.458	862.5
461.678	856.5
461.898	892.5
462.118	904.5
462.338	914.5
462.558	941.5
462.777	978.5
462.997	1021.5
463.217	1082.5
463.437	1086.5
463.657	1038.5
463.876	996.5
464.096	973.5
464.316	979.5
464.536	991.5
464.755	977.5
464.975	928.5
465.195	911.5
465.414	870.5
465.634	821.5
465.854	803.5
466.073	765.5
466.293	793.5
466.512	780.5
466.732	751.5
466.951	739.5
467.171	750.5
467.391	787.5
467.61	756.5
467.829	749.5
468.049	758.5
468.268	724.5
468.488	730.5
468.707	743.5
468.927	757.5
469.146	734.5
469.365	745.5
469.585	788.5
469.804	768.5
470.023	779.5
470.243	738.5
470.462	778.5
470.681	745.5
470.901	776.5
471.12	779.5
471.339	772.5
471.558	761.5
471.777	770.5
471.997	745.5
472.216	727.5
472.435	730.5
472.654	721.5
472.873	717.5
473.092	724.5
473.311	719.5
473.53	702.5
473.749	715.5
473.968	732.5
474.187	722.5
474.406	729.5
474.625	727.5
474.844	709.5
475.063	726.5
475.282	737.5
475.501	739.5
475.72	758.5
475.939	737.5
476.158	760.5
476.377	748.5
476.596	744.5
476.814	741.5
477.033	724.5
477.252	762.5
477.471	791.5
477.69	792.5
477.908	843.5
478.127	830.5
478.346	839.5
478.564	866.5
478.783	860.5
479.002	877.5
479.22	889.5
479.439	874.5
479.658	873.5
479.876	863.5
480.095	898.5
480.313	926.5
480.532	916.5
480.751	916.5
480.969	901.5
481.188	869.5
481.406	852.5
481.624	835.5
481.843	836.5
482.061	839.5
482.28	822.5
482.498	834.5
482.717	812.5
482.935	834.5
483.153	836.5
483.372	853.5
483.59	854.5
483.808	841.5
484.027	852.5
484.245	862.5
484.463	869.5
484.681	865.5
484.9	838.5
485.118	868.5
485.336	880.5
485.554	866.5
485.772	874.5
485.99	859.5
486.209	880.5
486.427	878.5
486.645	877.5
486.863	877.5
487.081	881.5
487.299	886.5
487.517	859.5
487.735	900.5
487.953	899.5
488.171	868.5
488.389	898.5
488.607	872.5
488.825	862.5
489.043	870.5
489.261	868.5
489.479	866.5
489.696	868.5
489.914	846.5
490.132	881.5
490.35	901.5
490.568	890.5
490.786	897.5
491.003	910.5
491.221	900.5
491.439	898.5
491.657	902.5
491.874	913.5
492.092	937.5
492.31	942.5
492.527	901.5
492.745	944.5
492.963	926.5
493.18	910.5
493.398	915.5
493.615	936.5
493.833	914.5
494.05	952.5
494.268	934.5
494.485	920.5
494.703	968.5
494.92	945.5
495.138	939.5
495.355	915.5
495.573	943.5
495.79	970.5
496.008	970.5
496.225	964.5
496.442	948.5
496.66	972.5
496.877	994.5
497.094	1022.5
497.312	1035.5
497.529	1052.5
497.746	1047.5
497.963	1073.5
498.181	1097.5
498.398	1109.5
498.615	1163.5
498.832	1258.5
499.049	1322.5
499.267	1369.5
499.484	1517.5
499.701	1650.5
499.918	1760.5
500.135	1918.5
500.352	2130.5
500.569	2168.5
500.786	2160.5
501.003	2037.5
501.22	1885.5
501.437	1700.5
501.654	1542.5
501.871	1462.5
502.088	1388.5
502.305	1287.5
502.522	1242.5
502.739	1168.5
502.956	1140.5
503.172	1109.5
503.389	1072.5
503.606	1041.5
503.823	1024.5
504.04	1025.5
504.256	1024.5
504.473	1050.5
504.69	1067.5
504.907	978.5
505.123	985.5
505.34	939.5
505.557	912.5
505.773	891.5
505.99	889.5
506.207	885.5
506.423	854.5
506.64	859.5
506.856	815.5
507.073	825.5
507.289	821.5
507.506	812.5
507.722	803.5
507.939	818.5
508.155	828.5
508.372	818.5
508.588	790.5
508.805	777.5
509.021	781.5
509.238	780.5
509.454	781.5
509.67	754.5
509.887	772.5
510.103	774.5
510.319	752.5
510.536	749.5
510.752	728.5
510.968	752.5
511.184	740.5
511.401	745.5
511.617	750.5
511.833	731.5
512.049	765.5
512.265	727.5
512.481	762.5
512.698	733.5
512.914	760.5
513.13	764.5
513.346	762.5
513.562	754.5
513.778	749.5
513.994	768.5
514.21	761.5
514.426	733.5
514.642	730.5
514.858	746.5
515.074	766.5
515.29	758.5
515.506	780.5
515.721	780.5
515.937	784.5
516.153	794.5
516.369	813.5
516.585	837.5
516.801	863.5
517.016	882.5
517.232	908.5
517.448	948.5
517.664	949.5
517.879	955.5
518.095	941.5
518.311	929.5
518.527	899.5
518.742	870.5
518.958	845.5
