Data from NiCl2@0.25M.TitratingCurve.Agarose3%dH2O.NegLispCup.LampEnergy10.LIBS07252019_HRD10591_18-25-15-573.txt Node
Date: Thu Jul 25 18:25:15 EDT 2019
User: cochatt
Spectrometer: HR+D1059
Trigger mode: 1
Integration Time (sec): 1.000000E-1
Scans to average: 1
Electric dark correction enabled: true
Nonlinearity correction enabled: false
Boxcar width: 0
XAxis mode: Wavelengths
Number of Pixels in Spectrum: 2048
>>>>>Begin Spectral Data<<<<<
223.165	-11.19
223.4	-11.19
223.635	-11.19
223.869	-18.19
224.104	-15.19
224.338	-6.19
224.573	-11.19
224.808	-18.19
225.042	-15.19
225.277	-2.19
225.511	0.81
225.746	-0.19
225.98	14.81
226.215	-3.19
226.449	6.81
226.683	28.81
226.918	22.81
227.152	26.81
227.387	40.81
227.621	32.81
227.856	46.81
228.09	44.81
228.324	48.81
228.559	51.81
228.793	54.81
229.027	102.81
229.262	113.81
229.496	119.81
229.73	116.81
229.964	108.81
230.199	113.81
230.433	122.81
230.667	121.81
230.901	131.81
231.136	119.81
231.37	118.81
231.604	127.81
231.838	128.81
232.072	137.81
232.306	137.81
232.541	136.81
232.775	130.81
233.009	120.81
233.243	138.81
233.477	141.81
233.711	142.81
233.945	152.81
234.179	146.81
234.413	148.81
234.647	138.81
234.881	151.81
235.115	170.81
235.349	123.81
235.583	138.81
235.817	142.81
236.051	147.81
236.285	143.81
236.519	148.81
236.753	144.81
236.987	151.81
237.221	155.81
237.455	139.81
237.689	151.81
237.922	157.81
238.156	142.81
238.39	160.81
238.624	165.81
238.858	159.81
239.091	172.81
239.325	157.81
239.559	173.81
239.793	165.81
240.027	172.81
240.26	156.81
240.494	163.81
240.728	171.81
240.961	181.81
241.195	169.81
241.429	172.81
241.662	160.81
241.896	186.81
242.13	179.81
242.363	200.81
242.597	190.81
242.83	188.81
243.064	177.81
243.298	184.81
243.531	202.81
243.765	190.81
243.998	194.81
244.232	180.81
244.465	205.81
244.699	186.81
244.932	204.81
245.166	204.81
245.399	204.81
245.633	197.81
245.866	220.81
246.099	219.81
246.333	205.81
246.566	219.81
246.8	209.81
247.033	217.81
247.266	208.81
247.5	209.81
247.733	221.81
247.966	212.81
248.2	226.81
248.433	198.81
248.666	228.81
248.899	211.81
249.133	239.81
249.366	204.81
249.599	209.81
249.832	253.81
250.066	245.81
250.299	211.81
250.532	246.81
250.765	230.81
250.998	248.81
251.231	244.81
251.465	253.81
251.698	229.81
251.931	243.81
252.164	233.81
252.397	232.81
252.63	258.81
252.863	258.81
253.096	244.81
253.329	254.81
253.562	256.81
253.795	258.81
254.028	257.81
254.261	248.81
254.494	259.81
254.727	255.81
254.96	262.81
255.193	279.81
255.426	262.81
255.659	272.81
255.892	260.81
256.124	250.81
256.357	273.81
256.59	276.81
256.823	276.81
257.056	248.81
257.289	263.81
257.521	270.81
257.754	266.81
257.987	262.81
258.22	266.81
258.452	276.81
258.685	281.81
258.918	286.81
259.151	272.81
259.383	296.81
259.616	286.81
259.849	277.81
260.081	290.81
260.314	282.81
260.547	305.81
260.779	291.81
261.012	305.81
261.244	300.81
261.477	317.81
261.71	296.81
261.942	297.81
262.175	306.81
262.407	317.81
262.64	304.81
262.872	325.81
263.105	314.81
263.337	297.81
263.57	316.81
263.802	314.81
264.035	318.81
264.267	322.81
264.499	310.81
264.732	297.81
264.964	325.81
265.197	317.81
265.429	335.81
265.661	326.81
265.894	331.81
266.126	332.81
266.358	346.81
266.591	341.81
266.823	355.81
267.055	325.81
267.287	330.81
267.52	328.81
267.752	321.81
267.984	345.81
268.216	341.81
268.448	329.81
268.681	352.81
268.913	351.81
269.145	353.81
269.377	336.81
269.609	346.81
269.841	334.81
270.073	336.81
270.306	328.81
270.538	335.81
270.77	330.81
271.002	349.81
271.234	357.81
271.466	344.81
271.698	352.81
271.93	371.81
272.162	372.81
272.394	374.81
272.626	360.81
272.858	361.81
273.09	369.81
273.322	384.81
273.553	353.81
273.785	369.81
274.017	369.81
274.249	371.81
274.481	401.81
274.713	366.81
274.945	374.81
275.176	382.81
275.408	374.81
275.64	387.81
275.872	388.81
276.104	379.81
276.335	392.81
276.567	389.81
276.799	378.81
277.031	382.81
277.262	386.81
277.494	387.81
277.726	397.81
277.957	400.81
278.189	392.81
278.421	379.81
278.652	414.81
278.884	408.81
279.115	393.81
279.347	411.81
279.579	394.81
279.81	414.81
280.042	393.81
280.273	420.81
280.505	420.81
280.736	390.81
280.968	423.81
281.199	404.81
281.431	426.81
281.662	425.81
281.894	425.81
282.125	409.81
282.356	439.81
282.588	418.81
282.819	428.81
283.051	424.81
283.282	412.81
283.513	453.81
283.745	438.81
283.976	458.81
284.207	433.81
284.439	438.81
284.67	457.81
284.901	460.81
285.132	456.81
285.364	453.81
285.595	440.81
285.826	455.81
286.057	438.81
286.288	447.81
286.52	467.81
286.751	463.81
286.982	471.81
287.213	459.81
287.444	473.81
287.675	465.81
287.906	483.81
288.138	462.81
288.369	462.81
288.6	485.81
288.831	483.81
289.062	465.81
289.293	465.81
289.524	473.81
289.755	485.81
289.986	492.81
290.217	479.81
290.448	479.81
290.679	475.81
290.91	481.81
291.141	457.81
291.371	478.81
291.602	500.81
291.833	479.81
292.064	483.81
292.295	483.81
292.526	502.81
292.757	479.81
292.987	464.81
293.218	487.81
293.449	494.81
293.68	485.81
293.91	504.81
294.141	495.81
294.372	487.81
294.603	504.81
294.833	484.81
295.064	494.81
295.295	504.81
295.525	477.81
295.756	517.81
295.987	494.81
296.217	508.81
296.448	513.81
296.679	506.81
296.909	480.81
297.14	503.81
297.37	515.81
297.601	498.81
297.831	509.81
298.062	530.81
298.292	519.81
298.523	539.81
298.753	543.81
298.984	530.81
299.214	538.81
299.445	511.81
299.675	528.81
299.905	532.81
300.136	517.81
300.366	549.81
300.597	536.81
300.827	551.81
301.057	560.81
301.288	543.81
301.518	572.81
301.748	560.81
301.979	579.81
302.209	591.81
302.439	564.81
302.669	548.81
302.9	561.81
303.13	540.81
303.36	567.81
303.59	542.81
303.82	559.81
304.051	554.81
304.281	562.81
304.511	552.81
304.741	541.81
304.971	548.81
305.201	562.81
305.431	551.81
305.661	554.81
305.891	543.81
306.121	572.81
306.352	560.81
306.582	528.81
306.812	519.81
307.042	550.81
307.272	540.81
307.502	532.81
307.731	546.81
307.961	547.81
308.191	539.81
308.421	537.81
308.651	537.81
308.881	550.81
309.111	543.81
309.341	535.81
309.571	512.81
309.8	545.81
310.03	561.81
310.26	565.81
310.49	517.81
310.72	534.81
310.949	542.81
311.179	553.81
311.409	570.81
311.639	554.81
311.868	545.81
312.098	552.81
312.328	576.81
312.557	592.81
312.787	575.81
313.017	605.81
313.246	605.81
313.476	573.81
313.706	571.81
313.935	593.81
314.165	617.81
314.394	590.81
314.624	593.81
314.853	590.81
315.083	595.81
315.312	592.81
315.542	597.81
315.771	573.81
316.001	586.81
316.23	579.81
316.46	574.81
316.689	552.81
316.919	574.81
317.148	573.81
317.377	583.81
317.607	556.81
317.836	532.81
318.065	554.81
318.295	577.81
318.524	592.81
318.753	578.81
318.983	596.81
319.212	577.81
319.441	574.81
319.67	597.81
319.9	605.81
320.129	581.81
320.358	579.81
320.587	583.81
320.816	602.81
321.046	587.81
321.275	580.81
321.504	574.81
321.733	589.81
321.962	589.81
322.191	570.81
322.42	601.81
322.649	563.81
322.878	574.81
323.108	570.81
323.337	583.81
323.566	621.81
323.795	584.81
324.024	607.81
324.253	598.81
324.482	605.81
324.71	585.81
324.939	605.81
325.168	604.81
325.397	591.81
325.626	591.81
325.855	617.81
326.084	618.81
326.313	625.81
326.542	638.81
326.77	633.81
326.999	634.81
327.228	614.81
327.457	634.81
327.686	628.81
327.914	627.81
328.143	637.81
328.372	629.81
328.6	670.81
328.829	636.81
329.058	626.81
329.287	629.81
329.515	649.81
329.744	643.81
329.972	651.81
330.201	636.81
330.43	645.81
330.658	672.81
330.887	665.81
331.115	665.81
331.344	662.81
331.572	666.81
331.801	682.81
332.03	713.81
332.258	698.81
332.486	744.81
332.715	764.81
332.943	777.81
333.172	818.81
333.4	845.81
333.629	854.81
333.857	844.81
334.085	839.81
334.314	836.81
334.542	800.81
334.771	828.81
334.999	785.81
335.227	800.81
335.455	802.81
335.684	798.81
335.912	785.81
336.14	768.81
336.369	765.81
336.597	789.81
336.825	792.81
337.053	777.81
337.281	753.81
337.51	728.81
337.738	742.81
337.966	715.81
338.194	722.81
338.422	696.81
338.65	686.81
338.878	701.81
339.106	699.81
339.334	711.81
339.562	676.81
339.79	668.81
340.018	677.81
340.246	675.81
340.474	677.81
340.702	680.81
340.93	688.81
341.158	665.81
341.386	658.81
341.614	668.81
341.842	659.81
342.07	648.81
342.298	627.81
342.526	664.81
342.754	640.81
342.981	664.81
343.209	679.81
343.437	705.81
343.665	757.81
343.893	809.81
344.12	801.81
344.348	756.81
344.576	766.81
344.804	734.81
345.031	706.81
345.259	690.81
345.487	676.81
345.714	674.81
345.942	678.81
346.17	660.81
346.397	676.81
346.625	646.81
346.853	661.81
347.08	638.81
347.308	650.81
347.535	658.81
347.763	648.81
347.99	644.81
348.218	678.81
348.445	649.81
348.673	646.81
348.9	632.81
349.128	626.81
349.355	636.81
349.583	639.81
349.81	630.81
350.037	630.81
350.265	628.81
350.492	653.81
350.72	648.81
350.947	604.81
351.174	596.81
351.402	617.81
351.629	613.81
351.856	611.81
352.083	617.81
352.311	621.81
352.538	608.81
352.765	626.81
352.992	616.81
353.22	639.81
353.447	590.81
353.674	617.81
353.901	613.81
354.128	624.81
354.355	602.81
354.583	613.81
354.81	623.81
355.037	614.81
355.264	623.81
355.491	648.81
355.718	600.81
355.945	658.81
356.172	640.81
356.399	627.81
356.626	630.81
356.853	638.81
357.08	640.81
357.307	615.81
357.534	628.81
357.761	628.81
357.988	625.81
358.215	629.81
358.441	610.81
358.668	609.81
358.895	643.81
359.122	614.81
359.349	616.81
359.576	604.81
359.802	635.81
360.029	648.81
360.256	628.81
360.483	629.81
360.709	637.81
360.936	656.81
361.163	629.81
361.39	637.81
361.616	638.81
361.843	621.81
362.07	631.81
362.296	612.81
362.523	638.81
362.749	627.81
362.976	607.81
363.203	625.81
363.429	613.81
363.656	627.81
363.882	628.81
364.109	624.81
364.335	628.81
364.562	620.81
364.788	613.81
365.015	622.81
365.241	608.81
365.468	610.81
365.694	615.81
365.92	626.81
366.147	640.81
366.373	628.81
366.599	630.81
366.826	611.81
367.052	622.81
367.278	628.81
367.505	620.81
367.731	636.81
367.957	636.81
368.184	627.81
368.41	631.81
368.636	658.81
368.862	669.81
369.089	647.81
369.315	651.81
369.541	651.81
369.767	636.81
369.993	640.81
370.219	645.81
370.445	670.81
370.672	651.81
370.898	678.81
371.124	654.81
371.35	688.81
371.576	659.81
371.802	667.81
372.028	665.81
372.254	654.81
372.48	695.81
372.706	686.81
372.932	713.81
373.158	709.81
373.384	687.81
373.61	677.81
373.835	685.81
374.061	684.81
374.287	702.81
374.513	697.81
374.739	725.81
374.965	738.81
375.191	760.81
375.416	766.81
375.642	713.81
375.868	727.81
376.094	701.81
376.319	687.81
376.545	694.81
376.771	691.81
376.997	673.81
377.222	670.81
377.448	694.81
377.674	670.81
377.899	679.81
378.125	671.81
378.35	682.81
378.576	686.81
378.802	712.81
379.027	690.81
379.253	685.81
379.478	668.81
379.704	673.81
379.929	664.81
380.155	668.81
380.38	654.81
380.606	693.81
380.831	674.81
381.057	660.81
381.282	668.81
381.507	681.81
381.733	710.81
381.958	692.81
382.184	698.81
382.409	721.81
382.634	684.81
382.86	685.81
383.085	734.81
383.31	718.81
383.535	729.81
383.761	778.81
383.986	749.81
384.211	788.81
384.436	820.81
384.662	809.81
384.887	824.81
385.112	825.81
385.337	783.81
385.562	807.81
385.787	804.81
386.013	843.81
386.238	828.81
386.463	839.81
386.688	829.81
386.913	800.81
387.138	816.81
387.363	806.81
387.588	806.81
387.813	807.81
388.038	779.81
388.263	833.81
388.488	825.81
388.713	835.81
388.938	821.81
389.163	819.81
389.387	809.81
389.612	786.81
389.837	805.81
390.062	803.81
390.287	805.81
390.512	807.81
390.736	806.81
390.961	818.81
391.186	857.81
391.411	889.81
391.636	901.81
391.86	932.81
392.085	942.81
392.31	930.81
392.534	904.81
392.759	872.81
392.984	895.81
393.208	877.81
393.433	866.81
393.658	877.81
393.882	876.81
394.107	842.81
394.331	883.81
394.556	884.81
394.78	876.81
395.005	872.81
395.229	866.81
395.454	928.81
395.678	949.81
395.903	917.81
396.127	929.81
396.352	861.81
396.576	907.81
396.801	850.81
397.025	912.81
397.249	918.81
397.474	918.81
397.698	934.81
397.922	929.81
398.147	915.81
398.371	956.81
398.595	940.81
398.82	993.81
399.044	1081.81
399.268	1248.81
399.492	1380.81
399.717	1609.81
399.941	1582.81
400.165	1380.81
400.389	1222.81
400.613	1145.81
400.837	1060.81
401.062	1097.81
401.286	1028.81
401.51	1034.81
401.734	1034.81
401.958	1050.81
402.182	1041.81
402.406	1069.81
402.63	1064.81
402.854	1139.81
403.078	1128.81
403.302	1134.81
403.526	1174.81
403.75	1187.81
403.974	1192.81
404.198	1213.81
404.422	1199.81
404.645	1201.81
404.869	1183.81
405.093	1209.81
405.317	1159.81
405.541	1116.81
405.765	1116.81
405.988	1138.81
406.212	1124.81
406.436	1134.81
406.66	1144.81
406.883	1150.81
407.107	1233.81
407.331	1301.81
407.555	1326.81
407.778	1310.81
408.002	1297.81
408.226	1236.81
408.449	1229.81
408.673	1194.81
408.896	1193.81
409.12	1143.81
409.344	1183.81
409.567	1156.81
409.791	1171.81
410.014	1163.81
410.238	1144.81
410.461	1154.81
410.685	1135.81
410.908	1097.81
411.132	1113.81
411.355	1069.81
411.578	1086.81
411.802	1058.81
412.025	1071.81
412.249	1080.81
412.472	1059.81
412.695	1059.81
412.919	1034.81
413.142	1035.81
413.365	1038.81
413.589	1013.81
413.812	1002.81
414.035	1015.81
414.258	1046.81
414.482	1034.81
414.705	1046.81
414.928	1044.81
415.151	1048.81
415.374	1024.81
415.597	989.81
415.821	984.81
416.044	1020.81
416.267	1014.81
416.49	1001.81
416.713	1020.81
416.936	1030.81
417.159	1012.81
417.382	1016.81
417.605	1027.81
417.828	1032.81
418.051	1030.81
418.274	995.81
418.497	1035.81
418.72	1047.81
418.943	1088.81
419.166	1120.81
419.389	1173.81
419.611	1160.81
419.834	1087.81
420.057	1073.81
420.28	1048.81
420.503	1008.81
420.726	1001.81
420.948	1002.81
421.171	996.81
421.394	997.81
421.617	998.81
421.839	1028.81
422.062	999.81
422.285	1004.81
422.507	1040.81
422.73	1043.81
422.953	1054.81
423.175	1054.81
423.398	1049.81
423.621	1093.81
423.843	1084.81
424.066	1084.81
424.288	1110.81
424.511	1050.81
424.733	1045.81
424.956	1062.81
425.178	995.81
425.401	1029.81
425.623	1013.81
425.846	968.81
426.068	1005.81
426.291	948.81
426.513	945.81
426.735	953.81
426.958	930.81
427.18	926.81
427.402	928.81
427.625	924.81
427.847	888.81
428.069	916.81
428.292	921.81
428.514	888.81
428.736	896.81
428.958	904.81
429.181	855.81
429.403	870.81
429.625	870.81
429.847	877.81
430.069	880.81
430.292	882.81
430.514	869.81
430.736	878.81
430.958	870.81
431.18	848.81
431.402	878.81
431.624	878.81
431.846	890.81
432.068	916.81
432.29	925.81
432.512	891.81
432.734	909.81
432.956	915.81
433.178	918.81
433.4	880.81
433.622	922.81
433.844	912.81
434.066	925.81
434.287	926.81
434.509	966.81
434.731	987.81
434.953	1020.81
435.175	1011.81
435.397	1005.81
435.618	958.81
435.84	935.81
436.062	912.81
436.284	897.81
436.505	895.81
436.727	904.81
436.949	900.81
437.17	893.81
437.392	865.81
437.614	884.81
437.835	852.81
438.057	868.81
438.278	845.81
438.5	866.81
438.721	833.81
438.943	861.81
439.165	861.81
439.386	874.81
439.608	879.81
439.829	892.81
440.05	857.81
440.272	903.81
440.493	898.81
440.715	892.81
440.936	916.81
441.158	928.81
441.379	955.81
441.6	994.81
441.822	1017.81
442.043	1011.81
442.264	988.81
442.486	993.81
442.707	997.81
442.928	983.81
443.149	965.81
443.371	996.81
443.592	1005.81
443.813	1022.81
444.034	1007.81
444.255	1017.81
444.476	1099.81
444.698	1141.81
444.919	1218.81
445.14	1242.81
445.361	1106.81
445.582	1010.81
445.803	957.81
446.024	971.81
446.245	960.81
446.466	898.81
446.687	887.81
446.908	912.81
447.129	885.81
447.35	876.81
447.571	873.81
447.792	824.81
448.013	828.81
448.234	837.81
448.455	838.81
448.675	792.81
448.896	838.81
449.117	775.81
449.338	826.81
449.559	775.81
449.779	783.81
450	838.81
450.221	791.81
450.442	821.81
450.662	818.81
450.883	830.81
451.104	834.81
451.324	855.81
451.545	867.81
451.766	822.81
451.986	837.81
452.207	854.81
452.428	810.81
452.648	818.81
452.869	814.81
453.089	803.81
453.31	824.81
453.53	799.81
453.751	776.81
453.971	769.81
454.192	792.81
454.412	787.81
454.633	764.81
454.853	770.81
455.073	784.81
455.294	781.81
455.514	778.81
455.734	739.81
455.955	728.81
456.175	752.81
456.395	744.81
456.616	729.81
456.836	773.81
457.056	777.81
457.276	725.81
457.497	755.81
457.717	760.81
457.937	780.81
458.157	783.81
458.377	797.81
458.598	814.81
458.818	845.81
459.038	854.81
459.258	881.81
459.478	894.81
459.698	933.81
459.918	950.81
460.138	1020.81
460.358	1069.81
460.578	1065.81
460.798	1064.81
461.018	1076.81
461.238	1056.81
461.458	1038.81
461.678	1068.81
461.898	1065.81
462.118	1036.81
462.338	1116.81
462.558	1168.81
462.777	1229.81
462.997	1266.81
463.217	1439.81
463.437	1424.81
463.657	1311.81
463.876	1213.81
464.096	1240.81
464.316	1227.81
464.536	1230.81
464.755	1221.81
464.975	1116.81
465.195	1090.81
465.414	1034.81
465.634	979.81
465.854	955.81
466.073	922.81
466.293	904.81
466.512	873.81
466.732	853.81
466.951	855.81
467.171	852.81
467.391	846.81
467.61	865.81
467.829	866.81
468.049	843.81
468.268	829.81
468.488	807.81
468.707	818.81
468.927	825.81
469.146	818.81
469.365	784.81
469.585	820.81
469.804	867.81
470.023	879.81
470.243	878.81
470.462	895.81
470.681	904.81
470.901	903.81
471.12	889.81
471.339	877.81
471.558	850.81
471.777	836.81
471.997	836.81
472.216	801.81
472.435	812.81
472.654	790.81
472.873	797.81
473.092	799.81
473.311	773.81
473.53	798.81
473.749	797.81
473.968	797.81
474.187	775.81
474.406	786.81
474.625	772.81
474.844	817.81
475.063	789.81
475.282	791.81
475.501	826.81
475.72	816.81
475.939	821.81
476.158	806.81
476.377	833.81
476.596	809.81
476.814	853.81
477.033	865.81
477.252	851.81
477.471	862.81
477.69	915.81
477.908	900.81
478.127	970.81
478.346	957.81
478.564	985.81
478.783	990.81
479.002	1008.81
479.22	997.81
479.439	1004.81
479.658	1007.81
479.876	987.81
480.095	1005.81
480.313	1062.81
480.532	1087.81
480.751	1103.81
480.969	1021.81
481.188	988.81
481.406	948.81
481.624	945.81
481.843	926.81
482.061	921.81
482.28	913.81
482.498	912.81
482.717	907.81
482.935	912.81
483.153	937.81
483.372	902.81
483.59	926.81
483.808	918.81
484.027	924.81
484.245	955.81
484.463	907.81
484.681	926.81
484.9	966.81
485.118	936.81
485.336	962.81
485.554	975.81
485.772	960.81
485.99	953.81
486.209	978.81
486.427	978.81
486.645	981.81
486.863	970.81
487.081	966.81
487.299	951.81
487.517	932.81
487.735	948.81
487.953	962.81
488.171	986.81
488.389	992.81
488.607	958.81
488.825	964.81
489.043	897.81
489.261	930.81
489.479	949.81
489.696	956.81
489.914	934.81
490.132	942.81
490.35	930.81
490.568	964.81
490.786	982.81
491.003	996.81
491.221	982.81
491.439	962.81
491.657	964.81
491.874	968.81
492.092	979.81
492.31	960.81
492.527	992.81
492.745	980.81
492.963	982.81
493.18	1016.81
493.398	1030.81
493.615	1013.81
493.833	1006.81
494.05	1007.81
494.268	1025.81
494.485	1022.81
494.703	1042.81
494.92	1015.81
495.138	1004.81
495.355	1006.81
495.573	1057.81
495.79	1010.81
496.008	1037.81
496.225	1063.81
496.442	1066.81
496.66	1090.81
496.877	1093.81
497.094	1079.81
497.312	1109.81
497.529	1125.81
497.746	1149.81
497.963	1205.81
498.181	1263.81
498.398	1275.81
498.615	1363.81
498.832	1480.81
499.049	1594.81
