Data from NiCl2@0.25M.TitratingCurve.Agarose3%dH2O.NegLispCup.LampEnergy10.LIBS07252019_HRD10591_18-25-51-573.txt Node
Date: Thu Jul 25 18:25:51 EDT 2019
User: cochatt
Spectrometer: HR+D1059
Trigger mode: 1
Integration Time (sec): 1.000000E-1
Scans to average: 1
Electric dark correction enabled: true
Nonlinearity correction enabled: false
Boxcar width: 0
XAxis mode: Wavelengths
Number of Pixels in Spectrum: 2048
>>>>>Begin Spectral Data<<<<<
223.165	-8.06
223.4	-8.06
223.635	-8.06
223.869	-32.06
224.104	-19.06
224.338	-20.06
224.573	-10.06
224.808	-18.06
225.042	3.94
225.277	-10.06
225.511	-0.06
225.746	5.94
225.98	9.94
226.215	23.94
226.449	0.94
226.683	15.94
226.918	22.94
227.152	33.94
227.387	35.94
227.621	35.94
227.856	44.94
228.09	42.94
228.324	54.94
228.559	67.94
228.793	65.94
229.027	115.94
229.262	113.94
229.496	131.94
229.73	130.94
229.964	151.94
230.199	135.94
230.433	147.94
230.667	146.94
230.901	147.94
231.136	153.94
231.37	157.94
231.604	153.94
231.838	146.94
232.072	159.94
232.306	167.94
232.541	159.94
232.775	178.94
233.009	178.94
233.243	162.94
233.477	165.94
233.711	156.94
233.945	168.94
234.179	170.94
234.413	169.94
234.647	175.94
234.881	171.94
235.115	168.94
235.349	165.94
235.583	170.94
235.817	168.94
236.051	159.94
236.285	173.94
236.519	164.94
236.753	176.94
236.987	164.94
237.221	183.94
237.455	180.94
237.689	167.94
237.922	171.94
238.156	188.94
238.39	185.94
238.624	180.94
238.858	201.94
239.091	197.94
239.325	172.94
239.559	197.94
239.793	183.94
240.027	182.94
240.26	204.94
240.494	193.94
240.728	217.94
240.961	192.94
241.195	215.94
241.429	211.94
241.662	226.94
241.896	207.94
242.13	227.94
242.363	229.94
242.597	215.94
242.83	226.94
243.064	236.94
243.298	231.94
243.531	233.94
243.765	228.94
243.998	236.94
244.232	232.94
244.465	242.94
244.699	225.94
244.932	238.94
245.166	240.94
245.399	234.94
245.633	248.94
245.866	253.94
246.099	253.94
246.333	249.94
246.566	259.94
246.8	272.94
247.033	269.94
247.266	263.94
247.5	266.94
247.733	265.94
247.966	278.94
248.2	275.94
248.433	265.94
248.666	261.94
248.899	282.94
249.133	278.94
249.366	292.94
249.599	306.94
249.832	286.94
250.066	279.94
250.299	290.94
250.532	296.94
250.765	289.94
250.998	296.94
251.231	303.94
251.465	317.94
251.698	302.94
251.931	322.94
252.164	313.94
252.397	313.94
252.63	335.94
252.863	295.94
253.096	308.94
253.329	316.94
253.562	317.94
253.795	321.94
254.028	322.94
254.261	337.94
254.494	320.94
254.727	303.94
254.96	313.94
255.193	322.94
255.426	321.94
255.659	335.94
255.892	352.94
256.124	337.94
256.357	344.94
256.59	323.94
256.823	341.94
257.056	337.94
257.289	324.94
257.521	356.94
257.754	349.94
257.987	344.94
258.22	364.94
258.452	360.94
258.685	357.94
258.918	354.94
259.151	368.94
259.383	361.94
259.616	358.94
259.849	369.94
260.081	377.94
260.314	362.94
260.547	365.94
260.779	379.94
261.012	377.94
261.244	383.94
261.477	391.94
261.71	386.94
261.942	392.94
262.175	369.94
262.407	375.94
262.64	370.94
262.872	392.94
263.105	390.94
263.337	377.94
263.57	389.94
263.802	405.94
264.035	396.94
264.267	401.94
264.499	407.94
264.732	410.94
264.964	400.94
265.197	407.94
265.429	407.94
265.661	397.94
265.894	400.94
266.126	420.94
266.358	419.94
266.591	415.94
266.823	406.94
267.055	421.94
267.287	439.94
267.52	417.94
267.752	433.94
267.984	441.94
268.216	434.94
268.448	457.94
268.681	440.94
268.913	436.94
269.145	427.94
269.377	441.94
269.609	439.94
269.841	425.94
270.073	435.94
270.306	437.94
270.538	445.94
270.77	427.94
271.002	445.94
271.234	461.94
271.466	441.94
271.698	452.94
271.93	450.94
272.162	459.94
272.394	459.94
272.626	464.94
272.858	449.94
273.09	485.94
273.322	476.94
273.553	452.94
273.785	478.94
274.017	465.94
274.249	492.94
274.481	472.94
274.713	465.94
274.945	493.94
275.176	468.94
275.408	492.94
275.64	472.94
275.872	469.94
276.104	517.94
276.335	495.94
276.567	499.94
276.799	495.94
277.031	498.94
277.262	510.94
277.494	498.94
277.726	499.94
277.957	524.94
278.189	504.94
278.421	517.94
278.652	495.94
278.884	513.94
279.115	505.94
279.347	524.94
279.579	532.94
279.81	529.94
280.042	533.94
280.273	521.94
280.505	545.94
280.736	529.94
280.968	539.94
281.199	541.94
281.431	570.94
281.662	541.94
281.894	567.94
282.125	565.94
282.356	544.94
282.588	553.94
282.819	555.94
283.051	559.94
283.282	563.94
283.513	568.94
283.745	575.94
283.976	581.94
284.207	553.94
284.439	568.94
284.67	583.94
284.901	585.94
285.132	596.94
285.364	568.94
285.595	580.94
285.826	573.94
286.057	575.94
286.288	574.94
286.52	595.94
286.751	579.94
286.982	589.94
287.213	581.94
287.444	596.94
287.675	594.94
287.906	587.94
288.138	587.94
288.369	610.94
288.6	628.94
288.831	618.94
289.062	599.94
289.293	594.94
289.524	610.94
289.755	599.94
289.986	611.94
290.217	598.94
290.448	618.94
290.679	627.94
290.91	626.94
291.141	625.94
291.371	602.94
291.602	649.94
291.833	637.94
292.064	613.94
292.295	609.94
292.526	634.94
292.757	631.94
292.987	636.94
293.218	639.94
293.449	621.94
293.68	647.94
293.91	631.94
294.141	610.94
294.372	634.94
294.603	642.94
294.833	619.94
295.064	635.94
295.295	634.94
295.525	628.94
295.756	644.94
295.987	651.94
296.217	664.94
296.448	634.94
296.679	653.94
296.909	657.94
297.14	657.94
297.37	654.94
297.601	667.94
297.831	665.94
298.062	675.94
298.292	682.94
298.523	675.94
298.753	662.94
298.984	673.94
299.214	685.94
299.445	679.94
299.675	683.94
299.905	667.94
300.136	679.94
300.366	676.94
300.597	708.94
300.827	704.94
301.057	702.94
301.288	744.94
301.518	699.94
301.748	708.94
301.979	733.94
302.209	722.94
302.439	712.94
302.669	694.94
302.9	698.94
303.13	713.94
303.36	717.94
303.59	675.94
303.82	729.94
304.051	700.94
304.281	735.94
304.511	724.94
304.741	714.94
304.971	692.94
305.201	727.94
305.431	695.94
305.661	705.94
305.891	684.94
306.121	718.94
306.352	683.94
306.582	698.94
306.812	678.94
307.042	709.94
307.272	699.94
307.502	682.94
307.731	662.94
307.961	694.94
308.191	680.94
308.421	710.94
308.651	684.94
308.881	705.94
309.111	689.94
309.341	703.94
309.571	703.94
309.8	689.94
310.03	713.94
310.26	711.94
310.49	728.94
310.72	705.94
310.949	690.94
311.179	721.94
311.409	708.94
311.639	695.94
311.868	695.94
312.098	715.94
312.328	731.94
312.557	731.94
312.787	751.94
313.017	744.94
313.246	717.94
313.476	759.94
313.706	755.94
313.935	768.94
314.165	743.94
314.394	749.94
314.624	741.94
314.853	735.94
315.083	747.94
315.312	755.94
315.542	727.94
315.771	723.94
316.001	741.94
316.23	742.94
316.46	732.94
316.689	733.94
316.919	739.94
317.148	742.94
317.377	737.94
317.607	693.94
317.836	710.94
318.065	737.94
318.295	714.94
318.524	717.94
318.753	711.94
318.983	737.94
319.212	717.94
319.441	752.94
319.67	733.94
319.9	711.94
320.129	712.94
320.358	714.94
320.587	738.94
320.816	740.94
321.046	730.94
321.275	759.94
321.504	720.94
321.733	730.94
321.962	722.94
322.191	730.94
322.42	741.94
322.649	752.94
322.878	758.94
323.108	720.94
323.337	759.94
323.566	743.94
323.795	769.94
324.024	772.94
324.253	747.94
324.482	751.94
324.71	786.94
324.939	769.94
325.168	752.94
325.397	772.94
325.626	764.94
325.855	781.94
326.084	780.94
326.313	830.94
326.542	789.94
326.77	815.94
326.999	796.94
327.228	789.94
327.457	794.94
327.686	803.94
327.914	788.94
328.143	807.94
328.372	826.94
328.6	805.94
328.829	785.94
329.058	831.94
329.287	819.94
329.515	821.94
329.744	810.94
329.972	810.94
330.201	826.94
330.43	842.94
330.658	835.94
330.887	840.94
331.115	838.94
331.344	856.94
331.572	871.94
331.801	889.94
332.03	872.94
332.258	897.94
332.486	928.94
332.715	964.94
332.943	1003.94
333.172	1066.94
333.4	1113.94
333.629	1120.94
333.857	1112.94
334.085	1099.94
334.314	1089.94
334.542	1052.94
334.771	1063.94
334.999	1008.94
335.227	1000.94
335.455	1003.94
335.684	1015.94
335.912	1001.94
336.14	972.94
336.369	985.94
336.597	1006.94
336.825	961.94
337.053	984.94
337.281	961.94
337.51	956.94
337.738	891.94
337.966	906.94
338.194	861.94
338.422	885.94
338.65	907.94
338.878	889.94
339.106	862.94
339.334	893.94
339.562	846.94
339.79	803.94
340.018	838.94
340.246	828.94
340.474	830.94
340.702	818.94
340.93	837.94
341.158	836.94
341.386	844.94
341.614	848.94
341.842	847.94
342.07	826.94
342.298	841.94
342.526	829.94
342.754	792.94
342.981	831.94
343.209	877.94
343.437	907.94
343.665	955.94
343.893	1041.94
344.12	1059.94
344.348	1009.94
344.576	949.94
344.804	931.94
345.031	872.94
345.259	847.94
345.487	863.94
345.714	841.94
345.942	839.94
346.17	831.94
346.397	821.94
346.625	808.94
346.853	815.94
347.08	792.94
347.308	793.94
347.535	807.94
347.763	830.94
347.99	829.94
348.218	827.94
348.445	798.94
348.673	815.94
348.9	795.94
349.128	815.94
349.355	815.94
349.583	812.94
349.81	795.94
350.037	791.94
350.265	788.94
350.492	768.94
350.72	751.94
350.947	778.94
351.174	781.94
351.402	801.94
351.629	789.94
351.856	761.94
352.083	779.94
352.311	734.94
352.538	752.94
352.765	757.94
352.992	778.94
353.22	768.94
353.447	779.94
353.674	767.94
353.901	768.94
354.128	769.94
354.355	791.94
354.583	764.94
354.81	773.94
355.037	772.94
355.264	765.94
355.491	759.94
355.718	771.94
355.945	770.94
356.172	779.94
356.399	780.94
356.626	769.94
356.853	783.94
357.08	779.94
357.307	760.94
357.534	772.94
357.761	786.94
357.988	775.94
358.215	765.94
358.441	796.94
358.668	776.94
358.895	778.94
359.122	776.94
359.349	773.94
359.576	796.94
359.802	794.94
360.029	767.94
360.256	759.94
360.483	779.94
360.709	784.94
360.936	769.94
361.163	755.94
361.39	791.94
361.616	792.94
361.843	813.94
362.07	788.94
362.296	791.94
362.523	780.94
362.749	777.94
362.976	787.94
363.203	770.94
363.429	763.94
363.656	781.94
363.882	769.94
364.109	755.94
364.335	787.94
364.562	748.94
364.788	757.94
365.015	777.94
365.241	759.94
365.468	775.94
365.694	772.94
365.92	794.94
366.147	744.94
366.373	780.94
366.599	761.94
366.826	781.94
367.052	765.94
367.278	798.94
367.505	776.94
367.731	784.94
367.957	786.94
368.184	784.94
368.41	797.94
368.636	793.94
368.862	794.94
369.089	788.94
369.315	792.94
369.541	821.94
369.767	811.94
369.993	809.94
370.219	805.94
370.445	822.94
370.672	803.94
370.898	832.94
371.124	820.94
371.35	863.94
371.576	889.94
371.802	847.94
372.028	820.94
372.254	832.94
372.48	874.94
372.706	879.94
372.932	884.94
373.158	895.94
373.384	879.94
373.61	864.94
373.835	861.94
374.061	862.94
374.287	869.94
374.513	868.94
374.739	906.94
374.965	959.94
375.191	962.94
375.416	923.94
375.642	921.94
375.868	905.94
376.094	907.94
376.319	873.94
376.545	844.94
376.771	883.94
376.997	860.94
377.222	856.94
377.448	840.94
377.674	868.94
377.899	843.94
378.125	867.94
378.35	811.94
378.576	849.94
378.802	837.94
379.027	842.94
379.253	855.94
379.478	819.94
379.704	843.94
379.929	834.94
380.155	840.94
380.38	839.94
380.606	820.94
380.831	843.94
381.057	829.94
381.282	852.94
381.507	853.94
381.733	862.94
381.958	841.94
382.184	865.94
382.409	868.94
382.634	881.94
382.86	882.94
383.085	876.94
383.31	924.94
383.535	909.94
383.761	924.94
383.986	942.94
384.211	961.94
384.436	959.94
384.662	1015.94
384.887	1027.94
385.112	1009.94
385.337	1003.94
385.562	1035.94
385.787	1065.94
386.013	1046.94
386.238	1034.94
386.463	1064.94
386.688	1037.94
386.913	1031.94
387.138	1016.94
387.363	1031.94
387.588	1020.94
387.813	1017.94
388.038	1000.94
388.263	1007.94
388.488	1052.94
388.713	1039.94
388.938	985.94
389.163	1014.94
389.387	1023.94
389.612	973.94
389.837	995.94
390.062	990.94
390.287	988.94
390.512	1012.94
390.736	1018.94
390.961	1036.94
391.186	1031.94
391.411	1092.94
391.636	1092.94
391.86	1154.94
392.085	1173.94
392.31	1147.94
392.534	1129.94
392.759	1126.94
392.984	1109.94
393.208	1115.94
393.433	1078.94
393.658	1130.94
393.882	1075.94
394.107	1097.94
394.331	1103.94
394.556	1141.94
394.78	1138.94
395.005	1104.94
395.229	1128.94
395.454	1151.94
395.678	1154.94
395.903	1171.94
396.127	1171.94
396.352	1117.94
396.576	1085.94
396.801	1086.94
397.025	1111.94
397.249	1135.94
397.474	1152.94
397.698	1141.94
397.922	1159.94
398.147	1141.94
398.371	1175.94
398.595	1229.94
398.82	1265.94
399.044	1369.94
399.268	1514.94
399.492	1839.94
399.717	2039.94
399.941	2020.94
400.165	1779.94
400.389	1567.94
400.613	1438.94
400.837	1372.94
401.062	1315.94
401.286	1297.94
401.51	1297.94
401.734	1316.94
401.958	1311.94
402.182	1352.94
402.406	1327.94
402.63	1358.94
402.854	1394.94
403.078	1421.94
403.302	1451.94
403.526	1492.94
403.75	1511.94
403.974	1537.94
404.198	1537.94
404.422	1532.94
404.645	1543.94
404.869	1503.94
405.093	1490.94
405.317	1455.94
405.541	1483.94
405.765	1419.94
405.988	1396.94
406.212	1450.94
406.436	1411.94
406.66	1453.94
406.883	1480.94
407.107	1579.94
407.331	1641.94
407.555	1700.94
407.778	1673.94
408.002	1658.94
408.226	1589.94
408.449	1579.94
408.673	1491.94
408.896	1489.94
409.12	1464.94
409.344	1483.94
409.567	1491.94
409.791	1483.94
410.014	1464.94
410.238	1433.94
410.461	1453.94
410.685	1431.94
410.908	1395.94
411.132	1391.94
411.355	1295.94
411.578	1351.94
411.802	1358.94
412.025	1343.94
412.249	1359.94
412.472	1368.94
412.695	1304.94
412.919	1293.94
413.142	1290.94
413.365	1254.94
413.589	1305.94
413.812	1271.94
414.035	1240.94
414.258	1290.94
414.482	1283.94
414.705	1280.94
414.928	1285.94
415.151	1302.94
415.374	1248.94
415.597	1287.94
415.821	1257.94
416.044	1223.94
416.267	1258.94
416.49	1228.94
416.713	1259.94
416.936	1297.94
417.159	1244.94
417.382	1265.94
417.605	1247.94
417.828	1286.94
418.051	1305.94
418.274	1302.94
418.497	1297.94
418.72	1319.94
418.943	1334.94
419.166	1393.94
419.389	1493.94
419.611	1459.94
419.834	1418.94
420.057	1369.94
420.28	1283.94
420.503	1275.94
420.726	1276.94
420.948	1234.94
421.171	1260.94
421.394	1259.94
421.617	1257.94
421.839	1297.94
422.062	1275.94
422.285	1257.94
422.507	1296.94
422.73	1319.94
422.953	1319.94
423.175	1340.94
423.398	1323.94
423.621	1365.94
423.843	1373.94
424.066	1363.94
424.288	1338.94
424.511	1344.94
424.733	1356.94
424.956	1348.94
425.178	1321.94
425.401	1281.94
425.623	1303.94
425.846	1231.94
426.068	1220.94
426.291	1215.94
426.513	1191.94
426.735	1196.94
426.958	1188.94
427.18	1164.94
427.402	1168.94
427.625	1158.94
427.847	1143.94
428.069	1142.94
428.292	1129.94
428.514	1095.94
428.736	1131.94
428.958	1147.94
429.181	1093.94
429.403	1087.94
429.625	1128.94
429.847	1075.94
430.069	1087.94
430.292	1105.94
430.514	1085.94
430.736	1084.94
430.958	1087.94
431.18	1109.94
431.402	1103.94
431.624	1117.94
431.846	1113.94
432.068	1097.94
432.29	1139.94
432.512	1121.94
432.734	1117.94
432.956	1110.94
433.178	1125.94
433.4	1101.94
433.622	1133.94
433.844	1133.94
434.066	1142.94
434.287	1129.94
434.509	1202.94
434.731	1254.94
434.953	1253.94
435.175	1276.94
435.397	1232.94
435.618	1201.94
435.84	1145.94
436.062	1130.94
436.284	1128.94
436.505	1088.94
436.727	1112.94
436.949	1115.94
437.17	1138.94
437.392	1092.94
437.614	1058.94
437.835	1084.94
438.057	1085.94
438.278	1061.94
438.5	1057.94
438.721	1068.94
438.943	1072.94
439.165	1067.94
439.386	1073.94
439.608	1109.94
439.829	1124.94
440.05	1129.94
440.272	1117.94
440.493	1108.94
440.715	1168.94
440.936	1149.94
441.158	1153.94
441.379	1190.94
441.6	1284.94
441.822	1295.94
442.043	1255.94
442.264	1252.94
442.486	1233.94
442.707	1223.94
442.928	1212.94
443.149	1251.94
443.371	1205.94
443.592	1207.94
443.813	1268.94
444.034	1283.94
444.255	1311.94
444.476	1408.94
444.698	1461.94
444.919	1548.94
445.14	1604.94
445.361	1432.94
445.582	1306.94
445.803	1216.94
446.024	1185.94
446.245	1159.94
446.466	1139.94
446.687	1127.94
446.908	1120.94
447.129	1120.94
447.35	1090.94
447.571	1082.94
447.792	1067.94
448.013	1067.94
448.234	1032.94
448.455	1017.94
448.675	1008.94
448.896	1020.94
449.117	978.94
449.338	1018.94
449.559	986.94
449.779	1001.94
450	985.94
450.221	1010.94
450.442	1023.94
450.662	1033.94
450.883	1034.94
451.104	1037.94
451.324	995.94
451.545	1059.94
451.766	1046.94
451.986	1031.94
452.207	1036.94
452.428	1039.94
452.648	1027.94
452.869	987.94
453.089	999.94
453.31	1001.94
453.53	996.94
453.751	981.94
453.971	983.94
454.192	1001.94
454.412	961.94
454.633	961.94
454.853	960.94
455.073	971.94
455.294	969.94
455.514	948.94
455.734	920.94
455.955	924.94
456.175	954.94
456.395	933.94
456.616	917.94
456.836	968.94
457.056	947.94
457.276	933.94
457.497	970.94
457.717	937.94
457.937	943.94
458.157	951.94
458.377	983.94
458.598	1003.94
458.818	1004.94
459.038	1056.94
459.258	1103.94
459.478	1103.94
459.698	1131.94
459.918	1188.94
460.138	1279.94
460.358	1324.94
460.578	1339.94
460.798	1359.94
461.018	1381.94
461.238	1342.94
461.458	1333.94
461.678	1288.94
461.898	1316.94
462.118	1357.94
462.338	1443.94
462.558	1427.94
462.777	1509.94
462.997	1669.94
463.217	1828.94
463.437	1819.94
463.657	1645.94
463.876	1609.94
464.096	1613.94
464.316	1535.94
464.536	1579.94
464.755	1528.94
464.975	1457.94
465.195	1399.94
465.414	1292.94
465.634	1217.94
465.854	1164.94
466.073	1134.94
466.293	1140.94
466.512	1081.94
466.732	1079.94
466.951	1090.94
467.171	1083.94
467.391	1108.94
467.61	1048.94
467.829	1033.94
468.049	1058.94
468.268	1030.94
468.488	1031.94
468.707	991.94
468.927	1012.94
469.146	997.94
469.365	1037.94
469.585	1037.94
469.804	1056.94
470.023	1106.94
470.243	1092.94
470.462	1114.94
470.681	1109.94
470.901	1099.94
471.12	1108.94
471.339	1101.94
471.558	1043.94
471.777	1030.94
471.997	1029.94
472.216	1010.94
472.435	1012.94
472.654	994.94
472.873	984.94
473.092	1015.94
473.311	1016.94
473.53	994.94
473.749	1007.94
473.968	985.94
474.187	979.94
474.406	974.94
474.625	1002.94
474.844	979.94
475.063	986.94
475.282	989.94
475.501	995.94
475.72	1009.94
475.939	1006.94
476.158	1021.94
476.377	1027.94
476.596	1031.94
476.814	1066.94
477.033	1030.94
477.252	1046.94
477.471	1074.94
477.69	1135.94
477.908	1170.94
478.127	1192.94
478.346	1192.94
478.564	1215.94
478.783	1266.94
479.002	1281.94
479.22	1257.94
479.439	1244.94
479.658	1247.94
479.876	1267.94
480.095	1292.94
480.313	1323.94
480.532	1371.94
480.751	1346.94
480.969	1317.94
481.188	1209.94
481.406	1200.94
481.624	1148.94
481.843	1139.94
482.061	1157.94
482.28	1140.94
482.498	1153.94
482.717	1124.94
482.935	1122.94
483.153	1140.94
483.372	1123.94
483.59	1132.94
483.808	1132.94
484.027	1143.94
484.245	1135.94
484.463	1111.94
484.681	1149.94
484.9	1185.94
485.118	1146.94
485.336	1188.94
485.554	1176.94
485.772	1234.94
485.99	1187.94
486.209	1183.94
486.427	1175.94
486.645	1191.94
486.863	1202.94
487.081	1183.94
487.299	1178.94
487.517	1184.94
487.735	1187.94
487.953	1206.94
488.171	1196.94
488.389	1192.94
488.607	1169.94
488.825	1163.94
489.043	1181.94
489.261	1166.94
489.479	1214.94
489.696	1196.94
489.914	1171.94
490.132	1188.94
490.35	1221.94
490.568	1199.94
490.786	1178.94
491.003	1197.94
491.221	1224.94
491.439	1196.94
491.657	1207.94
491.874	1203.94
492.092	1218.94
492.31	1199.94
492.527	1229.94
492.745	1245.94
492.963	1239.94
493.18	1216.94
493.398	1253.94
493.615	1239.94
493.833	1220.94
494.05	1256.94
494.268	1299.94
494.485	1266.94
494.703	1301.94
494.92	1276.94
495.138	1276.94
