Data from NiCl2@0.5M.TitratingCurve.Agarose3%dH2O.NegLispCup.LampEnergy10.LIBS07252019_HRD10591_18-20-10-571.txt Node
Date: Thu Jul 25 18:20:10 EDT 2019
User: cochatt
Spectrometer: HR+D1059
Trigger mode: 1
Integration Time (sec): 1.000000E-1
Scans to average: 1
Electric dark correction enabled: true
Nonlinearity correction enabled: false
Boxcar width: 0
XAxis mode: Wavelengths
Number of Pixels in Spectrum: 2048
>>>>>Begin Spectral Data<<<<<
223.165	-6
223.4	-6
223.635	-6
223.869	-12
224.104	-27
224.338	-16
224.573	-4
224.808	-18
225.042	-14
225.277	-13
225.511	6
225.746	16
225.98	17
226.215	-9
226.449	10
226.683	18
226.918	34
227.152	18
227.387	25
227.621	37
227.856	42
228.09	43
228.324	49
228.559	56
228.793	61
229.027	112
229.262	114
229.496	117
229.73	111
229.964	138
230.199	143
230.433	142
230.667	143
230.901	147
231.136	122
231.37	147
231.604	139
231.838	168
232.072	150
232.306	152
232.541	147
232.775	156
233.009	148
233.243	152
233.477	144
233.711	145
233.945	143
234.179	141
234.413	153
234.647	163
234.881	167
235.115	162
235.349	168
235.583	162
235.817	140
236.051	158
236.285	158
236.519	162
236.753	163
236.987	162
237.221	152
237.455	153
237.689	179
237.922	160
238.156	164
238.39	171
238.624	153
238.858	157
239.091	171
239.325	172
239.559	166
239.793	179
240.027	193
240.26	198
240.494	171
240.728	182
240.961	191
241.195	184
241.429	186
241.662	202
241.896	201
242.13	195
242.363	192
242.597	198
242.83	196
243.064	200
243.298	199
243.531	199
243.765	187
243.998	211
244.232	216
244.465	214
244.699	217
244.932	212
245.166	225
245.399	230
245.633	215
245.866	232
246.099	207
246.333	224
246.566	216
246.8	215
247.033	236
247.266	212
247.5	230
247.733	228
247.966	213
248.2	231
248.433	235
248.666	225
248.899	256
249.133	213
249.366	258
249.599	244
249.832	257
250.066	246
250.299	254
250.532	254
250.765	274
250.998	263
251.231	257
251.465	274
251.698	259
251.931	277
252.164	276
252.397	278
252.63	263
252.863	269
253.096	281
253.329	283
253.562	271
253.795	266
254.028	286
254.261	270
254.494	298
254.727	264
254.96	284
255.193	277
255.426	291
255.659	280
255.892	295
256.124	297
256.357	305
256.59	302
256.823	307
257.056	293
257.289	310
257.521	314
257.754	308
257.987	310
258.22	308
258.452	292
258.685	328
258.918	326
259.151	331
259.383	317
259.616	299
259.849	330
260.081	322
260.314	332
260.547	290
260.779	318
261.012	324
261.244	315
261.477	316
261.71	344
261.942	319
262.175	339
262.407	346
262.64	317
262.872	356
263.105	368
263.337	340
263.57	355
263.802	362
264.035	350
264.267	341
264.499	348
264.732	350
264.964	353
265.197	363
265.429	355
265.661	356
265.894	353
266.126	372
266.358	363
266.591	376
266.823	366
267.055	369
267.287	356
267.52	361
267.752	366
267.984	396
268.216	381
268.448	382
268.681	381
268.913	374
269.145	370
269.377	394
269.609	397
269.841	397
270.073	375
270.306	380
270.538	411
270.77	411
271.002	381
271.234	384
271.466	405
271.698	386
271.93	410
272.162	401
272.394	409
272.626	399
272.858	406
273.09	408
273.322	424
273.553	432
273.785	403
274.017	408
274.249	409
274.481	400
274.713	418
274.945	406
275.176	426
275.408	426
275.64	434
275.872	430
276.104	439
276.335	439
276.567	435
276.799	416
277.031	451
277.262	443
277.494	445
277.726	460
277.957	430
278.189	447
278.421	454
278.652	436
278.884	418
279.115	454
279.347	447
279.579	450
279.81	457
280.042	479
280.273	466
280.505	466
280.736	451
280.968	447
281.199	476
281.431	474
281.662	463
281.894	491
282.125	465
282.356	476
282.588	469
282.819	500
283.051	479
283.282	506
283.513	510
283.745	524
283.976	457
284.207	486
284.439	458
284.67	487
284.901	514
285.132	510
285.364	519
285.595	487
285.826	514
286.057	525
286.288	521
286.52	504
286.751	515
286.982	520
287.213	499
287.444	519
287.675	522
287.906	520
288.138	515
288.369	538
288.6	517
288.831	516
289.062	532
289.293	524
289.524	511
289.755	540
289.986	543
290.217	537
290.448	542
290.679	542
290.91	544
291.141	536
291.371	516
291.602	553
291.833	569
292.064	556
292.295	559
292.526	553
292.757	537
292.987	544
293.218	549
293.449	559
293.68	582
293.91	558
294.141	562
294.372	570
294.603	534
294.833	569
295.064	564
295.295	544
295.525	539
295.756	583
295.987	573
296.217	553
296.448	577
296.679	584
296.909	573
297.14	571
297.37	580
297.601	595
297.831	577
298.062	597
298.292	612
298.523	632
298.753	612
298.984	620
299.214	596
299.445	592
299.675	603
299.905	625
300.136	595
300.366	620
300.597	645
300.827	631
301.057	630
301.288	626
301.518	638
301.748	618
301.979	652
302.209	632
302.439	640
302.669	625
302.9	643
303.13	637
303.36	646
303.59	647
303.82	618
304.051	646
304.281	638
304.511	650
304.741	613
304.971	632
305.201	634
305.431	646
305.661	660
305.891	640
306.121	658
306.352	626
306.582	621
306.812	595
307.042	619
307.272	615
307.502	611
307.731	630
307.961	636
308.191	598
308.421	622
308.651	622
308.881	608
309.111	624
309.341	628
309.571	605
309.8	611
310.03	648
310.26	650
310.49	674
310.72	670
310.949	644
311.179	634
311.409	642
311.639	642
311.868	661
312.098	663
312.328	656
312.557	658
312.787	658
313.017	665
313.246	678
313.476	690
313.706	678
313.935	662
314.165	661
314.394	667
314.624	681
314.853	668
315.083	693
315.312	690
315.542	702
315.771	628
316.001	665
316.23	681
316.46	678
316.689	667
316.919	663
317.148	677
317.377	682
317.607	667
317.836	643
318.065	652
318.295	674
318.524	688
318.753	677
318.983	659
319.212	668
319.441	670
319.67	656
319.9	658
320.129	664
320.358	674
320.587	658
320.816	670
321.046	643
321.275	693
321.504	683
321.733	684
321.962	688
322.191	702
322.42	678
322.649	698
322.878	693
323.108	671
323.337	673
323.566	724
323.795	678
324.024	694
324.253	695
324.482	689
324.71	712
324.939	725
325.168	698
325.397	679
325.626	696
325.855	722
326.084	716
326.313	734
326.542	730
326.77	733
326.999	709
327.228	732
327.457	739
327.686	712
327.914	726
328.143	719
328.372	738
328.6	708
328.829	730
329.058	739
329.287	755
329.515	764
329.744	743
329.972	776
330.201	742
330.43	747
330.658	746
330.887	768
331.115	758
331.344	769
331.572	762
331.801	750
332.03	804
332.258	793
332.486	847
332.715	828
332.943	824
333.172	872
333.4	878
333.629	916
333.857	927
334.085	942
334.314	906
334.542	899
334.771	906
334.999	926
335.227	920
335.455	910
335.684	924
335.912	890
336.14	873
336.369	876
336.597	913
336.825	898
337.053	929
337.281	880
337.51	890
337.738	867
337.966	835
338.194	868
338.422	851
338.65	833
338.878	839
339.106	814
339.334	840
339.562	837
339.79	773
340.018	778
340.246	763
340.474	727
340.702	752
340.93	754
341.158	754
341.386	784
341.614	843
341.842	812
342.07	780
342.298	787
342.526	781
342.754	781
342.981	773
343.209	784
343.437	837
343.665	863
343.893	878
344.12	914
344.348	863
344.576	858
344.804	872
345.031	829
345.259	814
345.487	776
345.714	778
345.942	810
346.17	831
346.397	811
346.625	774
346.853	723
347.08	744
347.308	773
347.535	747
347.763	761
347.99	756
348.218	729
348.445	734
348.673	744
348.9	743
349.128	748
349.355	760
349.583	789
349.81	732
350.037	704
350.265	712
350.492	713
350.72	694
350.947	737
351.174	740
351.402	760
351.629	747
351.856	762
352.083	744
352.311	720
352.538	756
352.765	791
352.992	713
353.22	721
353.447	697
353.674	670
353.901	694
354.128	705
354.355	719
354.583	700
354.81	739
355.037	701
355.264	699
355.491	714
355.718	694
355.945	717
356.172	719
356.399	722
356.626	719
356.853	742
357.08	716
357.307	723
357.534	710
357.761	714
357.988	690
358.215	699
358.441	690
358.668	704
358.895	683
359.122	687
359.349	704
359.576	678
359.802	681
360.029	704
360.256	705
360.483	682
360.709	686
360.936	687
361.163	709
361.39	720
361.616	722
361.843	721
362.07	760
362.296	731
362.523	698
362.749	696
362.976	700
363.203	675
363.429	688
363.656	710
363.882	722
364.109	694
364.335	660
364.562	691
364.788	696
365.015	671
365.241	701
365.468	719
365.694	668
365.92	695
366.147	688
366.373	727
366.599	710
366.826	694
367.052	687
367.278	710
367.505	680
367.731	704
367.957	676
368.184	694
368.41	707
368.636	702
368.862	716
369.089	682
369.315	720
369.541	726
369.767	723
369.993	705
370.219	741
370.445	727
370.672	748
370.898	735
371.124	734
371.35	719
371.576	707
371.802	760
372.028	750
372.254	756
372.48	740
372.706	753
372.932	750
373.158	770
373.384	751
373.61	750
373.835	753
374.061	772
374.287	754
374.513	755
374.739	779
374.965	790
375.191	816
375.416	808
375.642	794
375.868	784
376.094	754
376.319	752
376.545	747
376.771	739
376.997	741
377.222	736
377.448	730
377.674	725
377.899	724
378.125	739
378.35	722
378.576	730
378.802	705
379.027	752
379.253	732
379.478	732
379.704	701
379.929	745
380.155	744
380.38	734
380.606	724
380.831	719
381.057	740
381.282	711
381.507	720
381.733	751
381.958	734
382.184	734
382.409	734
382.634	734
382.86	765
383.085	748
383.31	793
383.535	794
383.761	790
383.986	785
384.211	838
384.436	798
384.662	834
384.887	833
385.112	838
385.337	825
385.562	836
385.787	857
386.013	865
386.238	867
386.463	840
386.688	880
386.913	844
387.138	862
387.363	850
387.588	864
387.813	856
388.038	851
388.263	859
388.488	871
388.713	848
388.938	854
389.163	863
389.387	869
389.612	830
389.837	825
390.062	854
390.287	841
390.512	851
390.736	862
390.961	881
391.186	861
391.411	893
391.636	918
391.86	931
392.085	956
392.31	916
392.534	953
392.759	911
392.984	914
393.208	902
393.433	928
393.658	905
393.882	920
394.107	914
394.331	891
394.556	896
394.78	915
395.005	954
395.229	912
395.454	943
395.678	951
395.903	942
396.127	939
396.352	950
396.576	916
396.801	929
397.025	949
397.249	958
397.474	960
397.698	970
397.922	1017
398.147	973
398.371	1024
398.595	1041
398.82	1056
399.044	1130
399.268	1206
399.492	1339
399.717	1430
399.941	1389
400.165	1362
400.389	1275
400.613	1216
400.837	1134
401.062	1122
401.286	1090
401.51	1062
401.734	1095
401.958	1102
402.182	1072
402.406	1083
402.63	1072
402.854	1103
403.078	1114
403.302	1131
403.526	1141
403.75	1129
403.974	1144
404.198	1145
404.422	1162
404.645	1143
404.869	1179
405.093	1170
405.317	1162
405.541	1153
405.765	1175
405.988	1136
406.212	1177
406.436	1184
406.66	1176
406.883	1219
407.107	1265
407.331	1282
407.555	1309
407.778	1309
408.002	1311
408.226	1282
408.449	1288
408.673	1221
408.896	1206
409.12	1215
409.344	1223
409.567	1204
409.791	1214
410.014	1182
410.238	1181
410.461	1186
410.685	1179
410.908	1119
411.132	1127
411.355	1130
411.578	1139
411.802	1138
412.025	1142
412.249	1126
412.472	1119
412.695	1112
412.919	1092
413.142	1114
413.365	1119
413.589	1122
413.812	1081
414.035	1086
414.258	1088
414.482	1088
414.705	1112
414.928	1081
415.151	1096
415.374	1103
415.597	1067
415.821	1031
416.044	1064
416.267	1053
416.49	1060
416.713	1027
416.936	1056
417.159	1046
417.382	1034
417.605	1039
417.828	1050
418.051	1072
418.274	1091
418.497	1077
418.72	1092
418.943	1073
419.166	1111
419.389	1217
419.611	1176
419.834	1155
420.057	1134
420.28	1105
420.503	1067
420.726	1058
420.948	1026
421.171	1072
421.394	1076
421.617	1041
421.839	1099
422.062	1070
422.285	1052
422.507	1088
422.73	1091
422.953	1091
423.175	1077
423.398	1090
423.621	1097
423.843	1089
424.066	1078
424.288	1093
424.511	1097
424.733	1065
424.956	1107
425.178	1071
425.401	1058
425.623	1078
425.846	1047
426.068	1061
426.291	1026
426.513	1033
426.735	1035
426.958	1029
427.18	1000
427.402	1015
427.625	1006
427.847	1010
428.069	1008
428.292	987
428.514	990
428.736	1031
428.958	1007
429.181	994
429.403	983
429.625	948
429.847	975
430.069	982
430.292	995
430.514	973
430.736	978
430.958	985
431.18	985
431.402	994
431.624	963
431.846	978
432.068	996
432.29	1019
432.512	984
432.734	1025
432.956	1008
433.178	1025
433.4	1042
433.622	1023
433.844	1000
434.066	1015
434.287	1013
434.509	1065
434.731	1077
434.953	1074
435.175	1088
435.397	1090
435.618	1054
435.84	1023
436.062	1034
436.284	1023
436.505	1009
436.727	994
436.949	1031
437.17	1011
437.392	998
437.614	991
437.835	976
438.057	965
438.278	983
438.5	976
438.721	986
438.943	990
439.165	964
439.386	988
439.608	979
439.829	1010
440.05	999
440.272	1016
440.493	1039
440.715	1045
440.936	1040
441.158	1049
441.379	1090
441.6	1111
441.822	1105
442.043	1106
442.264	1050
442.486	1082
442.707	1096
442.928	1078
443.149	1079
443.371	1091
443.592	1149
443.813	1114
444.034	1115
444.255	1151
444.476	1180
444.698	1232
444.919	1263
445.14	1310
445.361	1228
445.582	1128
445.803	1122
446.024	1076
446.245	1068
446.466	1065
446.687	1023
446.908	1008
447.129	968
447.35	987
447.571	1005
447.792	961
448.013	971
448.234	955
448.455	947
448.675	934
448.896	956
449.117	922
449.338	946
449.559	915
449.779	930
450	925
450.221	914
450.442	930
450.662	956
450.883	946
451.104	965
451.324	960
451.545	937
451.766	954
451.986	903
452.207	932
452.428	941
452.648	948
452.869	903
453.089	920
453.31	917
453.53	890
453.751	880
453.971	920
454.192	926
454.412	904
454.633	912
454.853	875
455.073	878
455.294	898
455.514	918
455.734	895
455.955	892
456.175	879
456.395	866
456.616	865
456.836	887
457.056	880
457.276	875
457.497	911
457.717	890
457.937	889
458.157	890
458.377	909
458.598	914
458.818	958
459.038	974
459.258	992
459.478	1019
459.698	1072
459.918	1080
460.138	1106
460.358	1164
460.578	1115
460.798	1174
461.018	1190
461.238	1171
461.458	1188
461.678	1170
461.898	1164
462.118	1186
462.338	1220
462.558	1296
462.777	1335
462.997	1375
463.217	1433
463.437	1490
463.657	1399
463.876	1373
464.096	1321
464.316	1319
464.536	1320
464.755	1289
464.975	1234
465.195	1176
465.414	1149
465.634	1115
465.854	1107
466.073	1049
466.293	1048
466.512	1013
466.732	1006
466.951	1012
467.171	990
467.391	988
467.61	1011
467.829	996
468.049	973
468.268	980
468.488	947
468.707	964
468.927	958
469.146	961
469.365	985
469.585	950
469.804	989
470.023	990
470.243	1000
470.462	1016
470.681	1025
470.901	987
471.12	982
471.339	1002
471.558	993
471.777	994
471.997	966
472.216	962
472.435	970
472.654	953
472.873	962
473.092	940
473.311	952
473.53	960
473.749	932
473.968	944
474.187	955
474.406	923
474.625	939
474.844	940
475.063	949
475.282	951
475.501	950
475.72	971
475.939	963
476.158	972
476.377	987
476.596	984
476.814	1009
477.033	1007
477.252	1055
477.471	1042
477.69	1073
477.908	1098
478.127	1085
478.346	1086
478.564	1117
478.783	1124
479.002	1167
479.22	1200
479.439	1186
479.658	1155
479.876	1185
480.095	1184
480.313	1179
480.532	1206
480.751	1201
480.969	1152
481.188	1164
481.406	1141
481.624	1123
481.843	1060
482.061	1077
482.28	1090
482.498	1074
482.717	1081
482.935	1092
483.153	1104
483.372	1122
483.59	1112
483.808	1104
484.027	1106
484.245	1107
484.463	1094
484.681	1129
484.9	1144
485.118	1141
485.336	1162
485.554	1146
485.772	1155
485.99	1136
486.209	1117
486.427	1139
486.645	1164
486.863	1168
487.081	1150
487.299	1145
487.517	1123
487.735	1132
487.953	1194
488.171	1164
488.389	1156
488.607	1136
488.825	1118
489.043	1140
489.261	1130
489.479	1152
489.696	1134
489.914	1132
490.132	1138
490.35	1129
490.568	1160
490.786	1178
491.003	1168
491.221	1188
491.439	1168
491.657	1174
491.874	1161
492.092	1201
492.31	1188
492.527	1203
492.745	1200
492.963	1194
493.18	1194
493.398	1202
493.615	1205
493.833	1238
494.05	1212
494.268	1226
494.485	1238
494.703	1242
494.92	1236
495.138	1218
495.355	1239
495.573	1245
495.79	1256
496.008	1250
496.225	1249
496.442	1276
496.66	1332
496.877	1307
497.094	1310
497.312	1346
497.529	1372
497.746	1399
497.963	1472
498.181	1512
498.398	1573
498.615	1630
498.832	1706
499.049	1816
499.267	1906
499.484	2069
499.701	2222
499.918	2397
500.135	2558
500.352	2802
500.569	2959
500.786	2926
501.003	2780
501.22	2558
501.437	2378
501.654	2200
501.871	2046
502.088	1923
502.305	1817
502.522	1740
502.739	1642
502.956	1564
503.172	1503
503.389	1462
503.606	1446
503.823	1410
504.04	1378
504.256	1342
504.473	1403
504.69	1390
504.907	1351
505.123	1322
505.34	1249
505.557	1202
505.773	1194
505.99	1165
506.207	1131
506.423	1123
506.64	1128
506.856	1077
507.073	1079
507.289	1061
507.506	1068
507.722	1082
507.939	1086
508.155	1070
508.372	1065
508.588	1034
508.805	1055
509.021	998
509.238	994
509.454	1010
509.67	996
509.887	995
510.103	986
510.319	1001
510.536	969
510.752	963
510.968	948
511.184	944
511.401	987
511.617	989
511.833	969
512.049	960
512.265	954
512.481	959
512.698	943
512.914	950
513.13	962
513.346	959
513.562	977
513.778	962
513.994	953
514.21	988
514.426	984
514.642	957
514.858	989
515.074	996
515.29	1015
515.506	1032
515.721	1017
515.937	1006
516.153	1016
516.369	1060
516.585	1095
516.801	1094
517.016	1107
517.232	1194
517.448	1196
517.664	1233
517.879	1239
518.095	1259
518.311	1178
518.527	1179
518.742	1170
518.958	1140
519.173	1096
519.389	1070
519.605	1054
519.82	1019
520.036	1013
520.251	998
520.467	992
520.682	987
520.898	978
521.113	960
521.329	954
521.544	938
521.76	940
521.975	927
522.19	913
522.406	928
522.621	904
522.836	892
523.052	893
523.267	900
523.482	910
523.698	902
523.913	885
524.128	896
524.343	894
524.559	896
524.774	902
524.989	900
525.204	888
525.419	872
525.634	867
525.849	865
526.064	880
526.28	859
526.495	885
526.71	866
526.925	838
527.14	840
527.355	860
527.57	841
527.785	886
527.999	862
528.214	859
528.429	881
528.644	846
528.859	870
529.074	848
529.289	856
529.503	853
529.718	850
529.933	839
530.148	826
530.363	862
530.577	840
530.792	848
531.007	822
531.221	822
531.436	824
531.651	840
531.865	865
532.08	848
532.295	853
532.509	843
532.724	843
532.938	856
533.153	860
533.367	842
533.582	848
533.796	840
534.011	841
534.225	843
534.44	812
534.654	790
534.868	816
535.083	837
535.297	833
535.511	806
535.726	830
535.94	827
536.154	813
536.369	820
536.583	798
536.797	820
537.011	787
537.225	792
537.44	776
537.654	798
537.868	758
538.082	780
538.296	792
538.51	790
538.724	771
538.938	798
539.153	753
539.367	792
539.581	779
539.795	760
540.009	752
540.222	761
540.436	752
540.65	752
540.864	786
541.078	773
541.292	774
541.506	771
541.72	774
541.934	754
542.147	803
542.361	774
542.575	764
542.789	788
543.002	764
543.216	737
543.43	766
543.644	728
543.857	744
544.071	753
544.285	731
544.498	776
544.712	786
544.925	789
545.139	770
545.352	814
545.566	789
545.779	775
545.993	776
546.206	806
546.42	782
546.633	766
546.847	786
547.06	774
547.274	786
547.487	778
547.7	796
547.914	780
548.127	799
548.34	798
548.554	771
548.767	784
548.98	801
549.193	803
549.407	779
549.62	776
549.833	799
550.046	785
550.259	787
550.473	798
550.686	772
550.899	777
551.112	790
551.325	758
551.538	769
551.751	770
551.964	756
552.177	789
552.39	747
552.603	768
552.816	812
553.029	818
553.242	824
553.455	843
553.667	819
553.88	816
554.093	814
554.306	777
554.519	776
554.732	755
554.944	768
555.157	727
555.37	731
555.583	711
555.795	706
556.008	683
556.221	682
556.433	697
556.646	680
