Data from NiCl2@0.25M.TitratingCurve.Agarose3%dH2O.NegLispCup.LampEnergy10.LIBS07252019_HRD10591_18-25-50-574.txt Node
Date: Thu Jul 25 18:25:50 EDT 2019
User: cochatt
Spectrometer: HR+D1059
Trigger mode: 1
Integration Time (sec): 1.000000E-1
Scans to average: 1
Electric dark correction enabled: true
Nonlinearity correction enabled: false
Boxcar width: 0
XAxis mode: Wavelengths
Number of Pixels in Spectrum: 2048
>>>>>Begin Spectral Data<<<<<
223.165	-21.38
223.4	-21.38
223.635	-21.38
223.869	-31.38
224.104	-31.38
224.338	-27.38
224.573	-12.38
224.808	-10.38
225.042	-9.38
225.277	-7.38
225.511	18.62
225.746	16.62
225.98	19.62
226.215	11.62
226.449	9.62
226.683	19.62
226.918	27.62
227.152	27.62
227.387	39.62
227.621	41.62
227.856	47.62
228.09	48.62
228.324	60.62
228.559	53.62
228.793	76.62
229.027	116.62
229.262	124.62
229.496	123.62
229.73	133.62
229.964	131.62
230.199	134.62
230.433	140.62
230.667	140.62
230.901	140.62
231.136	129.62
231.37	135.62
231.604	150.62
231.838	138.62
232.072	142.62
232.306	152.62
232.541	140.62
232.775	144.62
233.009	157.62
233.243	142.62
233.477	153.62
233.711	160.62
233.945	152.62
234.179	153.62
234.413	163.62
234.647	163.62
234.881	155.62
235.115	140.62
235.349	158.62
235.583	173.62
235.817	167.62
236.051	168.62
236.285	141.62
236.519	153.62
236.753	165.62
236.987	164.62
237.221	158.62
237.455	169.62
237.689	160.62
237.922	167.62
238.156	145.62
238.39	184.62
238.624	181.62
238.858	165.62
239.091	177.62
239.325	155.62
239.559	185.62
239.793	183.62
240.027	188.62
240.26	187.62
240.494	194.62
240.728	193.62
240.961	186.62
241.195	198.62
241.429	184.62
241.662	186.62
241.896	187.62
242.13	207.62
242.363	191.62
242.597	193.62
242.83	215.62
243.064	199.62
243.298	208.62
243.531	216.62
243.765	222.62
243.998	235.62
244.232	236.62
244.465	223.62
244.699	217.62
244.932	203.62
245.166	236.62
245.399	218.62
245.633	211.62
245.866	222.62
246.099	214.62
246.333	219.62
246.566	233.62
246.8	216.62
247.033	224.62
247.266	224.62
247.5	218.62
247.733	228.62
247.966	231.62
248.2	269.62
248.433	261.62
248.666	237.62
248.899	261.62
249.133	267.62
249.366	253.62
249.599	251.62
249.832	264.62
250.066	247.62
250.299	247.62
250.532	267.62
250.765	264.62
250.998	278.62
251.231	263.62
251.465	271.62
251.698	263.62
251.931	270.62
252.164	253.62
252.397	275.62
252.63	288.62
252.863	268.62
253.096	287.62
253.329	283.62
253.562	280.62
253.795	278.62
254.028	283.62
254.261	282.62
254.494	285.62
254.727	287.62
254.96	293.62
255.193	295.62
255.426	296.62
255.659	296.62
255.892	285.62
256.124	295.62
256.357	286.62
256.59	295.62
256.823	308.62
257.056	313.62
257.289	303.62
257.521	283.62
257.754	308.62
257.987	301.62
258.22	312.62
258.452	285.62
258.685	307.62
258.918	311.62
259.151	325.62
259.383	309.62
259.616	329.62
259.849	318.62
260.081	343.62
260.314	326.62
260.547	323.62
260.779	328.62
261.012	327.62
261.244	336.62
261.477	326.62
261.71	326.62
261.942	341.62
262.175	360.62
262.407	352.62
262.64	335.62
262.872	329.62
263.105	341.62
263.337	317.62
263.57	349.62
263.802	363.62
264.035	356.62
264.267	350.62
264.499	357.62
264.732	355.62
264.964	352.62
265.197	365.62
265.429	358.62
265.661	353.62
265.894	358.62
266.126	374.62
266.358	378.62
266.591	363.62
266.823	383.62
267.055	380.62
267.287	363.62
267.52	371.62
267.752	389.62
267.984	384.62
268.216	395.62
268.448	384.62
268.681	378.62
268.913	376.62
269.145	379.62
269.377	397.62
269.609	384.62
269.841	401.62
270.073	368.62
270.306	398.62
270.538	398.62
270.77	396.62
271.002	390.62
271.234	396.62
271.466	383.62
271.698	391.62
271.93	391.62
272.162	398.62
272.394	409.62
272.626	407.62
272.858	385.62
273.09	381.62
273.322	399.62
273.553	409.62
273.785	423.62
274.017	407.62
274.249	405.62
274.481	415.62
274.713	428.62
274.945	419.62
275.176	405.62
275.408	415.62
275.64	407.62
275.872	421.62
276.104	418.62
276.335	436.62
276.567	430.62
276.799	432.62
277.031	439.62
277.262	435.62
277.494	438.62
277.726	442.62
277.957	429.62
278.189	446.62
278.421	442.62
278.652	450.62
278.884	456.62
279.115	456.62
279.347	455.62
279.579	451.62
279.81	452.62
280.042	458.62
280.273	462.62
280.505	478.62
280.736	484.62
280.968	464.62
281.199	458.62
281.431	472.62
281.662	487.62
281.894	487.62
282.125	449.62
282.356	476.62
282.588	469.62
282.819	489.62
283.051	487.62
283.282	495.62
283.513	489.62
283.745	480.62
283.976	494.62
284.207	479.62
284.439	463.62
284.67	479.62
284.901	508.62
285.132	517.62
285.364	499.62
285.595	506.62
285.826	479.62
286.057	495.62
286.288	516.62
286.52	501.62
286.751	509.62
286.982	534.62
287.213	517.62
287.444	496.62
287.675	519.62
287.906	532.62
288.138	536.62
288.369	527.62
288.6	507.62
288.831	533.62
289.062	547.62
289.293	522.62
289.524	532.62
289.755	535.62
289.986	523.62
290.217	529.62
290.448	540.62
290.679	529.62
290.91	547.62
291.141	526.62
291.371	523.62
291.602	542.62
291.833	544.62
292.064	526.62
292.295	545.62
292.526	549.62
292.757	523.62
292.987	543.62
293.218	549.62
293.449	546.62
293.68	536.62
293.91	544.62
294.141	553.62
294.372	539.62
294.603	543.62
294.833	544.62
295.064	534.62
295.295	572.62
295.525	541.62
295.756	554.62
295.987	560.62
296.217	544.62
296.448	543.62
296.679	567.62
296.909	560.62
297.14	592.62
297.37	596.62
297.601	577.62
297.831	582.62
298.062	575.62
298.292	583.62
298.523	606.62
298.753	602.62
298.984	601.62
299.214	603.62
299.445	607.62
299.675	609.62
299.905	605.62
300.136	577.62
300.366	600.62
300.597	601.62
300.827	604.62
301.057	632.62
301.288	615.62
301.518	600.62
301.748	623.62
301.979	639.62
302.209	599.62
302.439	603.62
302.669	620.62
302.9	596.62
303.13	583.62
303.36	616.62
303.59	598.62
303.82	586.62
304.051	614.62
304.281	615.62
304.511	607.62
304.741	628.62
304.971	624.62
305.201	609.62
305.431	618.62
305.661	619.62
305.891	615.62
306.121	594.62
306.352	607.62
306.582	608.62
306.812	620.62
307.042	588.62
307.272	593.62
307.502	593.62
307.731	605.62
307.961	615.62
308.191	591.62
308.421	595.62
308.651	585.62
308.881	597.62
309.111	582.62
309.341	592.62
309.571	602.62
309.8	585.62
310.03	575.62
310.26	631.62
310.49	609.62
310.72	600.62
310.949	590.62
311.179	603.62
311.409	608.62
311.639	602.62
311.868	604.62
312.098	611.62
312.328	621.62
312.557	637.62
312.787	623.62
313.017	643.62
313.246	626.62
313.476	632.62
313.706	636.62
313.935	648.62
314.165	663.62
314.394	652.62
314.624	636.62
314.853	644.62
315.083	663.62
315.312	643.62
315.542	646.62
315.771	641.62
316.001	617.62
316.23	641.62
316.46	636.62
316.689	620.62
316.919	635.62
317.148	641.62
317.377	653.62
317.607	627.62
317.836	614.62
318.065	633.62
318.295	656.62
318.524	641.62
318.753	640.62
318.983	636.62
319.212	599.62
319.441	617.62
319.67	655.62
319.9	613.62
320.129	617.62
320.358	632.62
320.587	631.62
320.816	624.62
321.046	630.62
321.275	637.62
321.504	651.62
321.733	641.62
321.962	646.62
322.191	635.62
322.42	627.62
322.649	654.62
322.878	658.62
323.108	652.62
323.337	630.62
323.566	649.62
323.795	662.62
324.024	659.62
324.253	644.62
324.482	634.62
324.71	651.62
324.939	661.62
325.168	663.62
325.397	649.62
325.626	661.62
325.855	677.62
326.084	689.62
326.313	692.62
326.542	697.62
326.77	708.62
326.999	696.62
327.228	674.62
327.457	702.62
327.686	668.62
327.914	684.62
328.143	709.62
328.372	685.62
328.6	687.62
328.829	697.62
329.058	699.62
329.287	730.62
329.515	688.62
329.744	700.62
329.972	706.62
330.201	695.62
330.43	689.62
330.658	697.62
330.887	717.62
331.115	724.62
331.344	734.62
331.572	737.62
331.801	746.62
332.03	759.62
332.258	781.62
332.486	815.62
332.715	822.62
332.943	858.62
333.172	907.62
333.4	925.62
333.629	948.62
333.857	954.62
334.085	928.62
334.314	920.62
334.542	921.62
334.771	896.62
334.999	884.62
335.227	872.62
335.455	886.62
335.684	857.62
335.912	866.62
336.14	847.62
336.369	832.62
336.597	841.62
336.825	861.62
337.053	858.62
337.281	824.62
337.51	805.62
337.738	795.62
337.966	775.62
338.194	774.62
338.422	777.62
338.65	750.62
338.878	760.62
339.106	763.62
339.334	757.62
339.562	738.62
339.79	730.62
340.018	732.62
340.246	721.62
340.474	708.62
340.702	725.62
340.93	724.62
341.158	710.62
341.386	733.62
341.614	725.62
341.842	730.62
342.07	732.62
342.298	710.62
342.526	718.62
342.754	718.62
342.981	717.62
343.209	759.62
343.437	775.62
343.665	837.62
343.893	889.62
344.12	901.62
344.348	873.62
344.576	825.62
344.804	796.62
345.031	769.62
345.259	761.62
345.487	737.62
345.714	730.62
345.942	704.62
346.17	697.62
346.397	697.62
346.625	685.62
346.853	720.62
347.08	702.62
347.308	701.62
347.535	717.62
347.763	725.62
347.99	701.62
348.218	684.62
348.445	687.62
348.673	709.62
348.9	716.62
349.128	685.62
349.355	679.62
349.583	671.62
349.81	695.62
350.037	706.62
350.265	707.62
350.492	665.62
350.72	689.62
350.947	668.62
351.174	678.62
351.402	658.62
351.629	662.62
351.856	692.62
352.083	666.62
352.311	649.62
352.538	659.62
352.765	680.62
352.992	673.62
353.22	658.62
353.447	672.62
353.674	664.62
353.901	662.62
354.128	655.62
354.355	704.62
354.583	679.62
354.81	662.62
355.037	686.62
355.264	676.62
355.491	661.62
355.718	658.62
355.945	685.62
356.172	673.62
356.399	682.62
356.626	688.62
356.853	681.62
357.08	693.62
357.307	687.62
357.534	663.62
357.761	696.62
357.988	686.62
358.215	695.62
358.441	677.62
358.668	670.62
358.895	669.62
359.122	673.62
359.349	681.62
359.576	680.62
359.802	652.62
360.029	665.62
360.256	669.62
360.483	651.62
360.709	671.62
360.936	660.62
361.163	683.62
361.39	669.62
361.616	651.62
361.843	678.62
362.07	686.62
362.296	691.62
362.523	671.62
362.749	683.62
362.976	661.62
363.203	662.62
363.429	642.62
363.656	667.62
363.882	682.62
364.109	676.62
364.335	683.62
364.562	678.62
364.788	664.62
365.015	652.62
365.241	665.62
365.468	680.62
365.694	664.62
365.92	676.62
366.147	656.62
366.373	672.62
366.599	670.62
366.826	683.62
367.052	673.62
367.278	663.62
367.505	654.62
367.731	672.62
367.957	678.62
368.184	693.62
368.41	692.62
368.636	711.62
368.862	699.62
369.089	709.62
369.315	699.62
369.541	704.62
369.767	711.62
369.993	684.62
370.219	693.62
370.445	706.62
370.672	719.62
370.898	732.62
371.124	710.62
371.35	733.62
371.576	728.62
371.802	742.62
372.028	738.62
372.254	735.62
372.48	747.62
372.706	737.62
372.932	752.62
373.158	752.62
373.384	755.62
373.61	711.62
373.835	733.62
374.061	711.62
374.287	757.62
374.513	761.62
374.739	783.62
374.965	809.62
375.191	827.62
375.416	801.62
375.642	773.62
375.868	752.62
376.094	752.62
376.319	752.62
376.545	719.62
376.771	744.62
376.997	724.62
377.222	738.62
377.448	748.62
377.674	712.62
377.899	709.62
378.125	711.62
378.35	727.62
378.576	733.62
378.802	704.62
379.027	734.62
379.253	720.62
379.478	717.62
379.704	720.62
379.929	741.62
380.155	729.62
380.38	724.62
380.606	724.62
380.831	700.62
381.057	713.62
381.282	745.62
381.507	715.62
381.733	749.62
381.958	743.62
382.184	755.62
382.409	760.62
382.634	766.62
382.86	786.62
383.085	800.62
383.31	791.62
383.535	808.62
383.761	803.62
383.986	828.62
384.211	848.62
384.436	862.62
384.662	876.62
384.887	886.62
385.112	885.62
385.337	909.62
385.562	903.62
385.787	885.62
386.013	896.62
386.238	904.62
386.463	901.62
386.688	899.62
386.913	874.62
387.138	895.62
387.363	872.62
387.588	877.62
387.813	890.62
388.038	899.62
388.263	896.62
388.488	886.62
388.713	887.62
388.938	845.62
389.163	849.62
389.387	845.62
389.612	851.62
389.837	848.62
390.062	843.62
390.287	865.62
390.512	838.62
390.736	879.62
390.961	919.62
391.186	925.62
391.411	903.62
391.636	947.62
391.86	1008.62
392.085	988.62
392.31	987.62
392.534	973.62
392.759	950.62
392.984	934.62
393.208	925.62
393.433	923.62
393.658	938.62
393.882	923.62
394.107	927.62
394.331	928.62
394.556	974.62
394.78	954.62
395.005	944.62
395.229	949.62
395.454	974.62
395.678	976.62
395.903	1005.62
396.127	1000.62
396.352	971.62
396.576	941.62
396.801	908.62
397.025	935.62
397.249	959.62
397.474	986.62
397.698	986.62
397.922	998.62
398.147	1020.62
398.371	1009.62
398.595	1071.62
398.82	1092.62
399.044	1174.62
399.268	1326.62
399.492	1494.62
399.717	1694.62
399.941	1693.62
400.165	1519.62
400.389	1346.62
400.613	1211.62
400.837	1155.62
401.062	1136.62
401.286	1113.62
401.51	1117.62
401.734	1126.62
401.958	1131.62
402.182	1167.62
402.406	1152.62
402.63	1180.62
402.854	1192.62
403.078	1197.62
403.302	1247.62
403.526	1268.62
403.75	1287.62
403.974	1317.62
404.198	1281.62
404.422	1293.62
404.645	1277.62
404.869	1275.62
405.093	1282.62
405.317	1270.62
405.541	1241.62
405.765	1210.62
405.988	1201.62
406.212	1226.62
406.436	1216.62
406.66	1244.62
406.883	1292.62
407.107	1359.62
407.331	1431.62
407.555	1486.62
407.778	1470.62
408.002	1395.62
408.226	1376.62
408.449	1349.62
408.673	1303.62
408.896	1249.62
409.12	1275.62
409.344	1275.62
409.567	1228.62
409.791	1248.62
410.014	1233.62
410.238	1238.62
410.461	1253.62
410.685	1203.62
410.908	1181.62
411.132	1162.62
411.355	1175.62
411.578	1163.62
411.802	1172.62
412.025	1166.62
412.249	1146.62
412.472	1183.62
412.695	1143.62
412.919	1107.62
413.142	1127.62
413.365	1100.62
413.589	1147.62
413.812	1086.62
414.035	1082.62
414.258	1098.62
414.482	1105.62
414.705	1119.62
414.928	1104.62
415.151	1102.62
415.374	1108.62
415.597	1101.62
415.821	1091.62
416.044	1089.62
416.267	1075.62
416.49	1088.62
416.713	1055.62
416.936	1056.62
417.159	1091.62
417.382	1087.62
417.605	1076.62
417.828	1103.62
418.051	1111.62
418.274	1110.62
418.497	1110.62
418.72	1145.62
418.943	1137.62
419.166	1185.62
419.389	1297.62
419.611	1236.62
419.834	1159.62
420.057	1132.62
420.28	1136.62
420.503	1067.62
420.726	1088.62
420.948	1098.62
421.171	1062.62
421.394	1109.62
421.617	1072.62
421.839	1091.62
422.062	1132.62
422.285	1095.62
422.507	1111.62
422.73	1076.62
422.953	1136.62
423.175	1121.62
423.398	1119.62
423.621	1124.62
423.843	1146.62
424.066	1156.62
424.288	1189.62
424.511	1155.62
424.733	1139.62
424.956	1115.62
425.178	1101.62
425.401	1081.62
425.623	1095.62
425.846	1058.62
426.068	1071.62
426.291	1092.62
426.513	1017.62
426.735	988.62
426.958	1055.62
427.18	1006.62
427.402	1008.62
427.625	996.62
427.847	977.62
428.069	972.62
428.292	984.62
428.514	951.62
428.736	965.62
428.958	948.62
429.181	937.62
429.403	947.62
429.625	947.62
429.847	934.62
430.069	907.62
430.292	945.62
430.514	926.62
430.736	953.62
430.958	951.62
431.18	941.62
431.402	947.62
431.624	976.62
431.846	971.62
432.068	976.62
432.29	963.62
432.512	975.62
432.734	963.62
432.956	986.62
433.178	987.62
433.4	970.62
433.622	954.62
433.844	983.62
434.066	976.62
434.287	984.62
434.509	1034.62
434.731	1054.62
434.953	1100.62
435.175	1131.62
435.397	1080.62
435.618	1045.62
435.84	1025.62
436.062	971.62
436.284	957.62
436.505	936.62
436.727	938.62
436.949	978.62
437.17	971.62
437.392	959.62
437.614	928.62
437.835	932.62
438.057	911.62
438.278	942.62
438.5	920.62
438.721	904.62
438.943	919.62
439.165	932.62
439.386	915.62
439.608	945.62
439.829	956.62
440.05	952.62
440.272	966.62
440.493	957.62
440.715	987.62
440.936	1017.62
441.158	1015.62
441.379	1045.62
441.6	1113.62
441.822	1100.62
442.043	1092.62
442.264	1067.62
442.486	1071.62
442.707	1061.62
442.928	1062.62
443.149	1077.62
443.371	1078.62
443.592	1079.62
443.813	1078.62
444.034	1088.62
444.255	1132.62
444.476	1177.62
444.698	1245.62
444.919	1259.62
445.14	1341.62
445.361	1174.62
445.582	1084.62
445.803	1029.62
446.024	1000.62
446.245	1025.62
446.466	988.62
446.687	985.62
446.908	981.62
447.129	932.62
447.35	947.62
447.571	923.62
447.792	910.62
448.013	899.62
448.234	872.62
448.455	876.62
448.675	863.62
448.896	866.62
449.117	856.62
449.338	868.62
449.559	876.62
449.779	844.62
450	861.62
450.221	864.62
450.442	914.62
450.662	892.62
450.883	905.62
451.104	899.62
451.324	894.62
451.545	898.62
451.766	905.62
451.986	916.62
452.207	891.62
452.428	891.62
452.648	864.62
452.869	889.62
453.089	872.62
453.31	865.62
453.53	848.62
453.751	880.62
453.971	870.62
454.192	839.62
454.412	852.62
454.633	835.62
454.853	839.62
455.073	831.62
455.294	822.62
455.514	811.62
455.734	843.62
455.955	799.62
456.175	815.62
456.395	815.62
456.616	813.62
456.836	824.62
457.056	836.62
457.276	809.62
457.497	832.62
457.717	823.62
457.937	805.62
458.157	837.62
458.377	868.62
458.598	864.62
458.818	886.62
459.038	912.62
459.258	923.62
459.478	971.62
459.698	1012.62
459.918	1024.62
460.138	1068.62
460.358	1132.62
460.578	1144.62
460.798	1140.62
461.018	1152.62
461.238	1137.62
461.458	1124.62
461.678	1134.62
461.898	1134.62
462.118	1145.62
462.338	1260.62
462.558	1282.62
462.777	1285.62
462.997	1413.62
463.217	1543.62
463.437	1564.62
463.657	1448.62
463.876	1366.62
464.096	1363.62
464.316	1328.62
464.536	1351.62
464.755	1305.62
464.975	1275.62
465.195	1178.62
465.414	1136.62
465.634	1025.62
465.854	1020.62
466.073	987.62
466.293	975.62
466.512	950.62
466.732	947.62
466.951	902.62
467.171	909.62
467.391	931.62
467.61	904.62
467.829	907.62
468.049	893.62
468.268	879.62
468.488	907.62
468.707	899.62
468.927	928.62
469.146	886.62
469.365	911.62
469.585	908.62
469.804	925.62
470.023	940.62
470.243	921.62
470.462	966.62
470.681	951.62
470.901	960.62
471.12	929.62
471.339	923.62
471.558	903.62
471.777	896.62
471.997	901.62
472.216	876.62
472.435	860.62
472.654	885.62
472.873	860.62
473.092	868.62
473.311	870.62
473.53	849.62
473.749	852.62
473.968	864.62
474.187	859.62
474.406	844.62
474.625	879.62
474.844	860.62
475.063	861.62
475.282	895.62
475.501	847.62
475.72	881.62
475.939	870.62
476.158	908.62
476.377	893.62
476.596	890.62
476.814	940.62
477.033	916.62
477.252	935.62
477.471	950.62
477.69	978.62
477.908	999.62
478.127	1031.62
478.346	1033.62
478.564	1043.62
478.783	1060.62
479.002	1089.62
479.22	1073.62
479.439	1092.62
479.658	1093.62
479.876	1070.62
480.095	1067.62
480.313	1108.62
480.532	1159.62
480.751	1161.62
480.969	1086.62
481.188	1092.62
481.406	1033.62
481.624	1021.62
481.843	990.62
482.061	984.62
482.28	1005.62
482.498	1001.62
482.717	960.62
482.935	964.62
483.153	976.62
483.372	1024.62
483.59	1017.62
483.808	1011.62
484.027	963.62
484.245	974.62
484.463	1005.62
484.681	1004.62
484.9	992.62
485.118	1043.62
485.336	1015.62
485.554	1013.62
485.772	1026.62
485.99	1033.62
486.209	1033.62
486.427	1034.62
486.645	1054.62
486.863	1043.62
487.081	1025.62
487.299	1063.62
487.517	1055.62
487.735	1041.62
487.953	1023.62
488.171	1042.62
488.389	1060.62
488.607	1029.62
488.825	1010.62
489.043	1006.62
489.261	1013.62
489.479	1043.62
489.696	1003.62
489.914	1036.62
490.132	1046.62
490.35	1039.62
490.568	1037.62
490.786	1028.62
491.003	1018.62
491.221	1036.62
491.439	1071.62
491.657	1046.62
491.874	1015.62
492.092	1058.62
492.31	1075.62
492.527	1059.62
492.745	1057.62
492.963	1086.62
493.18	1063.62
493.398	1065.62
493.615	1086.62
493.833	1102.62
494.05	1103.62
494.268	1092.62
494.485	1085.62
494.703	1099.62
494.92	1077.62
495.138	1091.62
495.355	1085.62
495.573	1104.62
495.79	1109.62
496.008	1104.62
496.225	1102.62
496.442	1092.62
496.66	1160.62
496.877	1155.62
497.094	1181.62
497.312	1206.62
497.529	1224.62
497.746	1247.62
