Data from NiCl2@0.25M.TitratingCurve.Agarose3%dH2O.NegLispCup.LampEnergy10.LIBS07252019_HRD10591_18-25-09-572.txt Node
Date: Thu Jul 25 18:25:09 EDT 2019
User: cochatt
Spectrometer: HR+D1059
Trigger mode: 1
Integration Time (sec): 1.000000E-1
Scans to average: 1
Electric dark correction enabled: true
Nonlinearity correction enabled: false
Boxcar width: 0
XAxis mode: Wavelengths
Number of Pixels in Spectrum: 2048
>>>>>Begin Spectral Data<<<<<
223.165	-14.44
223.4	-14.44
223.635	-14.44
223.869	-10.44
224.104	-12.44
224.338	-5.44
224.573	-22.44
224.808	-21.44
225.042	-6.44
225.277	-19.44
225.511	-11.44
225.746	11.56
225.98	11.56
226.215	13.56
226.449	13.56
226.683	17.56
226.918	24.56
227.152	31.56
227.387	39.56
227.621	46.56
227.856	35.56
228.09	52.56
228.324	51.56
228.559	57.56
228.793	64.56
229.027	104.56
229.262	114.56
229.496	128.56
229.73	112.56
229.964	131.56
230.199	133.56
230.433	136.56
230.667	137.56
230.901	114.56
231.136	143.56
231.37	141.56
231.604	148.56
231.838	146.56
232.072	155.56
232.306	157.56
232.541	152.56
232.775	158.56
233.009	153.56
233.243	146.56
233.477	155.56
233.711	151.56
233.945	149.56
234.179	142.56
234.413	165.56
234.647	155.56
234.881	154.56
235.115	168.56
235.349	160.56
235.583	156.56
235.817	158.56
236.051	153.56
236.285	152.56
236.519	171.56
236.753	170.56
236.987	158.56
237.221	168.56
237.455	179.56
237.689	180.56
237.922	163.56
238.156	167.56
238.39	177.56
238.624	165.56
238.858	160.56
239.091	166.56
239.325	185.56
239.559	187.56
239.793	190.56
240.027	173.56
240.26	184.56
240.494	194.56
240.728	196.56
240.961	194.56
241.195	203.56
241.429	203.56
241.662	208.56
241.896	197.56
242.13	195.56
242.363	205.56
242.597	203.56
242.83	202.56
243.064	206.56
243.298	215.56
243.531	216.56
243.765	213.56
243.998	218.56
244.232	231.56
244.465	216.56
244.699	213.56
244.932	208.56
245.166	220.56
245.399	232.56
245.633	216.56
245.866	223.56
246.099	252.56
246.333	259.56
246.566	234.56
246.8	245.56
247.033	230.56
247.266	236.56
247.5	247.56
247.733	246.56
247.966	249.56
248.2	246.56
248.433	246.56
248.666	259.56
248.899	269.56
249.133	273.56
249.366	257.56
249.599	248.56
249.832	234.56
250.066	247.56
250.299	269.56
250.532	255.56
250.765	246.56
250.998	259.56
251.231	252.56
251.465	279.56
251.698	287.56
251.931	276.56
252.164	269.56
252.397	265.56
252.63	284.56
252.863	292.56
253.096	287.56
253.329	278.56
253.562	300.56
253.795	296.56
254.028	292.56
254.261	307.56
254.494	298.56
254.727	298.56
254.96	287.56
255.193	284.56
255.426	298.56
255.659	297.56
255.892	321.56
256.124	295.56
256.357	297.56
256.59	307.56
256.823	305.56
257.056	292.56
257.289	312.56
257.521	312.56
257.754	323.56
257.987	345.56
258.22	320.56
258.452	322.56
258.685	335.56
258.918	317.56
259.151	317.56
259.383	327.56
259.616	324.56
259.849	324.56
260.081	336.56
260.314	339.56
260.547	323.56
260.779	344.56
261.012	331.56
261.244	327.56
261.477	340.56
261.71	355.56
261.942	348.56
262.175	344.56
262.407	346.56
262.64	336.56
262.872	332.56
263.105	355.56
263.337	346.56
263.57	376.56
263.802	377.56
264.035	370.56
264.267	361.56
264.499	375.56
264.732	370.56
264.964	345.56
265.197	362.56
265.429	377.56
265.661	382.56
265.894	363.56
266.126	363.56
266.358	380.56
266.591	365.56
266.823	364.56
267.055	387.56
267.287	367.56
267.52	385.56
267.752	381.56
267.984	373.56
268.216	379.56
268.448	375.56
268.681	386.56
268.913	395.56
269.145	411.56
269.377	387.56
269.609	403.56
269.841	400.56
270.073	391.56
270.306	403.56
270.538	412.56
270.77	403.56
271.002	405.56
271.234	392.56
271.466	413.56
271.698	410.56
271.93	403.56
272.162	422.56
272.394	403.56
272.626	408.56
272.858	437.56
273.09	413.56
273.322	414.56
273.553	418.56
273.785	417.56
274.017	427.56
274.249	435.56
274.481	409.56
274.713	443.56
274.945	442.56
275.176	433.56
275.408	419.56
275.64	435.56
275.872	436.56
276.104	449.56
276.335	444.56
276.567	456.56
276.799	454.56
277.031	442.56
277.262	462.56
277.494	461.56
277.726	440.56
277.957	451.56
278.189	451.56
278.421	456.56
278.652	445.56
278.884	461.56
279.115	460.56
279.347	457.56
279.579	467.56
279.81	476.56
280.042	486.56
280.273	476.56
280.505	476.56
280.736	499.56
280.968	489.56
281.199	501.56
281.431	489.56
281.662	504.56
281.894	484.56
282.125	484.56
282.356	521.56
282.588	504.56
282.819	506.56
283.051	504.56
283.282	500.56
283.513	505.56
283.745	518.56
283.976	499.56
284.207	502.56
284.439	490.56
284.67	487.56
284.901	531.56
285.132	517.56
285.364	553.56
285.595	543.56
285.826	500.56
286.057	536.56
286.288	539.56
286.52	542.56
286.751	546.56
286.982	543.56
287.213	530.56
287.444	514.56
287.675	537.56
287.906	548.56
288.138	537.56
288.369	546.56
288.6	543.56
288.831	543.56
289.062	542.56
289.293	568.56
289.524	569.56
289.755	556.56
289.986	524.56
290.217	535.56
290.448	567.56
290.679	521.56
290.91	541.56
291.141	537.56
291.371	552.56
291.602	560.56
291.833	544.56
292.064	530.56
292.295	559.56
292.526	552.56
292.757	576.56
292.987	562.56
293.218	528.56
293.449	583.56
293.68	568.56
293.91	557.56
294.141	566.56
294.372	571.56
294.603	574.56
294.833	550.56
295.064	571.56
295.295	562.56
295.525	557.56
295.756	568.56
295.987	565.56
296.217	580.56
296.448	591.56
296.679	570.56
296.909	570.56
297.14	547.56
297.37	585.56
297.601	599.56
297.831	601.56
298.062	607.56
298.292	625.56
298.523	639.56
298.753	620.56
298.984	600.56
299.214	620.56
299.445	623.56
299.675	623.56
299.905	616.56
300.136	596.56
300.366	600.56
300.597	626.56
300.827	643.56
301.057	630.56
301.288	629.56
301.518	635.56
301.748	635.56
301.979	633.56
302.209	648.56
302.439	639.56
302.669	649.56
302.9	635.56
303.13	625.56
303.36	629.56
303.59	624.56
303.82	648.56
304.051	644.56
304.281	624.56
304.511	639.56
304.741	634.56
304.971	641.56
305.201	616.56
305.431	651.56
305.661	650.56
305.891	648.56
306.121	635.56
306.352	617.56
306.582	628.56
306.812	629.56
307.042	620.56
307.272	634.56
307.502	612.56
307.731	614.56
307.961	620.56
308.191	604.56
308.421	610.56
308.651	634.56
308.881	607.56
309.111	625.56
309.341	622.56
309.571	603.56
309.8	629.56
310.03	632.56
310.26	624.56
310.49	624.56
310.72	624.56
310.949	621.56
311.179	614.56
311.409	619.56
311.639	627.56
311.868	639.56
312.098	637.56
312.328	632.56
312.557	641.56
312.787	655.56
313.017	639.56
313.246	665.56
313.476	668.56
313.706	657.56
313.935	689.56
314.165	673.56
314.394	656.56
314.624	683.56
314.853	690.56
315.083	662.56
315.312	664.56
315.542	667.56
315.771	643.56
316.001	679.56
316.23	661.56
316.46	649.56
316.689	652.56
316.919	649.56
317.148	655.56
317.377	647.56
317.607	645.56
317.836	650.56
318.065	667.56
318.295	661.56
318.524	631.56
318.753	665.56
318.983	650.56
319.212	651.56
319.441	663.56
319.67	648.56
319.9	635.56
320.129	658.56
320.358	639.56
320.587	676.56
320.816	639.56
321.046	641.56
321.275	653.56
321.504	653.56
321.733	647.56
321.962	648.56
322.191	661.56
322.42	650.56
322.649	639.56
322.878	684.56
323.108	657.56
323.337	674.56
323.566	690.56
323.795	665.56
324.024	661.56
324.253	659.56
324.482	666.56
324.71	681.56
324.939	680.56
325.168	682.56
325.397	697.56
325.626	685.56
325.855	686.56
326.084	707.56
326.313	744.56
326.542	717.56
326.77	717.56
326.999	716.56
327.228	697.56
327.457	705.56
327.686	723.56
327.914	726.56
328.143	705.56
328.372	711.56
328.6	714.56
328.829	716.56
329.058	719.56
329.287	703.56
329.515	722.56
329.744	736.56
329.972	728.56
330.201	738.56
330.43	733.56
330.658	753.56
330.887	743.56
331.115	749.56
331.344	745.56
331.572	769.56
331.801	791.56
332.03	805.56
332.258	789.56
332.486	843.56
332.715	895.56
332.943	892.56
333.172	919.56
333.4	953.56
333.629	979.56
333.857	991.56
334.085	971.56
334.314	953.56
334.542	939.56
334.771	924.56
334.999	899.56
335.227	914.56
335.455	903.56
335.684	863.56
335.912	879.56
336.14	885.56
336.369	863.56
336.597	894.56
336.825	863.56
337.053	854.56
337.281	883.56
337.51	828.56
337.738	835.56
337.966	830.56
338.194	785.56
338.422	803.56
338.65	776.56
338.878	785.56
339.106	786.56
339.334	796.56
339.562	743.56
339.79	746.56
340.018	746.56
340.246	735.56
340.474	754.56
340.702	749.56
340.93	748.56
341.158	743.56
341.386	730.56
341.614	737.56
341.842	742.56
342.07	745.56
342.298	743.56
342.526	735.56
342.754	745.56
342.981	744.56
343.209	787.56
343.437	817.56
343.665	841.56
343.893	900.56
344.12	932.56
344.348	915.56
344.576	861.56
344.804	787.56
345.031	793.56
345.259	765.56
345.487	748.56
345.714	767.56
345.942	733.56
346.17	723.56
346.397	731.56
346.625	712.56
346.853	740.56
347.08	715.56
347.308	728.56
347.535	745.56
347.763	745.56
347.99	744.56
348.218	730.56
348.445	729.56
348.673	694.56
348.9	697.56
349.128	755.56
349.355	711.56
349.583	721.56
349.81	711.56
350.037	699.56
350.265	691.56
350.492	717.56
350.72	728.56
350.947	704.56
351.174	714.56
351.402	690.56
351.629	680.56
351.856	703.56
352.083	693.56
352.311	680.56
352.538	701.56
352.765	679.56
352.992	678.56
353.22	677.56
353.447	698.56
353.674	700.56
353.901	706.56
354.128	673.56
354.355	677.56
354.583	696.56
354.81	688.56
355.037	701.56
355.264	695.56
355.491	721.56
355.718	735.56
355.945	708.56
356.172	690.56
356.399	716.56
356.626	715.56
356.853	695.56
357.08	696.56
357.307	693.56
357.534	699.56
357.761	701.56
357.988	710.56
358.215	713.56
358.441	700.56
358.668	724.56
358.895	704.56
359.122	688.56
359.349	708.56
359.576	702.56
359.802	692.56
360.029	728.56
360.256	708.56
360.483	736.56
360.709	697.56
360.936	724.56
361.163	665.56
361.39	696.56
361.616	721.56
361.843	668.56
362.07	717.56
362.296	692.56
362.523	712.56
362.749	708.56
362.976	707.56
363.203	706.56
363.429	687.56
363.656	697.56
363.882	705.56
364.109	691.56
364.335	673.56
364.562	684.56
364.788	681.56
365.015	698.56
365.241	689.56
365.468	703.56
365.694	685.56
365.92	721.56
366.147	698.56
366.373	707.56
366.599	696.56
366.826	693.56
367.052	683.56
367.278	694.56
367.505	719.56
367.731	693.56
367.957	700.56
368.184	713.56
368.41	728.56
368.636	708.56
368.862	685.56
369.089	734.56
369.315	708.56
369.541	717.56
369.767	730.56
369.993	719.56
370.219	725.56
370.445	713.56
370.672	722.56
370.898	760.56
371.124	725.56
371.35	755.56
371.576	761.56
371.802	770.56
372.028	765.56
372.254	778.56
372.48	767.56
372.706	835.56
372.932	784.56
373.158	796.56
373.384	775.56
373.61	752.56
373.835	770.56
374.061	760.56
374.287	762.56
374.513	789.56
374.739	815.56
374.965	855.56
375.191	864.56
375.416	846.56
375.642	817.56
375.868	796.56
376.094	810.56
376.319	766.56
376.545	788.56
376.771	777.56
376.997	766.56
377.222	776.56
377.448	784.56
377.674	769.56
377.899	758.56
378.125	747.56
378.35	727.56
378.576	754.56
378.802	751.56
379.027	737.56
379.253	759.56
379.478	749.56
379.704	777.56
379.929	760.56
380.155	744.56
380.38	749.56
380.606	763.56
380.831	737.56
381.057	759.56
381.282	743.56
381.507	739.56
381.733	776.56
381.958	756.56
382.184	781.56
382.409	809.56
382.634	789.56
382.86	795.56
383.085	789.56
383.31	824.56
383.535	824.56
383.761	840.56
383.986	867.56
384.211	891.56
384.436	884.56
384.662	898.56
384.887	927.56
385.112	912.56
385.337	936.56
385.562	938.56
385.787	916.56
386.013	929.56
386.238	958.56
386.463	949.56
386.688	908.56
386.913	903.56
387.138	893.56
387.363	905.56
387.588	914.56
387.813	903.56
388.038	906.56
388.263	910.56
388.488	893.56
388.713	903.56
388.938	907.56
389.163	882.56
389.387	856.56
389.612	890.56
389.837	905.56
390.062	894.56
390.287	923.56
390.512	880.56
390.736	902.56
390.961	932.56
391.186	930.56
391.411	944.56
391.636	995.56
391.86	1021.56
392.085	1053.56
392.31	1046.56
392.534	1017.56
392.759	1000.56
392.984	970.56
393.208	958.56
393.433	950.56
393.658	958.56
393.882	956.56
394.107	984.56
394.331	962.56
394.556	987.56
394.78	1000.56
395.005	1002.56
395.229	997.56
395.454	1012.56
395.678	1043.56
395.903	1027.56
396.127	1017.56
396.352	988.56
396.576	952.56
396.801	959.56
397.025	984.56
397.249	988.56
397.474	1054.56
397.698	1046.56
397.922	1027.56
398.147	1050.56
398.371	1057.56
398.595	1052.56
398.82	1100.56
399.044	1204.56
399.268	1318.56
399.492	1581.56
399.717	1796.56
399.941	1780.56
400.165	1555.56
400.389	1385.56
400.613	1298.56
400.837	1196.56
401.062	1161.56
401.286	1139.56
401.51	1141.56
401.734	1143.56
401.958	1161.56
402.182	1160.56
402.406	1203.56
402.63	1213.56
402.854	1236.56
403.078	1261.56
403.302	1276.56
403.526	1307.56
403.75	1310.56
403.974	1351.56
404.198	1377.56
404.422	1329.56
404.645	1338.56
404.869	1329.56
405.093	1337.56
405.317	1303.56
405.541	1303.56
405.765	1303.56
405.988	1272.56
406.212	1304.56
406.436	1258.56
406.66	1291.56
406.883	1336.56
407.107	1421.56
407.331	1463.56
407.555	1523.56
407.778	1482.56
408.002	1472.56
408.226	1403.56
408.449	1374.56
408.673	1309.56
408.896	1322.56
409.12	1333.56
409.344	1321.56
409.567	1289.56
409.791	1290.56
410.014	1301.56
410.238	1286.56
410.461	1247.56
410.685	1252.56
410.908	1237.56
411.132	1210.56
411.355	1180.56
411.578	1160.56
411.802	1207.56
412.025	1209.56
412.249	1210.56
412.472	1216.56
412.695	1173.56
412.919	1151.56
413.142	1146.56
413.365	1159.56
413.589	1169.56
413.812	1156.56
414.035	1124.56
414.258	1128.56
414.482	1151.56
414.705	1205.56
414.928	1165.56
415.151	1194.56
415.374	1159.56
415.597	1142.56
415.821	1115.56
416.044	1115.56
416.267	1107.56
416.49	1112.56
416.713	1101.56
416.936	1137.56
417.159	1139.56
417.382	1108.56
417.605	1142.56
417.828	1113.56
418.051	1128.56
418.274	1132.56
418.497	1118.56
418.72	1183.56
418.943	1128.56
419.166	1222.56
419.389	1324.56
419.611	1261.56
419.834	1245.56
420.057	1187.56
420.28	1131.56
420.503	1124.56
420.726	1132.56
420.948	1136.56
421.171	1092.56
421.394	1116.56
421.617	1086.56
421.839	1136.56
422.062	1155.56
422.285	1120.56
422.507	1157.56
422.73	1174.56
422.953	1178.56
423.175	1151.56
423.398	1183.56
423.621	1199.56
423.843	1210.56
424.066	1205.56
424.288	1192.56
424.511	1221.56
424.733	1205.56
424.956	1172.56
425.178	1159.56
425.401	1155.56
425.623	1148.56
425.846	1087.56
426.068	1093.56
426.291	1083.56
426.513	1079.56
426.735	1068.56
426.958	1071.56
427.18	1045.56
427.402	1031.56
427.625	1012.56
427.847	1035.56
428.069	1011.56
428.292	987.56
428.514	1023.56
428.736	1014.56
428.958	979.56
429.181	964.56
429.403	976.56
429.625	964.56
429.847	973.56
430.069	964.56
430.292	978.56
430.514	971.56
430.736	986.56
430.958	947.56
431.18	981.56
431.402	995.56
431.624	990.56
431.846	994.56
432.068	1009.56
432.29	1026.56
432.512	973.56
432.734	1031.56
432.956	992.56
433.178	1004.56
433.4	992.56
433.622	1011.56
433.844	1030.56
434.066	1024.56
434.287	1008.56
434.509	1064.56
434.731	1127.56
434.953	1134.56
435.175	1107.56
435.397	1106.56
435.618	1101.56
435.84	1022.56
436.062	1023.56
436.284	981.56
436.505	992.56
436.727	973.56
436.949	1008.56
437.17	967.56
437.392	979.56
437.614	960.56
437.835	940.56
438.057	985.56
438.278	968.56
438.5	985.56
438.721	936.56
438.943	943.56
439.165	961.56
439.386	943.56
439.608	981.56
439.829	972.56
440.05	993.56
440.272	981.56
440.493	1024.56
440.715	1044.56
440.936	1044.56
441.158	1049.56
441.379	1107.56
441.6	1155.56
441.822	1138.56
442.043	1175.56
442.264	1104.56
442.486	1057.56
442.707	1113.56
442.928	1099.56
443.149	1113.56
443.371	1124.56
443.592	1126.56
443.813	1122.56
444.034	1153.56
444.255	1148.56
444.476	1245.56
444.698	1284.56
444.919	1340.56
445.14	1431.56
445.361	1301.56
445.582	1169.56
445.803	1095.56
446.024	1064.56
446.245	1057.56
446.466	1020.56
446.687	987.56
446.908	969.56
447.129	947.56
447.35	965.56
447.571	930.56
447.792	928.56
448.013	940.56
448.234	905.56
448.455	900.56
448.675	904.56
448.896	918.56
449.117	887.56
449.338	899.56
449.559	915.56
449.779	882.56
450	898.56
450.221	930.56
450.442	901.56
450.662	883.56
450.883	935.56
451.104	947.56
451.324	938.56
451.545	921.56
451.766	971.56
451.986	902.56
452.207	908.56
452.428	910.56
452.648	913.56
452.869	892.56
453.089	885.56
453.31	904.56
453.53	886.56
453.751	880.56
453.971	871.56
454.192	897.56
454.412	868.56
454.633	858.56
454.853	861.56
455.073	864.56
455.294	850.56
455.514	861.56
455.734	859.56
455.955	828.56
456.175	845.56
456.395	863.56
456.616	819.56
456.836	856.56
457.056	869.56
457.276	836.56
457.497	841.56
457.717	848.56
457.937	837.56
458.157	868.56
458.377	875.56
458.598	899.56
458.818	905.56
459.038	962.56
459.258	979.56
459.478	996.56
459.698	1019.56
459.918	1089.56
460.138	1141.56
460.358	1176.56
460.578	1189.56
460.798	1212.56
461.018	1193.56
461.238	1184.56
461.458	1164.56
461.678	1168.56
461.898	1193.56
462.118	1185.56
462.338	1257.56
462.558	1311.56
462.777	1313.56
462.997	1460.56
463.217	1647.56
463.437	1637.56
463.657	1462.56
463.876	1441.56
464.096	1405.56
464.316	1388.56
464.536	1409.56
464.755	1367.56
464.975	1289.56
465.195	1235.56
465.414	1145.56
465.634	1071.56
465.854	1044.56
466.073	1030.56
466.293	978.56
466.512	983.56
466.732	984.56
466.951	976.56
467.171	944.56
467.391	964.56
467.61	973.56
467.829	957.56
468.049	943.56
468.268	940.56
468.488	910.56
468.707	895.56
468.927	923.56
469.146	928.56
469.365	934.56
469.585	927.56
469.804	958.56
470.023	954.56
470.243	1010.56
470.462	1009.56
470.681	991.56
470.901	997.56
471.12	1009.56
471.339	963.56
471.558	896.56
471.777	961.56
471.997	926.56
472.216	940.56
472.435	913.56
472.654	919.56
472.873	915.56
473.092	877.56
473.311	899.56
473.53	885.56
473.749	894.56
473.968	902.56
474.187	893.56
474.406	896.56
474.625	921.56
474.844	882.56
475.063	890.56
475.282	906.56
475.501	924.56
475.72	893.56
475.939	902.56
476.158	915.56
476.377	931.56
476.596	941.56
476.814	929.56
477.033	945.56
477.252	960.56
477.471	985.56
477.69	1042.56
477.908	1050.56
478.127	1046.56
478.346	1069.56
478.564	1098.56
478.783	1093.56
479.002	1154.56
479.22	1129.56
479.439	1107.56
479.658	1090.56
479.876	1108.56
480.095	1136.56
480.313	1171.56
480.532	1251.56
480.751	1236.56
480.969	1156.56
481.188	1125.56
481.406	1081.56
481.624	1077.56
481.843	1039.56
482.061	1037.56
482.28	1033.56
482.498	967.56
482.717	995.56
482.935	1018.56
483.153	1033.56
483.372	996.56
483.59	1034.56
483.808	1034.56
484.027	1017.56
484.245	1017.56
484.463	1034.56
484.681	1050.56
484.9	1034.56
485.118	1072.56
485.336	1037.56
485.554	1061.56
485.772	1074.56
485.99	1047.56
486.209	1062.56
486.427	1068.56
486.645	1078.56
486.863	1050.56
487.081	1105.56
487.299	1100.56
487.517	1066.56
487.735	1066.56
487.953	1084.56
488.171	1076.56
488.389	1040.56
488.607	1056.56
488.825	1039.56
489.043	1041.56
489.261	1058.56
489.479	1036.56
489.696	1053.56
489.914	1071.56
490.132	1071.56
490.35	1087.56
490.568	1063.56
490.786	1073.56
491.003	1087.56
491.221	1102.56
491.439	1106.56
491.657	1095.56
491.874	1081.56
492.092	1094.56
492.31	1084.56
492.527	1110.56
492.745	1131.56
492.963	1084.56
493.18	1107.56
493.398	1111.56
493.615	1157.56
493.833	1114.56
494.05	1144.56
494.268	1131.56
494.485	1165.56
494.703	1143.56
494.92	1132.56
495.138	1141.56
495.355	1116.56
495.573	1146.56
495.79	1170.56
496.008	1165.56
496.225	1173.56
496.442	1183.56
496.66	1185.56
496.877	1194.56
497.094	1187.56
497.312	1258.56
