Data from NiCl2@0.125M.TitratingCurve.Agarose3%dH2O.NegLispCup.LampEnergy10.LIBS07252019_HRD10591_18-27-18-574.txt Node
Date: Thu Jul 25 18:27:18 EDT 2019
User: cochatt
Spectrometer: HR+D1059
Trigger mode: 1
Integration Time (sec): 1.000000E-1
Scans to average: 1
Electric dark correction enabled: true
Nonlinearity correction enabled: false
Boxcar width: 0
XAxis mode: Wavelengths
Number of Pixels in Spectrum: 2048
>>>>>Begin Spectral Data<<<<<
223.165	-19.5
223.4	-19.5
223.635	-19.5
223.869	-19.5
224.104	-1.5
224.338	-13.5
224.573	-16.5
224.808	-6.5
225.042	-24.5
225.277	-14.5
225.511	-3.5
225.746	11.5
225.98	-0.5
226.215	21.5
226.449	20.5
226.683	14.5
226.918	20.5
227.152	31.5
227.387	57.5
227.621	48.5
227.856	49.5
228.09	57.5
228.324	61.5
228.559	58.5
228.793	85.5
229.027	127.5
229.262	141.5
229.496	145.5
229.73	148.5
229.964	146.5
230.199	154.5
230.433	161.5
230.667	189.5
230.901	157.5
231.136	176.5
231.37	178.5
231.604	171.5
231.838	175.5
232.072	179.5
232.306	184.5
232.541	188.5
232.775	174.5
233.009	190.5
233.243	196.5
233.477	185.5
233.711	192.5
233.945	185.5
234.179	178.5
234.413	195.5
234.647	205.5
234.881	190.5
235.115	190.5
235.349	198.5
235.583	177.5
235.817	189.5
236.051	187.5
236.285	201.5
236.519	190.5
236.753	202.5
236.987	194.5
237.221	186.5
237.455	212.5
237.689	197.5
237.922	221.5
238.156	231.5
238.39	215.5
238.624	215.5
238.858	225.5
239.091	224.5
239.325	239.5
239.559	223.5
239.793	226.5
240.027	230.5
240.26	232.5
240.494	238.5
240.728	245.5
240.961	237.5
241.195	239.5
241.429	242.5
241.662	237.5
241.896	249.5
242.13	254.5
242.363	246.5
242.597	238.5
242.83	255.5
243.064	256.5
243.298	268.5
243.531	273.5
243.765	273.5
243.998	272.5
244.232	267.5
244.465	276.5
244.699	278.5
244.932	299.5
245.166	275.5
245.399	280.5
245.633	303.5
245.866	304.5
246.099	279.5
246.333	302.5
246.566	285.5
246.8	285.5
247.033	295.5
247.266	283.5
247.5	317.5
247.733	288.5
247.966	322.5
248.2	305.5
248.433	322.5
248.666	327.5
248.899	321.5
249.133	305.5
249.366	324.5
249.599	320.5
249.832	329.5
250.066	340.5
250.299	313.5
250.532	334.5
250.765	328.5
250.998	332.5
251.231	352.5
251.465	348.5
251.698	346.5
251.931	369.5
252.164	352.5
252.397	332.5
252.63	357.5
252.863	374.5
253.096	365.5
253.329	380.5
253.562	389.5
253.795	369.5
254.028	387.5
254.261	370.5
254.494	369.5
254.727	367.5
254.96	380.5
255.193	376.5
255.426	368.5
255.659	385.5
255.892	397.5
256.124	401.5
256.357	369.5
256.59	395.5
256.823	386.5
257.056	404.5
257.289	409.5
257.521	408.5
257.754	397.5
257.987	403.5
258.22	403.5
258.452	403.5
258.685	416.5
258.918	419.5
259.151	402.5
259.383	416.5
259.616	396.5
259.849	422.5
260.081	422.5
260.314	408.5
260.547	436.5
260.779	422.5
261.012	417.5
261.244	414.5
261.477	457.5
261.71	443.5
261.942	427.5
262.175	433.5
262.407	441.5
262.64	427.5
262.872	429.5
263.105	463.5
263.337	440.5
263.57	452.5
263.802	460.5
264.035	467.5
264.267	459.5
264.499	472.5
264.732	460.5
264.964	470.5
265.197	478.5
265.429	465.5
265.661	456.5
265.894	520.5
266.126	472.5
266.358	483.5
266.591	459.5
266.823	484.5
267.055	487.5
267.287	493.5
267.52	475.5
267.752	483.5
267.984	501.5
268.216	519.5
268.448	475.5
268.681	496.5
268.913	481.5
269.145	510.5
269.377	506.5
269.609	489.5
269.841	487.5
270.073	484.5
270.306	501.5
270.538	484.5
270.77	503.5
271.002	529.5
271.234	519.5
271.466	535.5
271.698	525.5
271.93	547.5
272.162	521.5
272.394	548.5
272.626	516.5
272.858	534.5
273.09	520.5
273.322	544.5
273.553	532.5
273.785	557.5
274.017	553.5
274.249	571.5
274.481	562.5
274.713	550.5
274.945	554.5
275.176	556.5
275.408	558.5
275.64	576.5
275.872	567.5
276.104	568.5
276.335	569.5
276.567	593.5
276.799	577.5
277.031	588.5
277.262	566.5
277.494	581.5
277.726	586.5
277.957	586.5
278.189	582.5
278.421	586.5
278.652	608.5
278.884	599.5
279.115	598.5
279.347	598.5
279.579	603.5
279.81	606.5
280.042	601.5
280.273	613.5
280.505	635.5
280.736	623.5
280.968	631.5
281.199	621.5
281.431	633.5
281.662	621.5
281.894	633.5
282.125	632.5
282.356	640.5
282.588	645.5
282.819	641.5
283.051	635.5
283.282	643.5
283.513	653.5
283.745	620.5
283.976	645.5
284.207	645.5
284.439	634.5
284.67	643.5
284.901	670.5
285.132	665.5
285.364	655.5
285.595	651.5
285.826	677.5
286.057	680.5
286.288	671.5
286.52	671.5
286.751	694.5
286.982	659.5
287.213	682.5
287.444	681.5
287.675	709.5
287.906	683.5
288.138	726.5
288.369	693.5
288.6	715.5
288.831	726.5
289.062	706.5
289.293	716.5
289.524	696.5
289.755	721.5
289.986	722.5
290.217	713.5
290.448	719.5
290.679	699.5
290.91	727.5
291.141	737.5
291.371	713.5
291.602	712.5
291.833	728.5
292.064	724.5
292.295	717.5
292.526	730.5
292.757	711.5
292.987	718.5
293.218	731.5
293.449	715.5
293.68	714.5
293.91	723.5
294.141	734.5
294.372	699.5
294.603	727.5
294.833	716.5
295.064	750.5
295.295	713.5
295.525	721.5
295.756	719.5
295.987	741.5
296.217	748.5
296.448	758.5
296.679	706.5
296.909	727.5
297.14	741.5
297.37	764.5
297.601	766.5
297.831	775.5
298.062	787.5
298.292	788.5
298.523	806.5
298.753	808.5
298.984	795.5
299.214	783.5
299.445	805.5
299.675	772.5
299.905	776.5
300.136	797.5
300.366	793.5
300.597	790.5
300.827	821.5
301.057	813.5
301.288	805.5
301.518	807.5
301.748	823.5
301.979	851.5
302.209	824.5
302.439	829.5
302.669	812.5
302.9	831.5
303.13	818.5
303.36	814.5
303.59	834.5
303.82	852.5
304.051	838.5
304.281	833.5
304.511	811.5
304.741	842.5
304.971	823.5
305.201	804.5
305.431	837.5
305.661	832.5
305.891	803.5
306.121	804.5
306.352	818.5
306.582	801.5
306.812	787.5
307.042	821.5
307.272	823.5
307.502	784.5
307.731	812.5
307.961	807.5
308.191	824.5
308.421	761.5
308.651	801.5
308.881	797.5
309.111	784.5
309.341	783.5
309.571	773.5
309.8	794.5
310.03	777.5
310.26	825.5
310.49	816.5
310.72	810.5
310.949	803.5
311.179	805.5
311.409	842.5
311.639	824.5
311.868	830.5
312.098	857.5
312.328	840.5
312.557	851.5
312.787	841.5
313.017	837.5
313.246	865.5
313.476	846.5
313.706	876.5
313.935	874.5
314.165	876.5
314.394	895.5
314.624	877.5
314.853	896.5
315.083	865.5
315.312	880.5
315.542	850.5
315.771	869.5
316.001	872.5
316.23	858.5
316.46	840.5
316.689	861.5
316.919	861.5
317.148	862.5
317.377	862.5
317.607	849.5
317.836	851.5
318.065	867.5
318.295	863.5
318.524	848.5
318.753	854.5
318.983	874.5
319.212	850.5
319.441	857.5
319.67	865.5
319.9	842.5
320.129	827.5
320.358	883.5
320.587	859.5
320.816	850.5
321.046	877.5
321.275	857.5
321.504	863.5
321.733	887.5
321.962	861.5
322.191	861.5
322.42	865.5
322.649	890.5
322.878	841.5
323.108	854.5
323.337	865.5
323.566	873.5
323.795	867.5
324.024	861.5
324.253	881.5
324.482	885.5
324.71	887.5
324.939	887.5
325.168	902.5
325.397	894.5
325.626	909.5
325.855	936.5
326.084	917.5
326.313	929.5
326.542	946.5
326.77	930.5
326.999	951.5
327.228	916.5
327.457	904.5
327.686	921.5
327.914	948.5
328.143	928.5
328.372	936.5
328.6	954.5
328.829	908.5
329.058	936.5
329.287	935.5
329.515	929.5
329.744	945.5
329.972	966.5
330.201	951.5
330.43	954.5
330.658	963.5
330.887	939.5
331.115	963.5
331.344	982.5
331.572	988.5
331.801	1023.5
332.03	1022.5
332.258	1042.5
332.486	1071.5
332.715	1119.5
332.943	1106.5
333.172	1164.5
333.4	1196.5
333.629	1249.5
333.857	1265.5
334.085	1242.5
334.314	1254.5
334.542	1253.5
334.771	1221.5
334.999	1182.5
335.227	1157.5
335.455	1147.5
335.684	1174.5
335.912	1154.5
336.14	1149.5
336.369	1141.5
336.597	1119.5
336.825	1109.5
337.053	1126.5
337.281	1103.5
337.51	1105.5
337.738	1081.5
337.966	1041.5
338.194	1050.5
338.422	1043.5
338.65	1051.5
338.878	1029.5
339.106	991.5
339.334	1029.5
339.562	1031.5
339.79	986.5
340.018	997.5
340.246	971.5
340.474	970.5
340.702	982.5
340.93	1005.5
341.158	987.5
341.386	985.5
341.614	971.5
341.842	958.5
342.07	992.5
342.298	949.5
342.526	991.5
342.754	980.5
342.981	992.5
343.209	998.5
343.437	1019.5
343.665	1124.5
343.893	1183.5
344.12	1196.5
344.348	1158.5
344.576	1113.5
344.804	1087.5
345.031	1037.5
345.259	1017.5
345.487	982.5
345.714	985.5
345.942	964.5
346.17	970.5
346.397	933.5
346.625	955.5
346.853	936.5
347.08	937.5
347.308	962.5
347.535	960.5
347.763	950.5
347.99	941.5
348.218	934.5
348.445	932.5
348.673	926.5
348.9	965.5
349.128	954.5
349.355	946.5
349.583	928.5
349.81	931.5
350.037	913.5
350.265	905.5
350.492	924.5
350.72	937.5
350.947	898.5
351.174	919.5
351.402	944.5
351.629	906.5
351.856	895.5
352.083	890.5
352.311	896.5
352.538	897.5
352.765	912.5
352.992	900.5
353.22	880.5
353.447	889.5
353.674	895.5
353.901	868.5
354.128	904.5
354.355	896.5
354.583	914.5
354.81	904.5
355.037	921.5
355.264	911.5
355.491	894.5
355.718	914.5
355.945	925.5
356.172	930.5
356.399	906.5
356.626	909.5
356.853	915.5
357.08	908.5
357.307	903.5
357.534	901.5
357.761	912.5
357.988	910.5
358.215	904.5
358.441	950.5
358.668	907.5
358.895	914.5
359.122	938.5
359.349	896.5
359.576	899.5
359.802	925.5
360.029	890.5
360.256	916.5
360.483	922.5
360.709	933.5
360.936	925.5
361.163	931.5
361.39	935.5
361.616	902.5
361.843	889.5
362.07	911.5
362.296	889.5
362.523	928.5
362.749	916.5
362.976	909.5
363.203	905.5
363.429	892.5
363.656	907.5
363.882	947.5
364.109	897.5
364.335	893.5
364.562	896.5
364.788	890.5
365.015	889.5
365.241	895.5
365.468	908.5
365.694	912.5
365.92	919.5
366.147	907.5
366.373	921.5
366.599	901.5
366.826	897.5
367.052	916.5
367.278	902.5
367.505	916.5
367.731	901.5
367.957	918.5
368.184	917.5
368.41	914.5
368.636	899.5
368.862	943.5
369.089	933.5
369.315	934.5
369.541	945.5
369.767	953.5
369.993	945.5
370.219	942.5
370.445	978.5
370.672	979.5
370.898	995.5
371.124	954.5
371.35	990.5
371.576	974.5
371.802	1002.5
372.028	1006.5
372.254	993.5
372.48	994.5
372.706	1006.5
372.932	1042.5
373.158	1004.5
373.384	1018.5
373.61	983.5
373.835	996.5
374.061	980.5
374.287	991.5
374.513	1002.5
374.739	1064.5
374.965	1078.5
375.191	1124.5
375.416	1080.5
375.642	1067.5
375.868	1029.5
376.094	997.5
376.319	1018.5
376.545	992.5
376.771	1000.5
376.997	965.5
377.222	979.5
377.448	979.5
377.674	984.5
377.899	957.5
378.125	961.5
378.35	967.5
378.576	966.5
378.802	969.5
379.027	980.5
379.253	1004.5
379.478	975.5
379.704	1004.5
379.929	991.5
380.155	964.5
380.38	965.5
380.606	974.5
380.831	969.5
381.057	973.5
381.282	979.5
381.507	986.5
381.733	999.5
381.958	1006.5
382.184	993.5
382.409	1014.5
382.634	1048.5
382.86	1043.5
383.085	1043.5
383.31	1041.5
383.535	1055.5
383.761	1113.5
383.986	1120.5
384.211	1119.5
384.436	1148.5
384.662	1141.5
384.887	1163.5
385.112	1191.5
385.337	1191.5
385.562	1152.5
385.787	1195.5
386.013	1197.5
386.238	1189.5
386.463	1203.5
386.688	1189.5
386.913	1182.5
387.138	1205.5
387.363	1213.5
387.588	1160.5
387.813	1184.5
388.038	1165.5
388.263	1194.5
388.488	1187.5
388.713	1154.5
388.938	1185.5
389.163	1156.5
389.387	1165.5
389.612	1156.5
389.837	1157.5
390.062	1171.5
390.287	1165.5
390.512	1207.5
390.736	1181.5
390.961	1205.5
391.186	1203.5
391.411	1249.5
391.636	1297.5
391.86	1340.5
392.085	1356.5
392.31	1339.5
392.534	1299.5
392.759	1260.5
392.984	1247.5
393.208	1266.5
393.433	1269.5
393.658	1248.5
393.882	1242.5
394.107	1257.5
394.331	1298.5
394.556	1278.5
394.78	1262.5
395.005	1292.5
395.229	1286.5
395.454	1290.5
395.678	1337.5
395.903	1347.5
396.127	1336.5
396.352	1285.5
396.576	1266.5
396.801	1298.5
397.025	1285.5
397.249	1320.5
397.474	1353.5
397.698	1368.5
397.922	1349.5
398.147	1339.5
398.371	1406.5
398.595	1450.5
398.82	1488.5
399.044	1586.5
399.268	1720.5
399.492	1983.5
399.717	2198.5
399.941	2182.5
400.165	2005.5
400.389	1791.5
400.613	1669.5
400.837	1566.5
401.062	1572.5
401.286	1498.5
401.51	1505.5
401.734	1525.5
401.958	1496.5
402.182	1526.5
402.406	1531.5
402.63	1547.5
402.854	1565.5
403.078	1610.5
403.302	1641.5
403.526	1632.5
403.75	1697.5
403.974	1704.5
404.198	1711.5
404.422	1705.5
404.645	1692.5
404.869	1649.5
405.093	1658.5
405.317	1627.5
405.541	1661.5
405.765	1614.5
405.988	1650.5
406.212	1653.5
406.436	1620.5
406.66	1671.5
406.883	1669.5
407.107	1779.5
407.331	1841.5
407.555	1931.5
407.778	1896.5
408.002	1856.5
408.226	1803.5
408.449	1805.5
408.673	1709.5
408.896	1672.5
409.12	1652.5
409.344	1660.5
409.567	1624.5
409.791	1671.5
410.014	1674.5
410.238	1586.5
410.461	1617.5
410.685	1613.5
410.908	1567.5
411.132	1552.5
411.355	1531.5
411.578	1548.5
411.802	1509.5
412.025	1546.5
412.249	1563.5
412.472	1567.5
412.695	1514.5
412.919	1498.5
413.142	1489.5
413.365	1508.5
413.589	1504.5
413.812	1517.5
414.035	1474.5
414.258	1455.5
414.482	1498.5
414.705	1515.5
414.928	1504.5
415.151	1497.5
415.374	1486.5
415.597	1455.5
415.821	1446.5
416.044	1482.5
416.267	1430.5
416.49	1440.5
416.713	1452.5
416.936	1471.5
417.159	1465.5
417.382	1469.5
417.605	1416.5
417.828	1448.5
418.051	1489.5
418.274	1474.5
418.497	1465.5
418.72	1492.5
418.943	1483.5
419.166	1607.5
419.389	1706.5
419.611	1675.5
419.834	1578.5
420.057	1521.5
420.28	1503.5
420.503	1455.5
420.726	1448.5
420.948	1466.5
421.171	1432.5
421.394	1486.5
421.617	1439.5
421.839	1434.5
422.062	1485.5
422.285	1463.5
422.507	1502.5
422.73	1484.5
422.953	1526.5
423.175	1529.5
423.398	1545.5
423.621	1517.5
423.843	1545.5
424.066	1527.5
424.288	1533.5
424.511	1507.5
424.733	1522.5
424.956	1500.5
425.178	1502.5
425.401	1474.5
425.623	1470.5
425.846	1396.5
426.068	1432.5
426.291	1414.5
426.513	1402.5
426.735	1395.5
426.958	1337.5
427.18	1346.5
427.402	1351.5
427.625	1336.5
427.847	1319.5
428.069	1319.5
428.292	1303.5
428.514	1312.5
428.736	1301.5
428.958	1326.5
429.181	1291.5
429.403	1288.5
429.625	1289.5
429.847	1293.5
430.069	1283.5
430.292	1290.5
430.514	1239.5
430.736	1274.5
430.958	1260.5
431.18	1309.5
431.402	1294.5
431.624	1295.5
431.846	1300.5
432.068	1304.5
432.29	1338.5
432.512	1311.5
432.734	1307.5
432.956	1316.5
433.178	1325.5
433.4	1302.5
433.622	1304.5
433.844	1326.5
434.066	1341.5
434.287	1341.5
434.509	1357.5
434.731	1406.5
434.953	1457.5
435.175	1496.5
435.397	1435.5
435.618	1376.5
435.84	1338.5
436.062	1303.5
436.284	1311.5
436.505	1305.5
436.727	1325.5
436.949	1313.5
437.17	1298.5
437.392	1273.5
437.614	1273.5
437.835	1232.5
438.057	1274.5
438.278	1248.5
438.5	1244.5
438.721	1237.5
438.943	1285.5
439.165	1247.5
439.386	1278.5
439.608	1290.5
439.829	1311.5
440.05	1266.5
440.272	1291.5
440.493	1314.5
440.715	1316.5
440.936	1357.5
441.158	1369.5
441.379	1394.5
441.6	1496.5
441.822	1463.5
442.043	1446.5
442.264	1425.5
442.486	1421.5
442.707	1451.5
442.928	1427.5
443.149	1417.5
443.371	1445.5
443.592	1456.5
443.813	1503.5
444.034	1474.5
444.255	1513.5
444.476	1584.5
444.698	1690.5
444.919	1705.5
445.14	1794.5
445.361	1648.5
445.582	1513.5
445.803	1419.5
446.024	1391.5
446.245	1389.5
446.466	1361.5
446.687	1339.5
446.908	1335.5
447.129	1287.5
447.35	1287.5
447.571	1253.5
447.792	1227.5
448.013	1286.5
448.234	1200.5
448.455	1226.5
448.675	1198.5
448.896	1201.5
449.117	1179.5
449.338	1191.5
449.559	1157.5
449.779	1182.5
450	1165.5
450.221	1167.5
450.442	1166.5
450.662	1203.5
450.883	1187.5
451.104	1200.5
451.324	1254.5
451.545	1212.5
451.766	1183.5
451.986	1189.5
452.207	1188.5
452.428	1167.5
452.648	1179.5
452.869	1171.5
453.089	1157.5
453.31	1153.5
453.53	1186.5
453.751	1119.5
453.971	1151.5
454.192	1149.5
454.412	1105.5
454.633	1138.5
454.853	1108.5
455.073	1115.5
455.294	1126.5
455.514	1119.5
455.734	1104.5
455.955	1096.5
456.175	1097.5
456.395	1086.5
456.616	1101.5
456.836	1087.5
457.056	1123.5
457.276	1129.5
457.497	1127.5
457.717	1088.5
457.937	1120.5
458.157	1126.5
458.377	1153.5
458.598	1157.5
458.818	1202.5
459.038	1221.5
459.258	1243.5
459.478	1309.5
459.698	1359.5
459.918	1372.5
460.138	1416.5
460.358	1515.5
460.578	1503.5
460.798	1568.5
461.018	1570.5
461.238	1527.5
461.458	1522.5
461.678	1539.5
461.898	1548.5
462.118	1582.5
462.338	1688.5
462.558	1704.5
462.777	1767.5
462.997	1864.5
463.217	2025.5
463.437	1992.5
463.657	1899.5
463.876	1810.5
464.096	1786.5
464.316	1771.5
464.536	1811.5
464.755	1721.5
464.975	1648.5
465.195	1559.5
465.414	1480.5
465.634	1406.5
465.854	1369.5
466.073	1333.5
466.293	1317.5
466.512	1279.5
466.732	1274.5
466.951	1263.5
467.171	1241.5
467.391	1228.5
467.61	1238.5
467.829	1201.5
468.049	1217.5
468.268	1221.5
468.488	1192.5
468.707	1194.5
468.927	1209.5
469.146	1183.5
469.365	1230.5
469.585	1221.5
469.804	1243.5
470.023	1270.5
470.243	1250.5
470.462	1289.5
470.681	1283.5
470.901	1294.5
471.12	1283.5
471.339	1251.5
471.558	1234.5
471.777	1244.5
471.997	1230.5
472.216	1211.5
472.435	1194.5
472.654	1182.5
472.873	1166.5
473.092	1184.5
473.311	1182.5
473.53	1173.5
473.749	1162.5
473.968	1170.5
474.187	1173.5
474.406	1163.5
474.625	1185.5
474.844	1185.5
475.063	1156.5
475.282	1212.5
475.501	1199.5
475.72	1177.5
475.939	1202.5
476.158	1182.5
476.377	1245.5
476.596	1219.5
476.814	1246.5
477.033	1230.5
477.252	1280.5
477.471	1301.5
477.69	1345.5
477.908	1324.5
478.127	1366.5
478.346	1407.5
478.564	1413.5
478.783	1403.5
479.002	1477.5
479.22	1487.5
479.439	1471.5
479.658	1466.5
479.876	1452.5
480.095	1490.5
480.313	1537.5
480.532	1571.5
480.751	1586.5
480.969	1497.5
481.188	1449.5
481.406	1426.5
481.624	1371.5
481.843	1344.5
482.061	1358.5
482.28	1346.5
482.498	1376.5
482.717	1356.5
482.935	1329.5
483.153	1323.5
483.372	1374.5
483.59	1352.5
483.808	1339.5
484.027	1327.5
484.245	1357.5
484.463	1361.5
484.681	1403.5
484.9	1407.5
485.118	1373.5
485.336	1423.5
485.554	1386.5
485.772	1425.5
485.99	1413.5
486.209	1414.5
486.427	1406.5
486.645	1445.5
486.863	1393.5
487.081	1388.5
487.299	1423.5
487.517	1441.5
487.735	1385.5
487.953	1380.5
488.171	1431.5
488.389	1397.5
488.607	1386.5
488.825	1357.5
489.043	1359.5
489.261	1386.5
489.479	1411.5
489.696	1417.5
489.914	1416.5
490.132	1410.5
490.35	1425.5
490.568	1437.5
490.786	1399.5
491.003	1444.5
491.221	1372.5
491.439	1415.5
491.657	1417.5
491.874	1416.5
492.092	1426.5
492.31	1425.5
492.527	1463.5
492.745	1465.5
492.963	1459.5
493.18	1443.5
493.398	1486.5
493.615	1495.5
493.833	1472.5
494.05	1457.5
494.268	1488.5
494.485	1504.5
494.703	1494.5
494.92	1509.5
495.138	1501.5
495.355	1513.5
495.573	1508.5
495.79	1545.5
496.008	1521.5
496.225	1514.5
496.442	1540.5
496.66	1542.5
496.877	1530.5
497.094	1612.5
497.312	1604.5
497.529	1631.5
497.746	1707.5
497.963	1734.5
498.181	1835.5
498.398	1900.5
498.615	2014.5
498.832	2139.5
499.049	2312.5
499.267	2471.5
499.484	2730.5
499.701	2906.5
499.918	3299.5
500.135	3629.5
500.352	4027.5
500.569	4249.5
500.786	4201.5
501.003	3927.5
501.22	3562.5
501.437	3253.5
501.654	2901.5
501.871	2606.5
502.088	2421.5
502.305	2263.5
502.522	2163.5
502.739	2043.5
502.956	2027.5
503.172	1929.5
503.389	1800.5
503.606	1750.5
503.823	1720.5
504.04	1706.5
504.256	1694.5
504.473	1732.5
504.69	1786.5
504.907	1717.5
505.123	1587.5
505.34	1541.5
505.557	1483.5
505.773	1469.5
505.99	1414.5
506.207	1406.5
506.423	1315.5
506.64	1333.5
506.856	1328.5
507.073	1348.5
507.289	1337.5
507.506	1289.5
507.722	1314.5
507.939	1273.5
508.155	1260.5
508.372	1236.5
508.588	1266.5
508.805	1259.5
509.021	1224.5
509.238	1232.5
509.454	1229.5
509.67	1190.5
509.887	1217.5
510.103	1220.5
