Data from NiCl2@0.25M.TitratingCurve.Agarose3%dH2O.NegLispCup.LampEnergy10.LIBS07252019_HRD10591_18-26-05-596.txt Node
Date: Thu Jul 25 18:26:05 EDT 2019
User: cochatt
Spectrometer: HR+D1059
Trigger mode: 1
Integration Time (sec): 1.000000E-1
Scans to average: 1
Electric dark correction enabled: true
Nonlinearity correction enabled: false
Boxcar width: 0
XAxis mode: Wavelengths
Number of Pixels in Spectrum: 2048
>>>>>Begin Spectral Data<<<<<
223.165	-24.38
223.4	-24.38
223.635	-24.38
223.869	-6.38
224.104	-5.38
224.338	-24.38
224.573	-25.38
224.808	2.62
225.042	-25.38
225.277	-2.38
225.511	5.62
225.746	-7.38
225.98	16.62
226.215	-2.38
226.449	19.62
226.683	19.62
226.918	32.62
227.152	26.62
227.387	41.62
227.621	31.62
227.856	47.62
228.09	40.62
228.324	39.62
228.559	48.62
228.793	65.62
229.027	98.62
229.262	110.62
229.496	112.62
229.73	121.62
229.964	124.62
230.199	128.62
230.433	131.62
230.667	140.62
230.901	135.62
231.136	151.62
231.37	129.62
231.604	128.62
231.838	144.62
232.072	140.62
232.306	149.62
232.541	149.62
232.775	150.62
233.009	152.62
233.243	136.62
233.477	152.62
233.711	141.62
233.945	147.62
234.179	137.62
234.413	148.62
234.647	166.62
234.881	138.62
235.115	159.62
235.349	146.62
235.583	149.62
235.817	159.62
236.051	154.62
236.285	147.62
236.519	141.62
236.753	165.62
236.987	140.62
237.221	145.62
237.455	159.62
237.689	155.62
237.922	164.62
238.156	153.62
238.39	179.62
238.624	164.62
238.858	163.62
239.091	174.62
239.325	163.62
239.559	171.62
239.793	168.62
240.027	163.62
240.26	182.62
240.494	163.62
240.728	171.62
240.961	175.62
241.195	173.62
241.429	191.62
241.662	196.62
241.896	193.62
242.13	196.62
242.363	178.62
242.597	197.62
242.83	205.62
243.064	186.62
243.298	196.62
243.531	193.62
243.765	206.62
243.998	209.62
244.232	212.62
244.465	206.62
244.699	224.62
244.932	223.62
245.166	224.62
245.399	212.62
245.633	197.62
245.866	218.62
246.099	204.62
246.333	203.62
246.566	208.62
246.8	212.62
247.033	210.62
247.266	209.62
247.5	205.62
247.733	221.62
247.966	235.62
248.2	224.62
248.433	235.62
248.666	226.62
248.899	228.62
249.133	223.62
249.366	230.62
249.599	243.62
249.832	239.62
250.066	237.62
250.299	228.62
250.532	245.62
250.765	240.62
250.998	246.62
251.231	240.62
251.465	241.62
251.698	259.62
251.931	262.62
252.164	253.62
252.397	254.62
252.63	255.62
252.863	268.62
253.096	271.62
253.329	262.62
253.562	265.62
253.795	266.62
254.028	255.62
254.261	288.62
254.494	273.62
254.727	268.62
254.96	278.62
255.193	261.62
255.426	263.62
255.659	286.62
255.892	291.62
256.124	289.62
256.357	288.62
256.59	272.62
256.823	286.62
257.056	275.62
257.289	281.62
257.521	295.62
257.754	292.62
257.987	293.62
258.22	290.62
258.452	298.62
258.685	295.62
258.918	269.62
259.151	292.62
259.383	300.62
259.616	285.62
259.849	300.62
260.081	288.62
260.314	321.62
260.547	304.62
260.779	299.62
261.012	296.62
261.244	308.62
261.477	308.62
261.71	328.62
261.942	314.62
262.175	306.62
262.407	307.62
262.64	308.62
262.872	327.62
263.105	327.62
263.337	320.62
263.57	326.62
263.802	339.62
264.035	327.62
264.267	326.62
264.499	324.62
264.732	331.62
264.964	337.62
265.197	334.62
265.429	341.62
265.661	337.62
265.894	335.62
266.126	334.62
266.358	337.62
266.591	327.62
266.823	354.62
267.055	357.62
267.287	339.62
267.52	339.62
267.752	344.62
267.984	339.62
268.216	361.62
268.448	362.62
268.681	348.62
268.913	339.62
269.145	347.62
269.377	349.62
269.609	355.62
269.841	360.62
270.073	371.62
270.306	370.62
270.538	369.62
270.77	374.62
271.002	367.62
271.234	360.62
271.466	367.62
271.698	368.62
271.93	369.62
272.162	382.62
272.394	371.62
272.626	372.62
272.858	384.62
273.09	371.62
273.322	383.62
273.553	392.62
273.785	377.62
274.017	375.62
274.249	373.62
274.481	387.62
274.713	387.62
274.945	376.62
275.176	395.62
275.408	396.62
275.64	412.62
275.872	388.62
276.104	403.62
276.335	405.62
276.567	396.62
276.799	393.62
277.031	429.62
277.262	393.62
277.494	421.62
277.726	417.62
277.957	416.62
278.189	428.62
278.421	422.62
278.652	405.62
278.884	391.62
279.115	399.62
279.347	404.62
279.579	420.62
279.81	436.62
280.042	421.62
280.273	436.62
280.505	430.62
280.736	446.62
280.968	449.62
281.199	458.62
281.431	441.62
281.662	439.62
281.894	444.62
282.125	449.62
282.356	435.62
282.588	433.62
282.819	449.62
283.051	444.62
283.282	458.62
283.513	439.62
283.745	460.62
283.976	458.62
284.207	466.62
284.439	459.62
284.67	446.62
284.901	467.62
285.132	478.62
285.364	475.62
285.595	460.62
285.826	462.62
286.057	473.62
286.288	463.62
286.52	497.62
286.751	488.62
286.982	473.62
287.213	492.62
287.444	491.62
287.675	486.62
287.906	490.62
288.138	499.62
288.369	472.62
288.6	488.62
288.831	496.62
289.062	497.62
289.293	487.62
289.524	509.62
289.755	485.62
289.986	517.62
290.217	497.62
290.448	502.62
290.679	521.62
290.91	493.62
291.141	503.62
291.371	501.62
291.602	503.62
291.833	489.62
292.064	498.62
292.295	512.62
292.526	483.62
292.757	499.62
292.987	507.62
293.218	510.62
293.449	500.62
293.68	508.62
293.91	491.62
294.141	484.62
294.372	485.62
294.603	492.62
294.833	501.62
295.064	533.62
295.295	501.62
295.525	512.62
295.756	517.62
295.987	492.62
296.217	524.62
296.448	498.62
296.679	524.62
296.909	529.62
297.14	537.62
297.37	513.62
297.601	545.62
297.831	530.62
298.062	549.62
298.292	540.62
298.523	579.62
298.753	563.62
298.984	561.62
299.214	563.62
299.445	547.62
299.675	537.62
299.905	557.62
300.136	559.62
300.366	559.62
300.597	553.62
300.827	586.62
301.057	571.62
301.288	572.62
301.518	580.62
301.748	583.62
301.979	589.62
302.209	568.62
302.439	585.62
302.669	586.62
302.9	568.62
303.13	557.62
303.36	601.62
303.59	585.62
303.82	576.62
304.051	575.62
304.281	576.62
304.511	564.62
304.741	564.62
304.971	581.62
305.201	583.62
305.431	567.62
305.661	569.62
305.891	567.62
306.121	580.62
306.352	572.62
306.582	560.62
306.812	572.62
307.042	541.62
307.272	549.62
307.502	578.62
307.731	566.62
307.961	549.62
308.191	555.62
308.421	564.62
308.651	563.62
308.881	544.62
309.111	561.62
309.341	572.62
309.571	539.62
309.8	585.62
310.03	519.62
310.26	547.62
310.49	563.62
310.72	546.62
310.949	555.62
311.179	571.62
311.409	581.62
311.639	562.62
311.868	590.62
312.098	578.62
312.328	588.62
312.557	578.62
312.787	580.62
313.017	571.62
313.246	600.62
313.476	596.62
313.706	605.62
313.935	600.62
314.165	615.62
314.394	612.62
314.624	595.62
314.853	603.62
315.083	618.62
315.312	613.62
315.542	589.62
315.771	587.62
316.001	599.62
316.23	604.62
316.46	573.62
316.689	588.62
316.919	581.62
317.148	605.62
317.377	597.62
317.607	576.62
317.836	573.62
318.065	595.62
318.295	593.62
318.524	593.62
318.753	573.62
318.983	587.62
319.212	597.62
319.441	607.62
319.67	586.62
319.9	588.62
320.129	581.62
320.358	590.62
320.587	575.62
320.816	601.62
321.046	587.62
321.275	603.62
321.504	595.62
321.733	598.62
321.962	608.62
322.191	590.62
322.42	595.62
322.649	612.62
322.878	616.62
323.108	600.62
323.337	616.62
323.566	614.62
323.795	616.62
324.024	600.62
324.253	603.62
324.482	603.62
324.71	600.62
324.939	636.62
325.168	623.62
325.397	602.62
325.626	607.62
325.855	631.62
326.084	637.62
326.313	647.62
326.542	637.62
326.77	661.62
326.999	639.62
327.228	650.62
327.457	656.62
327.686	653.62
327.914	637.62
328.143	644.62
328.372	636.62
328.6	647.62
328.829	631.62
329.058	664.62
329.287	653.62
329.515	655.62
329.744	659.62
329.972	646.62
330.201	683.62
330.43	637.62
330.658	653.62
330.887	660.62
331.115	667.62
331.344	718.62
331.572	701.62
331.801	694.62
332.03	699.62
332.258	722.62
332.486	732.62
332.715	804.62
332.943	793.62
333.172	851.62
333.4	859.62
333.629	879.62
333.857	895.62
334.085	916.62
334.314	900.62
334.542	868.62
334.771	847.62
334.999	828.62
335.227	811.62
335.455	841.62
335.684	821.62
335.912	787.62
336.14	785.62
336.369	768.62
336.597	773.62
336.825	758.62
337.053	767.62
337.281	769.62
337.51	759.62
337.738	756.62
337.966	732.62
338.194	703.62
338.422	710.62
338.65	704.62
338.878	712.62
339.106	716.62
339.334	705.62
339.562	693.62
339.79	701.62
340.018	681.62
340.246	684.62
340.474	685.62
340.702	673.62
340.93	679.62
341.158	682.62
341.386	699.62
341.614	663.62
341.842	661.62
342.07	676.62
342.298	689.62
342.526	681.62
342.754	671.62
342.981	685.62
343.209	697.62
343.437	717.62
343.665	753.62
343.893	825.62
344.12	841.62
344.348	824.62
344.576	768.62
344.804	758.62
345.031	707.62
345.259	687.62
345.487	701.62
345.714	704.62
345.942	664.62
346.17	663.62
346.397	655.62
346.625	664.62
346.853	653.62
347.08	658.62
347.308	659.62
347.535	657.62
347.763	660.62
347.99	696.62
348.218	653.62
348.445	671.62
348.673	650.62
348.9	658.62
349.128	663.62
349.355	640.62
349.583	637.62
349.81	633.62
350.037	653.62
350.265	643.62
350.492	679.62
350.72	629.62
350.947	629.62
351.174	638.62
351.402	601.62
351.629	604.62
351.856	629.62
352.083	616.62
352.311	633.62
352.538	645.62
352.765	623.62
352.992	634.62
353.22	634.62
353.447	655.62
353.674	604.62
353.901	633.62
354.128	629.62
354.355	636.62
354.583	641.62
354.81	649.62
355.037	640.62
355.264	619.62
355.491	653.62
355.718	618.62
355.945	639.62
356.172	629.62
356.399	643.62
356.626	639.62
356.853	673.62
357.08	634.62
357.307	659.62
357.534	631.62
357.761	623.62
357.988	641.62
358.215	633.62
358.441	642.62
358.668	636.62
358.895	631.62
359.122	635.62
359.349	652.62
359.576	646.62
359.802	633.62
360.029	628.62
360.256	623.62
360.483	614.62
360.709	663.62
360.936	645.62
361.163	633.62
361.39	638.62
361.616	640.62
361.843	627.62
362.07	647.62
362.296	624.62
362.523	610.62
362.749	623.62
362.976	631.62
363.203	607.62
363.429	652.62
363.656	641.62
363.882	638.62
364.109	642.62
364.335	639.62
364.562	615.62
364.788	609.62
365.015	630.62
365.241	644.62
365.468	651.62
365.694	631.62
365.92	610.62
366.147	650.62
366.373	639.62
366.599	657.62
366.826	637.62
367.052	629.62
367.278	601.62
367.505	627.62
367.731	649.62
367.957	653.62
368.184	654.62
368.41	647.62
368.636	634.62
368.862	656.62
369.089	667.62
369.315	645.62
369.541	637.62
369.767	659.62
369.993	667.62
370.219	669.62
370.445	660.62
370.672	652.62
370.898	673.62
371.124	701.62
371.35	708.62
371.576	706.62
371.802	678.62
372.028	697.62
372.254	699.62
372.48	699.62
372.706	704.62
372.932	725.62
373.158	716.62
373.384	697.62
373.61	689.62
373.835	700.62
374.061	703.62
374.287	698.62
374.513	711.62
374.739	752.62
374.965	766.62
375.191	793.62
375.416	751.62
375.642	740.62
375.868	722.62
376.094	707.62
376.319	705.62
376.545	696.62
376.771	727.62
376.997	707.62
377.222	684.62
377.448	714.62
377.674	694.62
377.899	689.62
378.125	676.62
378.35	679.62
378.576	695.62
378.802	682.62
379.027	685.62
379.253	703.62
379.478	675.62
379.704	679.62
379.929	707.62
380.155	677.62
380.38	660.62
380.606	712.62
380.831	673.62
381.057	689.62
381.282	692.62
381.507	693.62
381.733	676.62
381.958	727.62
382.184	697.62
382.409	703.62
382.634	712.62
382.86	742.62
383.085	747.62
383.31	732.62
383.535	744.62
383.761	747.62
383.986	764.62
384.211	787.62
384.436	779.62
384.662	815.62
384.887	815.62
385.112	830.62
385.337	844.62
385.562	849.62
385.787	855.62
386.013	879.62
386.238	830.62
386.463	849.62
386.688	851.62
386.913	836.62
387.138	836.62
387.363	824.62
387.588	847.62
387.813	829.62
388.038	801.62
388.263	837.62
388.488	853.62
388.713	866.62
388.938	839.62
389.163	811.62
389.387	812.62
389.612	805.62
389.837	841.62
390.062	800.62
390.287	834.62
390.512	830.62
390.736	846.62
390.961	858.62
391.186	841.62
391.411	907.62
391.636	913.62
391.86	944.62
392.085	931.62
392.31	923.62
392.534	937.62
392.759	897.62
392.984	896.62
393.208	891.62
393.433	888.62
393.658	903.62
393.882	910.62
394.107	887.62
394.331	915.62
394.556	878.62
394.78	899.62
395.005	907.62
395.229	916.62
395.454	925.62
395.678	939.62
395.903	939.62
396.127	904.62
396.352	932.62
396.576	881.62
396.801	884.62
397.025	892.62
397.249	929.62
397.474	941.62
397.698	960.62
397.922	972.62
398.147	948.62
398.371	977.62
398.595	999.62
398.82	1043.62
399.044	1126.62
399.268	1233.62
399.492	1412.62
399.717	1580.62
399.941	1625.62
400.165	1452.62
400.389	1317.62
400.613	1208.62
400.837	1110.62
401.062	1121.62
401.286	1091.62
401.51	1060.62
401.734	1067.62
401.958	1101.62
402.182	1084.62
402.406	1117.62
402.63	1137.62
402.854	1149.62
403.078	1151.62
403.302	1171.62
403.526	1194.62
403.75	1215.62
403.974	1195.62
404.198	1260.62
404.422	1210.62
404.645	1241.62
404.869	1209.62
405.093	1205.62
405.317	1217.62
405.541	1181.62
405.765	1163.62
405.988	1166.62
406.212	1161.62
406.436	1175.62
406.66	1180.62
406.883	1200.62
407.107	1315.62
407.331	1335.62
407.555	1375.62
407.778	1387.62
408.002	1363.62
408.226	1309.62
408.449	1287.62
408.673	1235.62
408.896	1172.62
409.12	1216.62
409.344	1217.62
409.567	1214.62
409.791	1179.62
410.014	1208.62
410.238	1161.62
410.461	1188.62
410.685	1149.62
410.908	1135.62
411.132	1128.62
411.355	1105.62
411.578	1097.62
411.802	1116.62
412.025	1093.62
412.249	1148.62
412.472	1132.62
412.695	1122.62
412.919	1050.62
413.142	1043.62
413.365	1063.62
413.589	1068.62
413.812	1050.62
414.035	1045.62
414.258	1037.62
414.482	1075.62
414.705	1066.62
414.928	1075.62
415.151	1077.62
415.374	1067.62
415.597	1081.62
415.821	1021.62
416.044	1029.62
416.267	1005.62
416.49	1044.62
416.713	1031.62
416.936	1047.62
417.159	1052.62
417.382	1033.62
417.605	1016.62
417.828	1046.62
418.051	1041.62
418.274	1036.62
418.497	1060.62
418.72	1101.62
418.943	1058.62
419.166	1135.62
419.389	1218.62
419.611	1155.62
419.834	1153.62
420.057	1112.62
420.28	1045.62
420.503	1027.62
420.726	1003.62
420.948	1041.62
421.171	1030.62
421.394	1073.62
421.617	1017.62
421.839	1049.62
422.062	1076.62
422.285	1029.62
422.507	1066.62
422.73	1082.62
422.953	1104.62
423.175	1071.62
423.398	1071.62
423.621	1082.62
423.843	1105.62
424.066	1123.62
424.288	1083.62
424.511	1073.62
424.733	1112.62
424.956	1072.62
425.178	1082.62
425.401	1062.62
425.623	1053.62
425.846	1039.62
426.068	1009.62
426.291	1012.62
426.513	995.62
426.735	1002.62
426.958	995.62
427.18	945.62
427.402	968.62
427.625	979.62
427.847	925.62
428.069	955.62
428.292	955.62
428.514	923.62
428.736	940.62
428.958	940.62
429.181	863.62
429.403	894.62
429.625	911.62
429.847	912.62
430.069	903.62
430.292	923.62
430.514	922.62
430.736	924.62
430.958	916.62
431.18	904.62
431.402	893.62
431.624	922.62
431.846	931.62
432.068	941.62
432.29	964.62
432.512	921.62
432.734	946.62
432.956	928.62
433.178	922.62
433.4	919.62
433.622	947.62
433.844	935.62
434.066	947.62
434.287	937.62
434.509	978.62
434.731	1015.62
434.953	1008.62
435.175	1062.62
435.397	1027.62
435.618	989.62
435.84	985.62
436.062	947.62
436.284	941.62
436.505	923.62
436.727	923.62
436.949	931.62
437.17	924.62
437.392	895.62
437.614	889.62
437.835	890.62
438.057	904.62
438.278	892.62
438.5	866.62
438.721	863.62
438.943	864.62
439.165	867.62
439.386	875.62
439.608	907.62
439.829	939.62
440.05	915.62
440.272	943.62
440.493	913.62
440.715	972.62
440.936	964.62
441.158	947.62
441.379	985.62
441.6	1031.62
441.822	1044.62
442.043	1017.62
442.264	1014.62
442.486	982.62
442.707	1040.62
442.928	1014.62
443.149	1001.62
443.371	1004.62
443.592	980.62
443.813	1045.62
444.034	1049.62
444.255	1082.62
444.476	1140.62
444.698	1185.62
444.919	1220.62
445.14	1284.62
445.361	1127.62
445.582	1081.62
445.803	1015.62
446.024	1002.62
446.245	967.62
446.466	960.62
446.687	920.62
446.908	937.62
447.129	913.62
447.35	890.62
447.571	891.62
447.792	870.62
448.013	879.62
448.234	861.62
448.455	856.62
448.675	844.62
448.896	849.62
449.117	828.62
449.338	837.62
449.559	843.62
449.779	809.62
450	805.62
450.221	864.62
450.442	830.62
450.662	832.62
450.883	877.62
451.104	853.62
451.324	863.62
451.545	871.62
451.766	839.62
451.986	841.62
452.207	840.62
452.428	836.62
452.648	826.62
452.869	823.62
453.089	836.62
453.31	857.62
453.53	831.62
453.751	827.62
453.971	805.62
454.192	815.62
454.412	803.62
454.633	791.62
454.853	812.62
455.073	773.62
455.294	803.62
455.514	784.62
455.734	810.62
455.955	776.62
456.175	779.62
456.395	774.62
456.616	786.62
456.836	798.62
457.056	799.62
457.276	767.62
457.497	794.62
457.717	826.62
457.937	775.62
458.157	800.62
458.377	809.62
458.598	837.62
458.818	859.62
459.038	887.62
459.258	930.62
459.478	911.62
459.698	953.62
459.918	987.62
460.138	1034.62
460.358	1061.62
460.578	1092.62
460.798	1128.62
461.018	1130.62
461.238	1083.62
461.458	1114.62
461.678	1105.62
461.898	1109.62
462.118	1146.62
462.338	1184.62
462.558	1197.62
462.777	1247.62
462.997	1377.62
463.217	1481.62
463.437	1460.62
463.657	1357.62
463.876	1304.62
464.096	1273.62
464.316	1256.62
464.536	1297.62
464.755	1253.62
464.975	1225.62
465.195	1141.62
465.414	1071.62
465.634	1004.62
465.854	983.62
466.073	963.62
466.293	944.62
466.512	912.62
466.732	916.62
466.951	910.62
467.171	875.62
467.391	888.62
467.61	877.62
467.829	883.62
468.049	867.62
468.268	882.62
468.488	837.62
468.707	844.62
468.927	814.62
469.146	858.62
469.365	871.62
469.585	863.62
469.804	905.62
470.023	899.62
470.243	931.62
470.462	921.62
470.681	921.62
470.901	907.62
471.12	892.62
471.339	885.62
471.558	874.62
471.777	893.62
471.997	867.62
472.216	852.62
472.435	849.62
472.654	835.62
472.873	825.62
473.092	839.62
473.311	837.62
473.53	836.62
473.749	812.62
473.968	839.62
474.187	820.62
474.406	795.62
474.625	817.62
474.844	815.62
475.063	824.62
475.282	869.62
475.501	861.62
475.72	829.62
475.939	849.62
476.158	865.62
476.377	866.62
476.596	883.62
476.814	876.62
477.033	890.62
477.252	899.62
477.471	937.62
477.69	932.62
477.908	967.62
478.127	946.62
478.346	981.62
478.564	1014.62
478.783	1033.62
479.002	1055.62
479.22	1052.62
479.439	1058.62
479.658	1027.62
479.876	1026.62
480.095	1043.62
480.313	1107.62
480.532	1103.62
480.751	1138.62
480.969	1078.62
481.188	1056.62
481.406	996.62
481.624	979.62
481.843	938.62
482.061	988.62
482.28	952.62
482.498	932.62
482.717	932.62
482.935	940.62
483.153	939.62
483.372	961.62
483.59	932.62
483.808	945.62
484.027	943.62
484.245	929.62
484.463	934.62
484.681	978.62
484.9	1036.62
485.118	1019.62
485.336	983.62
485.554	985.62
485.772	1001.62
485.99	1001.62
486.209	1010.62
486.427	994.62
486.645	993.62
486.863	971.62
487.081	984.62
487.299	1004.62
487.517	983.62
487.735	981.62
487.953	1000.62
488.171	981.62
488.389	988.62
488.607	965.62
488.825	972.62
489.043	968.62
489.261	972.62
489.479	997.62
489.696	993.62
489.914	987.62
490.132	1008.62
490.35	996.62
490.568	1019.62
490.786	998.62
491.003	1034.62
491.221	1025.62
491.439	997.62
491.657	1013.62
491.874	993.62
492.092	995.62
492.31	1009.62
492.527	1057.62
492.745	1025.62
492.963	1033.62
493.18	1022.62
493.398	1035.62
493.615	1055.62
493.833	1057.62
494.05	1071.62
494.268	1043.62
494.485	1053.62
494.703	1092.62
494.92	1081.62
495.138	1066.62
495.355	1073.62
495.573	1074.62
495.79	1099.62
496.008	1091.62
496.225	1099.62
496.442	1106.62
496.66	1109.62
496.877	1151.62
497.094	1157.62
497.312	1169.62
497.529	1203.62
497.746	1221.62
497.963	1256.62
498.181	1312.62
498.398	1399.62
498.615	1483.62
