Data from NiCl2@0.125M.TitratingCurve.Agarose3%dH2O.NegLispCup.LampEnergy10.LIBS07252019_HRD10591_18-27-20-574.txt Node
Date: Thu Jul 25 18:27:20 EDT 2019
User: cochatt
Spectrometer: HR+D1059
Trigger mode: 1
Integration Time (sec): 1.000000E-1
Scans to average: 1
Electric dark correction enabled: true
Nonlinearity correction enabled: false
Boxcar width: 0
XAxis mode: Wavelengths
Number of Pixels in Spectrum: 2048
>>>>>Begin Spectral Data<<<<<
223.165	-16.69
223.4	-16.69
223.635	-16.69
223.869	-22.69
224.104	-16.69
224.338	-13.69
224.573	-19.69
224.808	-24.69
225.042	5.31
225.277	-4.69
225.511	-4.69
225.746	1.31
225.98	6.31
226.215	0.31
226.449	26.31
226.683	27.31
226.918	19.31
227.152	37.31
227.387	22.31
227.621	27.31
227.856	40.31
228.09	36.31
228.324	54.31
228.559	38.31
228.793	82.31
229.027	133.31
229.262	138.31
229.496	137.31
229.73	158.31
229.964	165.31
230.199	149.31
230.433	180.31
230.667	157.31
230.901	184.31
231.136	177.31
231.37	175.31
231.604	180.31
231.838	191.31
232.072	191.31
232.306	191.31
232.541	198.31
232.775	192.31
233.009	203.31
233.243	184.31
233.477	205.31
233.711	184.31
233.945	194.31
234.179	193.31
234.413	181.31
234.647	200.31
234.881	212.31
235.115	199.31
235.349	195.31
235.583	216.31
235.817	215.31
236.051	198.31
236.285	205.31
236.519	225.31
236.753	219.31
236.987	215.31
237.221	220.31
237.455	215.31
237.689	214.31
237.922	234.31
238.156	208.31
238.39	218.31
238.624	210.31
238.858	212.31
239.091	244.31
239.325	247.31
239.559	223.31
239.793	242.31
240.027	237.31
240.26	251.31
240.494	251.31
240.728	262.31
240.961	259.31
241.195	265.31
241.429	267.31
241.662	261.31
241.896	290.31
242.13	265.31
242.363	265.31
242.597	277.31
242.83	292.31
243.064	272.31
243.298	279.31
243.531	301.31
243.765	303.31
243.998	299.31
244.232	291.31
244.465	278.31
244.699	305.31
244.932	295.31
245.166	316.31
245.399	296.31
245.633	297.31
245.866	308.31
246.099	315.31
246.333	320.31
246.566	308.31
246.8	311.31
247.033	347.31
247.266	311.31
247.5	328.31
247.733	331.31
247.966	343.31
248.2	338.31
248.433	339.31
248.666	347.31
248.899	342.31
249.133	355.31
249.366	351.31
249.599	345.31
249.832	333.31
250.066	357.31
250.299	340.31
250.532	355.31
250.765	355.31
250.998	353.31
251.231	363.31
251.465	364.31
251.698	374.31
251.931	391.31
252.164	385.31
252.397	382.31
252.63	407.31
252.863	411.31
253.096	407.31
253.329	374.31
253.562	412.31
253.795	404.31
254.028	407.31
254.261	408.31
254.494	405.31
254.727	392.31
254.96	421.31
255.193	400.31
255.426	418.31
255.659	405.31
255.892	426.31
256.124	420.31
256.357	431.31
256.59	442.31
256.823	408.31
257.056	434.31
257.289	435.31
257.521	428.31
257.754	453.31
257.987	434.31
258.22	457.31
258.452	448.31
258.685	446.31
258.918	451.31
259.151	453.31
259.383	441.31
259.616	447.31
259.849	452.31
260.081	468.31
260.314	441.31
260.547	460.31
260.779	475.31
261.012	482.31
261.244	473.31
261.477	466.31
261.71	476.31
261.942	488.31
262.175	468.31
262.407	498.31
262.64	477.31
262.872	502.31
263.105	491.31
263.337	480.31
263.57	482.31
263.802	522.31
264.035	517.31
264.267	494.31
264.499	517.31
264.732	521.31
264.964	504.31
265.197	499.31
265.429	521.31
265.661	500.31
265.894	518.31
266.126	518.31
266.358	523.31
266.591	524.31
266.823	504.31
267.055	522.31
267.287	538.31
267.52	514.31
267.752	545.31
267.984	561.31
268.216	543.31
268.448	548.31
268.681	547.31
268.913	536.31
269.145	545.31
269.377	550.31
269.609	551.31
269.841	556.31
270.073	549.31
270.306	569.31
270.538	537.31
270.77	582.31
271.002	583.31
271.234	559.31
271.466	554.31
271.698	586.31
271.93	586.31
272.162	592.31
272.394	569.31
272.626	581.31
272.858	586.31
273.09	587.31
273.322	601.31
273.553	603.31
273.785	648.31
274.017	603.31
274.249	614.31
274.481	615.31
274.713	605.31
274.945	613.31
275.176	617.31
275.408	640.31
275.64	653.31
275.872	629.31
276.104	635.31
276.335	623.31
276.567	618.31
276.799	637.31
277.031	646.31
277.262	671.31
277.494	643.31
277.726	635.31
277.957	650.31
278.189	618.31
278.421	628.31
278.652	649.31
278.884	645.31
279.115	666.31
279.347	668.31
279.579	664.31
279.81	657.31
280.042	685.31
280.273	683.31
280.505	676.31
280.736	702.31
280.968	672.31
281.199	669.31
281.431	705.31
281.662	693.31
281.894	687.31
282.125	711.31
282.356	699.31
282.588	717.31
282.819	700.31
283.051	702.31
283.282	725.31
283.513	712.31
283.745	698.31
283.976	721.31
284.207	729.31
284.439	756.31
284.67	725.31
284.901	739.31
285.132	739.31
285.364	739.31
285.595	743.31
285.826	745.31
286.057	755.31
286.288	743.31
286.52	767.31
286.751	760.31
286.982	764.31
287.213	751.31
287.444	786.31
287.675	777.31
287.906	791.31
288.138	806.31
288.369	738.31
288.6	762.31
288.831	800.31
289.062	761.31
289.293	783.31
289.524	759.31
289.755	775.31
289.986	791.31
290.217	813.31
290.448	803.31
290.679	807.31
290.91	789.31
291.141	800.31
291.371	799.31
291.602	818.31
291.833	785.31
292.064	829.31
292.295	783.31
292.526	789.31
292.757	780.31
292.987	775.31
293.218	777.31
293.449	824.31
293.68	800.31
293.91	799.31
294.141	793.31
294.372	809.31
294.603	801.31
294.833	823.31
295.064	801.31
295.295	807.31
295.525	800.31
295.756	821.31
295.987	823.31
296.217	796.31
296.448	844.31
296.679	824.31
296.909	835.31
297.14	826.31
297.37	853.31
297.601	868.31
297.831	860.31
298.062	849.31
298.292	895.31
298.523	874.31
298.753	864.31
298.984	881.31
299.214	884.31
299.445	840.31
299.675	862.31
299.905	868.31
300.136	874.31
300.366	873.31
300.597	882.31
300.827	921.31
301.057	895.31
301.288	957.31
301.518	912.31
301.748	924.31
301.979	935.31
302.209	915.31
302.439	934.31
302.669	943.31
302.9	901.31
303.13	873.31
303.36	910.31
303.59	919.31
303.82	925.31
304.051	881.31
304.281	920.31
304.511	899.31
304.741	925.31
304.971	906.31
305.201	921.31
305.431	887.31
305.661	907.31
305.891	887.31
306.121	885.31
306.352	920.31
306.582	903.31
306.812	897.31
307.042	883.31
307.272	895.31
307.502	860.31
307.731	887.31
307.961	899.31
308.191	895.31
308.421	872.31
308.651	892.31
308.881	903.31
309.111	903.31
309.341	864.31
309.571	896.31
309.8	910.31
310.03	877.31
310.26	913.31
310.49	886.31
310.72	902.31
310.949	912.31
311.179	907.31
311.409	895.31
311.639	918.31
311.868	926.31
312.098	935.31
312.328	960.31
312.557	904.31
312.787	924.31
313.017	948.31
313.246	938.31
313.476	985.31
313.706	930.31
313.935	966.31
314.165	972.31
314.394	973.31
314.624	962.31
314.853	980.31
315.083	946.31
315.312	939.31
315.542	954.31
315.771	950.31
316.001	952.31
316.23	964.31
316.46	969.31
316.689	949.31
316.919	935.31
317.148	962.31
317.377	938.31
317.607	924.31
317.836	951.31
318.065	916.31
318.295	976.31
318.524	967.31
318.753	957.31
318.983	930.31
319.212	928.31
319.441	958.31
319.67	946.31
319.9	930.31
320.129	959.31
320.358	928.31
320.587	977.31
320.816	929.31
321.046	935.31
321.275	961.31
321.504	969.31
321.733	950.31
321.962	952.31
322.191	979.31
322.42	979.31
322.649	929.31
322.878	960.31
323.108	971.31
323.337	962.31
323.566	961.31
323.795	932.31
324.024	982.31
324.253	983.31
324.482	968.31
324.71	999.31
324.939	998.31
325.168	978.31
325.397	996.31
325.626	1049.31
325.855	997.31
326.084	1031.31
326.313	1057.31
326.542	1042.31
326.77	1071.31
326.999	1019.31
327.228	1027.31
327.457	998.31
327.686	1027.31
327.914	1015.31
328.143	990.31
328.372	1028.31
328.6	1031.31
328.829	1046.31
329.058	1040.31
329.287	1051.31
329.515	1054.31
329.744	1037.31
329.972	1060.31
330.201	1075.31
330.43	1069.31
330.658	1056.31
330.887	1092.31
331.115	1091.31
331.344	1078.31
331.572	1121.31
331.801	1144.31
332.03	1149.31
332.258	1187.31
332.486	1200.31
332.715	1238.31
332.943	1322.31
333.172	1301.31
333.4	1400.31
333.629	1407.31
333.857	1418.31
334.085	1410.31
334.314	1346.31
334.542	1345.31
334.771	1367.31
334.999	1323.31
335.227	1292.31
335.455	1313.31
335.684	1307.31
335.912	1276.31
336.14	1279.31
336.369	1285.31
336.597	1294.31
336.825	1271.31
337.053	1241.31
337.281	1199.31
337.51	1207.31
337.738	1178.31
337.966	1144.31
338.194	1161.31
338.422	1122.31
338.65	1157.31
338.878	1146.31
339.106	1104.31
339.334	1135.31
339.562	1140.31
339.79	1098.31
340.018	1093.31
340.246	1078.31
340.474	1103.31
340.702	1105.31
340.93	1084.31
341.158	1089.31
341.386	1067.31
341.614	1113.31
341.842	1077.31
342.07	1042.31
342.298	1078.31
342.526	1040.31
342.754	1057.31
342.981	1075.31
343.209	1097.31
343.437	1176.31
343.665	1207.31
343.893	1337.31
344.12	1365.31
344.348	1318.31
344.576	1224.31
344.804	1180.31
345.031	1140.31
345.259	1131.31
345.487	1108.31
345.714	1062.31
345.942	1059.31
346.17	1049.31
346.397	1053.31
346.625	1063.31
346.853	1038.31
347.08	1026.31
347.308	1043.31
347.535	1032.31
347.763	1029.31
347.99	1047.31
348.218	1034.31
348.445	1052.31
348.673	1058.31
348.9	1047.31
349.128	1004.31
349.355	1043.31
349.583	1035.31
349.81	1055.31
350.037	1023.31
350.265	1010.31
350.492	1017.31
350.72	991.31
350.947	1013.31
351.174	986.31
351.402	998.31
351.629	1000.31
351.856	998.31
352.083	1000.31
352.311	972.31
352.538	980.31
352.765	996.31
352.992	997.31
353.22	997.31
353.447	986.31
353.674	982.31
353.901	991.31
354.128	993.31
354.355	994.31
354.583	1012.31
354.81	1000.31
355.037	1015.31
355.264	1021.31
355.491	1015.31
355.718	1028.31
355.945	996.31
356.172	1014.31
356.399	1005.31
356.626	1011.31
356.853	991.31
357.08	1012.31
357.307	1019.31
357.534	1000.31
357.761	1004.31
357.988	995.31
358.215	983.31
358.441	1010.31
358.668	977.31
358.895	1002.31
359.122	1013.31
359.349	988.31
359.576	1033.31
359.802	999.31
360.029	975.31
360.256	994.31
360.483	992.31
360.709	995.31
360.936	991.31
361.163	1006.31
361.39	981.31
361.616	1019.31
361.843	1025.31
362.07	1002.31
362.296	993.31
362.523	1005.31
362.749	1013.31
362.976	1014.31
363.203	999.31
363.429	1002.31
363.656	961.31
363.882	1018.31
364.109	1020.31
364.335	1002.31
364.562	1000.31
364.788	957.31
365.015	987.31
365.241	999.31
365.468	992.31
365.694	976.31
365.92	989.31
366.147	973.31
366.373	1024.31
366.599	985.31
366.826	1008.31
367.052	985.31
367.278	1000.31
367.505	1023.31
367.731	1032.31
367.957	1029.31
368.184	1017.31
368.41	1028.31
368.636	1050.31
368.862	1025.31
369.089	1043.31
369.315	1013.31
369.541	1064.31
369.767	1028.31
369.993	1055.31
370.219	1047.31
370.445	1029.31
370.672	1047.31
370.898	1079.31
371.124	1094.31
371.35	1087.31
371.576	1085.31
371.802	1095.31
372.028	1074.31
372.254	1074.31
372.48	1084.31
372.706	1106.31
372.932	1149.31
373.158	1141.31
373.384	1121.31
373.61	1110.31
373.835	1099.31
374.061	1089.31
374.287	1109.31
374.513	1122.31
374.739	1179.31
374.965	1208.31
375.191	1206.31
375.416	1218.31
375.642	1162.31
375.868	1127.31
376.094	1094.31
376.319	1096.31
376.545	1100.31
376.771	1116.31
376.997	1093.31
377.222	1129.31
377.448	1109.31
377.674	1112.31
377.899	1108.31
378.125	1094.31
378.35	1092.31
378.576	1053.31
378.802	1076.31
379.027	1077.31
379.253	1061.31
379.478	1094.31
379.704	1078.31
379.929	1095.31
380.155	1096.31
380.38	1065.31
380.606	1070.31
380.831	1079.31
381.057	1096.31
381.282	1068.31
381.507	1105.31
381.733	1073.31
381.958	1115.31
382.184	1103.31
382.409	1146.31
382.634	1163.31
382.86	1137.31
383.085	1147.31
383.31	1159.31
383.535	1205.31
383.761	1194.31
383.986	1239.31
384.211	1256.31
384.436	1272.31
384.662	1285.31
384.887	1313.31
385.112	1281.31
385.337	1356.31
385.562	1351.31
385.787	1335.31
386.013	1315.31
386.238	1319.31
386.463	1333.31
386.688	1349.31
386.913	1325.31
387.138	1312.31
387.363	1332.31
387.588	1305.31
387.813	1340.31
388.038	1280.31
388.263	1292.31
388.488	1314.31
388.713	1291.31
388.938	1285.31
389.163	1254.31
389.387	1303.31
389.612	1275.31
389.837	1269.31
390.062	1287.31
390.287	1308.31
390.512	1289.31
390.736	1276.31
390.961	1355.31
391.186	1384.31
391.411	1411.31
391.636	1409.31
391.86	1491.31
392.085	1494.31
392.31	1484.31
392.534	1452.31
392.759	1412.31
392.984	1386.31
393.208	1413.31
393.433	1384.31
393.658	1417.31
393.882	1415.31
394.107	1379.31
394.331	1407.31
394.556	1411.31
394.78	1411.31
395.005	1429.31
395.229	1434.31
395.454	1451.31
395.678	1479.31
395.903	1460.31
396.127	1462.31
396.352	1440.31
396.576	1397.31
396.801	1419.31
397.025	1415.31
397.249	1453.31
397.474	1471.31
397.698	1485.31
397.922	1487.31
398.147	1445.31
398.371	1515.31
398.595	1569.31
398.82	1636.31
399.044	1753.31
399.268	1931.31
399.492	2257.31
399.717	2543.31
399.941	2514.31
400.165	2321.31
400.389	2047.31
400.613	1857.31
400.837	1731.31
401.062	1715.31
401.286	1692.31
401.51	1624.31
401.734	1643.31
401.958	1673.31
402.182	1667.31
402.406	1687.31
402.63	1702.31
402.854	1768.31
403.078	1796.31
403.302	1827.31
403.526	1885.31
403.75	1909.31
403.974	1946.31
404.198	1966.31
404.422	1949.31
404.645	1877.31
404.869	1900.31
405.093	1931.31
405.317	1883.31
405.541	1840.31
405.765	1832.31
405.988	1825.31
406.212	1812.31
406.436	1843.31
406.66	1841.31
406.883	1914.31
407.107	2016.31
407.331	2089.31
407.555	2184.31
407.778	2148.31
408.002	2101.31
408.226	2019.31
408.449	1976.31
408.673	1917.31
408.896	1865.31
409.12	1818.31
409.344	1875.31
409.567	1820.31
409.791	1882.31
410.014	1805.31
410.238	1819.31
410.461	1795.31
410.685	1797.31
410.908	1747.31
411.132	1760.31
411.355	1662.31
411.578	1719.31
411.802	1718.31
412.025	1757.31
412.249	1749.31
412.472	1754.31
412.695	1697.31
412.919	1665.31
413.142	1655.31
413.365	1633.31
413.589	1669.31
413.812	1651.31
414.035	1611.31
414.258	1587.31
414.482	1627.31
414.705	1663.31
414.928	1665.31
415.151	1687.31
415.374	1665.31
415.597	1647.31
415.821	1617.31
416.044	1594.31
416.267	1632.31
416.49	1603.31
416.713	1587.31
416.936	1630.31
417.159	1612.31
417.382	1625.31
417.605	1583.31
417.828	1609.31
418.051	1636.31
418.274	1608.31
418.497	1630.31
418.72	1683.31
418.943	1663.31
419.166	1776.31
419.389	1873.31
419.611	1837.31
419.834	1767.31
420.057	1736.31
420.28	1651.31
420.503	1623.31
420.726	1624.31
420.948	1596.31
421.171	1619.31
421.394	1645.31
421.617	1623.31
421.839	1600.31
422.062	1618.31
422.285	1591.31
422.507	1684.31
422.73	1685.31
422.953	1680.31
423.175	1692.31
423.398	1690.31
423.621	1709.31
423.843	1746.31
424.066	1758.31
424.288	1734.31
424.511	1719.31
424.733	1691.31
424.956	1677.31
425.178	1665.31
425.401	1627.31
425.623	1627.31
425.846	1608.31
426.068	1620.31
426.291	1546.31
426.513	1578.31
426.735	1549.31
426.958	1538.31
427.18	1467.31
427.402	1480.31
427.625	1508.31
427.847	1451.31
428.069	1454.31
428.292	1445.31
428.514	1429.31
428.736	1472.31
428.958	1441.31
429.181	1440.31
429.403	1426.31
429.625	1399.31
429.847	1426.31
430.069	1395.31
430.292	1418.31
430.514	1409.31
430.736	1432.31
430.958	1399.31
431.18	1392.31
431.402	1426.31
431.624	1430.31
431.846	1427.31
432.068	1457.31
432.29	1458.31
432.512	1411.31
432.734	1465.31
432.956	1439.31
433.178	1445.31
433.4	1445.31
433.622	1451.31
433.844	1427.31
434.066	1458.31
434.287	1446.31
434.509	1499.31
434.731	1589.31
434.953	1649.31
435.175	1625.31
435.397	1602.31
435.618	1543.31
435.84	1464.31
436.062	1493.31
436.284	1471.31
436.505	1443.31
436.727	1431.31
436.949	1431.31
437.17	1414.31
437.392	1397.31
437.614	1416.31
437.835	1373.31
438.057	1395.31
438.278	1333.31
438.5	1404.31
438.721	1405.31
438.943	1419.31
439.165	1401.31
439.386	1411.31
439.608	1410.31
439.829	1428.31
440.05	1461.31
440.272	1427.31
440.493	1436.31
440.715	1504.31
440.936	1496.31
441.158	1503.31
441.379	1559.31
441.6	1615.31
441.822	1607.31
442.043	1615.31
442.264	1576.31
442.486	1566.31
442.707	1584.31
442.928	1585.31
443.149	1573.31
443.371	1563.31
443.592	1603.31
443.813	1606.31
444.034	1671.31
444.255	1689.31
444.476	1780.31
444.698	1882.31
444.919	1923.31
445.14	2019.31
445.361	1831.31
445.582	1682.31
445.803	1587.31
446.024	1548.31
446.245	1517.31
446.466	1496.31
446.687	1437.31
446.908	1452.31
447.129	1443.31
447.35	1402.31
447.571	1375.31
447.792	1356.31
448.013	1350.31
448.234	1368.31
448.455	1309.31
448.675	1295.31
448.896	1356.31
449.117	1283.31
449.338	1319.31
449.559	1304.31
449.779	1272.31
450	1275.31
450.221	1321.31
450.442	1291.31
450.662	1311.31
450.883	1325.31
451.104	1370.31
451.324	1339.31
451.545	1330.31
451.766	1351.31
451.986	1308.31
452.207	1317.31
452.428	1292.31
452.648	1320.31
452.869	1293.31
453.089	1256.31
453.31	1301.31
453.53	1273.31
453.751	1266.31
453.971	1241.31
454.192	1255.31
454.412	1236.31
454.633	1246.31
454.853	1231.31
455.073	1216.31
455.294	1233.31
455.514	1200.31
455.734	1254.31
455.955	1242.31
456.175	1217.31
456.395	1225.31
456.616	1211.31
456.836	1204.31
457.056	1215.31
457.276	1196.31
457.497	1203.31
457.717	1223.31
457.937	1192.31
458.157	1256.31
458.377	1253.31
458.598	1254.31
458.818	1310.31
459.038	1323.31
459.258	1367.31
459.478	1441.31
459.698	1492.31
459.918	1481.31
460.138	1601.31
460.358	1673.31
460.578	1650.31
460.798	1686.31
461.018	1727.31
461.238	1701.31
461.458	1671.31
461.678	1685.31
461.898	1731.31
462.118	1755.31
462.338	1826.31
462.558	1883.31
462.777	1971.31
462.997	2099.31
463.217	2260.31
463.437	2311.31
463.657	2111.31
463.876	1991.31
464.096	2024.31
464.316	1964.31
464.536	2012.31
464.755	1897.31
464.975	1860.31
465.195	1744.31
465.414	1673.31
465.634	1543.31
465.854	1511.31
466.073	1459.31
466.293	1451.31
466.512	1426.31
466.732	1378.31
466.951	1384.31
467.171	1377.31
467.391	1376.31
467.61	1362.31
467.829	1357.31
468.049	1324.31
468.268	1345.31
468.488	1331.31
468.707	1290.31
468.927	1341.31
469.146	1334.31
469.365	1348.31
469.585	1372.31
469.804	1398.31
470.023	1403.31
470.243	1411.31
470.462	1403.31
470.681	1399.31
470.901	1427.31
471.12	1402.31
471.339	1395.31
471.558	1362.31
471.777	1375.31
471.997	1363.31
472.216	1307.31
472.435	1344.31
472.654	1290.31
472.873	1281.31
473.092	1265.31
473.311	1284.31
473.53	1267.31
473.749	1290.31
473.968	1280.31
474.187	1252.31
474.406	1246.31
474.625	1304.31
474.844	1283.31
475.063	1288.31
475.282	1279.31
475.501	1277.31
475.72	1299.31
475.939	1302.31
476.158	1313.31
476.377	1347.31
476.596	1322.31
476.814	1377.31
477.033	1356.31
477.252	1395.31
477.471	1411.31
477.69	1435.31
477.908	1496.31
478.127	1503.31
478.346	1546.31
478.564	1547.31
478.783	1545.31
479.002	1636.31
479.22	1611.31
479.439	1640.31
479.658	1568.31
479.876	1597.31
480.095	1642.31
480.313	1689.31
480.532	1764.31
480.751	1755.31
480.969	1649.31
481.188	1585.31
481.406	1590.31
481.624	1475.31
481.843	1483.31
482.061	1487.31
482.28	1440.31
482.498	1482.31
482.717	1423.31
482.935	1440.31
483.153	1461.31
483.372	1482.31
483.59	1474.31
483.808	1508.31
484.027	1464.31
484.245	1463.31
484.463	1516.31
484.681	1481.31
484.9	1498.31
485.118	1532.31
485.336	1505.31
485.554	1535.31
485.772	1552.31
485.99	1557.31
486.209	1549.31
486.427	1559.31
486.645	1533.31
486.863	1560.31
487.081	1519.31
487.299	1507.31
487.517	1551.31
487.735	1489.31
487.953	1530.31
488.171	1515.31
488.389	1529.31
488.607	1516.31
488.825	1512.31
489.043	1484.31
489.261	1498.31
489.479	1512.31
489.696	1511.31
489.914	1532.31
490.132	1547.31
490.35	1542.31
490.568	1534.31
490.786	1524.31
491.003	1551.31
491.221	1585.31
491.439	1585.31
491.657	1521.31
491.874	1550.31
