Data from NiCl2@0.0625M.TitratingCurve.Agarose3%dH2O.NegLispCup.LampEnergy10.LIBS07252019_HRD10591_18-35-14-577.txt Node
Date: Thu Jul 25 18:35:14 EDT 2019
User: cochatt
Spectrometer: HR+D1059
Trigger mode: 1
Integration Time (sec): 1.000000E-1
Scans to average: 1
Electric dark correction enabled: true
Nonlinearity correction enabled: false
Boxcar width: 0
XAxis mode: Wavelengths
Number of Pixels in Spectrum: 2048
>>>>>Begin Spectral Data<<<<<
223.165	-0.94
223.4	-0.94
223.635	-0.94
223.869	-15.94
224.104	-22.94
224.338	-14.94
224.573	-16.94
224.808	-14.94
225.042	3.06
225.277	-8.94
225.511	-3.94
225.746	-10.94
225.98	16.06
226.215	3.06
226.449	14.06
226.683	22.06
226.918	26.06
227.152	26.06
227.387	20.06
227.621	33.06
227.856	53.06
228.09	48.06
228.324	45.06
228.559	55.06
228.793	73.06
229.027	112.06
229.262	134.06
229.496	131.06
229.73	141.06
229.964	155.06
230.199	164.06
230.433	166.06
230.667	156.06
230.901	166.06
231.136	160.06
231.37	162.06
231.604	152.06
231.838	165.06
232.072	168.06
232.306	185.06
232.541	174.06
232.775	159.06
233.009	180.06
233.243	183.06
233.477	181.06
233.711	179.06
233.945	188.06
234.179	206.06
234.413	190.06
234.647	178.06
234.881	196.06
235.115	198.06
235.349	187.06
235.583	189.06
235.817	187.06
236.051	189.06
236.285	190.06
236.519	196.06
236.753	190.06
236.987	192.06
237.221	200.06
237.455	201.06
237.689	199.06
237.922	193.06
238.156	201.06
238.39	196.06
238.624	203.06
238.858	218.06
239.091	218.06
239.325	225.06
239.559	220.06
239.793	223.06
240.027	219.06
240.26	217.06
240.494	216.06
240.728	226.06
240.961	242.06
241.195	210.06
241.429	228.06
241.662	241.06
241.896	250.06
242.13	257.06
242.363	236.06
242.597	253.06
242.83	234.06
243.064	247.06
243.298	260.06
243.531	263.06
243.765	268.06
243.998	260.06
244.232	262.06
244.465	267.06
244.699	267.06
244.932	276.06
245.166	289.06
245.399	276.06
245.633	297.06
245.866	277.06
246.099	277.06
246.333	306.06
246.566	285.06
246.8	282.06
247.033	293.06
247.266	301.06
247.5	290.06
247.733	292.06
247.966	287.06
248.2	318.06
248.433	305.06
248.666	319.06
248.899	309.06
249.133	323.06
249.366	305.06
249.599	316.06
249.832	317.06
250.066	334.06
250.299	326.06
250.532	334.06
250.765	312.06
250.998	325.06
251.231	324.06
251.465	324.06
251.698	357.06
251.931	346.06
252.164	366.06
252.397	371.06
252.63	351.06
252.863	362.06
253.096	375.06
253.329	364.06
253.562	353.06
253.795	374.06
254.028	359.06
254.261	377.06
254.494	379.06
254.727	381.06
254.96	379.06
255.193	388.06
255.426	391.06
255.659	366.06
255.892	376.06
256.124	387.06
256.357	401.06
256.59	392.06
256.823	418.06
257.056	397.06
257.289	390.06
257.521	403.06
257.754	403.06
257.987	397.06
258.22	393.06
258.452	420.06
258.685	408.06
258.918	399.06
259.151	417.06
259.383	427.06
259.616	428.06
259.849	418.06
260.081	424.06
260.314	412.06
260.547	414.06
260.779	427.06
261.012	435.06
261.244	459.06
261.477	430.06
261.71	434.06
261.942	459.06
262.175	417.06
262.407	453.06
262.64	444.06
262.872	441.06
263.105	444.06
263.337	457.06
263.57	446.06
263.802	463.06
264.035	468.06
264.267	463.06
264.499	467.06
264.732	453.06
264.964	486.06
265.197	502.06
265.429	484.06
265.661	495.06
265.894	461.06
266.126	463.06
266.358	469.06
266.591	464.06
266.823	518.06
267.055	483.06
267.287	494.06
267.52	490.06
267.752	486.06
267.984	461.06
268.216	504.06
268.448	500.06
268.681	486.06
268.913	503.06
269.145	515.06
269.377	493.06
269.609	503.06
269.841	508.06
270.073	509.06
270.306	509.06
270.538	524.06
270.77	518.06
271.002	503.06
271.234	523.06
271.466	523.06
271.698	514.06
271.93	516.06
272.162	520.06
272.394	532.06
272.626	514.06
272.858	550.06
273.09	528.06
273.322	539.06
273.553	544.06
273.785	551.06
274.017	564.06
274.249	539.06
274.481	573.06
274.713	566.06
274.945	591.06
275.176	569.06
275.408	575.06
275.64	559.06
275.872	567.06
276.104	582.06
276.335	582.06
276.567	584.06
276.799	583.06
277.031	595.06
277.262	588.06
277.494	605.06
277.726	581.06
277.957	577.06
278.189	612.06
278.421	595.06
278.652	590.06
278.884	601.06
279.115	618.06
279.347	610.06
279.579	612.06
279.81	609.06
280.042	620.06
280.273	615.06
280.505	625.06
280.736	617.06
280.968	621.06
281.199	632.06
281.431	620.06
281.662	636.06
281.894	620.06
282.125	625.06
282.356	647.06
282.588	637.06
282.819	652.06
283.051	644.06
283.282	653.06
283.513	653.06
283.745	654.06
283.976	676.06
284.207	663.06
284.439	661.06
284.67	666.06
284.901	645.06
285.132	653.06
285.364	664.06
285.595	667.06
285.826	674.06
286.057	681.06
286.288	660.06
286.52	681.06
286.751	673.06
286.982	681.06
287.213	672.06
287.444	707.06
287.675	688.06
287.906	662.06
288.138	683.06
288.369	711.06
288.6	718.06
288.831	698.06
289.062	694.06
289.293	718.06
289.524	720.06
289.755	713.06
289.986	733.06
290.217	711.06
290.448	732.06
290.679	723.06
290.91	700.06
291.141	703.06
291.371	732.06
291.602	705.06
291.833	723.06
292.064	724.06
292.295	712.06
292.526	717.06
292.757	701.06
292.987	719.06
293.218	727.06
293.449	726.06
293.68	741.06
293.91	716.06
294.141	711.06
294.372	756.06
294.603	730.06
294.833	719.06
295.064	736.06
295.295	729.06
295.525	721.06
295.756	730.06
295.987	728.06
296.217	730.06
296.448	736.06
296.679	711.06
296.909	743.06
297.14	755.06
297.37	756.06
297.601	783.06
297.831	758.06
298.062	755.06
298.292	747.06
298.523	780.06
298.753	786.06
298.984	799.06
299.214	789.06
299.445	755.06
299.675	767.06
299.905	785.06
300.136	771.06
300.366	791.06
300.597	795.06
300.827	790.06
301.057	797.06
301.288	836.06
301.518	812.06
301.748	823.06
301.979	806.06
302.209	844.06
302.439	821.06
302.669	793.06
302.9	815.06
303.13	849.06
303.36	836.06
303.59	778.06
303.82	798.06
304.051	818.06
304.281	841.06
304.511	795.06
304.741	817.06
304.971	824.06
305.201	811.06
305.431	831.06
305.661	832.06
305.891	793.06
306.121	801.06
306.352	806.06
306.582	792.06
306.812	812.06
307.042	803.06
307.272	802.06
307.502	799.06
307.731	805.06
307.961	802.06
308.191	805.06
308.421	788.06
308.651	790.06
308.881	781.06
309.111	801.06
309.341	800.06
309.571	802.06
309.8	826.06
310.03	805.06
310.26	806.06
310.49	810.06
310.72	793.06
310.949	808.06
311.179	817.06
311.409	821.06
311.639	818.06
311.868	833.06
312.098	835.06
312.328	844.06
312.557	863.06
312.787	854.06
313.017	833.06
313.246	843.06
313.476	853.06
313.706	879.06
313.935	853.06
314.165	864.06
314.394	842.06
314.624	863.06
314.853	857.06
315.083	852.06
315.312	890.06
315.542	887.06
315.771	851.06
316.001	850.06
316.23	839.06
316.46	837.06
316.689	874.06
316.919	865.06
317.148	884.06
317.377	874.06
317.607	873.06
317.836	862.06
318.065	861.06
318.295	887.06
318.524	861.06
318.753	876.06
318.983	899.06
319.212	860.06
319.441	853.06
319.67	860.06
319.9	857.06
320.129	878.06
320.358	865.06
320.587	867.06
320.816	877.06
321.046	876.06
321.275	894.06
321.504	860.06
321.733	878.06
321.962	897.06
322.191	889.06
322.42	884.06
322.649	853.06
322.878	875.06
323.108	878.06
323.337	890.06
323.566	884.06
323.795	911.06
324.024	908.06
324.253	921.06
324.482	860.06
324.71	887.06
324.939	918.06
325.168	932.06
325.397	915.06
325.626	871.06
325.855	907.06
326.084	916.06
326.313	917.06
326.542	962.06
326.77	925.06
326.999	956.06
327.228	924.06
327.457	911.06
327.686	922.06
327.914	948.06
328.143	937.06
328.372	944.06
328.6	927.06
328.829	938.06
329.058	944.06
329.287	931.06
329.515	929.06
329.744	931.06
329.972	958.06
330.201	964.06
330.43	963.06
330.658	972.06
330.887	988.06
331.115	950.06
331.344	1007.06
331.572	985.06
331.801	1000.06
332.03	1022.06
332.258	1021.06
332.486	1022.06
332.715	1081.06
332.943	1086.06
333.172	1113.06
333.4	1151.06
333.629	1151.06
333.857	1198.06
334.085	1189.06
334.314	1211.06
334.542	1145.06
334.771	1157.06
334.999	1125.06
335.227	1161.06
335.455	1186.06
335.684	1152.06
335.912	1128.06
336.14	1123.06
336.369	1123.06
336.597	1137.06
336.825	1109.06
337.053	1092.06
337.281	1094.06
337.51	1109.06
337.738	1062.06
337.966	1050.06
338.194	1069.06
338.422	1045.06
338.65	1042.06
338.878	1050.06
339.106	1007.06
339.334	1020.06
339.562	1029.06
339.79	1032.06
340.018	988.06
340.246	976.06
340.474	994.06
340.702	975.06
340.93	974.06
341.158	1007.06
341.386	973.06
341.614	967.06
341.842	991.06
342.07	998.06
342.298	979.06
342.526	979.06
342.754	980.06
342.981	995.06
343.209	1014.06
343.437	1039.06
343.665	1062.06
343.893	1083.06
344.12	1130.06
344.348	1118.06
344.576	1087.06
344.804	1056.06
345.031	1011.06
345.259	979.06
345.487	990.06
345.714	978.06
345.942	965.06
346.17	981.06
346.397	975.06
346.625	942.06
346.853	934.06
347.08	952.06
347.308	964.06
347.535	979.06
347.763	942.06
347.99	955.06
348.218	936.06
348.445	945.06
348.673	950.06
348.9	936.06
349.128	930.06
349.355	922.06
349.583	914.06
349.81	935.06
350.037	929.06
350.265	933.06
350.492	948.06
350.72	945.06
350.947	957.06
351.174	905.06
351.402	918.06
351.629	909.06
351.856	917.06
352.083	904.06
352.311	929.06
352.538	942.06
352.765	923.06
352.992	910.06
353.22	924.06
353.447	897.06
353.674	913.06
353.901	921.06
354.128	927.06
354.355	904.06
354.583	907.06
354.81	926.06
355.037	893.06
355.264	920.06
355.491	926.06
355.718	906.06
355.945	919.06
356.172	947.06
356.399	884.06
356.626	923.06
356.853	913.06
357.08	923.06
357.307	900.06
357.534	905.06
357.761	934.06
357.988	915.06
358.215	929.06
358.441	929.06
358.668	911.06
358.895	910.06
359.122	925.06
359.349	908.06
359.576	932.06
359.802	909.06
360.029	916.06
360.256	908.06
360.483	917.06
360.709	899.06
360.936	893.06
361.163	904.06
361.39	909.06
361.616	913.06
361.843	932.06
362.07	921.06
362.296	940.06
362.523	924.06
362.749	948.06
362.976	911.06
363.203	894.06
363.429	908.06
363.656	905.06
363.882	951.06
364.109	933.06
364.335	899.06
364.562	941.06
364.788	909.06
365.015	924.06
365.241	924.06
365.468	894.06
365.694	903.06
365.92	921.06
366.147	926.06
366.373	958.06
366.599	929.06
366.826	933.06
367.052	906.06
367.278	927.06
367.505	931.06
367.731	916.06
367.957	933.06
368.184	933.06
368.41	950.06
368.636	941.06
368.862	940.06
369.089	957.06
369.315	968.06
369.541	965.06
369.767	957.06
369.993	979.06
370.219	947.06
370.445	966.06
370.672	982.06
370.898	1001.06
371.124	999.06
371.35	990.06
371.576	989.06
371.802	992.06
372.028	999.06
372.254	1010.06
372.48	991.06
372.706	1025.06
372.932	1006.06
373.158	1045.06
373.384	986.06
373.61	983.06
373.835	982.06
374.061	1016.06
374.287	1032.06
374.513	993.06
374.739	1044.06
374.965	1052.06
375.191	1078.06
375.416	1105.06
375.642	1053.06
375.868	1069.06
376.094	994.06
376.319	1020.06
376.545	966.06
376.771	1001.06
376.997	1009.06
377.222	986.06
377.448	977.06
377.674	973.06
377.899	973.06
378.125	971.06
378.35	976.06
378.576	961.06
378.802	981.06
379.027	986.06
379.253	971.06
379.478	996.06
379.704	961.06
379.929	990.06
380.155	965.06
380.38	967.06
380.606	970.06
380.831	989.06
381.057	970.06
381.282	1016.06
381.507	1010.06
381.733	991.06
381.958	969.06
382.184	990.06
382.409	1012.06
382.634	1033.06
382.86	1020.06
383.085	1027.06
383.31	1045.06
383.535	1041.06
383.761	1052.06
383.986	1097.06
384.211	1098.06
384.436	1111.06
384.662	1124.06
384.887	1137.06
385.112	1128.06
385.337	1111.06
385.562	1139.06
385.787	1155.06
386.013	1132.06
386.238	1151.06
386.463	1153.06
386.688	1142.06
386.913	1153.06
387.138	1155.06
387.363	1162.06
387.588	1158.06
387.813	1159.06
388.038	1143.06
388.263	1183.06
388.488	1175.06
388.713	1160.06
388.938	1140.06
389.163	1151.06
389.387	1163.06
389.612	1132.06
389.837	1132.06
390.062	1139.06
390.287	1151.06
390.512	1155.06
390.736	1185.06
390.961	1179.06
391.186	1212.06
391.411	1196.06
391.636	1262.06
391.86	1271.06
392.085	1293.06
392.31	1256.06
392.534	1245.06
392.759	1228.06
392.984	1240.06
393.208	1226.06
393.433	1212.06
393.658	1229.06
393.882	1202.06
394.107	1197.06
394.331	1217.06
394.556	1219.06
394.78	1257.06
395.005	1281.06
395.229	1251.06
395.454	1271.06
395.678	1250.06
395.903	1266.06
396.127	1285.06
396.352	1235.06
396.576	1244.06
396.801	1252.06
397.025	1266.06
397.249	1273.06
397.474	1290.06
397.698	1321.06
397.922	1314.06
398.147	1322.06
398.371	1322.06
398.595	1376.06
398.82	1430.06
399.044	1528.06
399.268	1594.06
399.492	1730.06
399.717	1883.06
399.941	1925.06
400.165	1836.06
400.389	1675.06
400.613	1629.06
400.837	1523.06
401.062	1445.06
401.286	1444.06
401.51	1451.06
401.734	1439.06
401.958	1473.06
402.182	1436.06
402.406	1430.06
402.63	1489.06
402.854	1513.06
403.078	1478.06
403.302	1492.06
403.526	1511.06
403.75	1579.06
403.974	1549.06
404.198	1561.06
404.422	1577.06
404.645	1546.06
404.869	1548.06
405.093	1523.06
405.317	1507.06
405.541	1559.06
405.765	1521.06
405.988	1505.06
406.212	1548.06
406.436	1575.06
406.66	1591.06
406.883	1582.06
407.107	1698.06
407.331	1772.06
407.555	1757.06
407.778	1759.06
408.002	1759.06
408.226	1723.06
408.449	1681.06
408.673	1665.06
408.896	1619.06
409.12	1599.06
409.344	1597.06
409.567	1576.06
409.791	1601.06
410.014	1587.06
410.238	1576.06
410.461	1575.06
410.685	1557.06
410.908	1550.06
411.132	1529.06
411.355	1513.06
411.578	1498.06
411.802	1481.06
412.025	1499.06
412.249	1519.06
412.472	1486.06
412.695	1486.06
412.919	1432.06
413.142	1459.06
413.365	1468.06
413.589	1433.06
413.812	1435.06
414.035	1457.06
414.258	1454.06
414.482	1437.06
414.705	1464.06
414.928	1474.06
415.151	1444.06
415.374	1444.06
415.597	1423.06
415.821	1378.06
416.044	1356.06
416.267	1386.06
416.49	1369.06
416.713	1378.06
416.936	1387.06
417.159	1382.06
417.382	1398.06
417.605	1336.06
417.828	1353.06
418.051	1390.06
418.274	1381.06
418.497	1374.06
418.72	1433.06
418.943	1415.06
419.166	1481.06
419.389	1572.06
419.611	1548.06
419.834	1492.06
420.057	1437.06
420.28	1420.06
420.503	1384.06
420.726	1373.06
420.948	1368.06
421.171	1365.06
421.394	1367.06
421.617	1379.06
421.839	1395.06
422.062	1392.06
422.285	1354.06
422.507	1416.06
422.73	1401.06
422.953	1405.06
423.175	1406.06
423.398	1427.06
423.621	1380.06
423.843	1413.06
424.066	1407.06
424.288	1400.06
424.511	1434.06
424.733	1421.06
424.956	1347.06
425.178	1387.06
425.401	1387.06
425.623	1363.06
425.846	1335.06
426.068	1350.06
426.291	1323.06
426.513	1320.06
426.735	1325.06
426.958	1316.06
427.18	1259.06
427.402	1286.06
427.625	1314.06
427.847	1239.06
428.069	1267.06
428.292	1282.06
428.514	1287.06
428.736	1308.06
428.958	1301.06
429.181	1303.06
429.403	1218.06
429.625	1259.06
429.847	1235.06
430.069	1241.06
430.292	1237.06
430.514	1222.06
430.736	1267.06
430.958	1270.06
431.18	1269.06
431.402	1275.06
431.624	1297.06
431.846	1285.06
432.068	1285.06
432.29	1276.06
432.512	1248.06
432.734	1318.06
432.956	1244.06
433.178	1269.06
433.4	1279.06
433.622	1293.06
433.844	1319.06
434.066	1297.06
434.287	1293.06
434.509	1359.06
434.731	1387.06
434.953	1417.06
435.175	1385.06
435.397	1409.06
435.618	1373.06
435.84	1300.06
436.062	1256.06
436.284	1285.06
436.505	1246.06
436.727	1219.06
436.949	1295.06
437.17	1262.06
437.392	1238.06
437.614	1222.06
437.835	1214.06
438.057	1213.06
438.278	1191.06
438.5	1203.06
438.721	1243.06
438.943	1246.06
439.165	1223.06
439.386	1213.06
439.608	1250.06
439.829	1226.06
440.05	1238.06
440.272	1253.06
440.493	1245.06
440.715	1279.06
440.936	1288.06
441.158	1281.06
441.379	1358.06
441.6	1343.06
441.822	1365.06
442.043	1353.06
442.264	1345.06
442.486	1319.06
442.707	1358.06
442.928	1295.06
443.149	1319.06
443.371	1335.06
443.592	1369.06
443.813	1390.06
444.034	1360.06
444.255	1403.06
444.476	1433.06
444.698	1485.06
444.919	1500.06
445.14	1612.06
445.361	1519.06
445.582	1400.06
445.803	1351.06
446.024	1331.06
446.245	1321.06
446.466	1285.06
446.687	1241.06
446.908	1236.06
447.129	1213.06
447.35	1181.06
447.571	1182.06
447.792	1188.06
448.013	1181.06
448.234	1163.06
448.455	1158.06
448.675	1159.06
448.896	1134.06
449.117	1120.06
449.338	1138.06
449.559	1146.06
449.779	1122.06
450	1121.06
450.221	1148.06
450.442	1154.06
450.662	1115.06
450.883	1135.06
451.104	1125.06
451.324	1145.06
451.545	1151.06
451.766	1120.06
451.986	1129.06
452.207	1122.06
452.428	1117.06
452.648	1069.06
452.869	1098.06
453.089	1086.06
453.31	1101.06
453.53	1087.06
453.751	1098.06
453.971	1088.06
454.192	1117.06
454.412	1088.06
454.633	1089.06
454.853	1095.06
455.073	1069.06
455.294	1103.06
455.514	1055.06
455.734	1080.06
455.955	1068.06
456.175	1092.06
456.395	1047.06
456.616	1064.06
456.836	1059.06
457.056	1070.06
457.276	1068.06
457.497	1068.06
457.717	1068.06
457.937	1076.06
458.157	1096.06
458.377	1101.06
458.598	1119.06
458.818	1155.06
459.038	1145.06
459.258	1202.06
459.478	1258.06
459.698	1294.06
459.918	1309.06
460.138	1303.06
460.358	1364.06
460.578	1358.06
460.798	1405.06
461.018	1431.06
461.238	1402.06
461.458	1380.06
461.678	1393.06
461.898	1401.06
462.118	1423.06
462.338	1489.06
462.558	1502.06
462.777	1553.06
462.997	1671.06
463.217	1748.06
463.437	1743.06
463.657	1635.06
463.876	1610.06
464.096	1639.06
464.316	1600.06
464.536	1577.06
464.755	1558.06
464.975	1551.06
465.195	1460.06
465.414	1389.06
465.634	1301.06
465.854	1292.06
466.073	1285.06
466.293	1252.06
466.512	1215.06
466.732	1185.06
466.951	1194.06
467.171	1178.06
467.391	1194.06
467.61	1161.06
467.829	1189.06
468.049	1180.06
468.268	1155.06
468.488	1126.06
468.707	1130.06
468.927	1157.06
469.146	1157.06
469.365	1167.06
469.585	1142.06
469.804	1212.06
470.023	1229.06
470.243	1189.06
470.462	1194.06
470.681	1189.06
470.901	1224.06
471.12	1199.06
471.339	1197.06
471.558	1175.06
471.777	1197.06
471.997	1168.06
472.216	1162.06
472.435	1171.06
472.654	1133.06
472.873	1113.06
473.092	1141.06
473.311	1129.06
473.53	1134.06
473.749	1126.06
473.968	1139.06
474.187	1132.06
474.406	1159.06
474.625	1177.06
474.844	1172.06
475.063	1149.06
475.282	1182.06
475.501	1196.06
475.72	1166.06
475.939	1172.06
476.158	1186.06
476.377	1190.06
476.596	1191.06
476.814	1259.06
477.033	1243.06
477.252	1246.06
477.471	1282.06
477.69	1310.06
477.908	1323.06
478.127	1356.06
478.346	1356.06
478.564	1391.06
478.783	1374.06
479.002	1388.06
479.22	1413.06
479.439	1429.06
479.658	1426.06
479.876	1409.06
480.095	1433.06
480.313	1487.06
480.532	1473.06
480.751	1495.06
480.969	1473.06
481.188	1418.06
481.406	1401.06
481.624	1401.06
481.843	1384.06
482.061	1384.06
482.28	1395.06
482.498	1419.06
482.717	1388.06
482.935	1393.06
483.153	1358.06
483.372	1397.06
483.59	1399.06
483.808	1412.06
484.027	1404.06
484.245	1438.06
484.463	1441.06
484.681	1465.06
484.9	1442.06
485.118	1452.06
485.336	1433.06
485.554	1508.06
485.772	1499.06
485.99	1519.06
486.209	1504.06
486.427	1501.06
486.645	1458.06
486.863	1457.06
487.081	1458.06
487.299	1484.06
487.517	1469.06
487.735	1437.06
487.953	1471.06
488.171	1491.06
488.389	1481.06
488.607	1446.06
488.825	1413.06
489.043	1418.06
489.261	1454.06
489.479	1435.06
489.696	1418.06
489.914	1404.06
490.132	1429.06
490.35	1413.06
490.568	1431.06
490.786	1409.06
491.003	1447.06
491.221	1403.06
491.439	1459.06
491.657	1429.06
491.874	1465.06
492.092	1405.06
492.31	1447.06
492.527	1438.06
492.745	1446.06
492.963	1424.06
493.18	1407.06
493.398	1443.06
493.615	1413.06
493.833	1457.06
