Data from NiCl2@0.125M.TitratingCurve.Agarose3%dH2O.NegLispCup.LampEnergy10.LIBS07252019_HRD10591_18-30-24-575.txt Node
Date: Thu Jul 25 18:30:24 EDT 2019
User: cochatt
Spectrometer: HR+D1059
Trigger mode: 1
Integration Time (sec): 1.000000E-1
Scans to average: 1
Electric dark correction enabled: true
Nonlinearity correction enabled: false
Boxcar width: 0
XAxis mode: Wavelengths
Number of Pixels in Spectrum: 2048
>>>>>Begin Spectral Data<<<<<
223.165	-18.06
223.4	-18.06
223.635	-18.06
223.869	-21.06
224.104	-14.06
224.338	-23.06
224.573	-14.06
224.808	-16.06
225.042	-6.06
225.277	-9.06
225.511	1.94
225.746	12.94
225.98	7.94
226.215	8.94
226.449	22.94
226.683	14.94
226.918	18.94
227.152	32.94
227.387	23.94
227.621	34.94
227.856	33.94
228.09	49.94
228.324	52.94
228.559	63.94
228.793	72.94
229.027	88.94
229.262	116.94
229.496	110.94
229.73	114.94
229.964	115.94
230.199	109.94
230.433	125.94
230.667	113.94
230.901	129.94
231.136	132.94
231.37	127.94
231.604	148.94
231.838	138.94
232.072	138.94
232.306	128.94
232.541	125.94
232.775	147.94
233.009	137.94
233.243	151.94
233.477	130.94
233.711	142.94
233.945	135.94
234.179	133.94
234.413	148.94
234.647	135.94
234.881	133.94
235.115	130.94
235.349	145.94
235.583	145.94
235.817	140.94
236.051	154.94
236.285	152.94
236.519	146.94
236.753	148.94
236.987	139.94
237.221	140.94
237.455	161.94
237.689	168.94
237.922	165.94
238.156	163.94
238.39	156.94
238.624	151.94
238.858	136.94
239.091	156.94
239.325	167.94
239.559	166.94
239.793	155.94
240.027	161.94
240.26	167.94
240.494	185.94
240.728	179.94
240.961	161.94
241.195	159.94
241.429	174.94
241.662	176.94
241.896	164.94
242.13	184.94
242.363	194.94
242.597	164.94
242.83	185.94
243.064	166.94
243.298	178.94
243.531	202.94
243.765	191.94
243.998	203.94
244.232	215.94
244.465	192.94
244.699	197.94
244.932	194.94
245.166	199.94
245.399	193.94
245.633	197.94
245.866	198.94
246.099	213.94
246.333	221.94
246.566	210.94
246.8	206.94
247.033	201.94
247.266	203.94
247.5	202.94
247.733	222.94
247.966	212.94
248.2	232.94
248.433	223.94
248.666	221.94
248.899	224.94
249.133	232.94
249.366	231.94
249.599	222.94
249.832	221.94
250.066	217.94
250.299	223.94
250.532	235.94
250.765	245.94
250.998	229.94
251.231	234.94
251.465	224.94
251.698	237.94
251.931	234.94
252.164	261.94
252.397	251.94
252.63	247.94
252.863	269.94
253.096	251.94
253.329	241.94
253.562	247.94
253.795	253.94
254.028	267.94
254.261	259.94
254.494	251.94
254.727	268.94
254.96	267.94
255.193	257.94
255.426	256.94
255.659	245.94
255.892	265.94
256.124	263.94
256.357	274.94
256.59	244.94
256.823	291.94
257.056	271.94
257.289	270.94
257.521	248.94
257.754	275.94
257.987	271.94
258.22	283.94
258.452	290.94
258.685	291.94
258.918	287.94
259.151	271.94
259.383	278.94
259.616	286.94
259.849	302.94
260.081	292.94
260.314	281.94
260.547	289.94
260.779	313.94
261.012	286.94
261.244	285.94
261.477	306.94
261.71	309.94
261.942	293.94
262.175	315.94
262.407	297.94
262.64	303.94
262.872	284.94
263.105	303.94
263.337	318.94
263.57	294.94
263.802	312.94
264.035	313.94
264.267	307.94
264.499	322.94
264.732	320.94
264.964	316.94
265.197	318.94
265.429	310.94
265.661	327.94
265.894	305.94
266.126	334.94
266.358	323.94
266.591	349.94
266.823	327.94
267.055	335.94
267.287	334.94
267.52	344.94
267.752	338.94
267.984	326.94
268.216	336.94
268.448	353.94
268.681	337.94
268.913	340.94
269.145	327.94
269.377	327.94
269.609	338.94
269.841	336.94
270.073	344.94
270.306	330.94
270.538	349.94
270.77	361.94
271.002	344.94
271.234	355.94
271.466	356.94
271.698	341.94
271.93	357.94
272.162	361.94
272.394	369.94
272.626	355.94
272.858	345.94
273.09	364.94
273.322	351.94
273.553	367.94
273.785	346.94
274.017	377.94
274.249	353.94
274.481	375.94
274.713	364.94
274.945	362.94
275.176	361.94
275.408	367.94
275.64	381.94
275.872	387.94
276.104	381.94
276.335	372.94
276.567	378.94
276.799	395.94
277.031	402.94
277.262	380.94
277.494	407.94
277.726	399.94
277.957	386.94
278.189	389.94
278.421	371.94
278.652	389.94
278.884	397.94
279.115	409.94
279.347	396.94
279.579	397.94
279.81	416.94
280.042	399.94
280.273	415.94
280.505	422.94
280.736	412.94
280.968	415.94
281.199	409.94
281.431	393.94
281.662	432.94
281.894	424.94
282.125	411.94
282.356	427.94
282.588	437.94
282.819	410.94
283.051	412.94
283.282	449.94
283.513	422.94
283.745	433.94
283.976	434.94
284.207	441.94
284.439	415.94
284.67	449.94
284.901	453.94
285.132	434.94
285.364	448.94
285.595	441.94
285.826	431.94
286.057	450.94
286.288	414.94
286.52	450.94
286.751	482.94
286.982	450.94
287.213	445.94
287.444	469.94
287.675	443.94
287.906	457.94
288.138	453.94
288.369	459.94
288.6	478.94
288.831	475.94
289.062	460.94
289.293	475.94
289.524	473.94
289.755	457.94
289.986	469.94
290.217	464.94
290.448	463.94
290.679	473.94
290.91	478.94
291.141	495.94
291.371	497.94
291.602	497.94
291.833	486.94
292.064	472.94
292.295	467.94
292.526	467.94
292.757	473.94
292.987	476.94
293.218	478.94
293.449	500.94
293.68	462.94
293.91	485.94
294.141	475.94
294.372	488.94
294.603	489.94
294.833	484.94
295.064	486.94
295.295	484.94
295.525	481.94
295.756	483.94
295.987	501.94
296.217	481.94
296.448	504.94
296.679	511.94
296.909	498.94
297.14	529.94
297.37	521.94
297.601	533.94
297.831	518.94
298.062	511.94
298.292	537.94
298.523	565.94
298.753	560.94
298.984	533.94
299.214	541.94
299.445	529.94
299.675	534.94
299.905	513.94
300.136	519.94
300.366	522.94
300.597	538.94
300.827	542.94
301.057	566.94
301.288	580.94
301.518	557.94
301.748	554.94
301.979	568.94
302.209	583.94
302.439	549.94
302.669	560.94
302.9	557.94
303.13	534.94
303.36	542.94
303.59	510.94
303.82	530.94
304.051	547.94
304.281	520.94
304.511	533.94
304.741	535.94
304.971	531.94
305.201	574.94
305.431	538.94
305.661	515.94
305.891	531.94
306.121	527.94
306.352	563.94
306.582	520.94
306.812	537.94
307.042	541.94
307.272	519.94
307.502	545.94
307.731	536.94
307.961	539.94
308.191	543.94
308.421	531.94
308.651	522.94
308.881	511.94
309.111	498.94
309.341	505.94
309.571	517.94
309.8	547.94
310.03	525.94
310.26	532.94
310.49	531.94
310.72	537.94
310.949	523.94
311.179	527.94
311.409	543.94
311.639	529.94
311.868	537.94
312.098	529.94
312.328	547.94
312.557	545.94
312.787	535.94
313.017	542.94
313.246	557.94
313.476	565.94
313.706	586.94
313.935	582.94
314.165	564.94
314.394	559.94
314.624	566.94
314.853	565.94
315.083	566.94
315.312	564.94
315.542	563.94
315.771	561.94
316.001	543.94
316.23	551.94
316.46	553.94
316.689	576.94
316.919	551.94
317.148	545.94
317.377	530.94
317.607	569.94
317.836	557.94
318.065	537.94
318.295	547.94
318.524	543.94
318.753	533.94
318.983	565.94
319.212	551.94
319.441	553.94
319.67	539.94
319.9	551.94
320.129	557.94
320.358	563.94
320.587	541.94
320.816	568.94
321.046	536.94
321.275	537.94
321.504	559.94
321.733	550.94
321.962	575.94
322.191	548.94
322.42	563.94
322.649	555.94
322.878	561.94
323.108	551.94
323.337	586.94
323.566	588.94
323.795	577.94
324.024	562.94
324.253	576.94
324.482	545.94
324.71	574.94
324.939	571.94
325.168	577.94
325.397	587.94
325.626	560.94
325.855	604.94
326.084	589.94
326.313	615.94
326.542	625.94
326.77	605.94
326.999	600.94
327.228	595.94
327.457	587.94
327.686	597.94
327.914	596.94
328.143	622.94
328.372	598.94
328.6	599.94
328.829	607.94
329.058	597.94
329.287	609.94
329.515	643.94
329.744	624.94
329.972	617.94
330.201	623.94
330.43	620.94
330.658	606.94
330.887	613.94
331.115	609.94
331.344	655.94
331.572	658.94
331.801	645.94
332.03	658.94
332.258	690.94
332.486	694.94
332.715	714.94
332.943	754.94
333.172	806.94
333.4	806.94
333.629	847.94
333.857	837.94
334.085	839.94
334.314	822.94
334.542	774.94
334.771	792.94
334.999	754.94
335.227	777.94
335.455	756.94
335.684	756.94
335.912	730.94
336.14	726.94
336.369	753.94
336.597	759.94
336.825	724.94
337.053	731.94
337.281	695.94
337.51	724.94
337.738	682.94
337.966	647.94
338.194	692.94
338.422	658.94
338.65	659.94
338.878	655.94
339.106	634.94
339.334	659.94
339.562	640.94
339.79	633.94
340.018	641.94
340.246	633.94
340.474	628.94
340.702	630.94
340.93	627.94
341.158	651.94
341.386	643.94
341.614	638.94
341.842	623.94
342.07	627.94
342.298	601.94
342.526	595.94
342.754	635.94
342.981	602.94
343.209	629.94
343.437	680.94
343.665	679.94
343.893	741.94
344.12	804.94
344.348	742.94
344.576	708.94
344.804	667.94
345.031	655.94
345.259	688.94
345.487	628.94
345.714	640.94
345.942	621.94
346.17	614.94
346.397	634.94
346.625	633.94
346.853	602.94
347.08	634.94
347.308	621.94
347.535	614.94
347.763	627.94
347.99	641.94
348.218	644.94
348.445	636.94
348.673	614.94
348.9	601.94
349.128	615.94
349.355	605.94
349.583	608.94
349.81	601.94
350.037	599.94
350.265	594.94
350.492	578.94
350.72	603.94
350.947	599.94
351.174	582.94
351.402	586.94
351.629	593.94
351.856	577.94
352.083	578.94
352.311	577.94
352.538	585.94
352.765	606.94
352.992	574.94
353.22	592.94
353.447	582.94
353.674	566.94
353.901	564.94
354.128	599.94
354.355	592.94
354.583	582.94
354.81	613.94
355.037	591.94
355.264	599.94
355.491	585.94
355.718	578.94
355.945	603.94
356.172	604.94
356.399	595.94
356.626	602.94
356.853	600.94
357.08	591.94
357.307	576.94
357.534	593.94
357.761	602.94
357.988	607.94
358.215	579.94
358.441	577.94
358.668	591.94
358.895	605.94
359.122	578.94
359.349	569.94
359.576	588.94
359.802	585.94
360.029	603.94
360.256	603.94
360.483	600.94
360.709	611.94
360.936	599.94
361.163	580.94
361.39	590.94
361.616	597.94
361.843	603.94
362.07	578.94
362.296	593.94
362.523	609.94
362.749	598.94
362.976	584.94
363.203	571.94
363.429	572.94
363.656	575.94
363.882	571.94
364.109	597.94
364.335	566.94
364.562	570.94
364.788	580.94
365.015	608.94
365.241	584.94
365.468	574.94
365.694	576.94
365.92	579.94
366.147	574.94
366.373	579.94
366.599	596.94
366.826	601.94
367.052	566.94
367.278	602.94
367.505	591.94
367.731	584.94
367.957	589.94
368.184	591.94
368.41	581.94
368.636	589.94
368.862	629.94
369.089	587.94
369.315	559.94
369.541	613.94
369.767	619.94
369.993	624.94
370.219	632.94
370.445	638.94
370.672	622.94
370.898	630.94
371.124	636.94
371.35	637.94
371.576	638.94
371.802	641.94
372.028	642.94
372.254	646.94
372.48	650.94
372.706	660.94
372.932	680.94
373.158	687.94
373.384	667.94
373.61	624.94
373.835	639.94
374.061	627.94
374.287	646.94
374.513	662.94
374.739	667.94
374.965	698.94
375.191	718.94
375.416	723.94
375.642	707.94
375.868	685.94
376.094	654.94
376.319	651.94
376.545	644.94
376.771	655.94
376.997	663.94
377.222	647.94
377.448	628.94
377.674	627.94
377.899	641.94
378.125	645.94
378.35	645.94
378.576	658.94
378.802	635.94
379.027	637.94
379.253	647.94
379.478	646.94
379.704	605.94
379.929	621.94
380.155	625.94
380.38	642.94
380.606	630.94
380.831	630.94
381.057	643.94
381.282	642.94
381.507	641.94
381.733	658.94
381.958	654.94
382.184	648.94
382.409	665.94
382.634	674.94
382.86	674.94
383.085	665.94
383.31	697.94
383.535	696.94
383.761	706.94
383.986	725.94
384.211	733.94
384.436	739.94
384.662	749.94
384.887	797.94
385.112	771.94
385.337	778.94
385.562	756.94
385.787	792.94
386.013	787.94
386.238	805.94
386.463	757.94
386.688	791.94
386.913	766.94
387.138	771.94
387.363	744.94
387.588	764.94
387.813	749.94
388.038	738.94
388.263	730.94
388.488	751.94
388.713	797.94
388.938	744.94
389.163	726.94
389.387	749.94
389.612	749.94
389.837	736.94
390.062	727.94
390.287	767.94
390.512	738.94
390.736	775.94
390.961	779.94
391.186	786.94
391.411	789.94
391.636	817.94
391.86	843.94
392.085	882.94
392.31	857.94
392.534	842.94
392.759	818.94
392.984	815.94
393.208	805.94
393.433	813.94
393.658	843.94
393.882	823.94
394.107	826.94
394.331	871.94
394.556	843.94
394.78	838.94
395.005	873.94
395.229	839.94
395.454	843.94
395.678	874.94
395.903	862.94
396.127	842.94
396.352	807.94
396.576	808.94
396.801	793.94
397.025	797.94
397.249	830.94
397.474	889.94
397.698	891.94
397.922	840.94
398.147	829.94
398.371	869.94
398.595	883.94
398.82	935.94
399.044	991.94
399.268	1125.94
399.492	1307.94
399.717	1521.94
399.941	1510.94
400.165	1345.94
400.389	1187.94
400.613	1081.94
400.837	1011.94
401.062	972.94
401.286	980.94
401.51	975.94
401.734	983.94
401.958	976.94
402.182	1007.94
402.406	981.94
402.63	1006.94
402.854	1044.94
403.078	1038.94
403.302	1069.94
403.526	1136.94
403.75	1122.94
403.974	1143.94
404.198	1167.94
404.422	1158.94
404.645	1140.94
404.869	1127.94
405.093	1124.94
405.317	1103.94
405.541	1081.94
405.765	1093.94
405.988	1072.94
406.212	1079.94
406.436	1057.94
406.66	1089.94
406.883	1097.94
407.107	1166.94
407.331	1200.94
407.555	1268.94
407.778	1249.94
408.002	1257.94
408.226	1196.94
408.449	1177.94
408.673	1123.94
408.896	1124.94
409.12	1081.94
409.344	1090.94
409.567	1102.94
409.791	1125.94
410.014	1165.94
410.238	1130.94
410.461	1114.94
410.685	1098.94
410.908	1057.94
411.132	1034.94
411.355	997.94
411.578	1006.94
411.802	1004.94
412.025	999.94
412.249	1033.94
412.472	1065.94
412.695	1015.94
412.919	975.94
413.142	934.94
413.365	987.94
413.589	972.94
413.812	965.94
414.035	954.94
414.258	962.94
414.482	994.94
414.705	1010.94
414.928	1014.94
415.151	980.94
415.374	992.94
415.597	973.94
415.821	949.94
416.044	947.94
416.267	955.94
416.49	953.94
416.713	926.94
416.936	955.94
417.159	949.94
417.382	913.94
417.605	938.94
417.828	965.94
418.051	965.94
418.274	990.94
418.497	968.94
418.72	987.94
418.943	966.94
419.166	1059.94
419.389	1126.94
419.611	1109.94
419.834	1071.94
420.057	1036.94
420.28	1008.94
420.503	963.94
420.726	943.94
420.948	927.94
421.171	989.94
421.394	985.94
421.617	958.94
421.839	971.94
422.062	975.94
422.285	942.94
422.507	970.94
422.73	1018.94
422.953	1005.94
423.175	1005.94
423.398	1068.94
423.621	1026.94
423.843	1057.94
424.066	1080.94
424.288	1042.94
424.511	1033.94
424.733	1014.94
424.956	1012.94
425.178	998.94
425.401	963.94
425.623	983.94
425.846	981.94
426.068	945.94
426.291	919.94
426.513	890.94
426.735	907.94
426.958	917.94
427.18	861.94
427.402	891.94
427.625	885.94
427.847	868.94
428.069	849.94
428.292	891.94
428.514	870.94
428.736	872.94
428.958	858.94
429.181	842.94
429.403	859.94
429.625	841.94
429.847	839.94
430.069	841.94
430.292	852.94
430.514	831.94
430.736	863.94
430.958	838.94
431.18	841.94
431.402	845.94
431.624	843.94
431.846	862.94
432.068	872.94
432.29	889.94
432.512	869.94
432.734	874.94
432.956	843.94
433.178	898.94
433.4	892.94
433.622	854.94
433.844	880.94
434.066	904.94
434.287	875.94
434.509	897.94
434.731	964.94
434.953	971.94
435.175	1011.94
435.397	976.94
435.618	963.94
435.84	928.94
436.062	895.94
436.284	912.94
436.505	877.94
436.727	885.94
436.949	866.94
437.17	856.94
437.392	857.94
437.614	855.94
437.835	852.94
438.057	840.94
438.278	836.94
438.5	820.94
438.721	824.94
438.943	836.94
439.165	833.94
439.386	859.94
439.608	874.94
439.829	872.94
440.05	865.94
440.272	877.94
440.493	859.94
440.715	890.94
440.936	885.94
441.158	935.94
441.379	939.94
441.6	988.94
441.822	1011.94
442.043	1007.94
442.264	971.94
442.486	963.94
442.707	959.94
442.928	997.94
443.149	978.94
443.371	942.94
443.592	966.94
443.813	1021.94
444.034	992.94
444.255	1032.94
444.476	1057.94
444.698	1133.94
444.919	1199.94
445.14	1301.94
445.361	1122.94
445.582	1021.94
445.803	951.94
446.024	931.94
446.245	921.94
446.466	894.94
446.687	901.94
446.908	924.94
447.129	839.94
447.35	848.94
447.571	868.94
447.792	814.94
448.013	834.94
448.234	829.94
448.455	818.94
448.675	797.94
448.896	795.94
449.117	797.94
449.338	809.94
449.559	810.94
449.779	818.94
450	805.94
450.221	806.94
450.442	792.94
450.662	821.94
450.883	834.94
451.104	850.94
451.324	839.94
451.545	840.94
451.766	839.94
451.986	827.94
452.207	811.94
452.428	796.94
452.648	823.94
452.869	801.94
453.089	815.94
453.31	823.94
453.53	801.94
453.751	778.94
453.971	796.94
454.192	768.94
454.412	767.94
454.633	779.94
454.853	778.94
455.073	749.94
455.294	787.94
455.514	761.94
455.734	734.94
455.955	749.94
456.175	759.94
456.395	741.94
456.616	763.94
456.836	769.94
457.056	742.94
457.276	742.94
457.497	775.94
457.717	743.94
457.937	753.94
458.157	765.94
458.377	776.94
458.598	769.94
458.818	785.94
459.038	838.94
459.258	842.94
459.478	902.94
459.698	913.94
459.918	947.94
460.138	980.94
460.358	1034.94
460.578	1043.94
460.798	1050.94
461.018	1069.94
461.238	1061.94
461.458	1033.94
461.678	1027.94
461.898	1049.94
462.118	1026.94
462.338	1119.94
462.558	1098.94
462.777	1159.94
462.997	1277.94
463.217	1406.94
463.437	1445.94
463.657	1325.94
463.876	1232.94
464.096	1224.94
464.316	1256.94
464.536	1243.94
464.755	1204.94
464.975	1128.94
465.195	1097.94
465.414	1031.94
465.634	962.94
465.854	907.94
466.073	891.94
466.293	875.94
466.512	854.94
466.732	845.94
466.951	846.94
467.171	830.94
467.391	846.94
467.61	864.94
467.829	833.94
468.049	840.94
468.268	783.94
468.488	826.94
468.707	806.94
468.927	814.94
469.146	833.94
469.365	832.94
469.585	835.94
469.804	856.94
470.023	862.94
470.243	822.94
470.462	880.94
470.681	903.94
470.901	866.94
471.12	861.94
471.339	857.94
471.558	823.94
471.777	816.94
471.997	806.94
472.216	818.94
472.435	776.94
472.654	798.94
472.873	774.94
473.092	797.94
473.311	777.94
473.53	792.94
473.749	795.94
473.968	809.94
474.187	751.94
474.406	773.94
474.625	774.94
474.844	792.94
475.063	794.94
475.282	776.94
475.501	805.94
475.72	776.94
475.939	791.94
476.158	837.94
476.377	816.94
476.596	819.94
476.814	822.94
477.033	830.94
477.252	863.94
477.471	865.94
477.69	886.94
477.908	908.94
478.127	912.94
478.346	938.94
478.564	961.94
478.783	980.94
479.002	1012.94
479.22	970.94
479.439	995.94
479.658	977.94
479.876	967.94
480.095	978.94
480.313	1041.94
480.532	1101.94
480.751	1066.94
480.969	1043.94
481.188	1010.94
481.406	946.94
481.624	920.94
481.843	896.94
482.061	878.94
482.28	912.94
482.498	906.94
482.717	886.94
482.935	885.94
483.153	908.94
483.372	909.94
483.59	880.94
483.808	900.94
484.027	897.94
484.245	924.94
484.463	914.94
484.681	907.94
484.9	926.94
485.118	933.94
485.336	978.94
485.554	948.94
485.772	953.94
485.99	969.94
486.209	965.94
486.427	972.94
486.645	974.94
486.863	972.94
487.081	971.94
487.299	946.94
487.517	941.94
487.735	932.94
487.953	969.94
488.171	938.94
488.389	942.94
488.607	941.94
488.825	912.94
489.043	931.94
489.261	933.94
489.479	936.94
489.696	933.94
489.914	941.94
490.132	907.94
490.35	923.94
490.568	944.94
490.786	941.94
491.003	945.94
491.221	951.94
491.439	933.94
491.657	953.94
491.874	911.94
492.092	933.94
492.31	941.94
492.527	951.94
492.745	946.94
492.963	992.94
493.18	958.94
493.398	960.94
493.615	959.94
493.833	973.94
494.05	993.94
494.268	1008.94
494.485	999.94
494.703	1014.94
494.92	1007.94
495.138	988.94
495.355	975.94
495.573	968.94
495.79	986.94
496.008	1007.94
496.225	1030.94
496.442	1018.94
496.66	1030.94
496.877	1031.94
497.094	1059.94
497.312	1079.94
497.529	1077.94
497.746	1093.94
497.963	1123.94
498.181	1186.94
498.398	1242.94
498.615	1279.94
498.832	1402.94
499.049	1513.94
499.267	1622.94
499.484	1831.94
499.701	2033.94
