Data from NiCl2@0.0625M.TitratingCurve.Agarose3%dH2O.NegLispCup.LampEnergy10.LIBS07252019_HRD10591_18-33-36-576.txt Node
Date: Thu Jul 25 18:33:36 EDT 2019
User: cochatt
Spectrometer: HR+D1059
Trigger mode: 1
Integration Time (sec): 1.000000E-1
Scans to average: 1
Electric dark correction enabled: true
Nonlinearity correction enabled: false
Boxcar width: 0
XAxis mode: Wavelengths
Number of Pixels in Spectrum: 2048
>>>>>Begin Spectral Data<<<<<
223.165	-11.88
223.4	-11.88
223.635	-11.88
223.869	-10.88
224.104	-23.88
224.338	-17.88
224.573	-16.88
224.808	-9.88
225.042	-3.88
225.277	-21.88
225.511	4.12
225.746	5.12
225.98	10.12
226.215	15.12
226.449	13.12
226.683	19.12
226.918	34.12
227.152	16.12
227.387	34.12
227.621	31.12
227.856	55.12
228.09	32.12
228.324	42.12
228.559	67.12
228.793	67.12
229.027	141.12
229.262	154.12
229.496	161.12
229.73	176.12
229.964	168.12
230.199	191.12
230.433	192.12
230.667	190.12
230.901	203.12
231.136	183.12
231.37	197.12
231.604	206.12
231.838	214.12
232.072	230.12
232.306	221.12
232.541	225.12
232.775	228.12
233.009	216.12
233.243	226.12
233.477	200.12
233.711	214.12
233.945	198.12
234.179	213.12
234.413	226.12
234.647	223.12
234.881	235.12
235.115	222.12
235.349	222.12
235.583	239.12
235.817	243.12
236.051	231.12
236.285	233.12
236.519	245.12
236.753	257.12
236.987	251.12
237.221	234.12
237.455	244.12
237.689	259.12
237.922	250.12
238.156	258.12
238.39	265.12
238.624	253.12
238.858	282.12
239.091	264.12
239.325	276.12
239.559	273.12
239.793	287.12
240.027	295.12
240.26	275.12
240.494	271.12
240.728	293.12
240.961	287.12
241.195	298.12
241.429	316.12
241.662	311.12
241.896	312.12
242.13	320.12
242.363	315.12
242.597	325.12
242.83	356.12
243.064	346.12
243.298	354.12
243.531	339.12
243.765	354.12
243.998	346.12
244.232	355.12
244.465	338.12
244.699	355.12
244.932	358.12
245.166	374.12
245.399	369.12
245.633	373.12
245.866	359.12
246.099	374.12
246.333	377.12
246.566	366.12
246.8	388.12
247.033	385.12
247.266	370.12
247.5	373.12
247.733	408.12
247.966	380.12
248.2	410.12
248.433	420.12
248.666	412.12
248.899	410.12
249.133	435.12
249.366	412.12
249.599	416.12
249.832	411.12
250.066	435.12
250.299	439.12
250.532	430.12
250.765	445.12
250.998	431.12
251.231	418.12
251.465	448.12
251.698	457.12
251.931	471.12
252.164	471.12
252.397	485.12
252.63	474.12
252.863	490.12
253.096	486.12
253.329	500.12
253.562	471.12
253.795	511.12
254.028	497.12
254.261	507.12
254.494	489.12
254.727	499.12
254.96	476.12
255.193	490.12
255.426	497.12
255.659	494.12
255.892	513.12
256.124	485.12
256.357	517.12
256.59	502.12
256.823	518.12
257.056	530.12
257.289	528.12
257.521	534.12
257.754	535.12
257.987	532.12
258.22	553.12
258.452	539.12
258.685	552.12
258.918	548.12
259.151	534.12
259.383	555.12
259.616	528.12
259.849	570.12
260.081	564.12
260.314	588.12
260.547	564.12
260.779	573.12
261.012	594.12
261.244	598.12
261.477	596.12
261.71	584.12
261.942	570.12
262.175	583.12
262.407	600.12
262.64	588.12
262.872	599.12
263.105	617.12
263.337	635.12
263.57	606.12
263.802	612.12
264.035	613.12
264.267	609.12
264.499	596.12
264.732	633.12
264.964	639.12
265.197	645.12
265.429	620.12
265.661	611.12
265.894	638.12
266.126	638.12
266.358	609.12
266.591	635.12
266.823	658.12
267.055	647.12
267.287	654.12
267.52	655.12
267.752	663.12
267.984	670.12
268.216	683.12
268.448	699.12
268.681	682.12
268.913	678.12
269.145	698.12
269.377	684.12
269.609	674.12
269.841	688.12
270.073	694.12
270.306	672.12
270.538	676.12
270.77	699.12
271.002	708.12
271.234	704.12
271.466	731.12
271.698	707.12
271.93	709.12
272.162	726.12
272.394	700.12
272.626	726.12
272.858	729.12
273.09	714.12
273.322	734.12
273.553	741.12
273.785	736.12
274.017	739.12
274.249	746.12
274.481	739.12
274.713	721.12
274.945	801.12
275.176	763.12
275.408	755.12
275.64	760.12
275.872	781.12
276.104	773.12
276.335	771.12
276.567	777.12
276.799	799.12
277.031	790.12
277.262	825.12
277.494	783.12
277.726	799.12
277.957	810.12
278.189	835.12
278.421	790.12
278.652	818.12
278.884	827.12
279.115	835.12
279.347	830.12
279.579	834.12
279.81	822.12
280.042	838.12
280.273	841.12
280.505	850.12
280.736	857.12
280.968	854.12
281.199	875.12
281.431	849.12
281.662	860.12
281.894	883.12
282.125	846.12
282.356	880.12
282.588	875.12
282.819	868.12
283.051	883.12
283.282	888.12
283.513	887.12
283.745	918.12
283.976	904.12
284.207	896.12
284.439	925.12
284.67	900.12
284.901	923.12
285.132	916.12
285.364	906.12
285.595	902.12
285.826	906.12
286.057	936.12
286.288	898.12
286.52	944.12
286.751	927.12
286.982	950.12
287.213	918.12
287.444	948.12
287.675	959.12
287.906	953.12
288.138	977.12
288.369	954.12
288.6	948.12
288.831	946.12
289.062	971.12
289.293	960.12
289.524	955.12
289.755	943.12
289.986	931.12
290.217	993.12
290.448	959.12
290.679	977.12
290.91	976.12
291.141	1001.12
291.371	989.12
291.602	991.12
291.833	962.12
292.064	993.12
292.295	966.12
292.526	993.12
292.757	975.12
292.987	961.12
293.218	967.12
293.449	1004.12
293.68	968.12
293.91	974.12
294.141	975.12
294.372	968.12
294.603	963.12
294.833	961.12
295.064	1014.12
295.295	991.12
295.525	997.12
295.756	1015.12
295.987	988.12
296.217	1002.12
296.448	992.12
296.679	1040.12
296.909	1024.12
297.14	1024.12
297.37	1089.12
297.601	1062.12
297.831	1027.12
298.062	1076.12
298.292	1061.12
298.523	1052.12
298.753	1089.12
298.984	1049.12
299.214	1054.12
299.445	1075.12
299.675	1039.12
299.905	1060.12
300.136	1075.12
300.366	1083.12
300.597	1108.12
300.827	1090.12
301.057	1111.12
301.288	1105.12
301.518	1129.12
301.748	1173.12
301.979	1171.12
302.209	1144.12
302.439	1130.12
302.669	1123.12
302.9	1126.12
303.13	1124.12
303.36	1153.12
303.59	1128.12
303.82	1122.12
304.051	1130.12
304.281	1135.12
304.511	1106.12
304.741	1121.12
304.971	1144.12
305.201	1130.12
305.431	1114.12
305.661	1121.12
305.891	1104.12
306.121	1115.12
306.352	1111.12
306.582	1087.12
306.812	1094.12
307.042	1107.12
307.272	1090.12
307.502	1119.12
307.731	1128.12
307.961	1135.12
308.191	1113.12
308.421	1100.12
308.651	1123.12
308.881	1112.12
309.111	1106.12
309.341	1098.12
309.571	1102.12
309.8	1111.12
310.03	1123.12
310.26	1119.12
310.49	1118.12
310.72	1115.12
310.949	1107.12
311.179	1113.12
311.409	1131.12
311.639	1140.12
311.868	1184.12
312.098	1161.12
312.328	1172.12
312.557	1155.12
312.787	1160.12
313.017	1162.12
313.246	1203.12
313.476	1184.12
313.706	1198.12
313.935	1184.12
314.165	1189.12
314.394	1187.12
314.624	1211.12
314.853	1194.12
315.083	1194.12
315.312	1205.12
315.542	1202.12
315.771	1175.12
316.001	1200.12
316.23	1204.12
316.46	1188.12
316.689	1195.12
316.919	1213.12
317.148	1196.12
317.377	1176.12
317.607	1194.12
317.836	1180.12
318.065	1180.12
318.295	1191.12
318.524	1227.12
318.753	1206.12
318.983	1187.12
319.212	1161.12
319.441	1184.12
319.67	1206.12
319.9	1182.12
320.129	1188.12
320.358	1184.12
320.587	1229.12
320.816	1183.12
321.046	1188.12
321.275	1236.12
321.504	1196.12
321.733	1196.12
321.962	1190.12
322.191	1209.12
322.42	1200.12
322.649	1225.12
322.878	1182.12
323.108	1207.12
323.337	1239.12
323.566	1263.12
323.795	1249.12
324.024	1254.12
324.253	1251.12
324.482	1256.12
324.71	1224.12
324.939	1246.12
325.168	1250.12
325.397	1275.12
325.626	1262.12
325.855	1281.12
326.084	1313.12
326.313	1295.12
326.542	1286.12
326.77	1316.12
326.999	1278.12
327.228	1300.12
327.457	1280.12
327.686	1280.12
327.914	1312.12
328.143	1303.12
328.372	1304.12
328.6	1285.12
328.829	1311.12
329.058	1305.12
329.287	1350.12
329.515	1310.12
329.744	1318.12
329.972	1359.12
330.201	1312.12
330.43	1346.12
330.658	1350.12
330.887	1352.12
331.115	1368.12
331.344	1401.12
331.572	1390.12
331.801	1427.12
332.03	1418.12
332.258	1431.12
332.486	1484.12
332.715	1525.12
332.943	1519.12
333.172	1559.12
333.4	1626.12
333.629	1671.12
333.857	1694.12
334.085	1676.12
334.314	1672.12
334.542	1611.12
334.771	1646.12
334.999	1603.12
335.227	1607.12
335.455	1639.12
335.684	1620.12
335.912	1634.12
336.14	1567.12
336.369	1603.12
336.597	1582.12
336.825	1571.12
337.053	1540.12
337.281	1552.12
337.51	1527.12
337.738	1498.12
337.966	1478.12
338.194	1466.12
338.422	1438.12
338.65	1444.12
338.878	1443.12
339.106	1424.12
339.334	1426.12
339.562	1437.12
339.79	1415.12
340.018	1418.12
340.246	1384.12
340.474	1385.12
340.702	1347.12
340.93	1375.12
341.158	1387.12
341.386	1383.12
341.614	1400.12
341.842	1352.12
342.07	1399.12
342.298	1376.12
342.526	1352.12
342.754	1392.12
342.981	1381.12
343.209	1369.12
343.437	1472.12
343.665	1507.12
343.893	1575.12
344.12	1622.12
344.348	1615.12
344.576	1538.12
344.804	1497.12
345.031	1457.12
345.259	1407.12
345.487	1398.12
345.714	1369.12
345.942	1379.12
346.17	1367.12
346.397	1362.12
346.625	1344.12
346.853	1300.12
347.08	1290.12
347.308	1337.12
347.535	1339.12
347.763	1311.12
347.99	1305.12
348.218	1314.12
348.445	1286.12
348.673	1292.12
348.9	1317.12
349.128	1312.12
349.355	1270.12
349.583	1292.12
349.81	1275.12
350.037	1279.12
350.265	1302.12
350.492	1312.12
350.72	1258.12
350.947	1269.12
351.174	1264.12
351.402	1302.12
351.629	1256.12
351.856	1284.12
352.083	1271.12
352.311	1264.12
352.538	1266.12
352.765	1280.12
352.992	1216.12
353.22	1250.12
353.447	1239.12
353.674	1261.12
353.901	1258.12
354.128	1255.12
354.355	1265.12
354.583	1253.12
354.81	1262.12
355.037	1239.12
355.264	1255.12
355.491	1258.12
355.718	1270.12
355.945	1253.12
356.172	1274.12
356.399	1280.12
356.626	1269.12
356.853	1291.12
357.08	1255.12
357.307	1263.12
357.534	1266.12
357.761	1259.12
357.988	1268.12
358.215	1239.12
358.441	1250.12
358.668	1253.12
358.895	1266.12
359.122	1273.12
359.349	1259.12
359.576	1290.12
359.802	1259.12
360.029	1275.12
360.256	1302.12
360.483	1280.12
360.709	1251.12
360.936	1279.12
361.163	1280.12
361.39	1262.12
361.616	1303.12
361.843	1292.12
362.07	1303.12
362.296	1278.12
362.523	1252.12
362.749	1259.12
362.976	1298.12
363.203	1270.12
363.429	1284.12
363.656	1273.12
363.882	1294.12
364.109	1284.12
364.335	1257.12
364.562	1264.12
364.788	1288.12
365.015	1251.12
365.241	1266.12
365.468	1282.12
365.694	1249.12
365.92	1259.12
366.147	1268.12
366.373	1270.12
366.599	1272.12
366.826	1263.12
367.052	1282.12
367.278	1277.12
367.505	1290.12
367.731	1303.12
367.957	1271.12
368.184	1299.12
368.41	1301.12
368.636	1302.12
368.862	1314.12
369.089	1296.12
369.315	1316.12
369.541	1300.12
369.767	1318.12
369.993	1338.12
370.219	1321.12
370.445	1336.12
370.672	1331.12
370.898	1344.12
371.124	1347.12
371.35	1382.12
371.576	1378.12
371.802	1347.12
372.028	1370.12
372.254	1374.12
372.48	1400.12
372.706	1412.12
372.932	1452.12
373.158	1416.12
373.384	1405.12
373.61	1385.12
373.835	1394.12
374.061	1398.12
374.287	1386.12
374.513	1425.12
374.739	1470.12
374.965	1490.12
375.191	1475.12
375.416	1500.12
375.642	1458.12
375.868	1446.12
376.094	1425.12
376.319	1446.12
376.545	1423.12
376.771	1413.12
376.997	1347.12
377.222	1441.12
377.448	1411.12
377.674	1396.12
377.899	1366.12
378.125	1362.12
378.35	1374.12
378.576	1355.12
378.802	1378.12
379.027	1402.12
379.253	1398.12
379.478	1356.12
379.704	1357.12
379.929	1388.12
380.155	1366.12
380.38	1362.12
380.606	1372.12
380.831	1370.12
381.057	1371.12
381.282	1382.12
381.507	1338.12
381.733	1389.12
381.958	1412.12
382.184	1412.12
382.409	1414.12
382.634	1471.12
382.86	1424.12
383.085	1451.12
383.31	1490.12
383.535	1463.12
383.761	1497.12
383.986	1552.12
384.211	1540.12
384.436	1591.12
384.662	1589.12
384.887	1611.12
385.112	1594.12
385.337	1598.12
385.562	1661.12
385.787	1635.12
386.013	1632.12
386.238	1655.12
386.463	1625.12
386.688	1672.12
386.913	1618.12
387.138	1660.12
387.363	1640.12
387.588	1616.12
387.813	1616.12
388.038	1666.12
388.263	1623.12
388.488	1662.12
388.713	1657.12
388.938	1613.12
389.163	1611.12
389.387	1644.12
389.612	1619.12
389.837	1621.12
390.062	1627.12
390.287	1616.12
390.512	1658.12
390.736	1650.12
390.961	1651.12
391.186	1704.12
391.411	1732.12
391.636	1776.12
391.86	1790.12
392.085	1842.12
392.31	1786.12
392.534	1836.12
392.759	1769.12
392.984	1772.12
393.208	1770.12
393.433	1790.12
393.658	1794.12
393.882	1741.12
394.107	1716.12
394.331	1774.12
394.556	1726.12
394.78	1721.12
395.005	1750.12
395.229	1747.12
395.454	1796.12
395.678	1874.12
395.903	1819.12
396.127	1818.12
396.352	1776.12
396.576	1759.12
396.801	1737.12
397.025	1822.12
397.249	1813.12
397.474	1849.12
397.698	1897.12
397.922	1854.12
398.147	1864.12
398.371	1904.12
398.595	1938.12
398.82	1993.12
399.044	2149.12
399.268	2307.12
399.492	2546.12
399.717	2776.12
399.941	2856.12
400.165	2671.12
400.389	2422.12
400.613	2306.12
400.837	2183.12
401.062	2107.12
401.286	2059.12
401.51	2060.12
401.734	2040.12
401.958	2059.12
402.182	2058.12
402.406	2039.12
402.63	2092.12
402.854	2146.12
403.078	2128.12
403.302	2190.12
403.526	2124.12
403.75	2211.12
403.974	2266.12
404.198	2217.12
404.422	2219.12
404.645	2172.12
404.869	2218.12
405.093	2225.12
405.317	2188.12
405.541	2182.12
405.765	2242.12
405.988	2205.12
406.212	2211.12
406.436	2216.12
406.66	2297.12
406.883	2244.12
407.107	2402.12
407.331	2484.12
407.555	2508.12
407.778	2532.12
408.002	2509.12
408.226	2450.12
408.449	2418.12
408.673	2323.12
408.896	2281.12
409.12	2304.12
409.344	2323.12
409.567	2249.12
409.791	2252.12
410.014	2210.12
410.238	2261.12
410.461	2212.12
410.685	2238.12
410.908	2151.12
411.132	2202.12
411.355	2136.12
411.578	2162.12
411.802	2122.12
412.025	2134.12
412.249	2173.12
412.472	2180.12
412.695	2100.12
412.919	2019.12
413.142	2028.12
413.365	2055.12
413.589	2085.12
413.812	2041.12
414.035	2016.12
414.258	2020.12
414.482	2065.12
414.705	2066.12
414.928	2076.12
415.151	2041.12
415.374	2030.12
415.597	2058.12
415.821	1967.12
416.044	1990.12
416.267	1949.12
416.49	1929.12
416.713	1932.12
416.936	1972.12
417.159	1960.12
417.382	1944.12
417.605	1933.12
417.828	1947.12
418.051	1972.12
418.274	2011.12
418.497	1912.12
418.72	1994.12
418.943	1980.12
419.166	2100.12
419.389	2234.12
419.611	2190.12
419.834	2119.12
420.057	2079.12
420.28	1987.12
420.503	1939.12
420.726	1941.12
420.948	1930.12
421.171	1977.12
421.394	1980.12
421.617	1939.12
421.839	1974.12
422.062	1954.12
422.285	1945.12
422.507	1975.12
422.73	2000.12
422.953	1991.12
423.175	1990.12
423.398	2014.12
423.621	1998.12
423.843	2059.12
424.066	2025.12
424.288	2007.12
424.511	2011.12
424.733	1971.12
424.956	1936.12
425.178	1978.12
425.401	1904.12
425.623	1934.12
425.846	1911.12
426.068	1861.12
426.291	1859.12
426.513	1872.12
426.735	1856.12
426.958	1906.12
427.18	1829.12
427.402	1876.12
427.625	1819.12
427.847	1779.12
428.069	1786.12
428.292	1845.12
428.514	1815.12
428.736	1778.12
428.958	1802.12
429.181	1752.12
429.403	1747.12
429.625	1757.12
429.847	1756.12
430.069	1733.12
430.292	1807.12
430.514	1725.12
430.736	1771.12
430.958	1762.12
431.18	1780.12
431.402	1779.12
431.624	1782.12
431.846	1814.12
432.068	1781.12
432.29	1840.12
432.512	1765.12
432.734	1830.12
432.956	1822.12
433.178	1810.12
433.4	1842.12
433.622	1863.12
433.844	1886.12
434.066	1853.12
434.287	1847.12
434.509	1910.12
434.731	1959.12
434.953	1995.12
435.175	1987.12
435.397	1949.12
435.618	1928.12
435.84	1874.12
436.062	1816.12
436.284	1794.12
436.505	1794.12
436.727	1768.12
436.949	1802.12
437.17	1777.12
437.392	1768.12
437.614	1734.12
437.835	1705.12
438.057	1738.12
438.278	1700.12
438.5	1720.12
438.721	1710.12
438.943	1718.12
439.165	1712.12
439.386	1690.12
439.608	1772.12
439.829	1711.12
440.05	1703.12
440.272	1769.12
440.493	1742.12
440.715	1793.12
440.936	1795.12
441.158	1855.12
441.379	1890.12
441.6	1928.12
441.822	1961.12
442.043	1932.12
442.264	1910.12
442.486	1840.12
442.707	1919.12
442.928	1879.12
443.149	1908.12
443.371	1897.12
443.592	1899.12
443.813	1914.12
444.034	1922.12
444.255	2001.12
444.476	2082.12
444.698	2165.12
444.919	2136.12
445.14	2288.12
445.361	2119.12
445.582	1990.12
445.803	1885.12
446.024	1858.12
446.245	1824.12
446.466	1795.12
446.687	1787.12
446.908	1809.12
447.129	1666.12
447.35	1689.12
447.571	1687.12
447.792	1637.12
448.013	1658.12
448.234	1609.12
448.455	1590.12
448.675	1611.12
448.896	1608.12
449.117	1549.12
449.338	1578.12
449.559	1570.12
449.779	1570.12
450	1590.12
450.221	1591.12
450.442	1588.12
450.662	1566.12
450.883	1563.12
451.104	1608.12
451.324	1615.12
451.545	1582.12
451.766	1572.12
451.986	1565.12
452.207	1543.12
452.428	1575.12
452.648	1585.12
452.869	1540.12
453.089	1552.12
453.31	1529.12
453.53	1536.12
453.751	1544.12
453.971	1526.12
454.192	1523.12
454.412	1493.12
454.633	1526.12
454.853	1478.12
455.073	1478.12
455.294	1479.12
455.514	1481.12
455.734	1493.12
455.955	1484.12
456.175	1468.12
456.395	1467.12
456.616	1495.12
456.836	1528.12
457.056	1508.12
457.276	1484.12
457.497	1503.12
457.717	1504.12
457.937	1475.12
458.157	1527.12
458.377	1568.12
458.598	1580.12
458.818	1604.12
459.038	1655.12
459.258	1683.12
459.478	1719.12
459.698	1799.12
459.918	1855.12
460.138	1864.12
460.358	1978.12
460.578	1951.12
460.798	1994.12
461.018	2040.12
461.238	1964.12
461.458	1996.12
461.678	1959.12
461.898	2017.12
462.118	2018.12
462.338	2130.12
462.558	2156.12
462.777	2232.12
462.997	2350.12
463.217	2508.12
463.437	2527.12
463.657	2393.12
463.876	2347.12
464.096	2312.12
464.316	2273.12
464.536	2308.12
464.755	2198.12
464.975	2148.12
465.195	2094.12
465.414	1950.12
465.634	1871.12
465.854	1848.12
466.073	1788.12
466.293	1762.12
466.512	1716.12
466.732	1703.12
466.951	1685.12
467.171	1696.12
467.391	1721.12
467.61	1670.12
467.829	1624.12
468.049	1666.12
468.268	1632.12
468.488	1582.12
468.707	1578.12
468.927	1576.12
469.146	1629.12
469.365	1625.12
469.585	1626.12
469.804	1696.12
470.023	1692.12
470.243	1670.12
470.462	1690.12
470.681	1694.12
470.901	1692.12
471.12	1649.12
471.339	1653.12
471.558	1655.12
471.777	1646.12
471.997	1639.12
472.216	1620.12
472.435	1641.12
472.654	1614.12
472.873	1562.12
473.092	1586.12
473.311	1568.12
473.53	1612.12
473.749	1619.12
473.968	1558.12
474.187	1604.12
474.406	1591.12
474.625	1610.12
474.844	1605.12
475.063	1585.12
475.282	1619.12
475.501	1598.12
475.72	1664.12
475.939	1662.12
476.158	1668.12
476.377	1722.12
476.596	1646.12
476.814	1722.12
477.033	1739.12
477.252	1751.12
477.471	1783.12
477.69	1844.12
477.908	1848.12
478.127	1890.12
478.346	1930.12
478.564	1940.12
478.783	1978.12
479.002	2008.12
479.22	1976.12
479.439	2036.12
479.658	2012.12
479.876	2039.12
480.095	2049.12
480.313	2076.12
480.532	2162.12
480.751	2146.12
480.969	2112.12
481.188	2028.12
481.406	2011.12
481.624	1980.12
481.843	1946.12
482.061	1955.12
482.28	1945.12
482.498	1954.12
482.717	1905.12
482.935	1991.12
483.153	2024.12
483.372	1992.12
483.59	2012.12
483.808	2006.12
484.027	2021.12
484.245	2064.12
484.463	2112.12
484.681	2130.12
484.9	2100.12
485.118	2146.12
485.336	2128.12
485.554	2170.12
485.772	2130.12
485.99	2157.12
486.209	2126.12
486.427	2140.12
486.645	2165.12
486.863	2168.12
487.081	2170.12
487.299	2122.12
487.517	2121.12
487.735	2104.12
487.953	2163.12
488.171	2059.12
488.389	2076.12
488.607	2086.12
488.825	2088.12
489.043	2042.12
489.261	2058.12
489.479	2054.12
489.696	2028.12
