Data from NiCl2@0.0625M.TitratingCurve.Agarose3%dH2O.NegLispCup.LampEnergy10.LIBS07252019_HRD10591_18-35-21-576.txt Node
Date: Thu Jul 25 18:35:21 EDT 2019
User: cochatt
Spectrometer: HR+D1059
Trigger mode: 1
Integration Time (sec): 1.000000E-1
Scans to average: 1
Electric dark correction enabled: true
Nonlinearity correction enabled: false
Boxcar width: 0
XAxis mode: Wavelengths
Number of Pixels in Spectrum: 2048
>>>>>Begin Spectral Data<<<<<
223.165	-9.69
223.4	-9.69
223.635	-9.69
223.869	-9.69
224.104	-34.69
224.338	-12.69
224.573	-8.69
224.808	-13.69
225.042	-0.69
225.277	2.31
225.511	-4.69
225.746	0.31
225.98	-4.69
226.215	-0.69
226.449	14.31
226.683	26.31
226.918	22.31
227.152	34.31
227.387	35.31
227.621	28.31
227.856	40.31
228.09	40.31
228.324	46.31
228.559	46.31
228.793	76.31
229.027	129.31
229.262	147.31
229.496	168.31
229.73	143.31
229.964	159.31
230.199	147.31
230.433	168.31
230.667	171.31
230.901	172.31
231.136	149.31
231.37	164.31
231.604	183.31
231.838	184.31
232.072	195.31
232.306	168.31
232.541	169.31
232.775	169.31
233.009	184.31
233.243	184.31
233.477	189.31
233.711	205.31
233.945	180.31
234.179	188.31
234.413	213.31
234.647	189.31
234.881	191.31
235.115	184.31
235.349	207.31
235.583	188.31
235.817	189.31
236.051	192.31
236.285	201.31
236.519	201.31
236.753	212.31
236.987	211.31
237.221	197.31
237.455	223.31
237.689	222.31
237.922	232.31
238.156	213.31
238.39	205.31
238.624	221.31
238.858	237.31
239.091	227.31
239.325	223.31
239.559	220.31
239.793	243.31
240.027	225.31
240.26	249.31
240.494	239.31
240.728	245.31
240.961	237.31
241.195	235.31
241.429	247.31
241.662	244.31
241.896	244.31
242.13	260.31
242.363	255.31
242.597	275.31
242.83	251.31
243.064	266.31
243.298	267.31
243.531	281.31
243.765	307.31
243.998	288.31
244.232	280.31
244.465	300.31
244.699	276.31
244.932	316.31
245.166	300.31
245.399	317.31
245.633	317.31
245.866	296.31
246.099	293.31
246.333	300.31
246.566	321.31
246.8	316.31
247.033	305.31
247.266	331.31
247.5	316.31
247.733	336.31
247.966	330.31
248.2	311.31
248.433	322.31
248.666	326.31
248.899	340.31
249.133	326.31
249.366	343.31
249.599	349.31
249.832	339.31
250.066	351.31
250.299	351.31
250.532	365.31
250.765	375.31
250.998	355.31
251.231	373.31
251.465	352.31
251.698	365.31
251.931	374.31
252.164	379.31
252.397	380.31
252.63	371.31
252.863	368.31
253.096	383.31
253.329	389.31
253.562	385.31
253.795	386.31
254.028	376.31
254.261	415.31
254.494	396.31
254.727	381.31
254.96	407.31
255.193	397.31
255.426	406.31
255.659	396.31
255.892	395.31
256.124	422.31
256.357	424.31
256.59	423.31
256.823	413.31
257.056	419.31
257.289	463.31
257.521	428.31
257.754	439.31
257.987	427.31
258.22	424.31
258.452	407.31
258.685	437.31
258.918	429.31
259.151	428.31
259.383	437.31
259.616	429.31
259.849	464.31
260.081	460.31
260.314	465.31
260.547	451.31
260.779	474.31
261.012	459.31
261.244	472.31
261.477	485.31
261.71	443.31
261.942	476.31
262.175	460.31
262.407	475.31
262.64	469.31
262.872	481.31
263.105	479.31
263.337	459.31
263.57	490.31
263.802	485.31
264.035	490.31
264.267	505.31
264.499	507.31
264.732	505.31
264.964	499.31
265.197	510.31
265.429	499.31
265.661	518.31
265.894	510.31
266.126	508.31
266.358	513.31
266.591	522.31
266.823	510.31
267.055	504.31
267.287	523.31
267.52	540.31
267.752	536.31
267.984	532.31
268.216	531.31
268.448	547.31
268.681	512.31
268.913	542.31
269.145	529.31
269.377	539.31
269.609	541.31
269.841	526.31
270.073	557.31
270.306	555.31
270.538	543.31
270.77	545.31
271.002	553.31
271.234	545.31
271.466	578.31
271.698	555.31
271.93	562.31
272.162	561.31
272.394	575.31
272.626	556.31
272.858	575.31
273.09	563.31
273.322	597.31
273.553	579.31
273.785	602.31
274.017	611.31
274.249	569.31
274.481	582.31
274.713	587.31
274.945	623.31
275.176	586.31
275.408	603.31
275.64	600.31
275.872	589.31
276.104	609.31
276.335	612.31
276.567	630.31
276.799	624.31
277.031	641.31
277.262	627.31
277.494	627.31
277.726	638.31
277.957	638.31
278.189	648.31
278.421	632.31
278.652	635.31
278.884	639.31
279.115	639.31
279.347	630.31
279.579	627.31
279.81	673.31
280.042	640.31
280.273	637.31
280.505	676.31
280.736	675.31
280.968	662.31
281.199	696.31
281.431	693.31
281.662	698.31
281.894	687.31
282.125	706.31
282.356	710.31
282.588	703.31
282.819	681.31
283.051	691.31
283.282	718.31
283.513	696.31
283.745	687.31
283.976	703.31
284.207	713.31
284.439	724.31
284.67	700.31
284.901	723.31
285.132	738.31
285.364	714.31
285.595	699.31
285.826	723.31
286.057	729.31
286.288	737.31
286.52	724.31
286.751	723.31
286.982	744.31
287.213	748.31
287.444	751.31
287.675	762.31
287.906	741.31
288.138	731.31
288.369	751.31
288.6	756.31
288.831	742.31
289.062	744.31
289.293	744.31
289.524	753.31
289.755	757.31
289.986	780.31
290.217	738.31
290.448	771.31
290.679	758.31
290.91	768.31
291.141	759.31
291.371	753.31
291.602	761.31
291.833	762.31
292.064	754.31
292.295	777.31
292.526	747.31
292.757	760.31
292.987	787.31
293.218	759.31
293.449	763.31
293.68	775.31
293.91	790.31
294.141	777.31
294.372	762.31
294.603	767.31
294.833	756.31
295.064	779.31
295.295	797.31
295.525	742.31
295.756	793.31
295.987	785.31
296.217	781.31
296.448	804.31
296.679	797.31
296.909	813.31
297.14	811.31
297.37	798.31
297.601	828.31
297.831	805.31
298.062	839.31
298.292	827.31
298.523	842.31
298.753	865.31
298.984	831.31
299.214	840.31
299.445	841.31
299.675	829.31
299.905	852.31
300.136	817.31
300.366	852.31
300.597	876.31
300.827	884.31
301.057	868.31
301.288	874.31
301.518	869.31
301.748	905.31
301.979	904.31
302.209	880.31
302.439	888.31
302.669	855.31
302.9	883.31
303.13	862.31
303.36	888.31
303.59	855.31
303.82	877.31
304.051	890.31
304.281	887.31
304.511	870.31
304.741	859.31
304.971	875.31
305.201	869.31
305.431	896.31
305.661	878.31
305.891	889.31
306.121	884.31
306.352	889.31
306.582	859.31
306.812	879.31
307.042	883.31
307.272	891.31
307.502	856.31
307.731	855.31
307.961	884.31
308.191	874.31
308.421	877.31
308.651	848.31
308.881	866.31
309.111	858.31
309.341	865.31
309.571	876.31
309.8	871.31
310.03	853.31
310.26	860.31
310.49	886.31
310.72	883.31
310.949	891.31
311.179	873.31
311.409	891.31
311.639	875.31
311.868	890.31
312.098	879.31
312.328	910.31
312.557	945.31
312.787	914.31
313.017	906.31
313.246	898.31
313.476	913.31
313.706	945.31
313.935	946.31
314.165	923.31
314.394	930.31
314.624	967.31
314.853	918.31
315.083	931.31
315.312	958.31
315.542	927.31
315.771	914.31
316.001	938.31
316.23	928.31
316.46	927.31
316.689	947.31
316.919	907.31
317.148	924.31
317.377	944.31
317.607	925.31
317.836	915.31
318.065	916.31
318.295	917.31
318.524	927.31
318.753	919.31
318.983	972.31
319.212	895.31
319.441	925.31
319.67	917.31
319.9	936.31
320.129	916.31
320.358	927.31
320.587	906.31
320.816	903.31
321.046	969.31
321.275	928.31
321.504	929.31
321.733	913.31
321.962	934.31
322.191	927.31
322.42	926.31
322.649	955.31
322.878	947.31
323.108	957.31
323.337	969.31
323.566	953.31
323.795	975.31
324.024	957.31
324.253	947.31
324.482	945.31
324.71	956.31
324.939	994.31
325.168	1012.31
325.397	979.31
325.626	964.31
325.855	1017.31
326.084	1013.31
326.313	1021.31
326.542	1016.31
326.77	1048.31
326.999	1010.31
327.228	1019.31
327.457	986.31
327.686	989.31
327.914	982.31
328.143	1014.31
328.372	1005.31
328.6	1012.31
328.829	1030.31
329.058	1023.31
329.287	1015.31
329.515	1039.31
329.744	1051.31
329.972	1011.31
330.201	1048.31
330.43	1062.31
330.658	1019.31
330.887	1039.31
331.115	1017.31
331.344	1071.31
331.572	1056.31
331.801	1083.31
332.03	1115.31
332.258	1079.31
332.486	1144.31
332.715	1157.31
332.943	1219.31
333.172	1248.31
333.4	1255.31
333.629	1261.31
333.857	1332.31
334.085	1283.31
334.314	1318.31
334.542	1291.31
334.771	1272.31
334.999	1265.31
335.227	1273.31
335.455	1252.31
335.684	1250.31
335.912	1255.31
336.14	1234.31
336.369	1232.31
336.597	1206.31
336.825	1207.31
337.053	1200.31
337.281	1204.31
337.51	1175.31
337.738	1170.31
337.966	1167.31
338.194	1150.31
338.422	1122.31
338.65	1115.31
338.878	1118.31
339.106	1121.31
339.334	1108.31
339.562	1114.31
339.79	1049.31
340.018	1093.31
340.246	1066.31
340.474	1063.31
340.702	1064.31
340.93	1068.31
341.158	1070.31
341.386	1072.31
341.614	1047.31
341.842	1063.31
342.07	1074.31
342.298	1076.31
342.526	1059.31
342.754	1057.31
342.981	1093.31
343.209	1088.31
343.437	1100.31
343.665	1171.31
343.893	1235.31
344.12	1257.31
344.348	1248.31
344.576	1174.31
344.804	1155.31
345.031	1150.31
345.259	1100.31
345.487	1063.31
345.714	1083.31
345.942	1045.31
346.17	1059.31
346.397	1054.31
346.625	1044.31
346.853	1025.31
347.08	998.31
347.308	996.31
347.535	1037.31
347.763	1032.31
347.99	1003.31
348.218	1031.31
348.445	1032.31
348.673	992.31
348.9	1023.31
349.128	1001.31
349.355	1009.31
349.583	1038.31
349.81	1011.31
350.037	1018.31
350.265	1024.31
350.492	989.31
350.72	1023.31
350.947	1026.31
351.174	973.31
351.402	997.31
351.629	979.31
351.856	986.31
352.083	996.31
352.311	973.31
352.538	1027.31
352.765	992.31
352.992	983.31
353.22	967.31
353.447	961.31
353.674	959.31
353.901	974.31
354.128	957.31
354.355	965.31
354.583	986.31
354.81	972.31
355.037	981.31
355.264	990.31
355.491	987.31
355.718	991.31
355.945	959.31
356.172	961.31
356.399	998.31
356.626	990.31
356.853	1010.31
357.08	993.31
357.307	992.31
357.534	979.31
357.761	993.31
357.988	1012.31
358.215	1004.31
358.441	1001.31
358.668	960.31
358.895	972.31
359.122	983.31
359.349	978.31
359.576	993.31
359.802	999.31
360.029	980.31
360.256	972.31
360.483	983.31
360.709	975.31
360.936	989.31
361.163	1001.31
361.39	974.31
361.616	973.31
361.843	983.31
362.07	1006.31
362.296	984.31
362.523	967.31
362.749	985.31
362.976	1009.31
363.203	965.31
363.429	987.31
363.656	993.31
363.882	996.31
364.109	988.31
364.335	974.31
364.562	971.31
364.788	1004.31
365.015	994.31
365.241	989.31
365.468	1001.31
365.694	974.31
365.92	992.31
366.147	964.31
366.373	969.31
366.599	1001.31
366.826	989.31
367.052	991.31
367.278	985.31
367.505	986.31
367.731	1010.31
367.957	975.31
368.184	1000.31
368.41	987.31
368.636	999.31
368.862	1015.31
369.089	1021.31
369.315	1028.31
369.541	1012.31
369.767	1009.31
369.993	1027.31
370.219	1038.31
370.445	1022.31
370.672	1043.31
370.898	1034.31
371.124	1060.31
371.35	1077.31
371.576	1088.31
371.802	1073.31
372.028	1051.31
372.254	1091.31
372.48	1109.31
372.706	1111.31
372.932	1124.31
373.158	1106.31
373.384	1071.31
373.61	1064.31
373.835	1082.31
374.061	1066.31
374.287	1080.31
374.513	1112.31
374.739	1132.31
374.965	1160.31
375.191	1155.31
375.416	1143.31
375.642	1114.31
375.868	1122.31
376.094	1104.31
376.319	1119.31
376.545	1091.31
376.771	1052.31
376.997	1063.31
377.222	1083.31
377.448	1081.31
377.674	1069.31
377.899	1053.31
378.125	1057.31
378.35	1068.31
378.576	1047.31
378.802	1061.31
379.027	1035.31
379.253	1064.31
379.478	1057.31
379.704	1055.31
379.929	1087.31
380.155	1050.31
380.38	1051.31
380.606	1066.31
380.831	1046.31
381.057	1104.31
381.282	1047.31
381.507	1058.31
381.733	1081.31
381.958	1083.31
382.184	1105.31
382.409	1095.31
382.634	1126.31
382.86	1098.31
383.085	1116.31
383.31	1147.31
383.535	1157.31
383.761	1144.31
383.986	1167.31
384.211	1182.31
384.436	1183.31
384.662	1218.31
384.887	1240.31
385.112	1225.31
385.337	1239.31
385.562	1270.31
385.787	1265.31
386.013	1266.31
386.238	1287.31
386.463	1276.31
386.688	1282.31
386.913	1307.31
387.138	1277.31
387.363	1245.31
387.588	1261.31
387.813	1237.31
388.038	1253.31
388.263	1268.31
388.488	1312.31
388.713	1256.31
388.938	1249.31
389.163	1252.31
389.387	1266.31
389.612	1253.31
389.837	1283.31
390.062	1232.31
390.287	1267.31
390.512	1236.31
390.736	1267.31
390.961	1288.31
391.186	1293.31
391.411	1339.31
391.636	1363.31
391.86	1386.31
392.085	1426.31
392.31	1419.31
392.534	1374.31
392.759	1356.31
392.984	1337.31
393.208	1332.31
393.433	1307.31
393.658	1340.31
393.882	1317.31
394.107	1306.31
394.331	1309.31
394.556	1359.31
394.78	1353.31
395.005	1356.31
395.229	1363.31
395.454	1407.31
395.678	1386.31
395.903	1413.31
396.127	1404.31
396.352	1409.31
396.576	1380.31
396.801	1392.31
397.025	1403.31
397.249	1428.31
397.474	1418.31
397.698	1444.31
397.922	1455.31
398.147	1433.31
398.371	1460.31
398.595	1500.31
398.82	1573.31
399.044	1672.31
399.268	1783.31
399.492	1955.31
399.717	2180.31
399.941	2183.31
400.165	2079.31
400.389	1914.31
400.613	1776.31
400.837	1699.31
401.062	1659.31
401.286	1598.31
401.51	1615.31
401.734	1583.31
401.958	1610.31
402.182	1608.31
402.406	1628.31
402.63	1627.31
402.854	1643.31
403.078	1638.31
403.302	1688.31
403.526	1723.31
403.75	1705.31
403.974	1715.31
404.198	1737.31
404.422	1760.31
404.645	1702.31
404.869	1731.31
405.093	1736.31
405.317	1709.31
405.541	1677.31
405.765	1680.31
405.988	1715.31
406.212	1720.31
406.436	1695.31
406.66	1792.31
406.883	1787.31
407.107	1894.31
407.331	1913.31
407.555	1991.31
407.778	1998.31
408.002	1997.31
408.226	1904.31
408.449	1895.31
408.673	1814.31
408.896	1746.31
409.12	1801.31
409.344	1767.31
409.567	1737.31
409.791	1771.31
410.014	1741.31
410.238	1717.31
410.461	1684.31
410.685	1725.31
410.908	1679.31
411.132	1687.31
411.355	1622.31
411.578	1683.31
411.802	1627.31
412.025	1638.31
412.249	1669.31
412.472	1664.31
412.695	1627.31
412.919	1613.31
413.142	1601.31
413.365	1583.31
413.589	1588.31
413.812	1576.31
414.035	1594.31
414.258	1599.31
414.482	1576.31
414.705	1546.31
414.928	1575.31
415.151	1586.31
415.374	1593.31
415.597	1570.31
415.821	1553.31
416.044	1545.31
416.267	1504.31
416.49	1517.31
416.713	1552.31
416.936	1559.31
417.159	1504.31
417.382	1497.31
417.605	1485.31
417.828	1510.31
418.051	1525.31
418.274	1529.31
418.497	1522.31
418.72	1571.31
418.943	1543.31
419.166	1637.31
419.389	1783.31
419.611	1708.31
419.834	1668.31
420.057	1618.31
420.28	1545.31
420.503	1525.31
420.726	1527.31
420.948	1501.31
421.171	1560.31
421.394	1478.31
421.617	1513.31
421.839	1537.31
422.062	1547.31
422.285	1508.31
422.507	1532.31
422.73	1551.31
422.953	1551.31
423.175	1565.31
423.398	1586.31
423.621	1576.31
423.843	1544.31
424.066	1565.31
424.288	1552.31
424.511	1551.31
424.733	1540.31
424.956	1501.31
425.178	1530.31
425.401	1543.31
425.623	1555.31
425.846	1514.31
426.068	1459.31
426.291	1479.31
426.513	1435.31
426.735	1438.31
426.958	1431.31
427.18	1418.31
427.402	1439.31
427.625	1415.31
427.847	1411.31
428.069	1407.31
428.292	1397.31
428.514	1367.31
428.736	1393.31
428.958	1411.31
429.181	1363.31
429.403	1373.31
429.625	1367.31
429.847	1382.31
430.069	1373.31
430.292	1384.31
430.514	1351.31
430.736	1347.31
430.958	1379.31
431.18	1377.31
431.402	1411.31
431.624	1365.31
431.846	1413.31
432.068	1458.31
432.29	1419.31
432.512	1401.31
432.734	1401.31
432.956	1377.31
433.178	1393.31
433.4	1399.31
433.622	1435.31
433.844	1447.31
434.066	1465.31
434.287	1427.31
434.509	1500.31
434.731	1495.31
434.953	1544.31
435.175	1509.31
435.397	1555.31
435.618	1467.31
435.84	1458.31
436.062	1417.31
436.284	1386.31
436.505	1381.31
436.727	1397.31
436.949	1402.31
437.17	1380.31
437.392	1342.31
437.614	1361.31
437.835	1321.31
438.057	1328.31
438.278	1304.31
438.5	1339.31
438.721	1341.31
438.943	1361.31
439.165	1304.31
439.386	1367.31
439.608	1357.31
439.829	1380.31
440.05	1365.31
440.272	1386.31
440.493	1371.31
440.715	1374.31
440.936	1389.31
441.158	1420.31
441.379	1461.31
441.6	1513.31
441.822	1543.31
442.043	1486.31
442.264	1523.31
442.486	1463.31
442.707	1484.31
442.928	1454.31
443.149	1459.31
443.371	1447.31
443.592	1490.31
443.813	1509.31
444.034	1506.31
444.255	1551.31
444.476	1603.31
444.698	1648.31
444.919	1683.31
445.14	1782.31
445.361	1673.31
445.582	1590.31
445.803	1493.31
446.024	1446.31
446.245	1417.31
446.466	1402.31
446.687	1369.31
446.908	1397.31
447.129	1364.31
447.35	1327.31
447.571	1349.31
447.792	1293.31
448.013	1277.31
448.234	1278.31
448.455	1233.31
448.675	1247.31
448.896	1261.31
449.117	1211.31
449.338	1205.31
449.559	1206.31
449.779	1253.31
450	1227.31
450.221	1228.31
450.442	1216.31
450.662	1280.31
450.883	1281.31
451.104	1291.31
451.324	1283.31
451.545	1267.31
451.766	1250.31
451.986	1226.31
452.207	1251.31
452.428	1196.31
452.648	1196.31
452.869	1208.31
453.089	1202.31
453.31	1209.31
453.53	1212.31
453.751	1185.31
453.971	1188.31
454.192	1202.31
454.412	1161.31
454.633	1183.31
454.853	1178.31
455.073	1174.31
455.294	1173.31
455.514	1147.31
455.734	1172.31
455.955	1129.31
456.175	1151.31
456.395	1123.31
456.616	1183.31
456.836	1163.31
457.056	1177.31
457.276	1155.31
457.497	1223.31
457.717	1188.31
457.937	1160.31
458.157	1203.31
458.377	1183.31
458.598	1224.31
458.818	1277.31
459.038	1290.31
459.258	1321.31
459.478	1371.31
459.698	1381.31
459.918	1422.31
460.138	1473.31
460.358	1549.31
460.578	1572.31
460.798	1576.31
461.018	1581.31
461.238	1603.31
461.458	1564.31
461.678	1543.31
461.898	1554.31
462.118	1598.31
462.338	1663.31
462.558	1721.31
462.777	1782.31
462.997	1864.31
463.217	1921.31
463.437	1965.31
463.657	1880.31
463.876	1843.31
464.096	1811.31
464.316	1775.31
464.536	1764.31
464.755	1750.31
464.975	1703.31
465.195	1609.31
465.414	1550.31
465.634	1478.31
465.854	1439.31
466.073	1382.31
466.293	1380.31
466.512	1349.31
466.732	1344.31
466.951	1329.31
467.171	1327.31
467.391	1330.31
467.61	1289.31
467.829	1273.31
468.049	1277.31
468.268	1267.31
468.488	1253.31
468.707	1269.31
468.927	1276.31
469.146	1256.31
469.365	1256.31
469.585	1256.31
469.804	1316.31
470.023	1301.31
470.243	1297.31
470.462	1342.31
470.681	1372.31
470.901	1319.31
471.12	1329.31
471.339	1301.31
471.558	1328.31
471.777	1289.31
471.997	1278.31
472.216	1259.31
472.435	1245.31
472.654	1259.31
472.873	1224.31
473.092	1248.31
473.311	1253.31
473.53	1246.31
473.749	1255.31
473.968	1223.31
474.187	1203.31
474.406	1233.31
474.625	1249.31
474.844	1248.31
475.063	1283.31
475.282	1275.31
475.501	1263.31
475.72	1274.31
475.939	1255.31
476.158	1303.31
476.377	1345.31
476.596	1308.31
476.814	1349.31
477.033	1312.31
477.252	1352.31
477.471	1375.31
477.69	1387.31
477.908	1429.31
478.127	1442.31
478.346	1450.31
478.564	1480.31
478.783	1533.31
479.002	1525.31
479.22	1532.31
479.439	1544.31
479.658	1534.31
479.876	1524.31
480.095	1578.31
480.313	1634.31
480.532	1670.31
480.751	1645.31
480.969	1640.31
481.188	1551.31
481.406	1551.31
481.624	1479.31
481.843	1490.31
482.061	1495.31
482.28	1499.31
482.498	1497.31
482.717	1482.31
482.935	1504.31
483.153	1515.31
483.372	1540.31
483.59	1514.31
483.808	1553.31
484.027	1567.31
484.245	1572.31
484.463	1571.31
484.681	1588.31
484.9	1619.31
485.118	1631.31
485.336	1660.31
485.554	1642.31
485.772	1663.31
485.99	1665.31
486.209	1645.31
486.427	1657.31
486.645	1649.31
486.863	1628.31
487.081	1631.31
487.299	1608.31
487.517	1626.31
487.735	1635.31
487.953	1621.31
488.171	1632.31
488.389	1610.31
488.607	1575.31
488.825	1580.31
489.043	1564.31
489.261	1533.31
489.479	1549.31
489.696	1573.31
489.914	1571.31
490.132	1571.31
490.35	1565.31
490.568	1560.31
490.786	1555.31
491.003	1578.31
491.221	1579.31
491.439	1608.31
491.657	1561.31
491.874	1542.31
492.092	1532.31
492.31	1570.31
