Data from NiCl2@0.5M.TitratingCurve.Agarose3%dH2O.NegLispCup.LampEnergy10.LIBS07252019_HRD10591_18-21-14-572.txt Node
Date: Thu Jul 25 18:21:14 EDT 2019
User: cochatt
Spectrometer: HR+D1059
Trigger mode: 1
Integration Time (sec): 1.000000E-1
Scans to average: 1
Electric dark correction enabled: true
Nonlinearity correction enabled: false
Boxcar width: 0
XAxis mode: Wavelengths
Number of Pixels in Spectrum: 2048
>>>>>Begin Spectral Data<<<<<
223.165	-11.44
223.4	-11.44
223.635	-11.44
223.869	-19.44
224.104	-24.44
224.338	-8.44
224.573	-19.44
224.808	-24.44
225.042	-8.44
225.277	-4.44
225.511	1.56
225.746	1.56
225.98	8.56
226.215	10.56
226.449	13.56
226.683	18.56
226.918	31.56
227.152	34.56
227.387	29.56
227.621	45.56
227.856	43.56
228.09	40.56
228.324	56.56
228.559	44.56
228.793	57.56
229.027	96.56
229.262	118.56
229.496	112.56
229.73	120.56
229.964	113.56
230.199	122.56
230.433	122.56
230.667	127.56
230.901	128.56
231.136	130.56
231.37	125.56
231.604	132.56
231.838	138.56
232.072	155.56
232.306	134.56
232.541	140.56
232.775	158.56
233.009	162.56
233.243	150.56
233.477	152.56
233.711	152.56
233.945	138.56
234.179	172.56
234.413	153.56
234.647	162.56
234.881	156.56
235.115	157.56
235.349	145.56
235.583	151.56
235.817	158.56
236.051	154.56
236.285	148.56
236.519	157.56
236.753	160.56
236.987	149.56
237.221	165.56
237.455	164.56
237.689	167.56
237.922	181.56
238.156	166.56
238.39	146.56
238.624	176.56
238.858	160.56
239.091	170.56
239.325	174.56
239.559	170.56
239.793	188.56
240.027	176.56
240.26	183.56
240.494	181.56
240.728	187.56
240.961	192.56
241.195	195.56
241.429	190.56
241.662	190.56
241.896	183.56
242.13	202.56
242.363	197.56
242.597	201.56
242.83	186.56
243.064	212.56
243.298	200.56
243.531	203.56
243.765	201.56
243.998	205.56
244.232	229.56
244.465	202.56
244.699	213.56
244.932	212.56
245.166	212.56
245.399	221.56
245.633	197.56
245.866	210.56
246.099	203.56
246.333	220.56
246.566	218.56
246.8	217.56
247.033	242.56
247.266	222.56
247.5	228.56
247.733	240.56
247.966	231.56
248.2	219.56
248.433	235.56
248.666	245.56
248.899	249.56
249.133	253.56
249.366	250.56
249.599	243.56
249.832	244.56
250.066	255.56
250.299	257.56
250.532	263.56
250.765	238.56
250.998	260.56
251.231	251.56
251.465	245.56
251.698	256.56
251.931	280.56
252.164	261.56
252.397	289.56
252.63	274.56
252.863	257.56
253.096	264.56
253.329	277.56
253.562	262.56
253.795	285.56
254.028	294.56
254.261	287.56
254.494	280.56
254.727	277.56
254.96	290.56
255.193	295.56
255.426	291.56
255.659	306.56
255.892	295.56
256.124	297.56
256.357	284.56
256.59	290.56
256.823	291.56
257.056	315.56
257.289	290.56
257.521	317.56
257.754	313.56
257.987	305.56
258.22	300.56
258.452	298.56
258.685	306.56
258.918	299.56
259.151	313.56
259.383	308.56
259.616	304.56
259.849	318.56
260.081	333.56
260.314	334.56
260.547	305.56
260.779	314.56
261.012	320.56
261.244	313.56
261.477	339.56
261.71	333.56
261.942	332.56
262.175	323.56
262.407	336.56
262.64	323.56
262.872	324.56
263.105	334.56
263.337	336.56
263.57	333.56
263.802	334.56
264.035	355.56
264.267	332.56
264.499	342.56
264.732	357.56
264.964	333.56
265.197	353.56
265.429	358.56
265.661	347.56
265.894	355.56
266.126	349.56
266.358	350.56
266.591	359.56
266.823	363.56
267.055	357.56
267.287	358.56
267.52	350.56
267.752	378.56
267.984	368.56
268.216	380.56
268.448	367.56
268.681	376.56
268.913	384.56
269.145	391.56
269.377	377.56
269.609	371.56
269.841	374.56
270.073	379.56
270.306	387.56
270.538	380.56
270.77	359.56
271.002	418.56
271.234	417.56
271.466	389.56
271.698	387.56
271.93	388.56
272.162	385.56
272.394	381.56
272.626	388.56
272.858	395.56
273.09	404.56
273.322	394.56
273.553	406.56
273.785	416.56
274.017	414.56
274.249	415.56
274.481	418.56
274.713	405.56
274.945	412.56
275.176	404.56
275.408	409.56
275.64	434.56
275.872	426.56
276.104	433.56
276.335	428.56
276.567	430.56
276.799	446.56
277.031	444.56
277.262	452.56
277.494	446.56
277.726	434.56
277.957	453.56
278.189	435.56
278.421	441.56
278.652	439.56
278.884	458.56
279.115	454.56
279.347	459.56
279.579	440.56
279.81	435.56
280.042	468.56
280.273	465.56
280.505	450.56
280.736	473.56
280.968	455.56
281.199	486.56
281.431	468.56
281.662	453.56
281.894	453.56
282.125	460.56
282.356	475.56
282.588	476.56
282.819	501.56
283.051	474.56
283.282	474.56
283.513	476.56
283.745	453.56
283.976	470.56
284.207	491.56
284.439	481.56
284.67	498.56
284.901	499.56
285.132	497.56
285.364	492.56
285.595	503.56
285.826	504.56
286.057	520.56
286.288	488.56
286.52	498.56
286.751	498.56
286.982	521.56
287.213	503.56
287.444	503.56
287.675	493.56
287.906	528.56
288.138	501.56
288.369	539.56
288.6	524.56
288.831	538.56
289.062	514.56
289.293	507.56
289.524	510.56
289.755	496.56
289.986	520.56
290.217	526.56
290.448	536.56
290.679	544.56
290.91	531.56
291.141	549.56
291.371	519.56
291.602	532.56
291.833	534.56
292.064	524.56
292.295	533.56
292.526	537.56
292.757	530.56
292.987	546.56
293.218	537.56
293.449	558.56
293.68	525.56
293.91	553.56
294.141	529.56
294.372	533.56
294.603	537.56
294.833	536.56
295.064	559.56
295.295	562.56
295.525	537.56
295.756	555.56
295.987	545.56
296.217	562.56
296.448	578.56
296.679	548.56
296.909	548.56
297.14	569.56
297.37	587.56
297.601	590.56
297.831	590.56
298.062	577.56
298.292	569.56
298.523	588.56
298.753	598.56
298.984	585.56
299.214	592.56
299.445	587.56
299.675	571.56
299.905	584.56
300.136	603.56
300.366	595.56
300.597	614.56
300.827	625.56
301.057	608.56
301.288	639.56
301.518	615.56
301.748	618.56
301.979	609.56
302.209	609.56
302.439	601.56
302.669	621.56
302.9	614.56
303.13	611.56
303.36	620.56
303.59	619.56
303.82	617.56
304.051	628.56
304.281	630.56
304.511	618.56
304.741	612.56
304.971	620.56
305.201	619.56
305.431	616.56
305.661	598.56
305.891	601.56
306.121	618.56
306.352	603.56
306.582	613.56
306.812	578.56
307.042	608.56
307.272	619.56
307.502	590.56
307.731	596.56
307.961	603.56
308.191	619.56
308.421	612.56
308.651	611.56
308.881	620.56
309.111	588.56
309.341	592.56
309.571	604.56
309.8	614.56
310.03	607.56
310.26	624.56
310.49	610.56
310.72	595.56
310.949	615.56
311.179	622.56
311.409	630.56
311.639	628.56
311.868	619.56
312.098	626.56
312.328	644.56
312.557	655.56
312.787	658.56
313.017	614.56
313.246	661.56
313.476	632.56
313.706	665.56
313.935	644.56
314.165	692.56
314.394	678.56
314.624	674.56
314.853	640.56
315.083	635.56
315.312	642.56
315.542	645.56
315.771	659.56
316.001	645.56
316.23	648.56
316.46	666.56
316.689	640.56
316.919	654.56
317.148	641.56
317.377	650.56
317.607	657.56
317.836	640.56
318.065	651.56
318.295	664.56
318.524	636.56
318.753	631.56
318.983	665.56
319.212	634.56
319.441	649.56
319.67	661.56
319.9	650.56
320.129	637.56
320.358	641.56
320.587	644.56
320.816	665.56
321.046	685.56
321.275	659.56
321.504	678.56
321.733	663.56
321.962	651.56
322.191	663.56
322.42	668.56
322.649	667.56
322.878	663.56
323.108	648.56
323.337	685.56
323.566	702.56
323.795	688.56
324.024	666.56
324.253	696.56
324.482	683.56
324.71	679.56
324.939	685.56
325.168	699.56
325.397	692.56
325.626	693.56
325.855	697.56
326.084	722.56
326.313	732.56
326.542	716.56
326.77	705.56
326.999	723.56
327.228	705.56
327.457	721.56
327.686	723.56
327.914	719.56
328.143	711.56
328.372	724.56
328.6	692.56
328.829	714.56
329.058	710.56
329.287	709.56
329.515	713.56
329.744	706.56
329.972	742.56
330.201	725.56
330.43	711.56
330.658	702.56
330.887	760.56
331.115	755.56
331.344	745.56
331.572	745.56
331.801	756.56
332.03	794.56
332.258	795.56
332.486	816.56
332.715	839.56
332.943	861.56
333.172	882.56
333.4	944.56
333.629	957.56
333.857	944.56
334.085	926.56
334.314	915.56
334.542	896.56
334.771	911.56
334.999	875.56
335.227	876.56
335.455	876.56
335.684	858.56
335.912	886.56
336.14	868.56
336.369	857.56
336.597	846.56
336.825	837.56
337.053	836.56
337.281	831.56
337.51	822.56
337.738	802.56
337.966	825.56
338.194	803.56
338.422	776.56
338.65	782.56
338.878	776.56
339.106	807.56
339.334	808.56
339.562	793.56
339.79	772.56
340.018	762.56
340.246	734.56
340.474	773.56
340.702	742.56
340.93	747.56
341.158	758.56
341.386	796.56
341.614	773.56
341.842	778.56
342.07	736.56
342.298	741.56
342.526	741.56
342.754	718.56
342.981	752.56
343.209	752.56
343.437	793.56
343.665	853.56
343.893	868.56
344.12	902.56
344.348	887.56
344.576	856.56
344.804	845.56
345.031	774.56
345.259	777.56
345.487	768.56
345.714	754.56
345.942	749.56
346.17	744.56
346.397	746.56
346.625	746.56
346.853	705.56
347.08	716.56
347.308	707.56
347.535	730.56
347.763	737.56
347.99	707.56
348.218	734.56
348.445	725.56
348.673	710.56
348.9	713.56
349.128	728.56
349.355	713.56
349.583	716.56
349.81	704.56
350.037	692.56
350.265	708.56
350.492	674.56
350.72	673.56
350.947	698.56
351.174	713.56
351.402	688.56
351.629	686.56
351.856	708.56
352.083	676.56
352.311	697.56
352.538	698.56
352.765	712.56
352.992	695.56
353.22	669.56
353.447	690.56
353.674	689.56
353.901	674.56
354.128	712.56
354.355	690.56
354.583	665.56
354.81	691.56
355.037	683.56
355.264	687.56
355.491	699.56
355.718	692.56
355.945	715.56
356.172	700.56
356.399	699.56
356.626	714.56
356.853	698.56
357.08	696.56
357.307	709.56
357.534	696.56
357.761	685.56
357.988	677.56
358.215	695.56
358.441	672.56
358.668	704.56
358.895	677.56
359.122	681.56
359.349	675.56
359.576	696.56
359.802	672.56
360.029	711.56
360.256	687.56
360.483	675.56
360.709	666.56
360.936	688.56
361.163	689.56
361.39	676.56
361.616	699.56
361.843	716.56
362.07	720.56
362.296	702.56
362.523	714.56
362.749	680.56
362.976	707.56
363.203	649.56
363.429	660.56
363.656	698.56
363.882	681.56
364.109	662.56
364.335	694.56
364.562	664.56
364.788	662.56
365.015	700.56
365.241	675.56
365.468	675.56
365.694	680.56
365.92	661.56
366.147	697.56
366.373	695.56
366.599	694.56
366.826	691.56
367.052	685.56
367.278	697.56
367.505	686.56
367.731	701.56
367.957	665.56
368.184	712.56
368.41	716.56
368.636	688.56
368.862	697.56
369.089	701.56
369.315	709.56
369.541	722.56
369.767	703.56
369.993	713.56
370.219	732.56
370.445	712.56
370.672	698.56
370.898	730.56
371.124	723.56
371.35	755.56
371.576	725.56
371.802	726.56
372.028	710.56
372.254	727.56
372.48	733.56
372.706	775.56
372.932	785.56
373.158	749.56
373.384	749.56
373.61	716.56
373.835	746.56
374.061	721.56
374.287	747.56
374.513	736.56
374.739	781.56
374.965	778.56
375.191	829.56
375.416	803.56
375.642	789.56
375.868	783.56
376.094	778.56
376.319	730.56
376.545	761.56
376.771	748.56
376.997	734.56
377.222	734.56
377.448	705.56
377.674	759.56
377.899	732.56
378.125	732.56
378.35	721.56
378.576	722.56
378.802	757.56
379.027	726.56
379.253	716.56
379.478	692.56
379.704	713.56
379.929	716.56
380.155	717.56
380.38	739.56
380.606	713.56
380.831	723.56
381.057	727.56
381.282	713.56
381.507	724.56
381.733	732.56
381.958	729.56
382.184	755.56
382.409	766.56
382.634	749.56
382.86	755.56
383.085	772.56
383.31	797.56
383.535	795.56
383.761	802.56
383.986	820.56
384.211	804.56
384.436	800.56
384.662	837.56
384.887	882.56
385.112	858.56
385.337	890.56
385.562	863.56
385.787	848.56
386.013	898.56
386.238	882.56
386.463	898.56
386.688	875.56
386.913	851.56
387.138	854.56
387.363	857.56
387.588	824.56
387.813	854.56
388.038	846.56
388.263	872.56
388.488	848.56
388.713	870.56
388.938	845.56
389.163	832.56
389.387	858.56
389.612	836.56
389.837	840.56
390.062	865.56
390.287	876.56
390.512	846.56
390.736	857.56
390.961	884.56
391.186	859.56
391.411	921.56
391.636	921.56
391.86	941.56
392.085	986.56
392.31	964.56
392.534	920.56
392.759	914.56
392.984	903.56
393.208	918.56
393.433	906.56
393.658	935.56
393.882	924.56
394.107	900.56
394.331	910.56
394.556	933.56
394.78	901.56
395.005	911.56
395.229	961.56
395.454	946.56
395.678	945.56
395.903	959.56
396.127	980.56
396.352	906.56
396.576	896.56
396.801	933.56
397.025	941.56
397.249	966.56
397.474	960.56
397.698	974.56
397.922	987.56
398.147	933.56
398.371	990.56
398.595	997.56
398.82	1050.56
399.044	1152.56
399.268	1262.56
399.492	1419.56
399.717	1596.56
399.941	1566.56
400.165	1394.56
400.389	1312.56
400.613	1219.56
400.837	1117.56
401.062	1098.56
401.286	1083.56
401.51	1075.56
401.734	1085.56
401.958	1131.56
402.182	1067.56
402.406	1109.56
402.63	1118.56
402.854	1149.56
403.078	1122.56
403.302	1150.56
403.526	1190.56
403.75	1196.56
403.974	1239.56
404.198	1205.56
404.422	1226.56
404.645	1208.56
404.869	1184.56
405.093	1177.56
405.317	1145.56
405.541	1161.56
405.765	1196.56
405.988	1204.56
406.212	1182.56
406.436	1165.56
406.66	1221.56
406.883	1230.56
407.107	1281.56
407.331	1372.56
407.555	1411.56
407.778	1386.56
408.002	1354.56
408.226	1277.56
408.449	1313.56
408.673	1250.56
408.896	1221.56
409.12	1256.56
409.344	1239.56
409.567	1217.56
409.791	1222.56
410.014	1199.56
410.238	1216.56
410.461	1200.56
410.685	1166.56
410.908	1123.56
411.132	1144.56
411.355	1121.56
411.578	1129.56
411.802	1143.56
412.025	1114.56
412.249	1157.56
412.472	1114.56
412.695	1100.56
412.919	1067.56
413.142	1073.56
413.365	1086.56
413.589	1095.56
413.812	1100.56
414.035	1096.56
414.258	1092.56
414.482	1092.56
414.705	1105.56
414.928	1112.56
415.151	1098.56
415.374	1096.56
415.597	1088.56
415.821	1060.56
416.044	1074.56
416.267	1050.56
416.49	1082.56
416.713	1069.56
416.936	1068.56
417.159	1065.56
417.382	1051.56
417.605	1015.56
417.828	1051.56
418.051	1097.56
418.274	1097.56
418.497	1070.56
418.72	1092.56
418.943	1092.56
419.166	1163.56
419.389	1218.56
419.611	1151.56
419.834	1169.56
420.057	1111.56
420.28	1091.56
420.503	1043.56
420.726	1078.56
420.948	1079.56
421.171	1078.56
421.394	1088.56
421.617	1069.56
421.839	1056.56
422.062	1078.56
422.285	1078.56
422.507	1081.56
422.73	1095.56
422.953	1116.56
423.175	1105.56
423.398	1125.56
423.621	1102.56
423.843	1138.56
424.066	1109.56
424.288	1111.56
424.511	1128.56
424.733	1113.56
424.956	1102.56
425.178	1068.56
425.401	1072.56
425.623	1068.56
425.846	1045.56
426.068	1035.56
426.291	1020.56
426.513	1024.56
426.735	1011.56
426.958	1013.56
427.18	992.56
427.402	996.56
427.625	989.56
427.847	1005.56
428.069	963.56
428.292	1000.56
428.514	970.56
428.736	950.56
428.958	966.56
429.181	953.56
429.403	957.56
429.625	952.56
429.847	942.56
430.069	965.56
430.292	933.56
430.514	947.56
430.736	941.56
430.958	960.56
431.18	965.56
431.402	973.56
431.624	931.56
431.846	989.56
432.068	973.56
432.29	966.56
432.512	965.56
432.734	988.56
432.956	985.56
433.178	957.56
433.4	948.56
433.622	997.56
433.844	988.56
434.066	1003.56
434.287	1008.56
434.509	1032.56
434.731	1071.56
434.953	1078.56
435.175	1128.56
435.397	1093.56
435.618	1033.56
435.84	1022.56
436.062	999.56
436.284	986.56
436.505	985.56
436.727	982.56
436.949	993.56
437.17	988.56
437.392	954.56
437.614	965.56
437.835	920.56
438.057	937.56
438.278	933.56
438.5	939.56
438.721	958.56
438.943	961.56
439.165	965.56
439.386	950.56
439.608	950.56
439.829	948.56
440.05	1007.56
440.272	970.56
440.493	974.56
440.715	1043.56
440.936	1011.56
441.158	1046.56
441.379	1063.56
441.6	1088.56
441.822	1097.56
442.043	1100.56
442.264	1083.56
442.486	1054.56
442.707	1028.56
442.928	1054.56
443.149	1076.56
443.371	1050.56
443.592	1077.56
443.813	1109.56
444.034	1093.56
444.255	1120.56
444.476	1190.56
444.698	1238.56
444.919	1271.56
445.14	1308.56
445.361	1211.56
445.582	1140.56
445.803	1080.56
446.024	1029.56
446.245	1010.56
446.466	1026.56
446.687	996.56
446.908	989.56
447.129	950.56
447.35	974.56
447.571	946.56
447.792	965.56
448.013	947.56
448.234	925.56
448.455	905.56
448.675	896.56
448.896	905.56
449.117	907.56
449.338	902.56
449.559	886.56
449.779	872.56
450	892.56
450.221	885.56
450.442	885.56
450.662	918.56
450.883	904.56
451.104	930.56
451.324	922.56
451.545	900.56
451.766	932.56
451.986	889.56
452.207	881.56
452.428	880.56
452.648	899.56
452.869	868.56
453.089	869.56
453.31	868.56
453.53	854.56
453.751	869.56
453.971	867.56
454.192	874.56
454.412	857.56
454.633	870.56
454.853	846.56
455.073	854.56
455.294	857.56
455.514	858.56
455.734	849.56
455.955	814.56
456.175	818.56
456.395	833.56
456.616	846.56
456.836	867.56
457.056	846.56
457.276	833.56
457.497	870.56
457.717	837.56
457.937	834.56
458.157	855.56
458.377	844.56
458.598	890.56
458.818	910.56
459.038	936.56
459.258	955.56
459.478	988.56
459.698	1017.56
459.918	1046.56
460.138	1051.56
460.358	1106.56
460.578	1098.56
460.798	1157.56
461.018	1162.56
461.238	1164.56
461.458	1113.56
461.678	1114.56
461.898	1158.56
462.118	1151.56
462.338	1189.56
462.558	1245.56
462.777	1294.56
462.997	1359.56
463.217	1452.56
463.437	1474.56
463.657	1380.56
463.876	1318.56
464.096	1316.56
464.316	1332.56
464.536	1336.56
464.755	1269.56
464.975	1233.56
465.195	1170.56
465.414	1133.56
465.634	1048.56
465.854	1044.56
466.073	1012.56
466.293	1009.56
466.512	999.56
466.732	978.56
466.951	945.56
467.171	923.56
467.391	964.56
467.61	921.56
467.829	960.56
468.049	912.56
468.268	902.56
468.488	900.56
468.707	921.56
468.927	915.56
469.146	926.56
469.365	942.56
469.585	952.56
469.804	969.56
470.023	961.56
470.243	965.56
470.462	993.56
470.681	993.56
470.901	1004.56
471.12	977.56
471.339	955.56
471.558	940.56
471.777	940.56
471.997	930.56
472.216	916.56
472.435	920.56
472.654	891.56
472.873	884.56
473.092	888.56
473.311	881.56
473.53	899.56
473.749	910.56
473.968	891.56
474.187	885.56
474.406	887.56
474.625	899.56
474.844	887.56
475.063	916.56
475.282	920.56
475.501	896.56
475.72	927.56
475.939	938.56
476.158	921.56
476.377	934.56
476.596	943.56
476.814	964.56
477.033	951.56
477.252	976.56
477.471	1009.56
477.69	1002.56
477.908	1033.56
478.127	1060.56
478.346	1086.56
478.564	1078.56
478.783	1110.56
479.002	1112.56
479.22	1131.56
479.439	1155.56
479.658	1136.56
479.876	1132.56
480.095	1126.56
480.313	1157.56
480.532	1205.56
480.751	1185.56
480.969	1156.56
481.188	1129.56
481.406	1122.56
481.624	1094.56
481.843	1086.56
482.061	1081.56
482.28	1040.56
482.498	1020.56
482.717	1029.56
482.935	1061.56
483.153	1083.56
483.372	1065.56
483.59	1081.56
483.808	1052.56
484.027	1074.56
484.245	1104.56
484.463	1087.56
484.681	1063.56
484.9	1103.56
485.118	1090.56
485.336	1099.56
485.554	1086.56
485.772	1099.56
485.99	1097.56
486.209	1137.56
486.427	1065.56
486.645	1108.56
486.863	1084.56
487.081	1088.56
487.299	1090.56
487.517	1095.56
487.735	1105.56
487.953	1124.56
488.171	1115.56
488.389	1096.56
488.607	1080.56
488.825	1072.56
489.043	1076.56
489.261	1084.56
489.479	1082.56
489.696	1102.56
489.914	1117.56
490.132	1116.56
490.35	1105.56
490.568	1110.56
490.786	1111.56
491.003	1093.56
491.221	1115.56
491.439	1116.56
491.657	1106.56
491.874	1126.56
492.092	1112.56
492.31	1130.56
492.527	1138.56
492.745	1128.56
492.963	1164.56
493.18	1149.56
493.398	1148.56
493.615	1158.56
493.833	1157.56
494.05	1157.56
494.268	1163.56
494.485	1129.56
494.703	1162.56
494.92	1178.56
495.138	1166.56
495.355	1147.56
495.573	1182.56
495.79	1166.56
496.008	1210.56
496.225	1195.56
496.442	1184.56
496.66	1218.56
496.877	1206.56
497.094	1233.56
497.312	1257.56
497.529	1296.56
497.746	1313.56
