Data from NiCl2@0.125M.TitratingCurve.Agarose3%dH2O.NegLispCup.LampEnergy10.LIBS07252019_HRD10591_18-30-08-575.txt Node
Date: Thu Jul 25 18:30:08 EDT 2019
User: cochatt
Spectrometer: HR+D1059
Trigger mode: 1
Integration Time (sec): 1.000000E-1
Scans to average: 1
Electric dark correction enabled: true
Nonlinearity correction enabled: false
Boxcar width: 0
XAxis mode: Wavelengths
Number of Pixels in Spectrum: 2048
>>>>>Begin Spectral Data<<<<<
223.165	-12.62
223.4	-12.62
223.635	-12.62
223.869	-17.62
224.104	-15.62
224.338	-17.62
224.573	-15.62
224.808	-7.62
225.042	-0.62
225.277	-10.62
225.511	-4.62
225.746	11.38
225.98	4.38
226.215	4.38
226.449	16.38
226.683	18.38
226.918	20.38
227.152	27.38
227.387	50.38
227.621	46.38
227.856	43.38
228.09	46.38
228.324	45.38
228.559	57.38
228.793	62.38
229.027	111.38
229.262	114.38
229.496	116.38
229.73	135.38
229.964	116.38
230.199	140.38
230.433	152.38
230.667	128.38
230.901	145.38
231.136	140.38
231.37	167.38
231.604	136.38
231.838	162.38
232.072	157.38
232.306	166.38
232.541	159.38
232.775	156.38
233.009	146.38
233.243	146.38
233.477	148.38
233.711	168.38
233.945	154.38
234.179	153.38
234.413	154.38
234.647	158.38
234.881	155.38
235.115	146.38
235.349	139.38
235.583	167.38
235.817	168.38
236.051	157.38
236.285	156.38
236.519	169.38
236.753	159.38
236.987	174.38
237.221	166.38
237.455	154.38
237.689	167.38
237.922	167.38
238.156	177.38
238.39	169.38
238.624	175.38
238.858	174.38
239.091	187.38
239.325	184.38
239.559	182.38
239.793	198.38
240.027	184.38
240.26	180.38
240.494	192.38
240.728	193.38
240.961	184.38
241.195	177.38
241.429	192.38
241.662	200.38
241.896	186.38
242.13	203.38
242.363	226.38
242.597	198.38
242.83	218.38
243.064	225.38
243.298	214.38
243.531	210.38
243.765	217.38
243.998	216.38
244.232	219.38
244.465	218.38
244.699	222.38
244.932	225.38
245.166	227.38
245.399	224.38
245.633	233.38
245.866	240.38
246.099	222.38
246.333	243.38
246.566	248.38
246.8	241.38
247.033	234.38
247.266	250.38
247.5	235.38
247.733	239.38
247.966	234.38
248.2	253.38
248.433	250.38
248.666	248.38
248.899	260.38
249.133	260.38
249.366	259.38
249.599	258.38
249.832	270.38
250.066	276.38
250.299	255.38
250.532	272.38
250.765	262.38
250.998	262.38
251.231	275.38
251.465	280.38
251.698	289.38
251.931	271.38
252.164	262.38
252.397	278.38
252.63	275.38
252.863	294.38
253.096	274.38
253.329	279.38
253.562	284.38
253.795	297.38
254.028	285.38
254.261	291.38
254.494	297.38
254.727	307.38
254.96	295.38
255.193	298.38
255.426	292.38
255.659	303.38
255.892	303.38
256.124	304.38
256.357	303.38
256.59	314.38
256.823	310.38
257.056	323.38
257.289	314.38
257.521	325.38
257.754	308.38
257.987	320.38
258.22	331.38
258.452	319.38
258.685	323.38
258.918	320.38
259.151	311.38
259.383	332.38
259.616	339.38
259.849	329.38
260.081	335.38
260.314	326.38
260.547	327.38
260.779	342.38
261.012	343.38
261.244	328.38
261.477	351.38
261.71	351.38
261.942	340.38
262.175	337.38
262.407	339.38
262.64	354.38
262.872	357.38
263.105	332.38
263.337	343.38
263.57	351.38
263.802	347.38
264.035	376.38
264.267	372.38
264.499	369.38
264.732	371.38
264.964	381.38
265.197	383.38
265.429	361.38
265.661	380.38
265.894	388.38
266.126	382.38
266.358	377.38
266.591	394.38
266.823	400.38
267.055	367.38
267.287	388.38
267.52	364.38
267.752	370.38
267.984	382.38
268.216	399.38
268.448	393.38
268.681	400.38
268.913	393.38
269.145	410.38
269.377	395.38
269.609	397.38
269.841	387.38
270.073	395.38
270.306	408.38
270.538	375.38
270.77	383.38
271.002	395.38
271.234	395.38
271.466	395.38
271.698	400.38
271.93	418.38
272.162	433.38
272.394	403.38
272.626	406.38
272.858	413.38
273.09	412.38
273.322	426.38
273.553	428.38
273.785	421.38
274.017	408.38
274.249	448.38
274.481	436.38
274.713	410.38
274.945	432.38
275.176	445.38
275.408	425.38
275.64	436.38
275.872	431.38
276.104	447.38
276.335	428.38
276.567	423.38
276.799	433.38
277.031	434.38
277.262	480.38
277.494	454.38
277.726	451.38
277.957	464.38
278.189	458.38
278.421	452.38
278.652	459.38
278.884	457.38
279.115	436.38
279.347	466.38
279.579	485.38
279.81	468.38
280.042	472.38
280.273	467.38
280.505	489.38
280.736	464.38
280.968	483.38
281.199	491.38
281.431	474.38
281.662	481.38
281.894	499.38
282.125	489.38
282.356	510.38
282.588	523.38
282.819	509.38
283.051	492.38
283.282	494.38
283.513	485.38
283.745	499.38
283.976	511.38
284.207	516.38
284.439	479.38
284.67	484.38
284.901	489.38
285.132	490.38
285.364	488.38
285.595	501.38
285.826	498.38
286.057	524.38
286.288	537.38
286.52	528.38
286.751	529.38
286.982	525.38
287.213	524.38
287.444	526.38
287.675	553.38
287.906	536.38
288.138	563.38
288.369	539.38
288.6	537.38
288.831	522.38
289.062	534.38
289.293	544.38
289.524	532.38
289.755	546.38
289.986	547.38
290.217	558.38
290.448	544.38
290.679	524.38
290.91	559.38
291.141	551.38
291.371	559.38
291.602	554.38
291.833	555.38
292.064	578.38
292.295	539.38
292.526	551.38
292.757	560.38
292.987	555.38
293.218	547.38
293.449	600.38
293.68	587.38
293.91	565.38
294.141	560.38
294.372	566.38
294.603	561.38
294.833	574.38
295.064	562.38
295.295	574.38
295.525	573.38
295.756	586.38
295.987	563.38
296.217	580.38
296.448	583.38
296.679	593.38
296.909	574.38
297.14	588.38
297.37	613.38
297.601	598.38
297.831	595.38
298.062	613.38
298.292	615.38
298.523	600.38
298.753	593.38
298.984	604.38
299.214	619.38
299.445	580.38
299.675	606.38
299.905	601.38
300.136	614.38
300.366	610.38
300.597	640.38
300.827	628.38
301.057	617.38
301.288	632.38
301.518	651.38
301.748	642.38
301.979	658.38
302.209	635.38
302.439	641.38
302.669	630.38
302.9	645.38
303.13	628.38
303.36	614.38
303.59	626.38
303.82	644.38
304.051	654.38
304.281	611.38
304.511	609.38
304.741	643.38
304.971	603.38
305.201	619.38
305.431	620.38
305.661	626.38
305.891	592.38
306.121	606.38
306.352	602.38
306.582	630.38
306.812	577.38
307.042	618.38
307.272	592.38
307.502	611.38
307.731	590.38
307.961	610.38
308.191	616.38
308.421	618.38
308.651	617.38
308.881	595.38
309.111	614.38
309.341	616.38
309.571	606.38
309.8	630.38
310.03	609.38
310.26	614.38
310.49	638.38
310.72	619.38
310.949	622.38
311.179	617.38
311.409	622.38
311.639	608.38
311.868	620.38
312.098	641.38
312.328	634.38
312.557	629.38
312.787	640.38
313.017	648.38
313.246	622.38
313.476	663.38
313.706	660.38
313.935	657.38
314.165	681.38
314.394	663.38
314.624	636.38
314.853	658.38
315.083	648.38
315.312	653.38
315.542	663.38
315.771	622.38
316.001	615.38
316.23	632.38
316.46	634.38
316.689	639.38
316.919	648.38
317.148	641.38
317.377	627.38
317.607	633.38
317.836	636.38
318.065	633.38
318.295	636.38
318.524	633.38
318.753	630.38
318.983	621.38
319.212	639.38
319.441	649.38
319.67	629.38
319.9	610.38
320.129	626.38
320.358	623.38
320.587	627.38
320.816	644.38
321.046	634.38
321.275	643.38
321.504	635.38
321.733	629.38
321.962	653.38
322.191	648.38
322.42	642.38
322.649	648.38
322.878	634.38
323.108	667.38
323.337	670.38
323.566	627.38
323.795	662.38
324.024	656.38
324.253	658.38
324.482	656.38
324.71	652.38
324.939	648.38
325.168	674.38
325.397	681.38
325.626	657.38
325.855	708.38
326.084	686.38
326.313	672.38
326.542	698.38
326.77	724.38
326.999	704.38
327.228	672.38
327.457	668.38
327.686	671.38
327.914	691.38
328.143	698.38
328.372	696.38
328.6	673.38
328.829	696.38
329.058	712.38
329.287	683.38
329.515	696.38
329.744	701.38
329.972	732.38
330.201	697.38
330.43	707.38
330.658	734.38
330.887	711.38
331.115	725.38
331.344	727.38
331.572	729.38
331.801	731.38
332.03	771.38
332.258	758.38
332.486	807.38
332.715	844.38
332.943	893.38
333.172	891.38
333.4	928.38
333.629	983.38
333.857	963.38
334.085	952.38
334.314	937.38
334.542	910.38
334.771	894.38
334.999	867.38
335.227	879.38
335.455	882.38
335.684	862.38
335.912	847.38
336.14	862.38
336.369	857.38
336.597	852.38
336.825	836.38
337.053	866.38
337.281	815.38
337.51	807.38
337.738	803.38
337.966	780.38
338.194	759.38
338.422	731.38
338.65	740.38
338.878	733.38
339.106	770.38
339.334	759.38
339.562	712.38
339.79	717.38
340.018	722.38
340.246	746.38
340.474	702.38
340.702	716.38
340.93	739.38
341.158	742.38
341.386	746.38
341.614	740.38
341.842	714.38
342.07	712.38
342.298	687.38
342.526	727.38
342.754	713.38
342.981	689.38
343.209	739.38
343.437	757.38
343.665	789.38
343.893	884.38
344.12	912.38
344.348	864.38
344.576	815.38
344.804	788.38
345.031	731.38
345.259	743.38
345.487	720.38
345.714	738.38
345.942	730.38
346.17	728.38
346.397	713.38
346.625	703.38
346.853	682.38
347.08	698.38
347.308	711.38
347.535	719.38
347.763	725.38
347.99	704.38
348.218	769.38
348.445	722.38
348.673	709.38
348.9	685.38
349.128	690.38
349.355	688.38
349.583	693.38
349.81	681.38
350.037	661.38
350.265	657.38
350.492	669.38
350.72	688.38
350.947	682.38
351.174	674.38
351.402	693.38
351.629	671.38
351.856	671.38
352.083	666.38
352.311	670.38
352.538	684.38
352.765	674.38
352.992	686.38
353.22	676.38
353.447	666.38
353.674	670.38
353.901	659.38
354.128	664.38
354.355	651.38
354.583	666.38
354.81	672.38
355.037	682.38
355.264	679.38
355.491	683.38
355.718	697.38
355.945	699.38
356.172	695.38
356.399	663.38
356.626	689.38
356.853	674.38
357.08	660.38
357.307	651.38
357.534	680.38
357.761	711.38
357.988	671.38
358.215	664.38
358.441	658.38
358.668	679.38
358.895	688.38
359.122	683.38
359.349	661.38
359.576	676.38
359.802	683.38
360.029	660.38
360.256	668.38
360.483	660.38
360.709	697.38
360.936	681.38
361.163	667.38
361.39	667.38
361.616	666.38
361.843	677.38
362.07	672.38
362.296	675.38
362.523	682.38
362.749	687.38
362.976	679.38
363.203	644.38
363.429	664.38
363.656	680.38
363.882	673.38
364.109	692.38
364.335	647.38
364.562	665.38
364.788	666.38
365.015	686.38
365.241	659.38
365.468	670.38
365.694	657.38
365.92	667.38
366.147	672.38
366.373	674.38
366.599	678.38
366.826	681.38
367.052	656.38
367.278	680.38
367.505	656.38
367.731	656.38
367.957	687.38
368.184	663.38
368.41	667.38
368.636	670.38
368.862	694.38
369.089	681.38
369.315	690.38
369.541	681.38
369.767	683.38
369.993	689.38
370.219	686.38
370.445	694.38
370.672	744.38
370.898	728.38
371.124	735.38
371.35	720.38
371.576	728.38
371.802	734.38
372.028	717.38
372.254	710.38
372.48	742.38
372.706	748.38
372.932	757.38
373.158	762.38
373.384	741.38
373.61	756.38
373.835	723.38
374.061	731.38
374.287	740.38
374.513	745.38
374.739	767.38
374.965	817.38
375.191	832.38
375.416	834.38
375.642	779.38
375.868	786.38
376.094	774.38
376.319	754.38
376.545	764.38
376.771	749.38
376.997	740.38
377.222	712.38
377.448	714.38
377.674	750.38
377.899	720.38
378.125	733.38
378.35	731.38
378.576	729.38
378.802	735.38
379.027	709.38
379.253	742.38
379.478	730.38
379.704	708.38
379.929	702.38
380.155	697.38
380.38	715.38
380.606	734.38
380.831	720.38
381.057	755.38
381.282	731.38
381.507	748.38
381.733	729.38
381.958	718.38
382.184	728.38
382.409	750.38
382.634	751.38
382.86	770.38
383.085	760.38
383.31	782.38
383.535	816.38
383.761	829.38
383.986	847.38
384.211	829.38
384.436	869.38
384.662	880.38
384.887	891.38
385.112	877.38
385.337	902.38
385.562	882.38
385.787	902.38
386.013	900.38
386.238	890.38
386.463	867.38
386.688	894.38
386.913	887.38
387.138	883.38
387.363	847.38
387.588	885.38
387.813	864.38
388.038	880.38
388.263	864.38
388.488	867.38
388.713	839.38
388.938	853.38
389.163	859.38
389.387	855.38
389.612	849.38
389.837	867.38
390.062	874.38
390.287	852.38
390.512	848.38
390.736	875.38
390.961	868.38
391.186	888.38
391.411	924.38
391.636	941.38
391.86	953.38
392.085	990.38
392.31	999.38
392.534	969.38
392.759	948.38
392.984	924.38
393.208	948.38
393.433	926.38
393.658	920.38
393.882	936.38
394.107	998.38
394.331	948.38
394.556	946.38
394.78	952.38
395.005	960.38
395.229	949.38
395.454	968.38
395.678	993.38
395.903	977.38
396.127	968.38
396.352	939.38
396.576	914.38
396.801	914.38
397.025	906.38
397.249	958.38
397.474	958.38
397.698	968.38
397.922	999.38
398.147	963.38
398.371	1010.38
398.595	1034.38
398.82	1037.38
399.044	1155.38
399.268	1275.38
399.492	1484.38
399.717	1742.38
399.941	1732.38
400.165	1520.38
400.389	1362.38
400.613	1240.38
400.837	1132.38
401.062	1147.38
401.286	1107.38
401.51	1110.38
401.734	1080.38
401.958	1109.38
402.182	1112.38
402.406	1128.38
402.63	1124.38
402.854	1173.38
403.078	1200.38
403.302	1196.38
403.526	1276.38
403.75	1259.38
403.974	1293.38
404.198	1299.38
404.422	1299.38
404.645	1304.38
404.869	1268.38
405.093	1290.38
405.317	1236.38
405.541	1234.38
405.765	1228.38
405.988	1218.38
406.212	1166.38
406.436	1220.38
406.66	1246.38
406.883	1264.38
407.107	1335.38
407.331	1393.38
407.555	1445.38
407.778	1470.38
408.002	1410.38
408.226	1357.38
408.449	1307.38
408.673	1262.38
408.896	1244.38
409.12	1246.38
409.344	1270.38
409.567	1264.38
409.791	1313.38
410.014	1278.38
410.238	1268.38
410.461	1257.38
410.685	1221.38
410.908	1186.38
411.132	1168.38
411.355	1163.38
411.578	1168.38
411.802	1145.38
412.025	1148.38
412.249	1181.38
412.472	1186.38
412.695	1135.38
412.919	1078.38
413.142	1110.38
413.365	1114.38
413.589	1141.38
413.812	1096.38
414.035	1074.38
414.258	1112.38
414.482	1114.38
414.705	1112.38
414.928	1130.38
415.151	1114.38
415.374	1095.38
415.597	1093.38
415.821	1081.38
416.044	1077.38
416.267	1096.38
416.49	1048.38
416.713	1084.38
416.936	1097.38
417.159	1105.38
417.382	1100.38
417.605	1114.38
417.828	1086.38
418.051	1110.38
418.274	1108.38
418.497	1088.38
418.72	1109.38
418.943	1150.38
419.166	1214.38
419.389	1290.38
419.611	1255.38
419.834	1180.38
420.057	1151.38
420.28	1116.38
420.503	1094.38
420.726	1075.38
420.948	1048.38
421.171	1086.38
421.394	1129.38
421.617	1090.38
421.839	1110.38
422.062	1104.38
422.285	1119.38
422.507	1087.38
422.73	1128.38
422.953	1150.38
423.175	1139.38
423.398	1188.38
423.621	1166.38
423.843	1184.38
424.066	1219.38
424.288	1181.38
424.511	1185.38
424.733	1175.38
424.956	1116.38
425.178	1148.38
425.401	1123.38
425.623	1108.38
425.846	1063.38
426.068	1079.38
426.291	1057.38
426.513	1017.38
426.735	1015.38
426.958	1021.38
427.18	982.38
427.402	1029.38
427.625	994.38
427.847	972.38
428.069	966.38
428.292	995.38
428.514	975.38
428.736	955.38
428.958	986.38
429.181	952.38
429.403	945.38
429.625	934.38
429.847	940.38
430.069	978.38
430.292	950.38
430.514	922.38
430.736	943.38
430.958	948.38
431.18	953.38
431.402	988.38
431.624	963.38
431.846	987.38
432.068	1032.38
432.29	1012.38
432.512	972.38
432.734	1001.38
432.956	968.38
433.178	983.38
433.4	989.38
433.622	1031.38
433.844	962.38
434.066	973.38
434.287	1008.38
434.509	1013.38
434.731	1073.38
434.953	1115.38
435.175	1118.38
435.397	1102.38
435.618	1036.38
435.84	1040.38
436.062	994.38
436.284	979.38
436.505	976.38
436.727	1012.38
436.949	1001.38
437.17	971.38
437.392	971.38
437.614	950.38
437.835	927.38
438.057	963.38
438.278	943.38
438.5	942.38
438.721	927.38
438.943	962.38
439.165	970.38
439.386	975.38
439.608	977.38
439.829	966.38
440.05	993.38
440.272	988.38
440.493	991.38
440.715	1006.38
440.936	1024.38
441.158	1027.38
441.379	1049.38
441.6	1139.38
441.822	1112.38
442.043	1136.38
442.264	1128.38
442.486	1086.38
442.707	1080.38
442.928	1088.38
443.149	1134.38
443.371	1112.38
443.592	1101.38
443.813	1117.38
444.034	1132.38
444.255	1184.38
444.476	1231.38
444.698	1289.38
444.919	1364.38
445.14	1489.38
445.361	1298.38
445.582	1162.38
445.803	1096.38
446.024	1043.38
446.245	1059.38
446.466	1032.38
446.687	980.38
446.908	1007.38
447.129	978.38
447.35	979.38
447.571	957.38
447.792	935.38
448.013	959.38
448.234	900.38
448.455	908.38
448.675	904.38
448.896	910.38
449.117	864.38
449.338	915.38
449.559	896.38
449.779	874.38
450	884.38
450.221	896.38
450.442	932.38
450.662	911.38
450.883	936.38
451.104	961.38
451.324	926.38
451.545	945.38
451.766	943.38
451.986	949.38
452.207	919.38
452.428	920.38
452.648	923.38
452.869	912.38
453.089	898.38
453.31	914.38
453.53	888.38
453.751	907.38
453.971	891.38
454.192	886.38
454.412	879.38
454.633	886.38
454.853	874.38
455.073	868.38
455.294	886.38
455.514	853.38
455.734	856.38
455.955	835.38
456.175	850.38
456.395	870.38
456.616	851.38
456.836	863.38
457.056	849.38
457.276	824.38
457.497	851.38
457.717	839.38
457.937	832.38
458.157	845.38
458.377	864.38
458.598	882.38
458.818	903.38
459.038	946.38
459.258	952.38
459.478	998.38
459.698	993.38
459.918	1035.38
460.138	1090.38
460.358	1169.38
460.578	1178.38
460.798	1202.38
461.018	1211.38
461.238	1167.38
461.458	1155.38
461.678	1152.38
461.898	1205.38
462.118	1159.38
462.338	1287.38
462.558	1277.38
462.777	1305.38
462.997	1468.38
463.217	1609.38
463.437	1649.38
463.657	1487.38
463.876	1378.38
464.096	1385.38
464.316	1361.38
464.536	1410.38
464.755	1359.38
464.975	1284.38
465.195	1240.38
465.414	1115.38
465.634	1076.38
465.854	1046.38
466.073	1034.38
466.293	983.38
466.512	966.38
466.732	960.38
466.951	952.38
467.171	935.38
467.391	970.38
467.61	931.38
467.829	964.38
468.049	934.38
468.268	950.38
468.488	925.38
468.707	889.38
468.927	897.38
469.146	911.38
469.365	916.38
469.585	929.38
469.804	949.38
470.023	992.38
470.243	975.38
470.462	991.38
470.681	995.38
470.901	986.38
471.12	987.38
471.339	955.38
471.558	938.38
471.777	921.38
471.997	906.38
472.216	944.38
472.435	886.38
472.654	889.38
472.873	850.38
473.092	888.38
473.311	885.38
473.53	865.38
473.749	881.38
473.968	854.38
474.187	856.38
474.406	895.38
474.625	886.38
474.844	912.38
475.063	850.38
475.282	890.38
475.501	888.38
475.72	916.38
475.939	897.38
476.158	913.38
476.377	907.38
476.596	934.38
476.814	916.38
477.033	930.38
477.252	945.38
477.471	968.38
477.69	976.38
477.908	1014.38
478.127	1030.38
478.346	1043.38
478.564	1063.38
478.783	1083.38
479.002	1113.38
479.22	1111.38
479.439	1074.38
479.658	1096.38
479.876	1089.38
480.095	1086.38
480.313	1154.38
480.532	1223.38
480.751	1200.38
480.969	1172.38
481.188	1081.38
481.406	1022.38
481.624	1022.38
481.843	1039.38
482.061	1019.38
482.28	997.38
482.498	979.38
482.717	1004.38
482.935	991.38
483.153	978.38
483.372	978.38
483.59	1011.38
483.808	1024.38
484.027	1009.38
484.245	1016.38
484.463	1035.38
484.681	1013.38
484.9	995.38
485.118	1038.38
485.336	1050.38
485.554	1059.38
485.772	1066.38
485.99	1089.38
486.209	1081.38
486.427	1082.38
486.645	1087.38
486.863	1072.38
487.081	1042.38
487.299	1053.38
487.517	1056.38
487.735	1070.38
487.953	1061.38
488.171	1084.38
488.389	1028.38
488.607	1044.38
488.825	1024.38
489.043	1027.38
489.261	1043.38
489.479	1034.38
489.696	1066.38
489.914	1018.38
490.132	1072.38
490.35	1072.38
490.568	1025.38
490.786	1050.38
491.003	1056.38
491.221	1067.38
491.439	1070.38
491.657	1086.38
491.874	1078.38
492.092	1059.38
492.31	1056.38
492.527	1061.38
492.745	1070.38
492.963	1075.38
493.18	1075.38
493.398	1080.38
493.615	1113.38
493.833	1114.38
494.05	1096.38
494.268	1138.38
494.485	1146.38
494.703	1085.38
494.92	1147.38
495.138	1121.38
495.355	1117.38
495.573	1140.38
495.79	1106.38
496.008	1138.38
496.225	1105.38
496.442	1136.38
496.66	1175.38
496.877	1154.38
497.094	1160.38
497.312	1169.38
497.529	1230.38
497.746	1254.38
