Data from NiCl2@0.5M.TitratingCurve.Agarose3%dH2O.NegLispCup.LampEnergy10.LIBS07252019_HRD10591_18-21-40-572.txt Node
Date: Thu Jul 25 18:21:40 EDT 2019
User: cochatt
Spectrometer: HR+D1059
Trigger mode: 1
Integration Time (sec): 1.000000E-1
Scans to average: 1
Electric dark correction enabled: true
Nonlinearity correction enabled: false
Boxcar width: 0
XAxis mode: Wavelengths
Number of Pixels in Spectrum: 2048
>>>>>Begin Spectral Data<<<<<
223.165	-11.38
223.4	-11.38
223.635	-11.38
223.869	-20.38
224.104	-17.38
224.338	-10.38
224.573	-5.38
224.808	-15.38
225.042	-1.38
225.277	-3.38
225.511	2.62
225.746	7.62
225.98	-1.38
226.215	15.62
226.449	9.62
226.683	18.62
226.918	7.62
227.152	24.62
227.387	35.62
227.621	35.62
227.856	38.62
228.09	48.62
228.324	43.62
228.559	45.62
228.793	66.62
229.027	90.62
229.262	105.62
229.496	105.62
229.73	125.62
229.964	127.62
230.199	127.62
230.433	128.62
230.667	127.62
230.901	123.62
231.136	126.62
231.37	142.62
231.604	123.62
231.838	132.62
232.072	135.62
232.306	137.62
232.541	142.62
232.775	142.62
233.009	138.62
233.243	150.62
233.477	144.62
233.711	130.62
233.945	155.62
234.179	138.62
234.413	155.62
234.647	145.62
234.881	161.62
235.115	152.62
235.349	155.62
235.583	143.62
235.817	150.62
236.051	146.62
236.285	159.62
236.519	135.62
236.753	146.62
236.987	154.62
237.221	158.62
237.455	164.62
237.689	158.62
237.922	153.62
238.156	161.62
238.39	153.62
238.624	167.62
238.858	168.62
239.091	151.62
239.325	167.62
239.559	167.62
239.793	151.62
240.027	163.62
240.26	179.62
240.494	189.62
240.728	194.62
240.961	161.62
241.195	185.62
241.429	202.62
241.662	178.62
241.896	176.62
242.13	187.62
242.363	188.62
242.597	187.62
242.83	194.62
243.064	204.62
243.298	194.62
243.531	186.62
243.765	197.62
243.998	201.62
244.232	206.62
244.465	202.62
244.699	194.62
244.932	203.62
245.166	208.62
245.399	198.62
245.633	218.62
245.866	194.62
246.099	218.62
246.333	214.62
246.566	211.62
246.8	211.62
247.033	212.62
247.266	224.62
247.5	229.62
247.733	191.62
247.966	223.62
248.2	217.62
248.433	232.62
248.666	213.62
248.899	231.62
249.133	219.62
249.366	228.62
249.599	219.62
249.832	234.62
250.066	225.62
250.299	230.62
250.532	240.62
250.765	227.62
250.998	241.62
251.231	242.62
251.465	246.62
251.698	249.62
251.931	241.62
252.164	242.62
252.397	244.62
252.63	254.62
252.863	264.62
253.096	262.62
253.329	268.62
253.562	255.62
253.795	245.62
254.028	256.62
254.261	268.62
254.494	271.62
254.727	280.62
254.96	265.62
255.193	266.62
255.426	275.62
255.659	265.62
255.892	266.62
256.124	276.62
256.357	269.62
256.59	290.62
256.823	276.62
257.056	279.62
257.289	295.62
257.521	289.62
257.754	296.62
257.987	280.62
258.22	292.62
258.452	300.62
258.685	273.62
258.918	290.62
259.151	286.62
259.383	293.62
259.616	303.62
259.849	301.62
260.081	302.62
260.314	307.62
260.547	295.62
260.779	294.62
261.012	308.62
261.244	304.62
261.477	320.62
261.71	328.62
261.942	306.62
262.175	283.62
262.407	307.62
262.64	302.62
262.872	316.62
263.105	308.62
263.337	329.62
263.57	322.62
263.802	325.62
264.035	313.62
264.267	333.62
264.499	321.62
264.732	335.62
264.964	338.62
265.197	303.62
265.429	326.62
265.661	330.62
265.894	331.62
266.126	332.62
266.358	312.62
266.591	340.62
266.823	334.62
267.055	332.62
267.287	350.62
267.52	350.62
267.752	323.62
267.984	356.62
268.216	350.62
268.448	351.62
268.681	343.62
268.913	368.62
269.145	361.62
269.377	365.62
269.609	350.62
269.841	378.62
270.073	350.62
270.306	366.62
270.538	360.62
270.77	352.62
271.002	358.62
271.234	361.62
271.466	369.62
271.698	368.62
271.93	361.62
272.162	372.62
272.394	359.62
272.626	377.62
272.858	386.62
273.09	408.62
273.322	394.62
273.553	362.62
273.785	379.62
274.017	386.62
274.249	396.62
274.481	392.62
274.713	390.62
274.945	378.62
275.176	386.62
275.408	388.62
275.64	406.62
275.872	384.62
276.104	417.62
276.335	409.62
276.567	399.62
276.799	402.62
277.031	384.62
277.262	382.62
277.494	393.62
277.726	396.62
277.957	451.62
278.189	431.62
278.421	428.62
278.652	415.62
278.884	410.62
279.115	397.62
279.347	408.62
279.579	422.62
279.81	427.62
280.042	416.62
280.273	443.62
280.505	438.62
280.736	414.62
280.968	434.62
281.199	438.62
281.431	465.62
281.662	431.62
281.894	431.62
282.125	432.62
282.356	445.62
282.588	451.62
282.819	450.62
283.051	444.62
283.282	441.62
283.513	450.62
283.745	454.62
283.976	471.62
284.207	452.62
284.439	446.62
284.67	457.62
284.901	471.62
285.132	483.62
285.364	465.62
285.595	480.62
285.826	464.62
286.057	494.62
286.288	462.62
286.52	476.62
286.751	488.62
286.982	481.62
287.213	472.62
287.444	486.62
287.675	471.62
287.906	482.62
288.138	481.62
288.369	503.62
288.6	484.62
288.831	502.62
289.062	496.62
289.293	486.62
289.524	498.62
289.755	507.62
289.986	505.62
290.217	523.62
290.448	499.62
290.679	505.62
290.91	501.62
291.141	497.62
291.371	514.62
291.602	507.62
291.833	507.62
292.064	504.62
292.295	517.62
292.526	491.62
292.757	497.62
292.987	512.62
293.218	506.62
293.449	532.62
293.68	506.62
293.91	507.62
294.141	489.62
294.372	510.62
294.603	528.62
294.833	514.62
295.064	529.62
295.295	518.62
295.525	508.62
295.756	529.62
295.987	522.62
296.217	558.62
296.448	501.62
296.679	525.62
296.909	539.62
297.14	521.62
297.37	531.62
297.601	530.62
297.831	528.62
298.062	556.62
298.292	574.62
298.523	578.62
298.753	570.62
298.984	550.62
299.214	566.62
299.445	528.62
299.675	574.62
299.905	540.62
300.136	563.62
300.366	579.62
300.597	575.62
300.827	590.62
301.057	586.62
301.288	588.62
301.518	593.62
301.748	583.62
301.979	575.62
302.209	587.62
302.439	580.62
302.669	571.62
302.9	569.62
303.13	572.62
303.36	591.62
303.59	563.62
303.82	566.62
304.051	581.62
304.281	588.62
304.511	571.62
304.741	586.62
304.971	579.62
305.201	577.62
305.431	586.62
305.661	582.62
305.891	587.62
306.121	585.62
306.352	589.62
306.582	558.62
306.812	554.62
307.042	580.62
307.272	560.62
307.502	586.62
307.731	564.62
307.961	561.62
308.191	590.62
308.421	552.62
308.651	576.62
308.881	565.62
309.111	580.62
309.341	578.62
309.571	555.62
309.8	558.62
310.03	594.62
310.26	572.62
310.49	586.62
310.72	596.62
310.949	578.62
311.179	586.62
311.409	577.62
311.639	615.62
311.868	576.62
312.098	566.62
312.328	600.62
312.557	612.62
312.787	603.62
313.017	598.62
313.246	619.62
313.476	599.62
313.706	621.62
313.935	612.62
314.165	622.62
314.394	602.62
314.624	636.62
314.853	631.62
315.083	623.62
315.312	638.62
315.542	603.62
315.771	602.62
316.001	611.62
316.23	607.62
316.46	612.62
316.689	631.62
316.919	613.62
317.148	602.62
317.377	607.62
317.607	608.62
317.836	620.62
318.065	598.62
318.295	608.62
318.524	605.62
318.753	608.62
318.983	609.62
319.212	603.62
319.441	612.62
319.67	611.62
319.9	616.62
320.129	616.62
320.358	604.62
320.587	601.62
320.816	596.62
321.046	618.62
321.275	633.62
321.504	604.62
321.733	616.62
321.962	617.62
322.191	595.62
322.42	625.62
322.649	623.62
322.878	633.62
323.108	634.62
323.337	645.62
323.566	651.62
323.795	609.62
324.024	628.62
324.253	625.62
324.482	641.62
324.71	644.62
324.939	622.62
325.168	637.62
325.397	659.62
325.626	648.62
325.855	649.62
326.084	666.62
326.313	666.62
326.542	653.62
326.77	675.62
326.999	660.62
327.228	665.62
327.457	667.62
327.686	653.62
327.914	662.62
328.143	666.62
328.372	669.62
328.6	666.62
328.829	651.62
329.058	674.62
329.287	665.62
329.515	682.62
329.744	669.62
329.972	688.62
330.201	680.62
330.43	696.62
330.658	674.62
330.887	695.62
331.115	699.62
331.344	722.62
331.572	710.62
331.801	719.62
332.03	737.62
332.258	730.62
332.486	744.62
332.715	766.62
332.943	817.62
333.172	824.62
333.4	849.62
333.629	882.62
333.857	835.62
334.085	860.62
334.314	840.62
334.542	853.62
334.771	847.62
334.999	843.62
335.227	840.62
335.455	850.62
335.684	823.62
335.912	806.62
336.14	794.62
336.369	803.62
336.597	811.62
336.825	800.62
337.053	793.62
337.281	795.62
337.51	770.62
337.738	750.62
337.966	751.62
338.194	785.62
338.422	745.62
338.65	729.62
338.878	768.62
339.106	760.62
339.334	735.62
339.562	730.62
339.79	709.62
340.018	691.62
340.246	708.62
340.474	695.62
340.702	720.62
340.93	708.62
341.158	711.62
341.386	722.62
341.614	720.62
341.842	714.62
342.07	674.62
342.298	703.62
342.526	705.62
342.754	718.62
342.981	696.62
343.209	727.62
343.437	752.62
343.665	801.62
343.893	842.62
344.12	880.62
344.348	814.62
344.576	789.62
344.804	780.62
345.031	738.62
345.259	746.62
345.487	727.62
345.714	702.62
345.942	717.62
346.17	707.62
346.397	731.62
346.625	706.62
346.853	659.62
347.08	653.62
347.308	689.62
347.535	695.62
347.763	674.62
347.99	676.62
348.218	684.62
348.445	642.62
348.673	658.62
348.9	674.62
349.128	679.62
349.355	676.62
349.583	698.62
349.81	656.62
350.037	651.62
350.265	646.62
350.492	660.62
350.72	638.62
350.947	640.62
351.174	649.62
351.402	665.62
351.629	689.62
351.856	666.62
352.083	660.62
352.311	667.62
352.538	666.62
352.765	673.62
352.992	663.62
353.22	636.62
353.447	616.62
353.674	619.62
353.901	658.62
354.128	625.62
354.355	663.62
354.583	650.62
354.81	648.62
355.037	641.62
355.264	618.62
355.491	642.62
355.718	656.62
355.945	657.62
356.172	637.62
356.399	660.62
356.626	658.62
356.853	671.62
357.08	615.62
357.307	630.62
357.534	652.62
357.761	620.62
357.988	652.62
358.215	647.62
358.441	644.62
358.668	623.62
358.895	664.62
359.122	656.62
359.349	621.62
359.576	633.62
359.802	628.62
360.029	642.62
360.256	646.62
360.483	649.62
360.709	624.62
360.936	646.62
361.163	627.62
361.39	656.62
361.616	629.62
361.843	626.62
362.07	656.62
362.296	674.62
362.523	651.62
362.749	632.62
362.976	640.62
363.203	635.62
363.429	623.62
363.656	645.62
363.882	630.62
364.109	656.62
364.335	629.62
364.562	618.62
364.788	637.62
365.015	632.62
365.241	616.62
365.468	646.62
365.694	639.62
365.92	632.62
366.147	652.62
366.373	620.62
366.599	644.62
366.826	635.62
367.052	638.62
367.278	639.62
367.505	627.62
367.731	656.62
367.957	625.62
368.184	634.62
368.41	640.62
368.636	642.62
368.862	636.62
369.089	652.62
369.315	644.62
369.541	676.62
369.767	662.62
369.993	674.62
370.219	658.62
370.445	651.62
370.672	664.62
370.898	700.62
371.124	707.62
371.35	687.62
371.576	694.62
371.802	681.62
372.028	697.62
372.254	689.62
372.48	688.62
372.706	708.62
372.932	706.62
373.158	676.62
373.384	683.62
373.61	674.62
373.835	696.62
374.061	718.62
374.287	708.62
374.513	705.62
374.739	717.62
374.965	721.62
375.191	762.62
375.416	754.62
375.642	719.62
375.868	723.62
376.094	706.62
376.319	707.62
376.545	681.62
376.771	673.62
376.997	671.62
377.222	659.62
377.448	680.62
377.674	694.62
377.899	647.62
378.125	676.62
378.35	665.62
378.576	656.62
378.802	663.62
379.027	681.62
379.253	674.62
379.478	667.62
379.704	659.62
379.929	685.62
380.155	674.62
380.38	673.62
380.606	675.62
380.831	671.62
381.057	675.62
381.282	664.62
381.507	687.62
381.733	683.62
381.958	692.62
382.184	675.62
382.409	697.62
382.634	727.62
382.86	692.62
383.085	707.62
383.31	720.62
383.535	740.62
383.761	716.62
383.986	779.62
384.211	766.62
384.436	768.62
384.662	769.62
384.887	798.62
385.112	781.62
385.337	773.62
385.562	787.62
385.787	818.62
386.013	808.62
386.238	809.62
386.463	793.62
386.688	816.62
386.913	806.62
387.138	792.62
387.363	793.62
387.588	799.62
387.813	798.62
388.038	785.62
388.263	828.62
388.488	775.62
388.713	772.62
388.938	788.62
389.163	782.62
389.387	750.62
389.612	784.62
389.837	802.62
390.062	765.62
390.287	800.62
390.512	793.62
390.736	776.62
390.961	790.62
391.186	824.62
391.411	860.62
391.636	885.62
391.86	886.62
392.085	866.62
392.31	890.62
392.534	877.62
392.759	869.62
392.984	855.62
393.208	849.62
393.433	854.62
393.658	840.62
393.882	858.62
394.107	856.62
394.331	848.62
394.556	849.62
394.78	857.62
395.005	870.62
395.229	837.62
395.454	904.62
395.678	888.62
395.903	899.62
396.127	890.62
396.352	858.62
396.576	848.62
396.801	836.62
397.025	852.62
397.249	884.62
397.474	908.62
397.698	915.62
397.922	889.62
398.147	922.62
398.371	916.62
398.595	966.62
398.82	980.62
399.044	1052.62
399.268	1126.62
399.492	1272.62
399.717	1411.62
399.941	1414.62
400.165	1319.62
400.389	1210.62
400.613	1109.62
400.837	1065.62
401.062	1050.62
401.286	1022.62
401.51	1009.62
401.734	1017.62
401.958	1012.62
402.182	1038.62
402.406	1010.62
402.63	1047.62
402.854	1067.62
403.078	1086.62
403.302	1088.62
403.526	1108.62
403.75	1124.62
403.974	1104.62
404.198	1136.62
404.422	1100.62
404.645	1116.62
404.869	1134.62
405.093	1106.62
405.317	1116.62
405.541	1098.62
405.765	1086.62
405.988	1080.62
406.212	1093.62
406.436	1082.62
406.66	1138.62
406.883	1137.62
407.107	1161.62
407.331	1221.62
407.555	1270.62
407.778	1255.62
408.002	1232.62
408.226	1202.62
408.449	1214.62
408.673	1146.62
408.896	1144.62
409.12	1122.62
409.344	1152.62
409.567	1112.62
409.791	1142.62
410.014	1139.62
410.238	1120.62
410.461	1100.62
410.685	1126.62
410.908	1062.62
411.132	1049.62
411.355	1021.62
411.578	1026.62
411.802	1043.62
412.025	1054.62
412.249	1080.62
412.472	1060.62
412.695	1022.62
412.919	1036.62
413.142	1023.62
413.365	991.62
413.589	1020.62
413.812	990.62
414.035	998.62
414.258	1015.62
414.482	1019.62
414.705	1014.62
414.928	1040.62
415.151	1035.62
415.374	1036.62
415.597	1002.62
415.821	1014.62
416.044	995.62
416.267	955.62
416.49	961.62
416.713	980.62
416.936	993.62
417.159	973.62
417.382	989.62
417.605	990.62
417.828	996.62
418.051	993.62
418.274	1012.62
418.497	984.62
418.72	1013.62
418.943	1025.62
419.166	1076.62
419.389	1142.62
419.611	1105.62
419.834	1056.62
420.057	1045.62
420.28	988.62
420.503	980.62
420.726	990.62
420.948	971.62
421.171	991.62
421.394	994.62
421.617	982.62
421.839	1009.62
422.062	984.62
422.285	962.62
422.507	1004.62
422.73	1006.62
422.953	1006.62
423.175	1035.62
423.398	1017.62
423.621	1026.62
423.843	1061.62
424.066	1048.62
424.288	1068.62
424.511	1058.62
424.733	1037.62
424.956	1014.62
425.178	1018.62
425.401	1002.62
425.623	1023.62
425.846	990.62
426.068	966.62
426.291	978.62
426.513	932.62
426.735	947.62
426.958	955.62
427.18	923.62
427.402	932.62
427.625	941.62
427.847	923.62
428.069	936.62
428.292	924.62
428.514	928.62
428.736	915.62
428.958	901.62
429.181	869.62
429.403	867.62
429.625	867.62
429.847	887.62
430.069	866.62
430.292	910.62
430.514	871.62
430.736	886.62
430.958	875.62
431.18	899.62
431.402	912.62
431.624	888.62
431.846	923.62
432.068	923.62
432.29	923.62
432.512	898.62
432.734	933.62
432.956	897.62
433.178	927.62
433.4	919.62
433.622	913.62
433.844	954.62
434.066	932.62
434.287	931.62
434.509	945.62
434.731	1000.62
434.953	981.62
435.175	992.62
435.397	995.62
435.618	946.62
435.84	956.62
436.062	932.62
436.284	914.62
436.505	902.62
436.727	906.62
436.949	916.62
437.17	922.62
437.392	886.62
437.614	911.62
437.835	882.62
438.057	887.62
438.278	872.62
438.5	855.62
438.721	853.62
438.943	857.62
439.165	887.62
439.386	888.62
439.608	897.62
439.829	913.62
440.05	909.62
440.272	953.62
440.493	921.62
440.715	923.62
440.936	945.62
441.158	944.62
441.379	969.62
441.6	1023.62
441.822	1052.62
442.043	1029.62
442.264	1024.62
442.486	994.62
442.707	1018.62
442.928	1016.62
443.149	1021.62
443.371	981.62
443.592	998.62
443.813	1052.62
444.034	1022.62
444.255	1060.62
444.476	1111.62
444.698	1181.62
444.919	1221.62
445.14	1202.62
445.361	1118.62
445.582	1070.62
445.803	991.62
446.024	984.62
446.245	963.62
446.466	961.62
446.687	938.62
446.908	950.62
447.129	892.62
447.35	912.62
447.571	908.62
447.792	885.62
448.013	890.62
448.234	882.62
448.455	859.62
448.675	879.62
448.896	834.62
449.117	873.62
449.338	833.62
449.559	838.62
449.779	855.62
450	819.62
450.221	855.62
450.442	866.62
450.662	859.62
450.883	867.62
451.104	897.62
451.324	868.62
451.545	839.62
451.766	858.62
451.986	859.62
452.207	822.62
452.428	834.62
452.648	858.62
452.869	835.62
453.089	842.62
453.31	819.62
453.53	837.62
453.751	816.62
453.971	818.62
454.192	819.62
454.412	815.62
454.633	835.62
454.853	801.62
455.073	809.62
455.294	817.62
455.514	794.62
455.734	817.62
455.955	790.62
456.175	802.62
456.395	775.62
456.616	775.62
456.836	799.62
457.056	805.62
457.276	788.62
457.497	796.62
457.717	804.62
457.937	814.62
458.157	801.62
458.377	855.62
458.598	845.62
458.818	884.62
459.038	870.62
459.258	916.62
459.478	950.62
459.698	967.62
459.918	981.62
460.138	1019.62
460.358	1045.62
460.578	1041.62
460.798	1086.62
461.018	1096.62
461.238	1063.62
461.458	1107.62
461.678	1098.62
461.898	1090.62
462.118	1091.62
462.338	1159.62
462.558	1201.62
462.777	1246.62
462.997	1323.62
463.217	1400.62
463.437	1404.62
463.657	1306.62
463.876	1294.62
464.096	1246.62
464.316	1242.62
464.536	1254.62
464.755	1222.62
464.975	1165.62
465.195	1119.62
465.414	1089.62
465.634	1006.62
465.854	992.62
466.073	957.62
466.293	971.62
466.512	931.62
466.732	894.62
466.951	912.62
467.171	920.62
467.391	909.62
467.61	908.62
467.829	894.62
468.049	889.62
468.268	871.62
468.488	878.62
468.707	859.62
468.927	891.62
469.146	876.62
469.365	884.62
469.585	856.62
469.804	884.62
470.023	925.62
470.243	938.62
470.462	920.62
470.681	906.62
470.901	891.62
471.12	890.62
471.339	911.62
471.558	890.62
471.777	889.62
471.997	884.62
472.216	867.62
472.435	846.62
472.654	856.62
472.873	845.62
473.092	857.62
473.311	835.62
473.53	840.62
473.749	826.62
473.968	844.62
474.187	832.62
474.406	850.62
474.625	867.62
474.844	856.62
475.063	850.62
475.282	840.62
475.501	859.62
475.72	871.62
475.939	882.62
476.158	866.62
476.377	889.62
476.596	879.62
476.814	913.62
477.033	894.62
477.252	946.62
477.471	943.62
477.69	958.62
477.908	978.62
478.127	986.62
478.346	985.62
478.564	1011.62
478.783	1014.62
479.002	1073.62
479.22	1081.62
479.439	1052.62
479.658	1056.62
479.876	1075.62
480.095	1058.62
480.313	1094.62
480.532	1127.62
480.751	1121.62
480.969	1066.62
481.188	1035.62
481.406	1037.62
481.624	1008.62
481.843	1026.62
482.061	985.62
482.28	985.62
482.498	969.62
482.717	956.62
482.935	983.62
483.153	950.62
483.372	1011.62
483.59	988.62
483.808	971.62
484.027	976.62
484.245	994.62
484.463	987.62
484.681	1010.62
484.9	1012.62
485.118	1000.62
485.336	1001.62
485.554	1026.62
485.772	1044.62
485.99	1012.62
486.209	1003.62
486.427	993.62
486.645	1026.62
486.863	1020.62
487.081	1034.62
487.299	1015.62
487.517	1006.62
487.735	1020.62
487.953	1051.62
488.171	1034.62
488.389	1004.62
488.607	1049.62
488.825	1008.62
489.043	1003.62
489.261	1000.62
489.479	983.62
489.696	995.62
489.914	1003.62
490.132	1024.62
490.35	1025.62
490.568	1034.62
490.786	1030.62
491.003	1043.62
491.221	1054.62
491.439	1058.62
491.657	1033.62
491.874	1061.62
492.092	1039.62
492.31	1029.62
492.527	1084.62
492.745	1061.62
492.963	1096.62
493.18	1065.62
493.398	1093.62
493.615	1062.62
493.833	1067.62
494.05	1070.62
494.268	1075.62
494.485	1112.62
494.703	1131.62
494.92	1055.62
495.138	1098.62
495.355	1121.62
495.573	1101.62
495.79	1113.62
496.008	1118.62
496.225	1134.62
496.442	1125.62
496.66	1127.62
496.877	1156.62
497.094	1150.62
497.312	1209.62
497.529	1233.62
497.746	1226.62
497.963	1294.62
498.181	1313.62
498.398	1386.62
498.615	1446.62
