Data from NiCl2@0.5M.TitratingCurve.Agarose3%dH2O.NegLispCup.LampEnergy10.LIBS07252019_HRD10591_18-19-38-574.txt Node
Date: Thu Jul 25 18:19:38 EDT 2019
User: cochatt
Spectrometer: HR+D1059
Trigger mode: 1
Integration Time (sec): 1.000000E-1
Scans to average: 1
Electric dark correction enabled: true
Nonlinearity correction enabled: false
Boxcar width: 0
XAxis mode: Wavelengths
Number of Pixels in Spectrum: 2048
>>>>>Begin Spectral Data<<<<<
223.165	-24.81
223.4	-24.81
223.635	-24.81
223.869	-12.81
224.104	-22.81
224.338	-16.81
224.573	-22.81
224.808	-12.81
225.042	-3.81
225.277	-4.81
225.511	-5.81
225.746	17.19
225.98	-1.81
226.215	9.19
226.449	25.19
226.683	16.19
226.918	24.19
227.152	37.19
227.387	49.19
227.621	35.19
227.856	54.19
228.09	43.19
228.324	50.19
228.559	54.19
228.793	52.19
229.027	119.19
229.262	126.19
229.496	115.19
229.73	122.19
229.964	124.19
230.199	126.19
230.433	146.19
230.667	136.19
230.901	132.19
231.136	141.19
231.37	134.19
231.604	140.19
231.838	144.19
232.072	141.19
232.306	160.19
232.541	139.19
232.775	158.19
233.009	137.19
233.243	154.19
233.477	162.19
233.711	134.19
233.945	144.19
234.179	150.19
234.413	146.19
234.647	151.19
234.881	158.19
235.115	150.19
235.349	151.19
235.583	170.19
235.817	145.19
236.051	161.19
236.285	148.19
236.519	135.19
236.753	161.19
236.987	164.19
237.221	152.19
237.455	160.19
237.689	161.19
237.922	169.19
238.156	160.19
238.39	178.19
238.624	162.19
238.858	184.19
239.091	189.19
239.325	176.19
239.559	174.19
239.793	175.19
240.027	184.19
240.26	191.19
240.494	195.19
240.728	177.19
240.961	199.19
241.195	200.19
241.429	200.19
241.662	212.19
241.896	206.19
242.13	212.19
242.363	201.19
242.597	218.19
242.83	203.19
243.064	206.19
243.298	189.19
243.531	213.19
243.765	211.19
243.998	232.19
244.232	211.19
244.465	229.19
244.699	232.19
244.932	222.19
245.166	234.19
245.399	220.19
245.633	214.19
245.866	227.19
246.099	230.19
246.333	227.19
246.566	240.19
246.8	238.19
247.033	232.19
247.266	256.19
247.5	212.19
247.733	243.19
247.966	249.19
248.2	243.19
248.433	239.19
248.666	246.19
248.899	268.19
249.133	243.19
249.366	257.19
249.599	245.19
249.832	259.19
250.066	273.19
250.299	251.19
250.532	264.19
250.765	266.19
250.998	259.19
251.231	267.19
251.465	264.19
251.698	275.19
251.931	263.19
252.164	278.19
252.397	272.19
252.63	270.19
252.863	287.19
253.096	295.19
253.329	283.19
253.562	308.19
253.795	274.19
254.028	294.19
254.261	284.19
254.494	296.19
254.727	284.19
254.96	290.19
255.193	282.19
255.426	314.19
255.659	298.19
255.892	314.19
256.124	299.19
256.357	323.19
256.59	315.19
256.823	314.19
257.056	297.19
257.289	318.19
257.521	333.19
257.754	327.19
257.987	330.19
258.22	304.19
258.452	329.19
258.685	313.19
258.918	321.19
259.151	329.19
259.383	340.19
259.616	338.19
259.849	333.19
260.081	342.19
260.314	328.19
260.547	329.19
260.779	342.19
261.012	340.19
261.244	351.19
261.477	351.19
261.71	353.19
261.942	351.19
262.175	343.19
262.407	348.19
262.64	340.19
262.872	353.19
263.105	354.19
263.337	349.19
263.57	364.19
263.802	385.19
264.035	357.19
264.267	342.19
264.499	366.19
264.732	368.19
264.964	370.19
265.197	371.19
265.429	380.19
265.661	366.19
265.894	368.19
266.126	369.19
266.358	388.19
266.591	378.19
266.823	368.19
267.055	395.19
267.287	377.19
267.52	388.19
267.752	378.19
267.984	383.19
268.216	396.19
268.448	382.19
268.681	384.19
268.913	387.19
269.145	390.19
269.377	390.19
269.609	401.19
269.841	408.19
270.073	396.19
270.306	402.19
270.538	389.19
270.77	417.19
271.002	407.19
271.234	391.19
271.466	422.19
271.698	418.19
271.93	404.19
272.162	411.19
272.394	433.19
272.626	425.19
272.858	421.19
273.09	418.19
273.322	419.19
273.553	443.19
273.785	432.19
274.017	427.19
274.249	451.19
274.481	452.19
274.713	430.19
274.945	438.19
275.176	450.19
275.408	443.19
275.64	445.19
275.872	450.19
276.104	466.19
276.335	462.19
276.567	440.19
276.799	462.19
277.031	455.19
277.262	454.19
277.494	466.19
277.726	455.19
277.957	456.19
278.189	451.19
278.421	445.19
278.652	466.19
278.884	474.19
279.115	474.19
279.347	488.19
279.579	475.19
279.81	471.19
280.042	483.19
280.273	508.19
280.505	460.19
280.736	490.19
280.968	497.19
281.199	512.19
281.431	498.19
281.662	488.19
281.894	514.19
282.125	496.19
282.356	510.19
282.588	501.19
282.819	489.19
283.051	510.19
283.282	524.19
283.513	530.19
283.745	489.19
283.976	516.19
284.207	515.19
284.439	530.19
284.67	537.19
284.901	533.19
285.132	528.19
285.364	525.19
285.595	530.19
285.826	524.19
286.057	528.19
286.288	524.19
286.52	560.19
286.751	526.19
286.982	553.19
287.213	546.19
287.444	535.19
287.675	549.19
287.906	553.19
288.138	575.19
288.369	558.19
288.6	572.19
288.831	564.19
289.062	572.19
289.293	590.19
289.524	579.19
289.755	561.19
289.986	569.19
290.217	580.19
290.448	583.19
290.679	626.19
290.91	566.19
291.141	574.19
291.371	578.19
291.602	572.19
291.833	587.19
292.064	588.19
292.295	570.19
292.526	606.19
292.757	570.19
292.987	584.19
293.218	578.19
293.449	596.19
293.68	600.19
293.91	608.19
294.141	579.19
294.372	580.19
294.603	578.19
294.833	589.19
295.064	566.19
295.295	589.19
295.525	584.19
295.756	584.19
295.987	571.19
296.217	607.19
296.448	596.19
296.679	596.19
296.909	600.19
297.14	604.19
297.37	603.19
297.601	611.19
297.831	608.19
298.062	620.19
298.292	626.19
298.523	629.19
298.753	630.19
298.984	635.19
299.214	628.19
299.445	624.19
299.675	601.19
299.905	642.19
300.136	664.19
300.366	654.19
300.597	667.19
300.827	651.19
301.057	656.19
301.288	689.19
301.518	706.19
301.748	664.19
301.979	669.19
302.209	674.19
302.439	641.19
302.669	663.19
302.9	664.19
303.13	660.19
303.36	650.19
303.59	660.19
303.82	654.19
304.051	664.19
304.281	650.19
304.511	652.19
304.741	670.19
304.971	654.19
305.201	644.19
305.431	666.19
305.661	678.19
305.891	686.19
306.121	690.19
306.352	643.19
306.582	640.19
306.812	653.19
307.042	650.19
307.272	641.19
307.502	640.19
307.731	650.19
307.961	673.19
308.191	636.19
308.421	663.19
308.651	658.19
308.881	674.19
309.111	652.19
309.341	637.19
309.571	662.19
309.8	668.19
310.03	675.19
310.26	677.19
310.49	676.19
310.72	657.19
310.949	665.19
311.179	672.19
311.409	686.19
311.639	691.19
311.868	667.19
312.098	694.19
312.328	698.19
312.557	696.19
312.787	690.19
313.017	699.19
313.246	706.19
313.476	733.19
313.706	716.19
313.935	719.19
314.165	713.19
314.394	715.19
314.624	716.19
314.853	699.19
315.083	699.19
315.312	718.19
315.542	695.19
315.771	711.19
316.001	702.19
316.23	708.19
316.46	708.19
316.689	723.19
316.919	721.19
317.148	721.19
317.377	709.19
317.607	682.19
317.836	686.19
318.065	700.19
318.295	712.19
318.524	713.19
318.753	694.19
318.983	709.19
319.212	719.19
319.441	707.19
319.67	711.19
319.9	702.19
320.129	712.19
320.358	699.19
320.587	694.19
320.816	700.19
321.046	719.19
321.275	684.19
321.504	700.19
321.733	712.19
321.962	699.19
322.191	726.19
322.42	732.19
322.649	721.19
322.878	728.19
323.108	703.19
323.337	717.19
323.566	736.19
323.795	702.19
324.024	743.19
324.253	746.19
324.482	735.19
324.71	735.19
324.939	743.19
325.168	755.19
325.397	742.19
325.626	752.19
325.855	746.19
326.084	780.19
326.313	766.19
326.542	780.19
326.77	811.19
326.999	767.19
327.228	745.19
327.457	759.19
327.686	786.19
327.914	762.19
328.143	798.19
328.372	784.19
328.6	795.19
328.829	773.19
329.058	777.19
329.287	758.19
329.515	795.19
329.744	772.19
329.972	775.19
330.201	821.19
330.43	787.19
330.658	800.19
330.887	790.19
331.115	824.19
331.344	821.19
331.572	819.19
331.801	864.19
332.03	876.19
332.258	884.19
332.486	890.19
332.715	895.19
332.943	918.19
333.172	955.19
333.4	994.19
333.629	1024.19
333.857	1018.19
334.085	1029.19
334.314	1004.19
334.542	963.19
334.771	976.19
334.999	946.19
335.227	963.19
335.455	950.19
335.684	932.19
335.912	933.19
336.14	919.19
336.369	928.19
336.597	957.19
336.825	945.19
337.053	947.19
337.281	923.19
337.51	872.19
337.738	908.19
337.966	875.19
338.194	897.19
338.422	886.19
338.65	863.19
338.878	852.19
339.106	856.19
339.334	865.19
339.562	840.19
339.79	807.19
340.018	825.19
340.246	804.19
340.474	805.19
340.702	825.19
340.93	846.19
341.158	846.19
341.386	839.19
341.614	841.19
341.842	853.19
342.07	816.19
342.298	790.19
342.526	806.19
342.754	794.19
342.981	825.19
343.209	826.19
343.437	883.19
343.665	920.19
343.893	938.19
344.12	987.19
344.348	953.19
344.576	909.19
344.804	883.19
345.031	841.19
345.259	829.19
345.487	845.19
345.714	810.19
345.942	790.19
346.17	865.19
346.397	798.19
346.625	776.19
346.853	744.19
347.08	792.19
347.308	777.19
347.535	825.19
347.763	772.19
347.99	788.19
348.218	764.19
348.445	768.19
348.673	764.19
348.9	770.19
349.128	768.19
349.355	786.19
349.583	761.19
349.81	765.19
350.037	748.19
350.265	743.19
350.492	774.19
350.72	746.19
350.947	746.19
351.174	781.19
351.402	768.19
351.629	766.19
351.856	786.19
352.083	765.19
352.311	770.19
352.538	773.19
352.765	785.19
352.992	744.19
353.22	731.19
353.447	709.19
353.674	720.19
353.901	726.19
354.128	732.19
354.355	744.19
354.583	724.19
354.81	761.19
355.037	792.19
355.264	758.19
355.491	729.19
355.718	714.19
355.945	739.19
356.172	774.19
356.399	756.19
356.626	770.19
356.853	781.19
357.08	778.19
357.307	754.19
357.534	755.19
357.761	738.19
357.988	730.19
358.215	726.19
358.441	729.19
358.668	751.19
358.895	746.19
359.122	744.19
359.349	740.19
359.576	727.19
359.802	738.19
360.029	721.19
360.256	740.19
360.483	745.19
360.709	728.19
360.936	748.19
361.163	727.19
361.39	751.19
361.616	737.19
361.843	763.19
362.07	771.19
362.296	759.19
362.523	746.19
362.749	760.19
362.976	734.19
363.203	735.19
363.429	713.19
363.656	715.19
363.882	726.19
364.109	746.19
364.335	719.19
364.562	707.19
364.788	697.19
365.015	717.19
365.241	725.19
365.468	719.19
365.694	706.19
365.92	708.19
366.147	715.19
366.373	726.19
366.599	722.19
366.826	716.19
367.052	722.19
367.278	722.19
367.505	722.19
367.731	747.19
367.957	738.19
368.184	736.19
368.41	754.19
368.636	726.19
368.862	729.19
369.089	756.19
369.315	746.19
369.541	751.19
369.767	754.19
369.993	737.19
370.219	734.19
370.445	778.19
370.672	767.19
370.898	751.19
371.124	782.19
371.35	769.19
371.576	769.19
371.802	762.19
372.028	781.19
372.254	791.19
372.48	833.19
372.706	817.19
372.932	796.19
373.158	816.19
373.384	783.19
373.61	780.19
373.835	796.19
374.061	788.19
374.287	803.19
374.513	820.19
374.739	830.19
374.965	847.19
375.191	844.19
375.416	865.19
375.642	832.19
375.868	841.19
376.094	823.19
376.319	780.19
376.545	797.19
376.771	795.19
376.997	774.19
377.222	772.19
377.448	768.19
377.674	789.19
377.899	769.19
378.125	770.19
378.35	776.19
378.576	756.19
378.802	770.19
379.027	774.19
379.253	771.19
379.478	763.19
379.704	754.19
379.929	768.19
380.155	732.19
380.38	758.19
380.606	759.19
380.831	774.19
381.057	783.19
381.282	773.19
381.507	778.19
381.733	792.19
381.958	772.19
382.184	766.19
382.409	786.19
382.634	782.19
382.86	778.19
383.085	820.19
383.31	823.19
383.535	834.19
383.761	844.19
383.986	842.19
384.211	863.19
384.436	888.19
384.662	878.19
384.887	924.19
385.112	914.19
385.337	893.19
385.562	898.19
385.787	907.19
386.013	936.19
386.238	951.19
386.463	916.19
386.688	920.19
386.913	894.19
387.138	920.19
387.363	959.19
387.588	883.19
387.813	898.19
388.038	886.19
388.263	917.19
388.488	913.19
388.713	881.19
388.938	908.19
389.163	885.19
389.387	863.19
389.612	883.19
389.837	879.19
390.062	876.19
390.287	920.19
390.512	896.19
390.736	898.19
390.961	936.19
391.186	925.19
391.411	960.19
391.636	1019.19
391.86	1004.19
392.085	1026.19
392.31	1022.19
392.534	1018.19
392.759	992.19
392.984	958.19
393.208	944.19
393.433	960.19
393.658	971.19
393.882	969.19
394.107	966.19
394.331	980.19
394.556	996.19
394.78	960.19
395.005	991.19
395.229	998.19
395.454	1028.19
395.678	1032.19
395.903	1052.19
396.127	992.19
396.352	975.19
396.576	963.19
396.801	958.19
397.025	984.19
397.249	1003.19
397.474	1043.19
397.698	979.19
397.922	1030.19
398.147	1029.19
398.371	1049.19
398.595	1084.19
398.82	1116.19
399.044	1176.19
399.268	1335.19
399.492	1528.19
399.717	1718.19
399.941	1678.19
400.165	1525.19
400.389	1383.19
400.613	1256.19
400.837	1189.19
401.062	1202.19
401.286	1128.19
401.51	1174.19
401.734	1136.19
401.958	1146.19
402.182	1167.19
402.406	1198.19
402.63	1182.19
402.854	1188.19
403.078	1220.19
403.302	1265.19
403.526	1274.19
403.75	1289.19
403.974	1323.19
404.198	1309.19
404.422	1316.19
404.645	1304.19
404.869	1270.19
405.093	1283.19
405.317	1242.19
405.541	1255.19
405.765	1234.19
405.988	1248.19
406.212	1260.19
406.436	1264.19
406.66	1291.19
406.883	1298.19
407.107	1375.19
407.331	1429.19
407.555	1505.19
407.778	1468.19
408.002	1466.19
408.226	1385.19
408.449	1396.19
408.673	1352.19
408.896	1314.19
409.12	1304.19
409.344	1296.19
409.567	1264.19
409.791	1295.19
410.014	1255.19
410.238	1289.19
410.461	1308.19
410.685	1265.19
410.908	1269.19
411.132	1248.19
411.355	1167.19
411.578	1175.19
411.802	1179.19
412.025	1201.19
412.249	1228.19
412.472	1223.19
412.695	1202.19
412.919	1142.19
413.142	1158.19
413.365	1164.19
413.589	1174.19
413.812	1131.19
414.035	1134.19
414.258	1138.19
414.482	1139.19
414.705	1160.19
414.928	1178.19
415.151	1185.19
415.374	1168.19
415.597	1146.19
415.821	1112.19
416.044	1131.19
416.267	1128.19
416.49	1138.19
416.713	1137.19
416.936	1123.19
417.159	1101.19
417.382	1125.19
417.605	1103.19
417.828	1177.19
418.051	1168.19
418.274	1174.19
418.497	1164.19
418.72	1147.19
418.943	1180.19
419.166	1262.19
419.389	1300.19
419.611	1277.19
419.834	1235.19
420.057	1198.19
420.28	1187.19
420.503	1155.19
420.726	1151.19
420.948	1137.19
421.171	1135.19
421.394	1154.19
421.617	1137.19
421.839	1158.19
422.062	1156.19
422.285	1155.19
422.507	1188.19
422.73	1191.19
422.953	1208.19
423.175	1220.19
423.398	1201.19
423.621	1186.19
423.843	1259.19
424.066	1204.19
424.288	1189.19
424.511	1231.19
424.733	1164.19
424.956	1192.19
425.178	1168.19
425.401	1180.19
425.623	1127.19
425.846	1132.19
426.068	1113.19
426.291	1127.19
426.513	1108.19
426.735	1082.19
426.958	1078.19
427.18	1040.19
427.402	1048.19
427.625	1063.19
427.847	1033.19
428.069	1037.19
428.292	1073.19
428.514	1038.19
428.736	1075.19
428.958	1046.19
429.181	1059.19
429.403	1021.19
429.625	1019.19
429.847	1011.19
430.069	1037.19
430.292	1026.19
430.514	1022.19
430.736	1025.19
430.958	1052.19
431.18	1031.19
431.402	1019.19
431.624	1019.19
431.846	1024.19
432.068	1043.19
432.29	1068.19
432.512	1048.19
432.734	1055.19
432.956	1019.19
433.178	1064.19
433.4	1067.19
433.622	1078.19
433.844	1072.19
434.066	1071.19
434.287	1091.19
434.509	1124.19
434.731	1162.19
434.953	1172.19
435.175	1182.19
435.397	1161.19
435.618	1106.19
435.84	1067.19
436.062	1036.19
436.284	1079.19
436.505	1072.19
436.727	1062.19
436.949	1056.19
437.17	1063.19
437.392	1037.19
437.614	1032.19
437.835	997.19
438.057	1026.19
438.278	1017.19
438.5	1015.19
438.721	1003.19
438.943	1043.19
439.165	1025.19
439.386	1024.19
439.608	1046.19
439.829	1046.19
440.05	1082.19
440.272	1064.19
440.493	1066.19
440.715	1082.19
440.936	1094.19
441.158	1098.19
441.379	1129.19
441.6	1150.19
441.822	1164.19
442.043	1163.19
442.264	1169.19
442.486	1138.19
442.707	1181.19
442.928	1163.19
443.149	1172.19
443.371	1155.19
443.592	1201.19
443.813	1200.19
444.034	1215.19
444.255	1276.19
444.476	1306.19
444.698	1353.19
444.919	1398.19
445.14	1491.19
445.361	1331.19
445.582	1246.19
445.803	1183.19
446.024	1131.19
446.245	1123.19
446.466	1105.19
446.687	1119.19
446.908	1082.19
447.129	1067.19
447.35	1048.19
447.571	1013.19
447.792	997.19
448.013	998.19
448.234	1001.19
448.455	990.19
448.675	954.19
448.896	983.19
449.117	946.19
449.338	940.19
449.559	962.19
449.779	961.19
450	966.19
450.221	963.19
450.442	959.19
450.662	970.19
450.883	967.19
451.104	1027.19
451.324	1003.19
451.545	980.19
451.766	987.19
451.986	964.19
452.207	966.19
452.428	950.19
452.648	975.19
452.869	948.19
453.089	958.19
453.31	965.19
453.53	932.19
453.751	949.19
453.971	952.19
454.192	930.19
454.412	923.19
454.633	909.19
454.853	926.19
455.073	934.19
455.294	938.19
455.514	908.19
455.734	924.19
455.955	904.19
456.175	919.19
456.395	891.19
456.616	930.19
456.836	919.19
457.056	917.19
457.276	906.19
457.497	917.19
457.717	914.19
457.937	928.19
458.157	956.19
458.377	963.19
458.598	975.19
458.818	972.19
459.038	1008.19
459.258	1008.19
459.478	1086.19
459.698	1093.19
459.918	1143.19
460.138	1170.19
460.358	1216.19
460.578	1188.19
460.798	1228.19
461.018	1284.19
461.238	1247.19
461.458	1247.19
461.678	1240.19
461.898	1269.19
462.118	1280.19
462.338	1299.19
462.558	1394.19
462.777	1408.19
462.997	1541.19
463.217	1640.19
463.437	1627.19
463.657	1502.19
463.876	1467.19
464.096	1452.19
464.316	1442.19
464.536	1426.19
464.755	1410.19
464.975	1323.19
465.195	1290.19
465.414	1234.19
465.634	1123.19
465.854	1165.19
466.073	1101.19
466.293	1078.19
466.512	1038.19
466.732	1053.19
466.951	1042.19
467.171	1019.19
467.391	1016.19
467.61	1002.19
467.829	1038.19
468.049	1036.19
468.268	992.19
468.488	985.19
468.707	983.19
468.927	1009.19
469.146	975.19
469.365	978.19
469.585	1029.19
469.804	1027.19
470.023	1057.19
470.243	1051.19
470.462	1078.19
470.681	1060.19
470.901	1065.19
471.12	1080.19
471.339	1049.19
471.558	990.19
471.777	1031.19
471.997	1010.19
472.216	993.19
472.435	1027.19
472.654	986.19
472.873	956.19
473.092	981.19
473.311	970.19
473.53	947.19
473.749	975.19
473.968	996.19
474.187	984.19
474.406	956.19
474.625	967.19
474.844	969.19
475.063	982.19
475.282	987.19
475.501	990.19
475.72	1008.19
475.939	1004.19
476.158	1022.19
476.377	1024.19
476.596	1007.19
476.814	1048.19
477.033	1011.19
477.252	1045.19
477.471	1086.19
477.69	1086.19
477.908	1119.19
478.127	1154.19
478.346	1161.19
478.564	1194.19
478.783	1190.19
479.002	1224.19
479.22	1238.19
479.439	1253.19
479.658	1250.19
479.876	1208.19
480.095	1252.19
480.313	1307.19
480.532	1346.19
480.751	1267.19
480.969	1249.19
481.188	1208.19
481.406	1200.19
481.624	1161.19
481.843	1142.19
482.061	1144.19
482.28	1139.19
482.498	1138.19
482.717	1121.19
482.935	1146.19
483.153	1150.19
483.372	1152.19
483.59	1174.19
483.808	1158.19
484.027	1121.19
484.245	1150.19
484.463	1150.19
484.681	1156.19
484.9	1178.19
485.118	1222.19
485.336	1168.19
485.554	1212.19
485.772	1161.19
485.99	1184.19
486.209	1180.19
486.427	1217.19
486.645	1162.19
486.863	1221.19
487.081	1198.19
487.299	1243.19
487.517	1191.19
487.735	1218.19
487.953	1206.19
488.171	1189.19
488.389	1179.19
488.607	1180.19
488.825	1140.19
489.043	1161.19
489.261	1213.19
489.479	1195.19
489.696	1177.19
489.914	1188.19
490.132	1174.19
490.35	1201.19
490.568	1184.19
490.786	1188.19
491.003	1240.19
491.221	1200.19
491.439	1186.19
491.657	1199.19
491.874	1211.19
492.092	1207.19
492.31	1263.19
492.527	1221.19
492.745	1238.19
492.963	1250.19
493.18	1217.19
493.398	1251.19
493.615	1239.19
493.833	1250.19
494.05	1258.19
494.268	1292.19
494.485	1235.19
494.703	1255.19
494.92	1285.19
495.138	1267.19
495.355	1245.19
495.573	1271.19
495.79	1283.19
496.008	1298.19
496.225	1305.19
