Data from NiCl2@0.125M.TitratingCurve.Agarose3%dH2O.NegLispCup.LampEnergy10.LIBS07252019_HRD10591_18-29-24-574.txt Node
Date: Thu Jul 25 18:29:24 EDT 2019
User: cochatt
Spectrometer: HR+D1059
Trigger mode: 1
Integration Time (sec): 1.000000E-1
Scans to average: 1
Electric dark correction enabled: true
Nonlinearity correction enabled: false
Boxcar width: 0
XAxis mode: Wavelengths
Number of Pixels in Spectrum: 2048
>>>>>Begin Spectral Data<<<<<
223.165	-8
223.4	-8
223.635	-8
223.869	-29
224.104	-22
224.338	-20
224.573	-10
224.808	-20
225.042	-20
225.277	-3
225.511	0
225.746	5
225.98	11
226.215	13
226.449	28
226.683	17
226.918	23
227.152	35
227.387	41
227.621	50
227.856	48
228.09	45
228.324	69
228.559	64
228.793	72
229.027	113
229.262	96
229.496	120
229.73	125
229.964	137
230.199	129
230.433	145
230.667	129
230.901	134
231.136	131
231.37	129
231.604	150
231.838	152
232.072	148
232.306	154
232.541	170
232.775	166
233.009	153
233.243	154
233.477	140
233.711	140
233.945	153
234.179	144
234.413	160
234.647	172
234.881	154
235.115	170
235.349	190
235.583	161
235.817	157
236.051	156
236.285	150
236.519	177
236.753	173
236.987	162
237.221	164
237.455	172
237.689	166
237.922	184
238.156	160
238.39	173
238.624	166
238.858	178
239.091	172
239.325	180
239.559	191
239.793	201
240.027	199
240.26	203
240.494	202
240.728	195
240.961	204
241.195	205
241.429	216
241.662	208
241.896	198
242.13	200
242.363	224
242.597	210
242.83	209
243.064	205
243.298	201
243.531	200
243.765	227
243.998	220
244.232	231
244.465	222
244.699	238
244.932	250
245.166	236
245.399	224
245.633	228
245.866	243
246.099	242
246.333	249
246.566	226
246.8	236
247.033	231
247.266	259
247.5	260
247.733	262
247.966	248
248.2	262
248.433	241
248.666	254
248.899	246
249.133	263
249.366	270
249.599	276
249.832	263
250.066	284
250.299	259
250.532	283
250.765	274
250.998	282
251.231	278
251.465	288
251.698	288
251.931	302
252.164	293
252.397	295
252.63	296
252.863	288
253.096	299
253.329	299
253.562	302
253.795	308
254.028	290
254.261	312
254.494	299
254.727	308
254.96	289
255.193	315
255.426	302
255.659	310
255.892	309
256.124	299
256.357	294
256.59	313
256.823	327
257.056	324
257.289	333
257.521	302
257.754	310
257.987	325
258.22	327
258.452	345
258.685	343
258.918	328
259.151	324
259.383	339
259.616	325
259.849	318
260.081	333
260.314	322
260.547	350
260.779	332
261.012	336
261.244	343
261.477	342
261.71	335
261.942	342
262.175	356
262.407	361
262.64	366
262.872	357
263.105	345
263.337	353
263.57	348
263.802	364
264.035	354
264.267	364
264.499	356
264.732	381
264.964	361
265.197	360
265.429	382
265.661	383
265.894	374
266.126	396
266.358	382
266.591	400
266.823	379
267.055	396
267.287	382
267.52	396
267.752	380
267.984	386
268.216	396
268.448	407
268.681	408
268.913	398
269.145	401
269.377	412
269.609	423
269.841	402
270.073	402
270.306	399
270.538	402
270.77	408
271.002	408
271.234	394
271.466	415
271.698	415
271.93	423
272.162	410
272.394	411
272.626	425
272.858	419
273.09	419
273.322	425
273.553	428
273.785	433
274.017	424
274.249	435
274.481	444
274.713	434
274.945	441
275.176	458
275.408	440
275.64	448
275.872	447
276.104	447
276.335	439
276.567	445
276.799	460
277.031	467
277.262	472
277.494	457
277.726	459
277.957	473
278.189	471
278.421	471
278.652	459
278.884	466
279.115	475
279.347	477
279.579	481
279.81	469
280.042	513
280.273	496
280.505	503
280.736	477
280.968	487
281.199	490
281.431	500
281.662	499
281.894	511
282.125	517
282.356	505
282.588	491
282.819	496
283.051	489
283.282	530
283.513	514
283.745	501
283.976	502
284.207	504
284.439	530
284.67	532
284.901	524
285.132	543
285.364	541
285.595	520
285.826	546
286.057	517
286.288	521
286.52	547
286.751	571
286.982	547
287.213	530
287.444	564
287.675	543
287.906	551
288.138	578
288.369	547
288.6	565
288.831	538
289.062	560
289.293	574
289.524	548
289.755	570
289.986	563
290.217	568
290.448	552
290.679	579
290.91	564
291.141	548
291.371	570
291.602	560
291.833	560
292.064	581
292.295	567
292.526	600
292.757	560
292.987	574
293.218	573
293.449	583
293.68	585
293.91	589
294.141	565
294.372	585
294.603	578
294.833	600
295.064	597
295.295	564
295.525	556
295.756	596
295.987	588
296.217	581
296.448	584
296.679	565
296.909	596
297.14	605
297.37	618
297.601	620
297.831	626
298.062	631
298.292	634
298.523	659
298.753	658
298.984	622
299.214	614
299.445	605
299.675	630
299.905	612
300.136	636
300.366	643
300.597	624
300.827	619
301.057	626
301.288	660
301.518	674
301.748	685
301.979	676
302.209	677
302.439	657
302.669	666
302.9	634
303.13	631
303.36	624
303.59	639
303.82	649
304.051	644
304.281	642
304.511	642
304.741	633
304.971	660
305.201	636
305.431	628
305.661	631
305.891	631
306.121	621
306.352	623
306.582	633
306.812	615
307.042	621
307.272	636
307.502	630
307.731	633
307.961	621
308.191	607
308.421	628
308.651	617
308.881	608
309.111	629
309.341	598
309.571	615
309.8	625
310.03	616
310.26	630
310.49	620
310.72	604
310.949	630
311.179	638
311.409	635
311.639	668
311.868	632
312.098	635
312.328	671
312.557	662
312.787	649
313.017	644
313.246	696
313.476	645
313.706	667
313.935	679
314.165	693
314.394	673
314.624	691
314.853	680
315.083	658
315.312	663
315.542	660
315.771	644
316.001	658
316.23	668
316.46	651
316.689	634
316.919	646
317.148	642
317.377	635
317.607	628
317.836	654
318.065	598
318.295	642
318.524	638
318.753	639
318.983	630
319.212	634
319.441	626
319.67	631
319.9	644
320.129	656
320.358	648
320.587	634
320.816	648
321.046	660
321.275	640
321.504	620
321.733	633
321.962	646
322.191	634
322.42	674
322.649	647
322.878	661
323.108	661
323.337	681
323.566	646
323.795	644
324.024	676
324.253	690
324.482	672
324.71	664
324.939	690
325.168	669
325.397	669
325.626	673
325.855	684
326.084	710
326.313	737
326.542	708
326.77	722
326.999	708
327.228	682
327.457	704
327.686	672
327.914	716
328.143	709
328.372	699
328.6	726
328.829	696
329.058	682
329.287	717
329.515	734
329.744	722
329.972	713
330.201	724
330.43	683
330.658	720
330.887	720
331.115	736
331.344	750
331.572	749
331.801	728
332.03	787
332.258	813
332.486	839
332.715	851
332.943	891
333.172	933
333.4	965
333.629	985
333.857	1000
334.085	958
334.314	937
334.542	931
334.771	896
334.999	914
335.227	894
335.455	901
335.684	877
335.912	880
336.14	864
336.369	850
336.597	877
336.825	871
337.053	865
337.281	854
337.51	820
337.738	822
337.966	771
338.194	792
338.422	797
338.65	792
338.878	783
339.106	758
339.334	763
339.562	755
339.79	743
340.018	716
340.246	738
340.474	764
340.702	758
340.93	742
341.158	742
341.386	731
341.614	732
341.842	734
342.07	717
342.298	719
342.526	701
342.754	712
342.981	731
343.209	748
343.437	764
343.665	840
343.893	884
344.12	956
344.348	919
344.576	816
344.804	809
345.031	776
345.259	767
345.487	729
345.714	738
345.942	742
346.17	714
346.397	729
346.625	725
346.853	693
347.08	739
347.308	718
347.535	730
347.763	725
347.99	748
348.218	739
348.445	738
348.673	740
348.9	734
349.128	707
349.355	682
349.583	684
349.81	691
350.037	702
350.265	693
350.492	654
350.72	705
350.947	684
351.174	666
351.402	682
351.629	678
351.856	647
352.083	667
352.311	671
352.538	684
352.765	681
352.992	668
353.22	683
353.447	686
353.674	661
353.901	687
354.128	686
354.355	707
354.583	684
354.81	701
355.037	699
355.264	697
355.491	697
355.718	693
355.945	705
356.172	700
356.399	693
356.626	685
356.853	692
357.08	706
357.307	679
357.534	666
357.761	692
357.988	692
358.215	691
358.441	673
358.668	669
358.895	676
359.122	699
359.349	680
359.576	677
359.802	692
360.029	691
360.256	710
360.483	678
360.709	683
360.936	689
361.163	706
361.39	685
361.616	688
361.843	678
362.07	689
362.296	693
362.523	677
362.749	702
362.976	675
363.203	675
363.429	681
363.656	657
363.882	664
364.109	686
364.335	683
364.562	659
364.788	669
365.015	682
365.241	686
365.468	642
365.694	701
365.92	680
366.147	664
366.373	674
366.599	682
366.826	688
367.052	677
367.278	692
367.505	665
367.731	675
367.957	699
368.184	681
368.41	695
368.636	692
368.862	673
369.089	690
369.315	714
369.541	698
369.767	705
369.993	701
370.219	693
370.445	715
370.672	722
370.898	742
371.124	757
371.35	760
371.576	767
371.802	758
372.028	748
372.254	742
372.48	736
372.706	757
372.932	789
373.158	769
373.384	766
373.61	758
373.835	769
374.061	760
374.287	760
374.513	777
374.739	796
374.965	811
375.191	840
375.416	861
375.642	784
375.868	792
376.094	786
376.319	776
376.545	770
376.771	775
376.997	736
377.222	771
377.448	749
377.674	768
377.899	772
378.125	753
378.35	766
378.576	748
378.802	718
379.027	711
379.253	744
379.478	739
379.704	716
379.929	750
380.155	724
380.38	741
380.606	755
380.831	769
381.057	747
381.282	745
381.507	757
381.733	734
381.958	776
382.184	768
382.409	790
382.634	823
382.86	775
383.085	774
383.31	812
383.535	812
383.761	824
383.986	844
384.211	873
384.436	877
384.662	894
384.887	901
385.112	896
385.337	929
385.562	911
385.787	910
386.013	945
386.238	901
386.463	905
386.688	904
386.913	921
387.138	882
387.363	851
387.588	882
387.813	900
388.038	851
388.263	882
388.488	871
388.713	886
388.938	896
389.163	892
389.387	892
389.612	862
389.837	871
390.062	855
390.287	879
390.512	869
390.736	874
390.961	877
391.186	913
391.411	908
391.636	957
391.86	992
392.085	1049
392.31	1010
392.534	974
392.759	998
392.984	974
393.208	949
393.433	953
393.658	974
393.882	960
394.107	984
394.331	977
394.556	963
394.78	985
395.005	1014
395.229	975
395.454	986
395.678	997
395.903	1028
396.127	1014
396.352	972
396.576	952
396.801	933
397.025	971
397.249	964
397.474	977
397.698	1009
397.922	1016
398.147	970
398.371	1005
398.595	1046
398.82	1106
399.044	1182
399.268	1301
399.492	1517
399.717	1761
399.941	1808
400.165	1557
400.389	1396
400.613	1298
400.837	1200
401.062	1187
401.286	1104
401.51	1102
401.734	1126
401.958	1141
402.182	1128
402.406	1154
402.63	1180
402.854	1235
403.078	1242
403.302	1301
403.526	1320
403.75	1377
403.974	1374
404.198	1343
404.422	1380
404.645	1358
404.869	1267
405.093	1309
405.317	1273
405.541	1265
405.765	1267
405.988	1278
406.212	1228
406.436	1228
406.66	1250
406.883	1310
407.107	1370
407.331	1437
407.555	1499
407.778	1498
408.002	1468
408.226	1401
408.449	1396
408.673	1323
408.896	1311
409.12	1282
409.344	1285
409.567	1282
409.791	1341
410.014	1330
410.238	1310
410.461	1275
410.685	1264
410.908	1255
411.132	1219
411.355	1164
411.578	1176
411.802	1138
412.025	1192
412.249	1231
412.472	1175
412.695	1197
412.919	1134
413.142	1137
413.365	1114
413.589	1122
413.812	1126
414.035	1100
414.258	1120
414.482	1133
414.705	1144
414.928	1173
415.151	1167
415.374	1136
415.597	1127
415.821	1126
416.044	1148
416.267	1112
416.49	1098
416.713	1128
416.936	1117
417.159	1129
417.382	1128
417.605	1110
417.828	1138
418.051	1142
418.274	1142
418.497	1154
418.72	1168
418.943	1142
419.166	1234
419.389	1356
419.611	1287
419.834	1240
420.057	1160
420.28	1179
420.503	1098
420.726	1109
420.948	1098
421.171	1110
421.394	1124
421.617	1138
421.839	1109
422.062	1152
422.285	1137
422.507	1169
422.73	1162
422.953	1177
423.175	1209
423.398	1214
423.621	1206
423.843	1205
424.066	1228
424.288	1236
424.511	1208
424.733	1217
424.956	1200
425.178	1144
425.401	1143
425.623	1145
425.846	1119
426.068	1136
426.291	1084
426.513	1052
426.735	1047
426.958	1054
427.18	1027
427.402	1027
427.625	1054
427.847	1041
428.069	1023
428.292	1002
428.514	980
428.736	1012
428.958	1012
429.181	976
429.403	978
429.625	959
429.847	973
430.069	983
430.292	974
430.514	952
430.736	970
430.958	977
431.18	972
431.402	983
431.624	974
431.846	1024
432.068	1048
432.29	1026
432.512	1000
432.734	996
432.956	994
433.178	1024
433.4	1004
433.622	1015
433.844	1026
434.066	1016
434.287	1029
434.509	1095
434.731	1098
434.953	1154
435.175	1183
435.397	1152
435.618	1112
435.84	1066
436.062	1032
436.284	1018
436.505	1027
436.727	1032
436.949	1014
437.17	992
437.392	992
437.614	1001
437.835	967
438.057	936
438.278	945
438.5	981
438.721	989
438.943	994
439.165	974
439.386	996
439.608	1045
439.829	1047
440.05	995
440.272	1008
440.493	1033
440.715	1037
440.936	1038
441.158	1100
441.379	1085
441.6	1162
441.822	1165
442.043	1165
442.264	1151
442.486	1099
442.707	1149
442.928	1130
443.149	1156
443.371	1147
443.592	1137
443.813	1142
444.034	1165
444.255	1170
444.476	1249
444.698	1385
444.919	1421
445.14	1479
445.361	1301
445.582	1198
445.803	1144
446.024	1085
446.245	1088
446.466	1055
446.687	1032
446.908	1034
447.129	1015
447.35	972
447.571	988
447.792	941
448.013	972
448.234	948
448.455	962
448.675	963
448.896	947
449.117	918
449.338	948
449.559	935
449.779	934
450	922
450.221	922
450.442	947
450.662	945
450.883	948
451.104	987
451.324	968
451.545	944
451.766	960
451.986	960
452.207	940
452.428	943
452.648	920
452.869	900
453.089	909
453.31	939
453.53	904
453.751	936
453.971	906
454.192	928
454.412	900
454.633	899
454.853	885
455.073	892
455.294	918
455.514	857
455.734	857
455.955	896
456.175	871
456.395	884
456.616	892
456.836	900
457.056	883
457.276	857
457.497	864
457.717	877
457.937	873
458.157	885
458.377	889
458.598	924
458.818	950
459.038	958
459.258	985
459.478	1004
459.698	1049
459.918	1066
460.138	1107
460.358	1188
460.578	1194
460.798	1214
461.018	1251
461.238	1209
461.458	1213
461.678	1226
461.898	1237
462.118	1218
462.338	1284
462.558	1334
462.777	1357
462.997	1511
463.217	1644
463.437	1674
463.657	1529
463.876	1469
464.096	1431
464.316	1447
464.536	1469
464.755	1371
464.975	1350
465.195	1310
465.414	1172
465.634	1120
465.854	1079
466.073	1017
466.293	1019
466.512	983
466.732	973
466.951	999
467.171	989
467.391	999
467.61	953
467.829	968
468.049	967
468.268	932
468.488	974
468.707	910
468.927	923
469.146	939
469.365	951
469.585	952
469.804	933
470.023	998
470.243	1001
470.462	1008
470.681	1036
470.901	999
471.12	1003
471.339	971
471.558	937
471.777	930
471.997	934
472.216	930
472.435	939
472.654	955
472.873	906
473.092	885
473.311	924
473.53	900
473.749	900
473.968	888
474.187	869
474.406	916
474.625	928
474.844	924
475.063	885
475.282	924
475.501	912
475.72	905
475.939	937
476.158	956
476.377	915
476.596	937
476.814	961
477.033	982
477.252	964
477.471	991
477.69	1022
477.908	1029
478.127	1064
478.346	1070
478.564	1101
478.783	1144
479.002	1124
479.22	1176
479.439	1113
479.658	1124
479.876	1140
480.095	1142
480.313	1187
480.532	1239
480.751	1228
480.969	1193
481.188	1124
481.406	1118
481.624	1055
481.843	1008
482.061	1037
482.28	1001
482.498	1025
482.717	1023
482.935	1045
483.153	1042
483.372	1027
483.59	1028
483.808	1027
484.027	1034
484.245	1049
484.463	1042
484.681	1050
484.9	1060
485.118	1061
485.336	1053
485.554	1100
485.772	1099
485.99	1069
486.209	1100
486.427	1105
486.645	1114
486.863	1119
487.081	1078
487.299	1090
487.517	1067
487.735	1089
487.953	1092
488.171	1080
488.389	1028
488.607	1020
488.825	1082
489.043	1043
489.261	1062
489.479	1069
489.696	1081
489.914	1056
490.132	1069
490.35	1090
490.568	1083
490.786	1063
491.003	1083
491.221	1092
491.439	1071
491.657	1106
491.874	1096
492.092	1080
492.31	1108
492.527	1127
492.745	1113
492.963	1117
493.18	1123
493.398	1142
493.615	1137
493.833	1101
494.05	1110
494.268	1128
494.485	1145
494.703	1144
494.92	1117
495.138	1129
495.355	1132
495.573	1147
495.79	1120
496.008	1154
496.225	1158
496.442	1160
496.66	1175
496.877	1200
497.094	1221
497.312	1233
497.529	1221
497.746	1282
497.963	1315
498.181	1397
498.398	1385
498.615	1511
498.832	1644
499.049	1760
499.267	1924
499.484	2093
499.701	2332
499.918	2576
500.135	3002
500.352	3528
500.569	3732
500.786	3718
501.003	3392
501.22	2989
501.437	2613
501.654	2281
501.871	2043
502.088	1908
502.305	1765
502.522	1674
502.739	1601
502.956	1488
503.172	1441
503.389	1376
503.606	1336
503.823	1286
504.04	1308
504.256	1322
504.473	1307
504.69	1411
504.907	1414
505.123	1274
505.34	1211
505.557	1154
505.773	1136
505.99	1090
506.207	1051
506.423	1048
506.64	1048
506.856	1026
507.073	1016
507.289	1030
507.506	1022
507.722	1011
507.939	999
508.155	965
508.372	1004
508.588	984
508.805	944
509.021	931
509.238	950
509.454	938
509.67	937
509.887	924
510.103	926
510.319	928
510.536	934
510.752	951
510.968	960
511.184	930
511.401	944
511.617	934
511.833	928
512.049	920
512.265	924
512.481	911
512.698	898
512.914	928
513.13	920
513.346	926
513.562	928
513.778	960
513.994	934
514.21	941
514.426	937
514.642	950
514.858	931
515.074	941
515.29	951
515.506	956
515.721	997
515.937	962
516.153	975
516.369	1032
516.585	1066
516.801	1109
517.016	1136
517.232	1221
517.448	1227
517.664	1369
517.879	1321
518.095	1339
518.311	1330
518.527	1246
518.742	1169
518.958	1136
519.173	1089
519.389	1043
519.605	1010
519.82	961
520.036	962
520.251	945
520.467	950
520.682	944
520.898	909
521.113	914
521.329	909
521.544	907
521.76	909
521.975	918
522.19	876
522.406	896
522.621	887
522.836	880
523.052	869
523.267	861
523.482	846
523.698	838
523.913	873
524.128	879
524.343	863
524.559	868
524.774	837
524.989	885
525.204	845
525.419	853
525.634	856
525.849	852
526.064	827
526.28	816
526.495	846
526.71	816
526.925	832
527.14	809
527.355	850
527.57	868
527.785	816
527.999	862
528.214	841
528.429	854
528.644	838
528.859	841
529.074	846
529.289	829
529.503	826
529.718	859
529.933	845
530.148	846
530.363	808
530.577	821
530.792	824
531.007	836
531.221	841
531.436	859
531.651	856
531.865	856
532.08	852
532.295	835
532.509	849
532.724	808
532.938	842
533.153	838
533.367	857
533.582	827
533.796	827
534.011	829
534.225	829
534.44	843
534.654	817
534.868	813
535.083	816
535.297	832
535.511	808
535.726	802
535.94	809
536.154	811
536.369	816
536.583	792
536.797	767
537.011	771
537.225	773
537.44	773
537.654	785
537.868	772
538.082	773
538.296	770
538.51	786
538.724	754
538.938	745
539.153	745
539.367	764
539.581	741
539.795	756
540.009	739
540.222	730
540.436	710
540.65	740
540.864	728
541.078	742
541.292	753
541.506	744
541.72	741
541.934	736
542.147	739
542.361	736
542.575	761
542.789	748
543.002	738
543.216	734
543.43	705
543.644	727
543.857	743
544.071	717
544.285	742
544.498	764
544.712	738
544.925	767
545.139	774
545.352	762
545.566	790
545.779	788
545.993	759
546.206	761
546.42	778
546.633	774
546.847	760
547.06	786
547.274	760
547.487	753
547.7	750
547.914	789
548.127	772
548.34	786
548.554	787
548.767	762
548.98	769
549.193	774
549.407	794
549.62	800
549.833	816
550.046	770
550.259	775
550.473	750
550.686	758
550.899	774
551.112	741
551.325	726
551.538	759
551.751	747
551.964	734
552.177	734
552.39	783
552.603	796
552.816	795
553.029	808
553.242	849
553.455	869
553.667	856
553.88	828
554.093	806
554.306	779
554.519	769
554.732	772
554.944	726
555.157	734
555.37	726
555.583	729
555.795	698
556.008	694
556.221	698
556.433	684
556.646	733
556.859	651
