Data from NiCl2@0.25M.TitratingCurve.Agarose3%dH2O.NegLispCup.LampEnergy10.LIBS07252019_HRD10591_18-25-39-577.txt Node
Date: Thu Jul 25 18:25:39 EDT 2019
User: cochatt
Spectrometer: HR+D1059
Trigger mode: 1
Integration Time (sec): 1.000000E-1
Scans to average: 1
Electric dark correction enabled: true
Nonlinearity correction enabled: false
Boxcar width: 0
XAxis mode: Wavelengths
Number of Pixels in Spectrum: 2048
>>>>>Begin Spectral Data<<<<<
223.165	-9.69
223.4	-9.69
223.635	-9.69
223.869	-4.69
224.104	-22.69
224.338	-24.69
224.573	-6.69
224.808	-8.69
225.042	-18.69
225.277	-4.69
225.511	-0.69
225.746	12.31
225.98	12.31
226.215	15.31
226.449	17.31
226.683	17.31
226.918	8.31
227.152	18.31
227.387	39.31
227.621	24.31
227.856	43.31
228.09	37.31
228.324	60.31
228.559	63.31
228.793	76.31
229.027	127.31
229.262	121.31
229.496	128.31
229.73	133.31
229.964	148.31
230.199	156.31
230.433	149.31
230.667	159.31
230.901	158.31
231.136	155.31
231.37	143.31
231.604	154.31
231.838	149.31
232.072	147.31
232.306	179.31
232.541	167.31
232.775	167.31
233.009	153.31
233.243	158.31
233.477	168.31
233.711	164.31
233.945	193.31
234.179	165.31
234.413	165.31
234.647	170.31
234.881	168.31
235.115	190.31
235.349	172.31
235.583	173.31
235.817	166.31
236.051	187.31
236.285	183.31
236.519	181.31
236.753	172.31
236.987	183.31
237.221	155.31
237.455	183.31
237.689	188.31
237.922	184.31
238.156	188.31
238.39	197.31
238.624	176.31
238.858	203.31
239.091	201.31
239.325	202.31
239.559	209.31
239.793	191.31
240.027	198.31
240.26	199.31
240.494	206.31
240.728	225.31
240.961	215.31
241.195	210.31
241.429	193.31
241.662	215.31
241.896	218.31
242.13	214.31
242.363	229.31
242.597	224.31
242.83	244.31
243.064	217.31
243.298	232.31
243.531	212.31
243.765	230.31
243.998	236.31
244.232	223.31
244.465	253.31
244.699	249.31
244.932	257.31
245.166	244.31
245.399	250.31
245.633	261.31
245.866	257.31
246.099	265.31
246.333	257.31
246.566	256.31
246.8	249.31
247.033	265.31
247.266	273.31
247.5	256.31
247.733	269.31
247.966	268.31
248.2	273.31
248.433	268.31
248.666	287.31
248.899	286.31
249.133	281.31
249.366	297.31
249.599	293.31
249.832	303.31
250.066	311.31
250.299	295.31
250.532	293.31
250.765	286.31
250.998	291.31
251.231	289.31
251.465	297.31
251.698	322.31
251.931	307.31
252.164	309.31
252.397	321.31
252.63	325.31
252.863	316.31
253.096	323.31
253.329	312.31
253.562	308.31
253.795	332.31
254.028	332.31
254.261	339.31
254.494	349.31
254.727	321.31
254.96	322.31
255.193	327.31
255.426	342.31
255.659	324.31
255.892	343.31
256.124	349.31
256.357	341.31
256.59	348.31
256.823	332.31
257.056	353.31
257.289	359.31
257.521	360.31
257.754	351.31
257.987	362.31
258.22	349.31
258.452	360.31
258.685	377.31
258.918	355.31
259.151	373.31
259.383	365.31
259.616	375.31
259.849	363.31
260.081	360.31
260.314	366.31
260.547	363.31
260.779	387.31
261.012	392.31
261.244	374.31
261.477	366.31
261.71	387.31
261.942	369.31
262.175	393.31
262.407	390.31
262.64	372.31
262.872	408.31
263.105	384.31
263.337	401.31
263.57	414.31
263.802	397.31
264.035	390.31
264.267	404.31
264.499	398.31
264.732	425.31
264.964	397.31
265.197	411.31
265.429	421.31
265.661	393.31
265.894	425.31
266.126	423.31
266.358	421.31
266.591	431.31
266.823	447.31
267.055	426.31
267.287	434.31
267.52	427.31
267.752	434.31
267.984	429.31
268.216	424.31
268.448	426.31
268.681	435.31
268.913	452.31
269.145	440.31
269.377	422.31
269.609	443.31
269.841	454.31
270.073	451.31
270.306	439.31
270.538	468.31
270.77	441.31
271.002	462.31
271.234	441.31
271.466	440.31
271.698	457.31
271.93	447.31
272.162	443.31
272.394	455.31
272.626	490.31
272.858	470.31
273.09	473.31
273.322	473.31
273.553	455.31
273.785	466.31
274.017	473.31
274.249	489.31
274.481	497.31
274.713	484.31
274.945	489.31
275.176	486.31
275.408	497.31
275.64	496.31
275.872	483.31
276.104	505.31
276.335	494.31
276.567	489.31
276.799	488.31
277.031	511.31
277.262	505.31
277.494	494.31
277.726	510.31
277.957	523.31
278.189	508.31
278.421	523.31
278.652	503.31
278.884	535.31
279.115	521.31
279.347	538.31
279.579	516.31
279.81	543.31
280.042	523.31
280.273	528.31
280.505	548.31
280.736	550.31
280.968	557.31
281.199	555.31
281.431	566.31
281.662	544.31
281.894	553.31
282.125	555.31
282.356	547.31
282.588	558.31
282.819	564.31
283.051	559.31
283.282	542.31
283.513	560.31
283.745	563.31
283.976	578.31
284.207	556.31
284.439	567.31
284.67	592.31
284.901	585.31
285.132	583.31
285.364	574.31
285.595	592.31
285.826	589.31
286.057	596.31
286.288	574.31
286.52	603.31
286.751	602.31
286.982	590.31
287.213	597.31
287.444	603.31
287.675	623.31
287.906	605.31
288.138	583.31
288.369	605.31
288.6	637.31
288.831	606.31
289.062	597.31
289.293	590.31
289.524	629.31
289.755	619.31
289.986	622.31
290.217	640.31
290.448	623.31
290.679	643.31
290.91	620.31
291.141	615.31
291.371	617.31
291.602	630.31
291.833	607.31
292.064	631.31
292.295	649.31
292.526	643.31
292.757	620.31
292.987	623.31
293.218	601.31
293.449	650.31
293.68	632.31
293.91	647.31
294.141	609.31
294.372	608.31
294.603	649.31
294.833	654.31
295.064	655.31
295.295	648.31
295.525	652.31
295.756	653.31
295.987	636.31
296.217	647.31
296.448	653.31
296.679	645.31
296.909	643.31
297.14	665.31
297.37	646.31
297.601	676.31
297.831	666.31
298.062	655.31
298.292	687.31
298.523	691.31
298.753	689.31
298.984	699.31
299.214	672.31
299.445	691.31
299.675	685.31
299.905	691.31
300.136	702.31
300.366	688.31
300.597	687.31
300.827	685.31
301.057	733.31
301.288	677.31
301.518	731.31
301.748	720.31
301.979	736.31
302.209	727.31
302.439	742.31
302.669	725.31
302.9	725.31
303.13	689.31
303.36	732.31
303.59	721.31
303.82	711.31
304.051	713.31
304.281	713.31
304.511	694.31
304.741	711.31
304.971	697.31
305.201	724.31
305.431	744.31
305.661	721.31
305.891	703.31
306.121	712.31
306.352	718.31
306.582	682.31
306.812	688.31
307.042	687.31
307.272	692.31
307.502	680.31
307.731	697.31
307.961	724.31
308.191	693.31
308.421	707.31
308.651	709.31
308.881	688.31
309.111	707.31
309.341	727.31
309.571	721.31
309.8	721.31
310.03	697.31
310.26	697.31
310.49	689.31
310.72	704.31
310.949	703.31
311.179	703.31
311.409	702.31
311.639	728.31
311.868	730.31
312.098	735.31
312.328	737.31
312.557	729.31
312.787	741.31
313.017	753.31
313.246	736.31
313.476	756.31
313.706	759.31
313.935	755.31
314.165	764.31
314.394	771.31
314.624	788.31
314.853	759.31
315.083	757.31
315.312	749.31
315.542	750.31
315.771	771.31
316.001	721.31
316.23	728.31
316.46	725.31
316.689	739.31
316.919	755.31
317.148	763.31
317.377	755.31
317.607	748.31
317.836	733.31
318.065	753.31
318.295	733.31
318.524	721.31
318.753	738.31
318.983	755.31
319.212	746.31
319.441	757.31
319.67	723.31
319.9	737.31
320.129	753.31
320.358	737.31
320.587	723.31
320.816	764.31
321.046	750.31
321.275	747.31
321.504	749.31
321.733	757.31
321.962	715.31
322.191	745.31
322.42	767.31
322.649	740.31
322.878	730.31
323.108	736.31
323.337	786.31
323.566	752.31
323.795	793.31
324.024	749.31
324.253	767.31
324.482	772.31
324.71	767.31
324.939	783.31
325.168	757.31
325.397	753.31
325.626	779.31
325.855	771.31
326.084	794.31
326.313	789.31
326.542	814.31
326.77	837.31
326.999	795.31
327.228	775.31
327.457	817.31
327.686	815.31
327.914	816.31
328.143	823.31
328.372	813.31
328.6	801.31
328.829	796.31
329.058	784.31
329.287	830.31
329.515	810.31
329.744	817.31
329.972	820.31
330.201	842.31
330.43	847.31
330.658	814.31
330.887	841.31
331.115	823.31
331.344	853.31
331.572	863.31
331.801	874.31
332.03	905.31
332.258	915.31
332.486	924.31
332.715	956.31
332.943	1007.31
333.172	1007.31
333.4	1061.31
333.629	1072.31
333.857	1099.31
334.085	1089.31
334.314	1114.31
334.542	1087.31
334.771	1069.31
334.999	1031.31
335.227	1015.31
335.455	1026.31
335.684	1006.31
335.912	1000.31
336.14	973.31
336.369	972.31
336.597	1004.31
336.825	983.31
337.053	957.31
337.281	977.31
337.51	968.31
337.738	936.31
337.966	927.31
338.194	903.31
338.422	882.31
338.65	919.31
338.878	902.31
339.106	905.31
339.334	901.31
339.562	871.31
339.79	856.31
340.018	846.31
340.246	840.31
340.474	846.31
340.702	851.31
340.93	862.31
341.158	837.31
341.386	856.31
341.614	839.31
341.842	847.31
342.07	862.31
342.298	826.31
342.526	847.31
342.754	855.31
342.981	875.31
343.209	839.31
343.437	895.31
343.665	926.31
343.893	1021.31
344.12	1055.31
344.348	1007.31
344.576	958.31
344.804	923.31
345.031	894.31
345.259	883.31
345.487	880.31
345.714	851.31
345.942	838.31
346.17	846.31
346.397	834.31
346.625	793.31
346.853	789.31
347.08	802.31
347.308	807.31
347.535	812.31
347.763	849.31
347.99	814.31
348.218	827.31
348.445	816.31
348.673	821.31
348.9	815.31
349.128	797.31
349.355	805.31
349.583	763.31
349.81	801.31
350.037	807.31
350.265	778.31
350.492	807.31
350.72	782.31
350.947	772.31
351.174	799.31
351.402	777.31
351.629	789.31
351.856	804.31
352.083	763.31
352.311	816.31
352.538	785.31
352.765	797.31
352.992	776.31
353.22	789.31
353.447	784.31
353.674	767.31
353.901	754.31
354.128	784.31
354.355	771.31
354.583	807.31
354.81	778.31
355.037	788.31
355.264	791.31
355.491	785.31
355.718	801.31
355.945	801.31
356.172	784.31
356.399	822.31
356.626	801.31
356.853	818.31
357.08	797.31
357.307	798.31
357.534	791.31
357.761	796.31
357.988	780.31
358.215	820.31
358.441	755.31
358.668	784.31
358.895	781.31
359.122	789.31
359.349	798.31
359.576	780.31
359.802	790.31
360.029	790.31
360.256	804.31
360.483	800.31
360.709	791.31
360.936	809.31
361.163	772.31
361.39	809.31
361.616	799.31
361.843	825.31
362.07	803.31
362.296	780.31
362.523	772.31
362.749	805.31
362.976	777.31
363.203	800.31
363.429	796.31
363.656	781.31
363.882	776.31
364.109	786.31
364.335	796.31
364.562	783.31
364.788	776.31
365.015	801.31
365.241	785.31
365.468	785.31
365.694	784.31
365.92	764.31
366.147	777.31
366.373	780.31
366.599	803.31
366.826	798.31
367.052	779.31
367.278	771.31
367.505	788.31
367.731	797.31
367.957	800.31
368.184	804.31
368.41	780.31
368.636	779.31
368.862	802.31
369.089	795.31
369.315	782.31
369.541	804.31
369.767	819.31
369.993	819.31
370.219	805.31
370.445	828.31
370.672	846.31
370.898	863.31
371.124	832.31
371.35	850.31
371.576	845.31
371.802	853.31
372.028	856.31
372.254	868.31
372.48	866.31
372.706	882.31
372.932	904.31
373.158	862.31
373.384	877.31
373.61	895.31
373.835	876.31
374.061	873.31
374.287	877.31
374.513	876.31
374.739	904.31
374.965	929.31
375.191	937.31
375.416	951.31
375.642	921.31
375.868	901.31
376.094	889.31
376.319	890.31
376.545	884.31
376.771	845.31
376.997	853.31
377.222	833.31
377.448	846.31
377.674	868.31
377.899	875.31
378.125	839.31
378.35	841.31
378.576	847.31
378.802	853.31
379.027	857.31
379.253	832.31
379.478	837.31
379.704	857.31
379.929	869.31
380.155	827.31
380.38	835.31
380.606	894.31
380.831	861.31
381.057	862.31
381.282	871.31
381.507	824.31
381.733	827.31
381.958	902.31
382.184	889.31
382.409	896.31
382.634	859.31
382.86	871.31
383.085	898.31
383.31	912.31
383.535	948.31
383.761	961.31
383.986	984.31
384.211	945.31
384.436	991.31
384.662	1009.31
384.887	1045.31
385.112	1034.31
385.337	1040.31
385.562	1030.31
385.787	1031.31
386.013	1075.31
386.238	1077.31
386.463	1064.31
386.688	1079.31
386.913	1047.31
387.138	1042.31
387.363	1063.31
387.588	1044.31
387.813	1031.31
388.038	1033.31
388.263	1037.31
388.488	1043.31
388.713	1051.31
388.938	1048.31
389.163	1033.31
389.387	1054.31
389.612	1016.31
389.837	1006.31
390.062	1013.31
390.287	1047.31
390.512	1048.31
390.736	1048.31
390.961	1062.31
391.186	1114.31
391.411	1099.31
391.636	1134.31
391.86	1169.31
392.085	1189.31
392.31	1181.31
392.534	1141.31
392.759	1160.31
392.984	1144.31
393.208	1097.31
393.433	1108.31
393.658	1113.31
393.882	1092.31
394.107	1106.31
394.331	1150.31
394.556	1126.31
394.78	1115.31
395.005	1133.31
395.229	1143.31
395.454	1161.31
395.678	1151.31
395.903	1189.31
396.127	1188.31
396.352	1161.31
396.576	1128.31
396.801	1139.31
397.025	1149.31
397.249	1182.31
397.474	1208.31
397.698	1209.31
397.922	1184.31
398.147	1190.31
398.371	1237.31
398.595	1283.31
398.82	1347.31
399.044	1440.31
399.268	1553.31
399.492	1743.31
399.717	1935.31
399.941	1953.31
400.165	1845.31
400.389	1655.31
400.613	1577.31
400.837	1463.31
401.062	1432.31
401.286	1375.31
401.51	1367.31
401.734	1361.31
401.958	1399.31
402.182	1353.31
402.406	1403.31
402.63	1384.31
402.854	1403.31
403.078	1421.31
403.302	1437.31
403.526	1470.31
403.75	1487.31
403.974	1529.31
404.198	1534.31
404.422	1538.31
404.645	1512.31
404.869	1490.31
405.093	1468.31
405.317	1450.31
405.541	1504.31
405.765	1459.31
405.988	1468.31
406.212	1472.31
406.436	1479.31
406.66	1487.31
406.883	1512.31
407.107	1637.31
407.331	1673.31
407.555	1761.31
407.778	1728.31
408.002	1680.31
408.226	1679.31
408.449	1624.31
408.673	1526.31
408.896	1520.31
409.12	1502.31
409.344	1541.31
409.567	1478.31
409.791	1516.31
410.014	1495.31
410.238	1485.31
410.461	1461.31
410.685	1456.31
410.908	1439.31
411.132	1423.31
411.355	1377.31
411.578	1386.31
411.802	1369.31
412.025	1375.31
412.249	1443.31
412.472	1419.31
412.695	1362.31
412.919	1370.31
413.142	1343.31
413.365	1356.31
413.589	1345.31
413.812	1329.31
414.035	1352.31
414.258	1352.31
414.482	1338.31
414.705	1351.31
414.928	1366.31
415.151	1339.31
415.374	1325.31
415.597	1312.31
415.821	1294.31
416.044	1258.31
416.267	1305.31
416.49	1262.31
416.713	1254.31
416.936	1311.31
417.159	1283.31
417.382	1301.31
417.605	1283.31
417.828	1276.31
418.051	1341.31
418.274	1327.31
418.497	1301.31
418.72	1327.31
418.943	1330.31
419.166	1423.31
419.389	1531.31
419.611	1507.31
419.834	1401.31
420.057	1388.31
420.28	1349.31
420.503	1297.31
420.726	1306.31
420.948	1313.31
421.171	1328.31
421.394	1305.31
421.617	1306.31
421.839	1305.31
422.062	1328.31
422.285	1309.31
422.507	1327.31
422.73	1324.31
422.953	1354.31
423.175	1375.31
423.398	1339.31
423.621	1379.31
423.843	1388.31
424.066	1343.31
424.288	1361.31
424.511	1315.31
424.733	1357.31
424.956	1296.31
425.178	1312.31
425.401	1326.31
425.623	1352.31
425.846	1283.31
426.068	1273.31
426.291	1223.31
426.513	1251.31
426.735	1241.31
426.958	1231.31
427.18	1216.31
427.402	1189.31
427.625	1191.31
427.847	1138.31
428.069	1175.31
428.292	1191.31
428.514	1153.31
428.736	1145.31
428.958	1165.31
429.181	1133.31
429.403	1148.31
429.625	1106.31
429.847	1103.31
430.069	1128.31
430.292	1143.31
430.514	1144.31
430.736	1121.31
430.958	1153.31
431.18	1158.31
431.402	1163.31
431.624	1134.31
431.846	1162.31
432.068	1177.31
432.29	1181.31
432.512	1152.31
432.734	1157.31
432.956	1151.31
433.178	1161.31
433.4	1164.31
433.622	1181.31
433.844	1188.31
434.066	1168.31
434.287	1180.31
434.509	1233.31
434.731	1245.31
434.953	1282.31
435.175	1298.31
435.397	1335.31
435.618	1224.31
435.84	1196.31
436.062	1205.31
436.284	1167.31
436.505	1152.31
436.727	1127.31
436.949	1168.31
437.17	1155.31
437.392	1104.31
437.614	1153.31
437.835	1086.31
438.057	1078.31
438.278	1123.31
438.5	1087.31
438.721	1122.31
438.943	1132.31
439.165	1095.31
439.386	1147.31
439.608	1113.31
439.829	1165.31
440.05	1167.31
440.272	1163.31
440.493	1164.31
440.715	1183.31
440.936	1188.31
441.158	1216.31
441.379	1241.31
441.6	1310.31
441.822	1310.31
442.043	1301.31
442.264	1263.31
442.486	1262.31
442.707	1278.31
442.928	1225.31
443.149	1251.31
443.371	1253.31
443.592	1281.31
443.813	1294.31
444.034	1309.31
444.255	1372.31
444.476	1413.31
444.698	1453.31
444.919	1505.31
445.14	1595.31
445.361	1439.31
445.582	1365.31
445.803	1311.31
446.024	1248.31
446.245	1197.31
446.466	1175.31
446.687	1179.31
446.908	1155.31
447.129	1140.31
447.35	1105.31
447.571	1093.31
447.792	1095.31
448.013	1101.31
448.234	1062.31
448.455	1087.31
448.675	1071.31
448.896	1076.31
449.117	1014.31
449.338	1040.31
449.559	1031.31
449.779	1002.31
450	1033.31
450.221	1053.31
450.442	1041.31
450.662	1052.31
450.883	1060.31
451.104	1088.31
451.324	1065.31
451.545	1070.31
451.766	1082.31
451.986	1032.31
452.207	1040.31
452.428	1095.31
452.648	1028.31
452.869	987.31
453.089	1011.31
453.31	1019.31
453.53	1024.31
453.751	1017.31
453.971	1020.31
454.192	1013.31
454.412	996.31
454.633	1009.31
454.853	999.31
455.073	987.31
455.294	1001.31
455.514	966.31
455.734	987.31
455.955	979.31
456.175	959.31
456.395	970.31
456.616	1003.31
456.836	1005.31
457.056	994.31
457.276	963.31
457.497	1020.31
457.717	1035.31
457.937	1000.31
458.157	986.31
458.377	1032.31
458.598	1057.31
458.818	1075.31
459.038	1097.31
459.258	1148.31
459.478	1175.31
459.698	1211.31
459.918	1242.31
460.138	1258.31
460.358	1343.31
460.578	1370.31
460.798	1412.31
461.018	1405.31
461.238	1412.31
461.458	1361.31
461.678	1393.31
461.898	1387.31
462.118	1399.31
462.338	1489.31
462.558	1527.31
462.777	1576.31
462.997	1721.31
463.217	1762.31
463.437	1808.31
463.657	1728.31
463.876	1658.31
464.096	1627.31
464.316	1630.31
464.536	1616.31
464.755	1533.31
464.975	1473.31
465.195	1449.31
465.414	1354.31
465.634	1282.31
465.854	1238.31
466.073	1165.31
466.293	1155.31
466.512	1152.31
466.732	1132.31
466.951	1131.31
467.171	1072.31
467.391	1116.31
467.61	1119.31
467.829	1096.31
468.049	1095.31
468.268	1069.31
468.488	1031.31
468.707	1062.31
468.927	1081.31
469.146	1051.31
469.365	1095.31
469.585	1128.31
469.804	1110.31
470.023	1140.31
470.243	1139.31
470.462	1122.31
470.681	1152.31
470.901	1143.31
471.12	1153.31
471.339	1105.31
471.558	1137.31
471.777	1099.31
471.997	1079.31
472.216	1092.31
472.435	1100.31
472.654	1033.31
472.873	1041.31
473.092	1051.31
473.311	1019.31
473.53	1046.31
473.749	1057.31
473.968	1042.31
474.187	1019.31
474.406	1015.31
474.625	1025.31
474.844	1015.31
475.063	1040.31
475.282	1027.31
475.501	1036.31
475.72	1077.31
475.939	1057.31
476.158	1058.31
476.377	1072.31
476.596	1078.31
476.814	1123.31
477.033	1141.31
477.252	1141.31
477.471	1147.31
477.69	1162.31
477.908	1186.31
478.127	1227.31
478.346	1233.31
478.564	1253.31
478.783	1231.31
479.002	1304.31
479.22	1279.31
479.439	1306.31
479.658	1296.31
479.876	1301.31
480.095	1334.31
480.313	1347.31
480.532	1382.31
480.751	1369.31
480.969	1344.31
481.188	1293.31
481.406	1261.31
481.624	1244.31
481.843	1215.31
482.061	1228.31
482.28	1218.31
482.498	1187.31
482.717	1181.31
482.935	1177.31
483.153	1166.31
483.372	1173.31
483.59	1198.31
483.808	1168.31
484.027	1213.31
484.245	1224.31
484.463	1198.31
484.681	1207.31
484.9	1205.31
485.118	1237.31
485.336	1225.31
485.554	1234.31
485.772	1246.31
485.99	1258.31
486.209	1254.31
486.427	1272.31
486.645	1272.31
486.863	1251.31
487.081	1267.31
487.299	1225.31
487.517	1231.31
487.735	1242.31
487.953	1229.31
488.171	1256.31
488.389	1197.31
488.607	1216.31
488.825	1207.31
489.043	1207.31
489.261	1236.31
489.479	1247.31
489.696	1225.31
489.914	1243.31
490.132	1286.31
490.35	1265.31
490.568	1320.31
490.786	1281.31
491.003	1257.31
491.221	1270.31
491.439	1247.31
491.657	1259.31
491.874	1289.31
492.092	1260.31
492.31	1287.31
492.527	1273.31
492.745	1287.31
492.963	1288.31
493.18	1302.31
493.398	1316.31
493.615	1317.31
493.833	1290.31
494.05	1311.31
494.268	1334.31
494.485	1300.31
494.703	1309.31
