Data from NiCl2@0.5M.TitratingCurve.Agarose3%dH2O.NegLispCup.LampEnergy10.LIBS07252019_HRD10591_18-20-32-572.txt Node
Date: Thu Jul 25 18:20:32 EDT 2019
User: cochatt
Spectrometer: HR+D1059
Trigger mode: 1
Integration Time (sec): 1.000000E-1
Scans to average: 1
Electric dark correction enabled: true
Nonlinearity correction enabled: false
Boxcar width: 0
XAxis mode: Wavelengths
Number of Pixels in Spectrum: 2048
>>>>>Begin Spectral Data<<<<<
223.165	-2.81
223.4	-2.81
223.635	-2.81
223.869	-33.81
224.104	-15.81
224.338	-15.81
224.573	-24.81
224.808	-11.81
225.042	-13.81
225.277	-12.81
225.511	9.19
225.746	1.19
225.98	15.19
226.215	22.19
226.449	11.19
226.683	9.19
226.918	29.19
227.152	34.19
227.387	13.19
227.621	21.19
227.856	40.19
228.09	36.19
228.324	40.19
228.559	52.19
228.793	70.19
229.027	88.19
229.262	98.19
229.496	93.19
229.73	105.19
229.964	111.19
230.199	103.19
230.433	119.19
230.667	132.19
230.901	123.19
231.136	125.19
231.37	104.19
231.604	127.19
231.838	137.19
232.072	125.19
232.306	126.19
232.541	139.19
232.775	131.19
233.009	129.19
233.243	130.19
233.477	122.19
233.711	126.19
233.945	118.19
234.179	136.19
234.413	136.19
234.647	119.19
234.881	141.19
235.115	125.19
235.349	119.19
235.583	130.19
235.817	127.19
236.051	136.19
236.285	130.19
236.519	136.19
236.753	144.19
236.987	130.19
237.221	129.19
237.455	146.19
237.689	129.19
237.922	123.19
238.156	140.19
238.39	141.19
238.624	147.19
238.858	132.19
239.091	157.19
239.325	145.19
239.559	136.19
239.793	153.19
240.027	140.19
240.26	123.19
240.494	147.19
240.728	158.19
240.961	151.19
241.195	141.19
241.429	161.19
241.662	162.19
241.896	155.19
242.13	147.19
242.363	162.19
242.597	166.19
242.83	160.19
243.064	158.19
243.298	160.19
243.531	176.19
243.765	177.19
243.998	177.19
244.232	169.19
244.465	170.19
244.699	178.19
244.932	168.19
245.166	170.19
245.399	181.19
245.633	192.19
245.866	162.19
246.099	168.19
246.333	163.19
246.566	187.19
246.8	183.19
247.033	184.19
247.266	180.19
247.5	180.19
247.733	193.19
247.966	185.19
248.2	191.19
248.433	199.19
248.666	199.19
248.899	195.19
249.133	205.19
249.366	197.19
249.599	208.19
249.832	189.19
250.066	217.19
250.299	202.19
250.532	220.19
250.765	204.19
250.998	201.19
251.231	198.19
251.465	215.19
251.698	197.19
251.931	218.19
252.164	233.19
252.397	217.19
252.63	226.19
252.863	215.19
253.096	233.19
253.329	216.19
253.562	210.19
253.795	209.19
254.028	218.19
254.261	217.19
254.494	223.19
254.727	220.19
254.96	221.19
255.193	204.19
255.426	221.19
255.659	227.19
255.892	234.19
256.124	249.19
256.357	227.19
256.59	226.19
256.823	215.19
257.056	218.19
257.289	258.19
257.521	241.19
257.754	211.19
257.987	233.19
258.22	249.19
258.452	231.19
258.685	267.19
258.918	244.19
259.151	236.19
259.383	258.19
259.616	264.19
259.849	262.19
260.081	261.19
260.314	262.19
260.547	253.19
260.779	265.19
261.012	242.19
261.244	265.19
261.477	247.19
261.71	267.19
261.942	266.19
262.175	260.19
262.407	266.19
262.64	263.19
262.872	259.19
263.105	268.19
263.337	268.19
263.57	262.19
263.802	269.19
264.035	266.19
264.267	279.19
264.499	284.19
264.732	264.19
264.964	263.19
265.197	280.19
265.429	265.19
265.661	283.19
265.894	281.19
266.126	275.19
266.358	294.19
266.591	293.19
266.823	280.19
267.055	282.19
267.287	281.19
267.52	275.19
267.752	282.19
267.984	288.19
268.216	282.19
268.448	303.19
268.681	311.19
268.913	303.19
269.145	324.19
269.377	300.19
269.609	306.19
269.841	301.19
270.073	317.19
270.306	292.19
270.538	304.19
270.77	298.19
271.002	282.19
271.234	295.19
271.466	319.19
271.698	312.19
271.93	312.19
272.162	315.19
272.394	318.19
272.626	318.19
272.858	313.19
273.09	290.19
273.322	301.19
273.553	299.19
273.785	311.19
274.017	313.19
274.249	317.19
274.481	325.19
274.713	331.19
274.945	320.19
275.176	330.19
275.408	319.19
275.64	336.19
275.872	318.19
276.104	346.19
276.335	331.19
276.567	346.19
276.799	314.19
277.031	349.19
277.262	325.19
277.494	337.19
277.726	331.19
277.957	333.19
278.189	337.19
278.421	339.19
278.652	331.19
278.884	337.19
279.115	335.19
279.347	362.19
279.579	361.19
279.81	344.19
280.042	345.19
280.273	358.19
280.505	369.19
280.736	373.19
280.968	360.19
281.199	362.19
281.431	360.19
281.662	362.19
281.894	383.19
282.125	354.19
282.356	374.19
282.588	365.19
282.819	375.19
283.051	390.19
283.282	366.19
283.513	368.19
283.745	378.19
283.976	390.19
284.207	378.19
284.439	388.19
284.67	387.19
284.901	385.19
285.132	391.19
285.364	380.19
285.595	369.19
285.826	386.19
286.057	399.19
286.288	402.19
286.52	416.19
286.751	403.19
286.982	395.19
287.213	393.19
287.444	394.19
287.675	405.19
287.906	386.19
288.138	414.19
288.369	409.19
288.6	397.19
288.831	407.19
289.062	414.19
289.293	406.19
289.524	426.19
289.755	421.19
289.986	421.19
290.217	413.19
290.448	441.19
290.679	434.19
290.91	405.19
291.141	404.19
291.371	432.19
291.602	419.19
291.833	431.19
292.064	406.19
292.295	404.19
292.526	432.19
292.757	419.19
292.987	432.19
293.218	417.19
293.449	417.19
293.68	437.19
293.91	413.19
294.141	411.19
294.372	415.19
294.603	427.19
294.833	438.19
295.064	417.19
295.295	419.19
295.525	430.19
295.756	440.19
295.987	417.19
296.217	421.19
296.448	454.19
296.679	435.19
296.909	434.19
297.14	453.19
297.37	436.19
297.601	441.19
297.831	433.19
298.062	450.19
298.292	481.19
298.523	464.19
298.753	467.19
298.984	442.19
299.214	478.19
299.445	442.19
299.675	471.19
299.905	480.19
300.136	478.19
300.366	467.19
300.597	480.19
300.827	508.19
301.057	469.19
301.288	515.19
301.518	497.19
301.748	496.19
301.979	493.19
302.209	490.19
302.439	493.19
302.669	489.19
302.9	486.19
303.13	487.19
303.36	485.19
303.59	476.19
303.82	482.19
304.051	475.19
304.281	471.19
304.511	500.19
304.741	489.19
304.971	484.19
305.201	473.19
305.431	477.19
305.661	492.19
305.891	480.19
306.121	486.19
306.352	469.19
306.582	457.19
306.812	461.19
307.042	475.19
307.272	479.19
307.502	468.19
307.731	465.19
307.961	471.19
308.191	477.19
308.421	489.19
308.651	482.19
308.881	472.19
309.111	477.19
309.341	462.19
309.571	453.19
309.8	478.19
310.03	468.19
310.26	477.19
310.49	485.19
310.72	475.19
310.949	489.19
311.179	502.19
311.409	487.19
311.639	500.19
311.868	499.19
312.098	467.19
312.328	497.19
312.557	510.19
312.787	494.19
313.017	513.19
313.246	530.19
313.476	503.19
313.706	517.19
313.935	519.19
314.165	498.19
314.394	497.19
314.624	512.19
314.853	495.19
315.083	524.19
315.312	539.19
315.542	521.19
315.771	503.19
316.001	495.19
316.23	505.19
316.46	513.19
316.689	524.19
316.919	516.19
317.148	515.19
317.377	535.19
317.607	505.19
317.836	502.19
318.065	509.19
318.295	498.19
318.524	502.19
318.753	511.19
318.983	514.19
319.212	523.19
319.441	501.19
319.67	511.19
319.9	489.19
320.129	484.19
320.358	496.19
320.587	487.19
320.816	521.19
321.046	503.19
321.275	489.19
321.504	508.19
321.733	523.19
321.962	517.19
322.191	526.19
322.42	514.19
322.649	526.19
322.878	528.19
323.108	506.19
323.337	534.19
323.566	531.19
323.795	545.19
324.024	505.19
324.253	518.19
324.482	522.19
324.71	534.19
324.939	524.19
325.168	551.19
325.397	530.19
325.626	538.19
325.855	541.19
326.084	531.19
326.313	530.19
326.542	547.19
326.77	577.19
326.999	559.19
327.228	525.19
327.457	526.19
327.686	548.19
327.914	547.19
328.143	565.19
328.372	570.19
328.6	577.19
328.829	533.19
329.058	561.19
329.287	555.19
329.515	553.19
329.744	568.19
329.972	557.19
330.201	560.19
330.43	575.19
330.658	577.19
330.887	582.19
331.115	576.19
331.344	581.19
331.572	590.19
331.801	616.19
332.03	617.19
332.258	630.19
332.486	641.19
332.715	643.19
332.943	677.19
333.172	697.19
333.4	718.19
333.629	735.19
333.857	727.19
334.085	716.19
334.314	699.19
334.542	706.19
334.771	709.19
334.999	701.19
335.227	737.19
335.455	685.19
335.684	693.19
335.912	714.19
336.14	675.19
336.369	679.19
336.597	670.19
336.825	690.19
337.053	682.19
337.281	667.19
337.51	662.19
337.738	648.19
337.966	645.19
338.194	626.19
338.422	622.19
338.65	607.19
338.878	598.19
339.106	622.19
339.334	641.19
339.562	615.19
339.79	607.19
340.018	572.19
340.246	568.19
340.474	580.19
340.702	580.19
340.93	583.19
341.158	582.19
341.386	564.19
341.614	598.19
341.842	623.19
342.07	575.19
342.298	575.19
342.526	598.19
342.754	583.19
342.981	585.19
343.209	592.19
343.437	614.19
343.665	678.19
343.893	682.19
344.12	698.19
344.348	689.19
344.576	666.19
344.804	655.19
345.031	609.19
345.259	583.19
345.487	597.19
345.714	601.19
345.942	624.19
346.17	618.19
346.397	597.19
346.625	584.19
346.853	555.19
347.08	561.19
347.308	571.19
347.535	572.19
347.763	581.19
347.99	536.19
348.218	577.19
348.445	559.19
348.673	561.19
348.9	541.19
349.128	575.19
349.355	581.19
349.583	564.19
349.81	577.19
350.037	550.19
350.265	556.19
350.492	550.19
350.72	550.19
350.947	558.19
351.174	565.19
351.402	549.19
351.629	567.19
351.856	547.19
352.083	533.19
352.311	535.19
352.538	552.19
352.765	572.19
352.992	535.19
353.22	531.19
353.447	527.19
353.674	551.19
353.901	558.19
354.128	527.19
354.355	526.19
354.583	527.19
354.81	549.19
355.037	543.19
355.264	521.19
355.491	547.19
355.718	557.19
355.945	534.19
356.172	538.19
356.399	546.19
356.626	554.19
356.853	566.19
357.08	543.19
357.307	536.19
357.534	540.19
357.761	525.19
357.988	544.19
358.215	516.19
358.441	545.19
358.668	530.19
358.895	514.19
359.122	540.19
359.349	522.19
359.576	513.19
359.802	509.19
360.029	537.19
360.256	540.19
360.483	532.19
360.709	535.19
360.936	535.19
361.163	546.19
361.39	541.19
361.616	547.19
361.843	552.19
362.07	559.19
362.296	533.19
362.523	524.19
362.749	514.19
362.976	541.19
363.203	527.19
363.429	521.19
363.656	516.19
363.882	530.19
364.109	539.19
364.335	506.19
364.562	520.19
364.788	517.19
365.015	545.19
365.241	522.19
365.468	529.19
365.694	539.19
365.92	554.19
366.147	527.19
366.373	521.19
366.599	532.19
366.826	551.19
367.052	533.19
367.278	531.19
367.505	538.19
367.731	537.19
367.957	534.19
368.184	534.19
368.41	519.19
368.636	541.19
368.862	527.19
369.089	533.19
369.315	533.19
369.541	567.19
369.767	552.19
369.993	549.19
370.219	549.19
370.445	536.19
370.672	542.19
370.898	563.19
371.124	554.19
371.35	566.19
371.576	590.19
371.802	559.19
372.028	580.19
372.254	562.19
372.48	585.19
372.706	590.19
372.932	585.19
373.158	587.19
373.384	552.19
373.61	559.19
373.835	592.19
374.061	592.19
374.287	582.19
374.513	571.19
374.739	595.19
374.965	612.19
375.191	609.19
375.416	612.19
375.642	598.19
375.868	581.19
376.094	569.19
376.319	560.19
376.545	568.19
376.771	574.19
376.997	556.19
377.222	559.19
377.448	568.19
377.674	559.19
377.899	565.19
378.125	558.19
378.35	565.19
378.576	552.19
378.802	569.19
379.027	545.19
379.253	544.19
379.478	543.19
379.704	564.19
379.929	550.19
380.155	548.19
380.38	574.19
380.606	545.19
380.831	559.19
381.057	556.19
381.282	541.19
381.507	559.19
381.733	559.19
381.958	560.19
382.184	553.19
382.409	581.19
382.634	573.19
382.86	574.19
383.085	587.19
383.31	583.19
383.535	614.19
383.761	619.19
383.986	622.19
384.211	625.19
384.436	646.19
384.662	659.19
384.887	645.19
385.112	649.19
385.337	647.19
385.562	666.19
385.787	659.19
386.013	682.19
386.238	663.19
386.463	668.19
386.688	700.19
386.913	662.19
387.138	651.19
387.363	659.19
387.588	643.19
387.813	690.19
388.038	627.19
388.263	650.19
388.488	657.19
388.713	649.19
388.938	665.19
389.163	653.19
389.387	659.19
389.612	645.19
389.837	632.19
390.062	661.19
390.287	657.19
390.512	635.19
390.736	661.19
390.961	688.19
391.186	653.19
391.411	686.19
391.636	713.19
391.86	746.19
392.085	773.19
392.31	741.19
392.534	726.19
392.759	695.19
392.984	705.19
393.208	708.19
393.433	697.19
393.658	701.19
393.882	703.19
394.107	667.19
394.331	710.19
394.556	699.19
394.78	707.19
395.005	710.19
395.229	698.19
395.454	745.19
395.678	732.19
395.903	737.19
396.127	763.19
396.352	703.19
396.576	714.19
396.801	690.19
397.025	713.19
397.249	738.19
397.474	737.19
397.698	756.19
397.922	769.19
398.147	761.19
398.371	786.19
398.595	801.19
398.82	844.19
399.044	890.19
399.268	961.19
399.492	1090.19
399.717	1232.19
399.941	1209.19
400.165	1080.19
400.389	1003.19
400.613	884.19
400.837	867.19
401.062	816.19
401.286	837.19
401.51	835.19
401.734	826.19
401.958	882.19
402.182	862.19
402.406	854.19
402.63	877.19
402.854	863.19
403.078	856.19
403.302	887.19
403.526	913.19
403.75	934.19
403.974	942.19
404.198	946.19
404.422	942.19
404.645	941.19
404.869	962.19
405.093	950.19
405.317	899.19
405.541	910.19
405.765	902.19
405.988	909.19
406.212	925.19
406.436	900.19
406.66	940.19
406.883	930.19
407.107	966.19
407.331	1043.19
407.555	1069.19
407.778	1064.19
408.002	1022.19
408.226	991.19
408.449	987.19
408.673	956.19
408.896	934.19
409.12	933.19
409.344	957.19
409.567	942.19
409.791	936.19
410.014	958.19
410.238	912.19
410.461	919.19
410.685	918.19
410.908	901.19
411.132	878.19
411.355	849.19
411.578	875.19
411.802	864.19
412.025	874.19
412.249	896.19
412.472	879.19
412.695	881.19
412.919	848.19
413.142	827.19
413.365	850.19
413.589	864.19
413.812	821.19
414.035	824.19
414.258	831.19
414.482	840.19
414.705	849.19
414.928	858.19
415.151	833.19
415.374	831.19
415.597	832.19
415.821	819.19
416.044	801.19
416.267	847.19
416.49	819.19
416.713	813.19
416.936	834.19
417.159	835.19
417.382	815.19
417.605	817.19
417.828	832.19
418.051	865.19
418.274	860.19
418.497	885.19
418.72	849.19
418.943	863.19
419.166	914.19
419.389	945.19
419.611	930.19
419.834	898.19
420.057	890.19
420.28	865.19
420.503	828.19
420.726	843.19
420.948	839.19
421.171	826.19
421.394	851.19
421.617	824.19
421.839	847.19
422.062	862.19
422.285	817.19
422.507	868.19
422.73	845.19
422.953	849.19
423.175	886.19
423.398	907.19
423.621	891.19
423.843	884.19
424.066	875.19
424.288	872.19
424.511	886.19
424.733	878.19
424.956	855.19
425.178	858.19
425.401	847.19
425.623	835.19
425.846	849.19
426.068	808.19
426.291	814.19
426.513	823.19
426.735	808.19
426.958	801.19
427.18	771.19
427.402	762.19
427.625	779.19
427.847	757.19
428.069	775.19
428.292	771.19
428.514	746.19
428.736	749.19
428.958	750.19
429.181	759.19
429.403	742.19
429.625	742.19
429.847	737.19
430.069	770.19
430.292	760.19
430.514	757.19
430.736	755.19
430.958	729.19
431.18	744.19
431.402	765.19
431.624	739.19
431.846	791.19
432.068	757.19
432.29	776.19
432.512	740.19
432.734	790.19
432.956	757.19
433.178	794.19
433.4	757.19
433.622	774.19
433.844	772.19
434.066	765.19
434.287	807.19
434.509	823.19
434.731	837.19
434.953	862.19
435.175	901.19
435.397	858.19
435.618	823.19
435.84	817.19
436.062	753.19
436.284	762.19
436.505	777.19
436.727	766.19
436.949	761.19
437.17	787.19
437.392	759.19
437.614	737.19
437.835	722.19
438.057	745.19
438.278	735.19
438.5	752.19
438.721	763.19
438.943	754.19
439.165	756.19
439.386	766.19
439.608	753.19
439.829	787.19
440.05	794.19
440.272	805.19
440.493	767.19
440.715	823.19
440.936	823.19
441.158	834.19
441.379	842.19
441.6	855.19
441.822	847.19
442.043	885.19
442.264	849.19
442.486	833.19
442.707	849.19
442.928	831.19
443.149	845.19
443.371	848.19
443.592	877.19
443.813	851.19
444.034	895.19
444.255	887.19
444.476	947.19
444.698	965.19
444.919	1020.19
445.14	1097.19
445.361	994.19
445.582	916.19
445.803	854.19
446.024	838.19
446.245	826.19
446.466	840.19
446.687	793.19
446.908	812.19
447.129	732.19
447.35	753.19
447.571	754.19
447.792	736.19
448.013	749.19
448.234	737.19
448.455	721.19
448.675	721.19
448.896	732.19
449.117	722.19
449.338	729.19
449.559	708.19
449.779	711.19
450	700.19
450.221	710.19
450.442	731.19
450.662	757.19
450.883	737.19
451.104	769.19
451.324	737.19
451.545	759.19
451.766	727.19
451.986	713.19
452.207	721.19
452.428	715.19
452.648	719.19
452.869	717.19
453.089	697.19
453.31	722.19
453.53	690.19
453.751	698.19
453.971	678.19
454.192	645.19
454.412	671.19
454.633	676.19
454.853	680.19
455.073	699.19
455.294	669.19
455.514	680.19
455.734	678.19
455.955	658.19
456.175	656.19
456.395	663.19
456.616	670.19
456.836	677.19
457.056	639.19
457.276	675.19
457.497	683.19
457.717	693.19
457.937	687.19
458.157	667.19
458.377	675.19
458.598	702.19
458.818	738.19
459.038	738.19
459.258	762.19
459.478	811.19
459.698	828.19
459.918	844.19
460.138	881.19
460.358	889.19
460.578	922.19
460.798	918.19
461.018	906.19
461.238	880.19
461.458	931.19
461.678	919.19
461.898	921.19
462.118	911.19
462.338	959.19
462.558	1017.19
462.777	1050.19
462.997	1121.19
463.217	1201.19
463.437	1182.19
463.657	1123.19
463.876	1074.19
464.096	1061.19
464.316	1051.19
464.536	1063.19
464.755	1033.19
464.975	1032.19
465.195	941.19
465.414	917.19
465.634	859.19
465.854	803.19
466.073	830.19
466.293	797.19
466.512	789.19
466.732	754.19
466.951	757.19
467.171	745.19
467.391	754.19
467.61	783.19
467.829	766.19
468.049	750.19
468.268	724.19
468.488	745.19
468.707	710.19
468.927	753.19
469.146	729.19
469.365	763.19
469.585	754.19
469.804	775.19
470.023	765.19
470.243	782.19
470.462	789.19
470.681	780.19
470.901	796.19
471.12	804.19
471.339	760.19
471.558	769.19
471.777	750.19
471.997	762.19
472.216	739.19
472.435	725.19
472.654	702.19
472.873	712.19
473.092	730.19
473.311	693.19
473.53	707.19
473.749	698.19
473.968	725.19
474.187	709.19
474.406	705.19
474.625	727.19
474.844	698.19
475.063	708.19
475.282	721.19
475.501	722.19
475.72	737.19
475.939	741.19
476.158	730.19
476.377	760.19
476.596	751.19
476.814	755.19
477.033	751.19
477.252	773.19
477.471	783.19
477.69	778.19
477.908	806.19
478.127	859.19
478.346	861.19
478.564	867.19
478.783	861.19
479.002	885.19
479.22	882.19
479.439	885.19
479.658	897.19
479.876	885.19
480.095	884.19
480.313	906.19
480.532	927.19
480.751	947.19
480.969	895.19
481.188	872.19
481.406	845.19
481.624	843.19
481.843	858.19
482.061	825.19
482.28	810.19
482.498	814.19
482.717	831.19
482.935	838.19
483.153	821.19
483.372	835.19
483.59	851.19
483.808	817.19
484.027	832.19
484.245	844.19
484.463	838.19
484.681	856.19
484.9	840.19
485.118	851.19
485.336	849.19
485.554	870.19
485.772	890.19
485.99	886.19
486.209	862.19
486.427	873.19
486.645	865.19
486.863	887.19
487.081	849.19
487.299	873.19
487.517	887.19
487.735	882.19
487.953	861.19
488.171	878.19
488.389	859.19
488.607	845.19
488.825	874.19
489.043	834.19
489.261	847.19
489.479	846.19
489.696	865.19
489.914	859.19
490.132	850.19
490.35	843.19
490.568	849.19
490.786	865.19
491.003	874.19
491.221	885.19
491.439	899.19
491.657	883.19
491.874	875.19
492.092	897.19
492.31	887.19
492.527	894.19
492.745	902.19
492.963	897.19
493.18	894.19
493.398	900.19
493.615	912.19
493.833	910.19
494.05	891.19
494.268	899.19
494.485	908.19
494.703	927.19
494.92	933.19
495.138	938.19
495.355	930.19
495.573	936.19
495.79	918.19
496.008	959.19
496.225	943.19
496.442	933.19
496.66	939.19
496.877	953.19
497.094	975.19
497.312	1041.19
497.529	993.19
497.746	1023.19
497.963	1071.19
498.181	1096.19
498.398	1142.19
498.615	1221.19
498.832	1308.19
499.049	1382.19
499.267	1519.19
499.484	1645.19
499.701	1793.19
499.918	1962.19
500.135	2192.19
500.352	2463.19
500.569	2577.19
500.786	2564.19
501.003	2392.19
501.22	2131.19
