Data from NiCl2@0.25M.TitratingCurve.Agarose3%dH2O.NegLispCup.LampEnergy10.LIBS07252019_HRD10591_18-24-54-574.txt Node
Date: Thu Jul 25 18:24:54 EDT 2019
User: cochatt
Spectrometer: HR+D1059
Trigger mode: 1
Integration Time (sec): 1.000000E-1
Scans to average: 1
Electric dark correction enabled: true
Nonlinearity correction enabled: false
Boxcar width: 0
XAxis mode: Wavelengths
Number of Pixels in Spectrum: 2048
>>>>>Begin Spectral Data<<<<<
223.165	-17.69
223.4	-17.69
223.635	-17.69
223.869	-6.69
224.104	-11.69
224.338	-13.69
224.573	-18.69
224.808	-11.69
225.042	0.31
225.277	-10.69
225.511	-15.69
225.746	14.31
225.98	7.31
226.215	9.31
226.449	18.31
226.683	13.31
226.918	19.31
227.152	24.31
227.387	27.31
227.621	40.31
227.856	41.31
228.09	36.31
228.324	38.31
228.559	62.31
228.793	82.31
229.027	115.31
229.262	126.31
229.496	131.31
229.73	142.31
229.964	128.31
230.199	125.31
230.433	144.31
230.667	144.31
230.901	137.31
231.136	132.31
231.37	159.31
231.604	165.31
231.838	148.31
232.072	152.31
232.306	156.31
232.541	162.31
232.775	142.31
233.009	149.31
233.243	162.31
233.477	156.31
233.711	136.31
233.945	164.31
234.179	178.31
234.413	148.31
234.647	162.31
234.881	172.31
235.115	180.31
235.349	169.31
235.583	148.31
235.817	161.31
236.051	152.31
236.285	164.31
236.519	172.31
236.753	152.31
236.987	170.31
237.221	140.31
237.455	170.31
237.689	184.31
237.922	160.31
238.156	172.31
238.39	163.31
238.624	184.31
238.858	167.31
239.091	188.31
239.325	189.31
239.559	184.31
239.793	196.31
240.027	182.31
240.26	184.31
240.494	184.31
240.728	206.31
240.961	205.31
241.195	195.31
241.429	217.31
241.662	202.31
241.896	200.31
242.13	197.31
242.363	193.31
242.597	205.31
242.83	224.31
243.064	215.31
243.298	209.31
243.531	227.31
243.765	223.31
243.998	228.31
244.232	236.31
244.465	214.31
244.699	235.31
244.932	239.31
245.166	233.31
245.399	222.31
245.633	236.31
245.866	240.31
246.099	232.31
246.333	233.31
246.566	239.31
246.8	264.31
247.033	245.31
247.266	248.31
247.5	263.31
247.733	250.31
247.966	249.31
248.2	252.31
248.433	258.31
248.666	273.31
248.899	260.31
249.133	252.31
249.366	268.31
249.599	265.31
249.832	256.31
250.066	261.31
250.299	276.31
250.532	280.31
250.765	278.31
250.998	273.31
251.231	283.31
251.465	268.31
251.698	279.31
251.931	289.31
252.164	298.31
252.397	301.31
252.63	304.31
252.863	313.31
253.096	308.31
253.329	318.31
253.562	297.31
253.795	305.31
254.028	308.31
254.261	293.31
254.494	326.31
254.727	306.31
254.96	310.31
255.193	314.31
255.426	300.31
255.659	332.31
255.892	317.31
256.124	314.31
256.357	308.31
256.59	308.31
256.823	323.31
257.056	345.31
257.289	325.31
257.521	332.31
257.754	341.31
257.987	322.31
258.22	342.31
258.452	336.31
258.685	334.31
258.918	323.31
259.151	338.31
259.383	326.31
259.616	355.31
259.849	360.31
260.081	349.31
260.314	336.31
260.547	345.31
260.779	337.31
261.012	347.31
261.244	345.31
261.477	343.31
261.71	340.31
261.942	351.31
262.175	363.31
262.407	378.31
262.64	348.31
262.872	357.31
263.105	365.31
263.337	362.31
263.57	377.31
263.802	360.31
264.035	365.31
264.267	365.31
264.499	368.31
264.732	379.31
264.964	390.31
265.197	386.31
265.429	381.31
265.661	383.31
265.894	392.31
266.126	388.31
266.358	390.31
266.591	391.31
266.823	401.31
267.055	359.31
267.287	408.31
267.52	382.31
267.752	409.31
267.984	388.31
268.216	414.31
268.448	405.31
268.681	407.31
268.913	407.31
269.145	403.31
269.377	426.31
269.609	420.31
269.841	417.31
270.073	409.31
270.306	403.31
270.538	397.31
270.77	414.31
271.002	407.31
271.234	416.31
271.466	410.31
271.698	412.31
271.93	431.31
272.162	421.31
272.394	436.31
272.626	427.31
272.858	434.31
273.09	410.31
273.322	428.31
273.553	451.31
273.785	444.31
274.017	446.31
274.249	433.31
274.481	432.31
274.713	441.31
274.945	454.31
275.176	436.31
275.408	470.31
275.64	462.31
275.872	461.31
276.104	475.31
276.335	452.31
276.567	444.31
276.799	467.31
277.031	480.31
277.262	481.31
277.494	456.31
277.726	468.31
277.957	462.31
278.189	478.31
278.421	478.31
278.652	489.31
278.884	489.31
279.115	489.31
279.347	508.31
279.579	489.31
279.81	499.31
280.042	495.31
280.273	491.31
280.505	509.31
280.736	518.31
280.968	486.31
281.199	524.31
281.431	489.31
281.662	518.31
281.894	530.31
282.125	509.31
282.356	536.31
282.588	532.31
282.819	523.31
283.051	522.31
283.282	536.31
283.513	526.31
283.745	537.31
283.976	538.31
284.207	522.31
284.439	557.31
284.67	522.31
284.901	530.31
285.132	535.31
285.364	554.31
285.595	550.31
285.826	551.31
286.057	559.31
286.288	545.31
286.52	554.31
286.751	549.31
286.982	555.31
287.213	565.31
287.444	552.31
287.675	573.31
287.906	552.31
288.138	578.31
288.369	580.31
288.6	552.31
288.831	568.31
289.062	570.31
289.293	602.31
289.524	599.31
289.755	580.31
289.986	590.31
290.217	573.31
290.448	590.31
290.679	585.31
290.91	553.31
291.141	584.31
291.371	587.31
291.602	586.31
291.833	582.31
292.064	600.31
292.295	591.31
292.526	574.31
292.757	594.31
292.987	587.31
293.218	601.31
293.449	589.31
293.68	608.31
293.91	590.31
294.141	609.31
294.372	569.31
294.603	596.31
294.833	598.31
295.064	605.31
295.295	599.31
295.525	585.31
295.756	586.31
295.987	598.31
296.217	616.31
296.448	592.31
296.679	608.31
296.909	617.31
297.14	618.31
297.37	628.31
297.601	630.31
297.831	639.31
298.062	638.31
298.292	645.31
298.523	653.31
298.753	637.31
298.984	600.31
299.214	620.31
299.445	628.31
299.675	626.31
299.905	631.31
300.136	640.31
300.366	653.31
300.597	631.31
300.827	680.31
301.057	668.31
301.288	658.31
301.518	662.31
301.748	669.31
301.979	691.31
302.209	673.31
302.439	684.31
302.669	670.31
302.9	681.31
303.13	672.31
303.36	659.31
303.59	661.31
303.82	668.31
304.051	654.31
304.281	667.31
304.511	648.31
304.741	642.31
304.971	654.31
305.201	674.31
305.431	641.31
305.661	658.31
305.891	648.31
306.121	636.31
306.352	649.31
306.582	648.31
306.812	635.31
307.042	648.31
307.272	650.31
307.502	652.31
307.731	655.31
307.961	655.31
308.191	651.31
308.421	646.31
308.651	643.31
308.881	660.31
309.111	640.31
309.341	644.31
309.571	661.31
309.8	641.31
310.03	655.31
310.26	647.31
310.49	653.31
310.72	653.31
310.949	660.31
311.179	656.31
311.409	641.31
311.639	631.31
311.868	668.31
312.098	690.31
312.328	667.31
312.557	680.31
312.787	680.31
313.017	686.31
313.246	690.31
313.476	672.31
313.706	714.31
313.935	729.31
314.165	695.31
314.394	733.31
314.624	691.31
314.853	712.31
315.083	692.31
315.312	713.31
315.542	692.31
315.771	690.31
316.001	694.31
316.23	669.31
316.46	666.31
316.689	683.31
316.919	691.31
317.148	690.31
317.377	680.31
317.607	680.31
317.836	712.31
318.065	659.31
318.295	683.31
318.524	710.31
318.753	669.31
318.983	708.31
319.212	686.31
319.441	688.31
319.67	657.31
319.9	665.31
320.129	665.31
320.358	683.31
320.587	674.31
320.816	677.31
321.046	695.31
321.275	696.31
321.504	684.31
321.733	680.31
321.962	712.31
322.191	681.31
322.42	692.31
322.649	695.31
322.878	704.31
323.108	690.31
323.337	710.31
323.566	697.31
323.795	714.31
324.024	749.31
324.253	695.31
324.482	700.31
324.71	708.31
324.939	721.31
325.168	715.31
325.397	736.31
325.626	730.31
325.855	724.31
326.084	746.31
326.313	740.31
326.542	737.31
326.77	763.31
326.999	755.31
327.228	755.31
327.457	731.31
327.686	758.31
327.914	741.31
328.143	739.31
328.372	780.31
328.6	772.31
328.829	755.31
329.058	758.31
329.287	780.31
329.515	754.31
329.744	745.31
329.972	786.31
330.201	752.31
330.43	775.31
330.658	804.31
330.887	787.31
331.115	781.31
331.344	810.31
331.572	825.31
331.801	839.31
332.03	831.31
332.258	862.31
332.486	882.31
332.715	923.31
332.943	928.31
333.172	966.31
333.4	1030.31
333.629	1048.31
333.857	1028.31
334.085	1036.31
334.314	1028.31
334.542	1000.31
334.771	1027.31
334.999	979.31
335.227	975.31
335.455	958.31
335.684	932.31
335.912	940.31
336.14	924.31
336.369	923.31
336.597	918.31
336.825	930.31
337.053	909.31
337.281	869.31
337.51	881.31
337.738	875.31
337.966	848.31
338.194	850.31
338.422	830.31
338.65	806.31
338.878	840.31
339.106	831.31
339.334	834.31
339.562	834.31
339.79	806.31
340.018	798.31
340.246	811.31
340.474	782.31
340.702	807.31
340.93	792.31
341.158	809.31
341.386	813.31
341.614	795.31
341.842	794.31
342.07	772.31
342.298	794.31
342.526	783.31
342.754	790.31
342.981	786.31
343.209	832.31
343.437	858.31
343.665	904.31
343.893	962.31
344.12	987.31
344.348	986.31
344.576	902.31
344.804	877.31
345.031	844.31
345.259	816.31
345.487	798.31
345.714	786.31
345.942	760.31
346.17	749.31
346.397	788.31
346.625	746.31
346.853	759.31
347.08	747.31
347.308	767.31
347.535	754.31
347.763	763.31
347.99	747.31
348.218	797.31
348.445	756.31
348.673	748.31
348.9	773.31
349.128	754.31
349.355	733.31
349.583	757.31
349.81	739.31
350.037	753.31
350.265	772.31
350.492	750.31
350.72	728.31
350.947	726.31
351.174	747.31
351.402	748.31
351.629	747.31
351.856	730.31
352.083	712.31
352.311	731.31
352.538	732.31
352.765	738.31
352.992	717.31
353.22	702.31
353.447	710.31
353.674	716.31
353.901	745.31
354.128	733.31
354.355	714.31
354.583	714.31
354.81	725.31
355.037	749.31
355.264	741.31
355.491	729.31
355.718	748.31
355.945	740.31
356.172	749.31
356.399	747.31
356.626	770.31
356.853	752.31
357.08	727.31
357.307	743.31
357.534	731.31
357.761	720.31
357.988	735.31
358.215	720.31
358.441	722.31
358.668	727.31
358.895	733.31
359.122	729.31
359.349	757.31
359.576	758.31
359.802	732.31
360.029	730.31
360.256	731.31
360.483	724.31
360.709	741.31
360.936	744.31
361.163	739.31
361.39	722.31
361.616	736.31
361.843	746.31
362.07	731.31
362.296	754.31
362.523	724.31
362.749	741.31
362.976	718.31
363.203	747.31
363.429	708.31
363.656	734.31
363.882	733.31
364.109	731.31
364.335	717.31
364.562	702.31
364.788	710.31
365.015	732.31
365.241	729.31
365.468	717.31
365.694	734.31
365.92	746.31
366.147	722.31
366.373	740.31
366.599	722.31
366.826	734.31
367.052	726.31
367.278	745.31
367.505	741.31
367.731	732.31
367.957	756.31
368.184	739.31
368.41	721.31
368.636	749.31
368.862	752.31
369.089	734.31
369.315	764.31
369.541	728.31
369.767	772.31
369.993	780.31
370.219	760.31
370.445	772.31
370.672	762.31
370.898	784.31
371.124	785.31
371.35	805.31
371.576	804.31
371.802	792.31
372.028	770.31
372.254	810.31
372.48	825.31
372.706	818.31
372.932	859.31
373.158	828.31
373.384	813.31
373.61	816.31
373.835	808.31
374.061	794.31
374.287	812.31
374.513	828.31
374.739	838.31
374.965	867.31
375.191	880.31
375.416	918.31
375.642	860.31
375.868	848.31
376.094	853.31
376.319	809.31
376.545	806.31
376.771	804.31
376.997	790.31
377.222	822.31
377.448	801.31
377.674	838.31
377.899	802.31
378.125	806.31
378.35	792.31
378.576	796.31
378.802	812.31
379.027	783.31
379.253	783.31
379.478	806.31
379.704	787.31
379.929	780.31
380.155	781.31
380.38	780.31
380.606	793.31
380.831	769.31
381.057	809.31
381.282	799.31
381.507	801.31
381.733	810.31
381.958	816.31
382.184	809.31
382.409	808.31
382.634	843.31
382.86	828.31
383.085	842.31
383.31	844.31
383.535	864.31
383.761	894.31
383.986	908.31
384.211	901.31
384.436	928.31
384.662	928.31
384.887	968.31
385.112	975.31
385.337	967.31
385.562	971.31
385.787	969.31
386.013	982.31
386.238	1001.31
386.463	1011.31
386.688	1010.31
386.913	964.31
387.138	952.31
387.363	956.31
387.588	961.31
387.813	957.31
388.038	985.31
388.263	991.31
388.488	981.31
388.713	953.31
388.938	946.31
389.163	960.31
389.387	957.31
389.612	932.31
389.837	934.31
390.062	937.31
390.287	965.31
390.512	937.31
390.736	955.31
390.961	950.31
391.186	983.31
391.411	1020.31
391.636	1048.31
391.86	1070.31
392.085	1129.31
392.31	1118.31
392.534	1084.31
392.759	1052.31
392.984	1051.31
393.208	1034.31
393.433	1026.31
393.658	1052.31
393.882	1065.31
394.107	1015.31
394.331	1030.31
394.556	1044.31
394.78	1065.31
395.005	1095.31
395.229	1096.31
395.454	1086.31
395.678	1110.31
395.903	1122.31
396.127	1072.31
396.352	1058.31
396.576	1079.31
396.801	1036.31
397.025	1066.31
397.249	1090.31
397.474	1145.31
397.698	1099.31
397.922	1114.31
398.147	1114.31
398.371	1162.31
398.595	1173.31
398.82	1251.31
399.044	1328.31
399.268	1438.31
399.492	1712.31
399.717	1897.31
399.941	1939.31
400.165	1803.31
400.389	1552.31
400.613	1465.31
400.837	1310.31
401.062	1255.31
401.286	1266.31
401.51	1262.31
401.734	1244.31
401.958	1244.31
402.182	1263.31
402.406	1312.31
402.63	1288.31
402.854	1342.31
403.078	1304.31
403.302	1404.31
403.526	1422.31
403.75	1397.31
403.974	1469.31
404.198	1462.31
404.422	1462.31
404.645	1452.31
404.869	1410.31
405.093	1432.31
405.317	1382.31
405.541	1363.31
405.765	1384.31
405.988	1377.31
406.212	1371.31
406.436	1358.31
406.66	1390.31
406.883	1441.31
407.107	1510.31
407.331	1595.31
407.555	1649.31
407.778	1635.31
408.002	1584.31
408.226	1568.31
408.449	1522.31
408.673	1395.31
408.896	1399.31
409.12	1404.31
409.344	1407.31
409.567	1413.31
409.791	1409.31
410.014	1358.31
410.238	1367.31
410.461	1358.31
410.685	1377.31
410.908	1345.31
411.132	1296.31
411.355	1294.31
411.578	1282.31
411.802	1280.31
412.025	1299.31
412.249	1310.31
412.472	1314.31
412.695	1268.31
412.919	1256.31
413.142	1220.31
413.365	1245.31
413.589	1272.31
413.812	1236.31
414.035	1215.31
414.258	1222.31
414.482	1245.31
414.705	1256.31
414.928	1297.31
415.151	1236.31
415.374	1224.31
415.597	1213.31
415.821	1218.31
416.044	1240.31
416.267	1190.31
416.49	1189.31
416.713	1193.31
416.936	1206.31
417.159	1225.31
417.382	1225.31
417.605	1210.31
417.828	1191.31
418.051	1204.31
418.274	1222.31
418.497	1241.31
418.72	1266.31
418.943	1252.31
419.166	1320.31
419.389	1433.31
419.611	1419.31
419.834	1294.31
420.057	1285.31
420.28	1248.31
420.503	1229.31
420.726	1209.31
420.948	1218.31
421.171	1207.31
421.394	1232.31
421.617	1222.31
421.839	1233.31
422.062	1242.31
422.285	1214.31
422.507	1260.31
422.73	1245.31
422.953	1250.31
423.175	1313.31
423.398	1270.31
423.621	1299.31
423.843	1287.31
424.066	1294.31
424.288	1307.31
424.511	1281.31
424.733	1280.31
424.956	1254.31
425.178	1221.31
425.401	1248.31
425.623	1208.31
425.846	1181.31
426.068	1192.31
426.291	1174.31
426.513	1176.31
426.735	1158.31
426.958	1149.31
427.18	1104.31
427.402	1102.31
427.625	1131.31
427.847	1101.31
428.069	1097.31
428.292	1093.31
428.514	1081.31
428.736	1077.31
428.958	1068.31
429.181	1073.31
429.403	1055.31
429.625	1051.31
429.847	1042.31
430.069	1051.31
430.292	1050.31
430.514	1013.31
430.736	1055.31
430.958	1061.31
431.18	1051.31
431.402	1052.31
431.624	1036.31
431.846	1081.31
432.068	1104.31
432.29	1096.31
432.512	1079.31
432.734	1068.31
432.956	1050.31
433.178	1112.31
433.4	1058.31
433.622	1081.31
433.844	1088.31
434.066	1083.31
434.287	1129.31
434.509	1116.31
434.731	1147.31
434.953	1192.31
435.175	1229.31
435.397	1227.31
435.618	1137.31
435.84	1118.31
436.062	1085.31
436.284	1066.31
436.505	1062.31
436.727	1080.31
436.949	1056.31
437.17	1111.31
437.392	1053.31
437.614	1044.31
437.835	1038.31
438.057	1059.31
438.278	1024.31
438.5	1044.31
438.721	986.31
438.943	1056.31
439.165	1026.31
439.386	1043.31
439.608	1083.31
439.829	1068.31
440.05	1072.31
440.272	1044.31
440.493	1095.31
440.715	1087.31
440.936	1126.31
441.158	1101.31
441.379	1151.31
441.6	1182.31
441.822	1234.31
442.043	1216.31
442.264	1175.31
442.486	1196.31
442.707	1184.31
442.928	1206.31
443.149	1187.31
443.371	1170.31
443.592	1214.31
443.813	1213.31
444.034	1249.31
444.255	1248.31
444.476	1301.31
444.698	1387.31
444.919	1493.31
445.14	1577.31
445.361	1351.31
445.582	1259.31
445.803	1209.31
446.024	1150.31
446.245	1106.31
446.466	1102.31
446.687	1086.31
446.908	1089.31
447.129	1036.31
447.35	1044.31
447.571	1020.31
447.792	1004.31
448.013	989.31
448.234	982.31
448.455	981.31
448.675	985.31
448.896	973.31
449.117	973.31
449.338	936.31
449.559	971.31
449.779	961.31
450	957.31
450.221	956.31
450.442	975.31
450.662	967.31
450.883	958.31
451.104	1003.31
451.324	985.31
451.545	990.31
451.766	963.31
451.986	985.31
452.207	973.31
452.428	960.31
452.648	966.31
452.869	942.31
453.089	949.31
453.31	936.31
453.53	972.31
453.751	955.31
453.971	945.31
454.192	956.31
454.412	900.31
454.633	921.31
454.853	927.31
455.073	920.31
455.294	920.31
455.514	924.31
455.734	906.31
455.955	897.31
456.175	900.31
456.395	916.31
456.616	925.31
456.836	892.31
457.056	910.31
457.276	892.31
457.497	902.31
457.717	930.31
457.937	928.31
458.157	919.31
458.377	946.31
458.598	965.31
458.818	1014.31
459.038	1040.31
459.258	1055.31
459.478	1114.31
459.698	1129.31
459.918	1146.31
460.138	1200.31
460.358	1270.31
460.578	1302.31
460.798	1302.31
461.018	1272.31
461.238	1284.31
461.458	1300.31
461.678	1295.31
461.898	1285.31
462.118	1272.31
462.338	1402.31
462.558	1382.31
462.777	1451.31
462.997	1630.31
463.217	1746.31
463.437	1761.31
463.657	1653.31
463.876	1546.31
464.096	1546.31
464.316	1504.31
464.536	1524.31
464.755	1497.31
464.975	1399.31
465.195	1336.31
465.414	1233.31
465.634	1166.31
465.854	1128.31
466.073	1131.31
466.293	1070.31
466.512	1031.31
466.732	1041.31
466.951	1037.31
467.171	1040.31
467.391	1038.31
467.61	1020.31
467.829	1020.31
468.049	1005.31
468.268	972.31
468.488	971.31
468.707	957.31
468.927	986.31
469.146	993.31
469.365	1006.31
469.585	961.31
469.804	1004.31
470.023	1065.31
470.243	1082.31
470.462	1083.31
470.681	1059.31
470.901	1071.31
471.12	1058.31
471.339	1022.31
471.558	1000.31
471.777	1036.31
471.997	1025.31
472.216	1004.31
472.435	997.31
472.654	961.31
472.873	954.31
473.092	954.31
473.311	1010.31
473.53	971.31
473.749	972.31
473.968	939.31
474.187	960.31
474.406	962.31
474.625	928.31
474.844	950.31
475.063	944.31
475.282	966.31
475.501	977.31
475.72	965.31
475.939	972.31
476.158	1000.31
476.377	988.31
476.596	986.31
476.814	994.31
477.033	1010.31
477.252	1012.31
477.471	1062.31
477.69	1086.31
477.908	1093.31
478.127	1116.31
478.346	1171.31
478.564	1165.31
478.783	1170.31
479.002	1227.31
479.22	1212.31
479.439	1234.31
479.658	1202.31
479.876	1203.31
480.095	1231.31
480.313	1295.31
480.532	1314.31
480.751	1323.31
480.969	1253.31
481.188	1176.31
481.406	1128.31
481.624	1130.31
481.843	1108.31
482.061	1121.31
482.28	1114.31
482.498	1081.31
482.717	1077.31
482.935	1089.31
483.153	1102.31
483.372	1096.31
483.59	1087.31
483.808	1101.31
484.027	1100.31
484.245	1086.31
484.463	1092.31
484.681	1112.31
484.9	1103.31
485.118	1114.31
485.336	1134.31
485.554	1123.31
485.772	1141.31
485.99	1157.31
486.209	1152.31
486.427	1178.31
486.645	1152.31
486.863	1147.31
487.081	1164.31
487.299	1144.31
487.517	1155.31
487.735	1141.31
487.953	1164.31
488.171	1154.31
488.389	1158.31
488.607	1124.31
488.825	1087.31
489.043	1113.31
489.261	1120.31
489.479	1136.31
489.696	1144.31
489.914	1135.31
490.132	1152.31
490.35	1161.31
490.568	1156.31
490.786	1158.31
491.003	1141.31
491.221	1154.31
491.439	1158.31
491.657	1153.31
491.874	1166.31
492.092	1154.31
492.31	1172.31
492.527	1198.31
492.745	1187.31
492.963	1176.31
493.18	1191.31
493.398	1189.31
493.615	1194.31
493.833	1213.31
494.05	1216.31
494.268	1204.31
494.485	1201.31
494.703	1243.31
494.92	1243.31
495.138	1237.31
495.355	1244.31
495.573	1225.31
495.79	1261.31
496.008	1265.31
