Data from NiCl2@0.125M.TitratingCurve.Agarose3%dH2O.NegLispCup.LampEnergy10.LIBS07252019_HRD10591_18-28-04-574.txt Node
Date: Thu Jul 25 18:28:04 EDT 2019
User: cochatt
Spectrometer: HR+D1059
Trigger mode: 1
Integration Time (sec): 1.000000E-1
Scans to average: 1
Electric dark correction enabled: true
Nonlinearity correction enabled: false
Boxcar width: 0
XAxis mode: Wavelengths
Number of Pixels in Spectrum: 2048
>>>>>Begin Spectral Data<<<<<
223.165	-22.12
223.4	-22.12
223.635	-22.12
223.869	-11.12
224.104	-11.12
224.338	-21.12
224.573	-19.12
224.808	-18.12
225.042	4.88
225.277	1.88
225.511	-14.12
225.746	13.88
225.98	2.88
226.215	19.88
226.449	8.88
226.683	7.88
226.918	33.88
227.152	22.88
227.387	31.88
227.621	43.88
227.856	51.88
228.09	46.88
228.324	60.88
228.559	60.88
228.793	66.88
229.027	123.88
229.262	118.88
229.496	123.88
229.73	122.88
229.964	134.88
230.199	137.88
230.433	149.88
230.667	154.88
230.901	149.88
231.136	145.88
231.37	153.88
231.604	153.88
231.838	157.88
232.072	156.88
232.306	158.88
232.541	160.88
232.775	155.88
233.009	167.88
233.243	168.88
233.477	177.88
233.711	169.88
233.945	162.88
234.179	161.88
234.413	160.88
234.647	161.88
234.881	164.88
235.115	163.88
235.349	155.88
235.583	158.88
235.817	174.88
236.051	168.88
236.285	161.88
236.519	178.88
236.753	168.88
236.987	169.88
237.221	167.88
237.455	163.88
237.689	186.88
237.922	195.88
238.156	178.88
238.39	181.88
238.624	185.88
238.858	187.88
239.091	190.88
239.325	190.88
239.559	201.88
239.793	174.88
240.027	200.88
240.26	204.88
240.494	202.88
240.728	202.88
240.961	201.88
241.195	205.88
241.429	209.88
241.662	197.88
241.896	202.88
242.13	216.88
242.363	226.88
242.597	239.88
242.83	220.88
243.064	211.88
243.298	227.88
243.531	232.88
243.765	230.88
243.998	225.88
244.232	251.88
244.465	227.88
244.699	231.88
244.932	247.88
245.166	235.88
245.399	251.88
245.633	234.88
245.866	232.88
246.099	242.88
246.333	273.88
246.566	246.88
246.8	247.88
247.033	248.88
247.266	253.88
247.5	267.88
247.733	255.88
247.966	265.88
248.2	268.88
248.433	268.88
248.666	261.88
248.899	261.88
249.133	262.88
249.366	286.88
249.599	273.88
249.832	268.88
250.066	285.88
250.299	277.88
250.532	271.88
250.765	296.88
250.998	281.88
251.231	292.88
251.465	298.88
251.698	285.88
251.931	302.88
252.164	292.88
252.397	284.88
252.63	293.88
252.863	319.88
253.096	309.88
253.329	294.88
253.562	302.88
253.795	307.88
254.028	313.88
254.261	309.88
254.494	310.88
254.727	304.88
254.96	315.88
255.193	316.88
255.426	318.88
255.659	308.88
255.892	336.88
256.124	329.88
256.357	342.88
256.59	332.88
256.823	325.88
257.056	332.88
257.289	335.88
257.521	348.88
257.754	323.88
257.987	332.88
258.22	325.88
258.452	362.88
258.685	343.88
258.918	366.88
259.151	339.88
259.383	354.88
259.616	339.88
259.849	358.88
260.081	362.88
260.314	364.88
260.547	350.88
260.779	358.88
261.012	374.88
261.244	374.88
261.477	370.88
261.71	363.88
261.942	378.88
262.175	364.88
262.407	365.88
262.64	358.88
262.872	385.88
263.105	367.88
263.337	379.88
263.57	389.88
263.802	384.88
264.035	384.88
264.267	376.88
264.499	378.88
264.732	379.88
264.964	390.88
265.197	380.88
265.429	386.88
265.661	377.88
265.894	395.88
266.126	399.88
266.358	389.88
266.591	394.88
266.823	392.88
267.055	392.88
267.287	390.88
267.52	398.88
267.752	405.88
267.984	410.88
268.216	410.88
268.448	421.88
268.681	407.88
268.913	400.88
269.145	439.88
269.377	419.88
269.609	411.88
269.841	432.88
270.073	431.88
270.306	417.88
270.538	428.88
270.77	436.88
271.002	430.88
271.234	423.88
271.466	434.88
271.698	435.88
271.93	438.88
272.162	434.88
272.394	459.88
272.626	439.88
272.858	420.88
273.09	451.88
273.322	456.88
273.553	454.88
273.785	439.88
274.017	455.88
274.249	461.88
274.481	454.88
274.713	476.88
274.945	478.88
275.176	449.88
275.408	469.88
275.64	466.88
275.872	447.88
276.104	491.88
276.335	483.88
276.567	474.88
276.799	472.88
277.031	487.88
277.262	478.88
277.494	474.88
277.726	497.88
277.957	458.88
278.189	470.88
278.421	477.88
278.652	493.88
278.884	494.88
279.115	492.88
279.347	481.88
279.579	509.88
279.81	519.88
280.042	515.88
280.273	499.88
280.505	506.88
280.736	502.88
280.968	512.88
281.199	526.88
281.431	512.88
281.662	505.88
281.894	529.88
282.125	514.88
282.356	540.88
282.588	546.88
282.819	555.88
283.051	521.88
283.282	543.88
283.513	522.88
283.745	536.88
283.976	524.88
284.207	535.88
284.439	555.88
284.67	543.88
284.901	558.88
285.132	554.88
285.364	538.88
285.595	551.88
285.826	564.88
286.057	566.88
286.288	563.88
286.52	552.88
286.751	578.88
286.982	579.88
287.213	566.88
287.444	550.88
287.675	575.88
287.906	583.88
288.138	578.88
288.369	580.88
288.6	589.88
288.831	582.88
289.062	571.88
289.293	594.88
289.524	572.88
289.755	603.88
289.986	600.88
290.217	594.88
290.448	596.88
290.679	593.88
290.91	585.88
291.141	575.88
291.371	606.88
291.602	590.88
291.833	577.88
292.064	578.88
292.295	610.88
292.526	602.88
292.757	615.88
292.987	600.88
293.218	594.88
293.449	635.88
293.68	621.88
293.91	602.88
294.141	585.88
294.372	629.88
294.603	609.88
294.833	629.88
295.064	593.88
295.295	623.88
295.525	602.88
295.756	613.88
295.987	613.88
296.217	639.88
296.448	630.88
296.679	618.88
296.909	618.88
297.14	634.88
297.37	607.88
297.601	630.88
297.831	655.88
298.062	653.88
298.292	669.88
298.523	693.88
298.753	674.88
298.984	661.88
299.214	660.88
299.445	661.88
299.675	656.88
299.905	651.88
300.136	634.88
300.366	661.88
300.597	655.88
300.827	654.88
301.057	676.88
301.288	691.88
301.518	704.88
301.748	681.88
301.979	697.88
302.209	680.88
302.439	668.88
302.669	666.88
302.9	676.88
303.13	676.88
303.36	687.88
303.59	659.88
303.82	682.88
304.051	657.88
304.281	686.88
304.511	683.88
304.741	669.88
304.971	671.88
305.201	665.88
305.431	661.88
305.661	682.88
305.891	663.88
306.121	684.88
306.352	678.88
306.582	664.88
306.812	655.88
307.042	637.88
307.272	654.88
307.502	652.88
307.731	647.88
307.961	666.88
308.191	637.88
308.421	670.88
308.651	666.88
308.881	656.88
309.111	668.88
309.341	660.88
309.571	658.88
309.8	648.88
310.03	655.88
310.26	660.88
310.49	653.88
310.72	639.88
310.949	670.88
311.179	637.88
311.409	693.88
311.639	682.88
311.868	701.88
312.098	675.88
312.328	706.88
312.557	697.88
312.787	665.88
313.017	673.88
313.246	692.88
313.476	694.88
313.706	717.88
313.935	715.88
314.165	707.88
314.394	725.88
314.624	699.88
314.853	717.88
315.083	722.88
315.312	693.88
315.542	700.88
315.771	682.88
316.001	700.88
316.23	712.88
316.46	694.88
316.689	686.88
316.919	702.88
317.148	713.88
317.377	691.88
317.607	708.88
317.836	687.88
318.065	673.88
318.295	671.88
318.524	686.88
318.753	685.88
318.983	690.88
319.212	684.88
319.441	697.88
319.67	699.88
319.9	697.88
320.129	690.88
320.358	701.88
320.587	694.88
320.816	681.88
321.046	724.88
321.275	712.88
321.504	694.88
321.733	729.88
321.962	711.88
322.191	736.88
322.42	669.88
322.649	733.88
322.878	701.88
323.108	684.88
323.337	713.88
323.566	715.88
323.795	739.88
324.024	713.88
324.253	713.88
324.482	729.88
324.71	718.88
324.939	711.88
325.168	730.88
325.397	745.88
325.626	725.88
325.855	758.88
326.084	767.88
326.313	773.88
326.542	749.88
326.77	780.88
326.999	730.88
327.228	732.88
327.457	734.88
327.686	759.88
327.914	750.88
328.143	754.88
328.372	765.88
328.6	745.88
328.829	788.88
329.058	755.88
329.287	740.88
329.515	753.88
329.744	750.88
329.972	759.88
330.201	793.88
330.43	785.88
330.658	778.88
330.887	774.88
331.115	803.88
331.344	808.88
331.572	810.88
331.801	821.88
332.03	853.88
332.258	858.88
332.486	878.88
332.715	886.88
332.943	972.88
333.172	1004.88
333.4	1065.88
333.629	1047.88
333.857	1059.88
334.085	1029.88
334.314	1055.88
334.542	1025.88
334.771	1002.88
334.999	953.88
335.227	986.88
335.455	950.88
335.684	947.88
335.912	933.88
336.14	917.88
336.369	911.88
336.597	913.88
336.825	902.88
337.053	895.88
337.281	914.88
337.51	901.88
337.738	851.88
337.966	847.88
338.194	859.88
338.422	822.88
338.65	841.88
338.878	823.88
339.106	822.88
339.334	811.88
339.562	821.88
339.79	819.88
340.018	794.88
340.246	765.88
340.474	805.88
340.702	800.88
340.93	806.88
341.158	818.88
341.386	797.88
341.614	777.88
341.842	801.88
342.07	813.88
342.298	781.88
342.526	810.88
342.754	802.88
342.981	805.88
343.209	815.88
343.437	843.88
343.665	897.88
343.893	956.88
344.12	1036.88
344.348	971.88
344.576	886.88
344.804	874.88
345.031	827.88
345.259	809.88
345.487	790.88
345.714	777.88
345.942	787.88
346.17	792.88
346.397	787.88
346.625	749.88
346.853	758.88
347.08	783.88
347.308	772.88
347.535	768.88
347.763	804.88
347.99	781.88
348.218	778.88
348.445	788.88
348.673	748.88
348.9	748.88
349.128	742.88
349.355	759.88
349.583	769.88
349.81	771.88
350.037	748.88
350.265	739.88
350.492	756.88
350.72	744.88
350.947	725.88
351.174	734.88
351.402	725.88
351.629	753.88
351.856	746.88
352.083	741.88
352.311	728.88
352.538	695.88
352.765	735.88
352.992	757.88
353.22	718.88
353.447	723.88
353.674	734.88
353.901	735.88
354.128	722.88
354.355	726.88
354.583	754.88
354.81	735.88
355.037	731.88
355.264	753.88
355.491	776.88
355.718	754.88
355.945	737.88
356.172	767.88
356.399	768.88
356.626	758.88
356.853	758.88
357.08	765.88
357.307	772.88
357.534	757.88
357.761	729.88
357.988	745.88
358.215	730.88
358.441	741.88
358.668	729.88
358.895	745.88
359.122	758.88
359.349	754.88
359.576	757.88
359.802	760.88
360.029	738.88
360.256	741.88
360.483	729.88
360.709	722.88
360.936	720.88
361.163	749.88
361.39	723.88
361.616	764.88
361.843	745.88
362.07	741.88
362.296	756.88
362.523	719.88
362.749	756.88
362.976	731.88
363.203	732.88
363.429	744.88
363.656	732.88
363.882	723.88
364.109	754.88
364.335	749.88
364.562	735.88
364.788	746.88
365.015	731.88
365.241	723.88
365.468	734.88
365.694	749.88
365.92	715.88
366.147	743.88
366.373	728.88
366.599	731.88
366.826	712.88
367.052	714.88
367.278	748.88
367.505	733.88
367.731	755.88
367.957	741.88
368.184	739.88
368.41	738.88
368.636	743.88
368.862	781.88
369.089	764.88
369.315	751.88
369.541	793.88
369.767	767.88
369.993	748.88
370.219	773.88
370.445	787.88
370.672	758.88
370.898	779.88
371.124	796.88
371.35	795.88
371.576	807.88
371.802	788.88
372.028	801.88
372.254	845.88
372.48	820.88
372.706	843.88
372.932	834.88
373.158	825.88
373.384	815.88
373.61	794.88
373.835	799.88
374.061	831.88
374.287	808.88
374.513	821.88
374.739	865.88
374.965	905.88
375.191	933.88
375.416	920.88
375.642	861.88
375.868	837.88
376.094	821.88
376.319	811.88
376.545	817.88
376.771	819.88
376.997	833.88
377.222	817.88
377.448	813.88
377.674	799.88
377.899	833.88
378.125	801.88
378.35	818.88
378.576	787.88
378.802	785.88
379.027	794.88
379.253	794.88
379.478	778.88
379.704	818.88
379.929	801.88
380.155	806.88
380.38	805.88
380.606	775.88
380.831	778.88
381.057	798.88
381.282	811.88
381.507	789.88
381.733	827.88
381.958	813.88
382.184	830.88
382.409	838.88
382.634	870.88
382.86	865.88
383.085	881.88
383.31	883.88
383.535	867.88
383.761	907.88
383.986	901.88
384.211	954.88
384.436	954.88
384.662	966.88
384.887	991.88
385.112	994.88
385.337	975.88
385.562	989.88
385.787	990.88
386.013	998.88
386.238	992.88
386.463	1009.88
386.688	981.88
386.913	972.88
387.138	974.88
387.363	989.88
387.588	977.88
387.813	946.88
388.038	933.88
388.263	952.88
388.488	971.88
388.713	989.88
388.938	936.88
389.163	955.88
389.387	938.88
389.612	937.88
389.837	955.88
390.062	938.88
390.287	941.88
390.512	950.88
390.736	982.88
390.961	971.88
391.186	988.88
391.411	1007.88
391.636	1089.88
391.86	1123.88
392.085	1095.88
392.31	1121.88
392.534	1063.88
392.759	1029.88
392.984	1009.88
393.208	1030.88
393.433	1050.88
393.658	1025.88
393.882	1041.88
394.107	1022.88
394.331	1051.88
394.556	1046.88
394.78	1065.88
395.005	1065.88
395.229	1057.88
395.454	1055.88
395.678	1070.88
395.903	1074.88
396.127	1085.88
396.352	1065.88
396.576	1050.88
396.801	1028.88
397.025	1038.88
397.249	1059.88
397.474	1076.88
397.698	1110.88
397.922	1097.88
398.147	1093.88
398.371	1084.88
398.595	1165.88
398.82	1205.88
399.044	1299.88
399.268	1437.88
399.492	1700.88
399.717	1927.88
399.941	1946.88
400.165	1680.88
400.389	1489.88
400.613	1375.88
400.837	1296.88
401.062	1241.88
401.286	1252.88
401.51	1247.88
401.734	1227.88
401.958	1265.88
402.182	1305.88
402.406	1288.88
402.63	1314.88
402.854	1338.88
403.078	1353.88
403.302	1403.88
403.526	1416.88
403.75	1407.88
403.974	1469.88
404.198	1466.88
404.422	1454.88
404.645	1445.88
404.869	1418.88
405.093	1416.88
405.317	1377.88
405.541	1401.88
405.765	1354.88
405.988	1405.88
406.212	1394.88
406.436	1353.88
406.66	1395.88
406.883	1402.88
407.107	1494.88
407.331	1557.88
407.555	1626.88
407.778	1603.88
408.002	1566.88
408.226	1518.88
408.449	1488.88
408.673	1441.88
408.896	1420.88
409.12	1364.88
409.344	1411.88
409.567	1467.88
409.791	1418.88
410.014	1405.88
410.238	1406.88
410.461	1379.88
410.685	1345.88
410.908	1314.88
411.132	1321.88
411.355	1282.88
411.578	1287.88
411.802	1273.88
412.025	1278.88
412.249	1334.88
412.472	1320.88
412.695	1225.88
412.919	1223.88
413.142	1205.88
413.365	1234.88
413.589	1241.88
413.812	1225.88
414.035	1181.88
414.258	1204.88
414.482	1242.88
414.705	1255.88
414.928	1267.88
415.151	1239.88
415.374	1246.88
415.597	1246.88
415.821	1206.88
416.044	1189.88
416.267	1199.88
416.49	1231.88
416.713	1205.88
416.936	1199.88
417.159	1213.88
417.382	1228.88
417.605	1188.88
417.828	1222.88
418.051	1249.88
418.274	1212.88
418.497	1228.88
418.72	1235.88
418.943	1240.88
419.166	1355.88
419.389	1424.88
419.611	1381.88
419.834	1342.88
420.057	1324.88
420.28	1281.88
420.503	1203.88
420.726	1198.88
420.948	1228.88
421.171	1227.88
421.394	1174.88
421.617	1169.88
421.839	1248.88
422.062	1215.88
422.285	1231.88
422.507	1263.88
422.73	1278.88
422.953	1273.88
423.175	1280.88
423.398	1315.88
423.621	1291.88
423.843	1288.88
424.066	1342.88
424.288	1339.88
424.511	1306.88
424.733	1273.88
424.956	1253.88
425.178	1252.88
425.401	1227.88
425.623	1237.88
425.846	1236.88
426.068	1176.88
426.291	1179.88
426.513	1159.88
426.735	1167.88
426.958	1156.88
427.18	1102.88
427.402	1126.88
427.625	1118.88
427.847	1102.88
428.069	1102.88
428.292	1092.88
428.514	1107.88
428.736	1073.88
428.958	1078.88
429.181	1080.88
429.403	1053.88
429.625	1053.88
429.847	1044.88
430.069	1031.88
430.292	1054.88
430.514	1050.88
430.736	1039.88
430.958	1089.88
431.18	1047.88
431.402	1045.88
431.624	1045.88
431.846	1103.88
432.068	1109.88
432.29	1108.88
432.512	1109.88
432.734	1111.88
432.956	1082.88
433.178	1093.88
433.4	1066.88
433.622	1084.88
433.844	1113.88
434.066	1129.88
434.287	1138.88
434.509	1131.88
434.731	1192.88
434.953	1181.88
435.175	1243.88
435.397	1199.88
435.618	1158.88
435.84	1126.88
436.062	1110.88
436.284	1093.88
436.505	1101.88
436.727	1097.88
436.949	1074.88
437.17	1071.88
437.392	1036.88
437.614	1049.88
437.835	1055.88
438.057	1014.88
438.278	1020.88
438.5	1030.88
438.721	1047.88
438.943	1041.88
439.165	1054.88
439.386	1063.88
439.608	1071.88
439.829	1085.88
440.05	1069.88
440.272	1095.88
440.493	1111.88
440.715	1077.88
440.936	1129.88
441.158	1160.88
441.379	1192.88
441.6	1214.88
441.822	1258.88
442.043	1236.88
442.264	1201.88
442.486	1205.88
442.707	1225.88
442.928	1205.88
443.149	1211.88
443.371	1190.88
443.592	1246.88
443.813	1253.88
444.034	1251.88
444.255	1285.88
444.476	1383.88
444.698	1417.88
444.919	1513.88
445.14	1600.88
445.361	1418.88
445.582	1291.88
445.803	1203.88
446.024	1129.88
446.245	1138.88
446.466	1114.88
446.687	1113.88
446.908	1125.88
447.129	1060.88
447.35	1059.88
447.571	1066.88
447.792	1034.88
448.013	1026.88
448.234	1014.88
448.455	997.88
448.675	1005.88
448.896	983.88
449.117	994.88
449.338	1006.88
449.559	978.88
449.779	980.88
450	988.88
450.221	1012.88
450.442	1011.88
450.662	992.88
450.883	997.88
451.104	1028.88
451.324	1028.88
451.545	1030.88
451.766	1012.88
451.986	1001.88
452.207	996.88
452.428	987.88
452.648	979.88
452.869	990.88
453.089	1017.88
453.31	989.88
453.53	968.88
453.751	939.88
453.971	948.88
454.192	955.88
454.412	933.88
454.633	941.88
454.853	935.88
455.073	957.88
455.294	925.88
455.514	892.88
455.734	925.88
455.955	946.88
456.175	919.88
456.395	948.88
456.616	939.88
456.836	947.88
457.056	942.88
457.276	908.88
457.497	938.88
457.717	901.88
457.937	933.88
458.157	915.88
458.377	945.88
458.598	970.88
458.818	999.88
459.038	1043.88
459.258	1069.88
459.478	1083.88
459.698	1103.88
459.918	1173.88
460.138	1197.88
460.358	1273.88
460.578	1291.88
460.798	1326.88
461.018	1303.88
461.238	1298.88
461.458	1266.88
461.678	1265.88
461.898	1292.88
462.118	1335.88
462.338	1387.88
462.558	1400.88
462.777	1461.88
462.997	1608.88
463.217	1772.88
463.437	1807.88
463.657	1602.88
463.876	1550.88
464.096	1495.88
464.316	1516.88
464.536	1575.88
464.755	1480.88
464.975	1398.88
465.195	1368.88
465.414	1281.88
465.634	1139.88
465.854	1156.88
466.073	1115.88
466.293	1059.88
466.512	1085.88
466.732	1057.88
466.951	1041.88
467.171	1050.88
467.391	1051.88
467.61	1062.88
467.829	1047.88
468.049	1025.88
468.268	1018.88
468.488	980.88
468.707	972.88
468.927	991.88
469.146	1016.88
469.365	988.88
469.585	1023.88
469.804	1053.88
470.023	1080.88
470.243	1093.88
470.462	1094.88
470.681	1093.88
470.901	1078.88
471.12	1067.88
471.339	1051.88
471.558	1005.88
471.777	1007.88
471.997	1002.88
472.216	999.88
472.435	1013.88
472.654	967.88
472.873	980.88
473.092	954.88
473.311	991.88
473.53	968.88
473.749	977.88
473.968	973.88
474.187	973.88
474.406	969.88
474.625	984.88
474.844	973.88
475.063	979.88
475.282	992.88
475.501	990.88
475.72	975.88
475.939	1002.88
476.158	999.88
476.377	978.88
476.596	995.88
476.814	994.88
477.033	1024.88
477.252	1039.88
477.471	1061.88
477.69	1109.88
477.908	1123.88
478.127	1111.88
478.346	1155.88
478.564	1118.88
478.783	1151.88
479.002	1230.88
479.22	1252.88
479.439	1233.88
479.658	1175.88
479.876	1185.88
480.095	1228.88
480.313	1254.88
480.532	1345.88
480.751	1307.88
480.969	1269.88
481.188	1189.88
481.406	1174.88
481.624	1148.88
481.843	1103.88
482.061	1125.88
482.28	1105.88
482.498	1088.88
482.717	1114.88
482.935	1127.88
483.153	1078.88
483.372	1062.88
483.59	1079.88
483.808	1115.88
484.027	1093.88
484.245	1114.88
484.463	1134.88
484.681	1139.88
484.9	1162.88
485.118	1121.88
485.336	1115.88
485.554	1160.88
485.772	1151.88
485.99	1165.88
486.209	1143.88
486.427	1171.88
486.645	1181.88
486.863	1164.88
487.081	1138.88
487.299	1125.88
487.517	1137.88
487.735	1144.88
487.953	1129.88
488.171	1181.88
488.389	1156.88
488.607	1172.88
488.825	1157.88
489.043	1141.88
489.261	1163.88
489.479	1134.88
489.696	1146.88
489.914	1155.88
490.132	1152.88
490.35	1167.88
490.568	1138.88
490.786	1157.88
491.003	1157.88
491.221	1142.88
491.439	1184.88
491.657	1189.88
491.874	1204.88
492.092	1165.88
492.31	1171.88
492.527	1166.88
492.745	1145.88
492.963	1166.88
493.18	1194.88
493.398	1183.88
493.615	1190.88
493.833	1188.88
494.05	1197.88
494.268	1211.88
494.485	1214.88
494.703	1243.88
494.92	1250.88
495.138	1217.88
495.355	1252.88
495.573	1214.88
495.79	1225.88
