Data from NiCl2@0.25M.TitratingCurve.Agarose3%dH2O.NegLispCup.LampEnergy10.LIBS07252019_HRD10591_18-25-43-573.txt Node
Date: Thu Jul 25 18:25:43 EDT 2019
User: cochatt
Spectrometer: HR+D1059
Trigger mode: 1
Integration Time (sec): 1.000000E-1
Scans to average: 1
Electric dark correction enabled: true
Nonlinearity correction enabled: false
Boxcar width: 0
XAxis mode: Wavelengths
Number of Pixels in Spectrum: 2048
>>>>>Begin Spectral Data<<<<<
223.165	-25.25
223.4	-25.25
223.635	-25.25
223.869	-22.25
224.104	-20.25
224.338	-6.25
224.573	-10.25
224.808	-12.25
225.042	-9.25
225.277	-3.25
225.511	10.75
225.746	4.75
225.98	7.75
226.215	2.75
226.449	18.75
226.683	10.75
226.918	24.75
227.152	28.75
227.387	27.75
227.621	43.75
227.856	38.75
228.09	46.75
228.324	56.75
228.559	50.75
228.793	69.75
229.027	98.75
229.262	119.75
229.496	112.75
229.73	98.75
229.964	124.75
230.199	140.75
230.433	101.75
230.667	123.75
230.901	138.75
231.136	130.75
231.37	124.75
231.604	139.75
231.838	138.75
232.072	142.75
232.306	153.75
232.541	145.75
232.775	145.75
233.009	152.75
233.243	160.75
233.477	155.75
233.711	148.75
233.945	148.75
234.179	147.75
234.413	149.75
234.647	150.75
234.881	146.75
235.115	149.75
235.349	148.75
235.583	160.75
235.817	151.75
236.051	139.75
236.285	151.75
236.519	164.75
236.753	156.75
236.987	143.75
237.221	150.75
237.455	150.75
237.689	169.75
237.922	153.75
238.156	148.75
238.39	164.75
238.624	173.75
238.858	168.75
239.091	185.75
239.325	166.75
239.559	164.75
239.793	168.75
240.027	170.75
240.26	164.75
240.494	177.75
240.728	188.75
240.961	188.75
241.195	190.75
241.429	182.75
241.662	181.75
241.896	178.75
242.13	206.75
242.363	189.75
242.597	188.75
242.83	188.75
243.064	183.75
243.298	193.75
243.531	196.75
243.765	209.75
243.998	195.75
244.232	220.75
244.465	206.75
244.699	188.75
244.932	226.75
245.166	205.75
245.399	203.75
245.633	217.75
245.866	225.75
246.099	220.75
246.333	208.75
246.566	220.75
246.8	200.75
247.033	248.75
247.266	221.75
247.5	216.75
247.733	220.75
247.966	222.75
248.2	230.75
248.433	234.75
248.666	229.75
248.899	226.75
249.133	245.75
249.366	245.75
249.599	230.75
249.832	240.75
250.066	251.75
250.299	249.75
250.532	234.75
250.765	258.75
250.998	242.75
251.231	259.75
251.465	265.75
251.698	267.75
251.931	260.75
252.164	235.75
252.397	265.75
252.63	253.75
252.863	256.75
253.096	258.75
253.329	271.75
253.562	269.75
253.795	268.75
254.028	267.75
254.261	280.75
254.494	271.75
254.727	262.75
254.96	278.75
255.193	270.75
255.426	272.75
255.659	275.75
255.892	293.75
256.124	285.75
256.357	278.75
256.59	289.75
256.823	268.75
257.056	290.75
257.289	288.75
257.521	285.75
257.754	292.75
257.987	288.75
258.22	281.75
258.452	301.75
258.685	281.75
258.918	291.75
259.151	288.75
259.383	293.75
259.616	300.75
259.849	300.75
260.081	302.75
260.314	311.75
260.547	316.75
260.779	300.75
261.012	304.75
261.244	310.75
261.477	298.75
261.71	315.75
261.942	296.75
262.175	319.75
262.407	338.75
262.64	317.75
262.872	333.75
263.105	326.75
263.337	339.75
263.57	311.75
263.802	326.75
264.035	333.75
264.267	340.75
264.499	331.75
264.732	332.75
264.964	338.75
265.197	360.75
265.429	341.75
265.661	338.75
265.894	316.75
266.126	334.75
266.358	352.75
266.591	348.75
266.823	345.75
267.055	360.75
267.287	342.75
267.52	356.75
267.752	347.75
267.984	343.75
268.216	347.75
268.448	364.75
268.681	340.75
268.913	351.75
269.145	359.75
269.377	373.75
269.609	364.75
269.841	368.75
270.073	362.75
270.306	360.75
270.538	375.75
270.77	360.75
271.002	384.75
271.234	370.75
271.466	372.75
271.698	363.75
271.93	371.75
272.162	392.75
272.394	385.75
272.626	384.75
272.858	378.75
273.09	387.75
273.322	373.75
273.553	392.75
273.785	396.75
274.017	385.75
274.249	388.75
274.481	400.75
274.713	388.75
274.945	392.75
275.176	396.75
275.408	388.75
275.64	408.75
275.872	402.75
276.104	426.75
276.335	378.75
276.567	392.75
276.799	410.75
277.031	393.75
277.262	412.75
277.494	430.75
277.726	428.75
277.957	413.75
278.189	416.75
278.421	410.75
278.652	420.75
278.884	434.75
279.115	442.75
279.347	440.75
279.579	439.75
279.81	434.75
280.042	405.75
280.273	444.75
280.505	438.75
280.736	448.75
280.968	437.75
281.199	427.75
281.431	455.75
281.662	462.75
281.894	442.75
282.125	448.75
282.356	458.75
282.588	445.75
282.819	448.75
283.051	455.75
283.282	445.75
283.513	464.75
283.745	448.75
283.976	460.75
284.207	447.75
284.439	469.75
284.67	451.75
284.901	476.75
285.132	480.75
285.364	482.75
285.595	475.75
285.826	461.75
286.057	456.75
286.288	467.75
286.52	485.75
286.751	498.75
286.982	484.75
287.213	486.75
287.444	480.75
287.675	474.75
287.906	465.75
288.138	496.75
288.369	489.75
288.6	496.75
288.831	485.75
289.062	502.75
289.293	493.75
289.524	499.75
289.755	504.75
289.986	500.75
290.217	499.75
290.448	514.75
290.679	512.75
290.91	503.75
291.141	502.75
291.371	506.75
291.602	507.75
291.833	502.75
292.064	498.75
292.295	496.75
292.526	509.75
292.757	514.75
292.987	532.75
293.218	477.75
293.449	491.75
293.68	498.75
293.91	507.75
294.141	519.75
294.372	516.75
294.603	500.75
294.833	517.75
295.064	541.75
295.295	546.75
295.525	521.75
295.756	518.75
295.987	525.75
296.217	523.75
296.448	534.75
296.679	528.75
296.909	541.75
297.14	556.75
297.37	548.75
297.601	545.75
297.831	545.75
298.062	540.75
298.292	564.75
298.523	571.75
298.753	581.75
298.984	537.75
299.214	571.75
299.445	562.75
299.675	562.75
299.905	566.75
300.136	562.75
300.366	569.75
300.597	562.75
300.827	590.75
301.057	555.75
301.288	583.75
301.518	588.75
301.748	597.75
301.979	578.75
302.209	578.75
302.439	577.75
302.669	595.75
302.9	573.75
303.13	579.75
303.36	573.75
303.59	600.75
303.82	578.75
304.051	578.75
304.281	588.75
304.511	572.75
304.741	595.75
304.971	595.75
305.201	577.75
305.431	576.75
305.661	575.75
305.891	565.75
306.121	582.75
306.352	576.75
306.582	564.75
306.812	537.75
307.042	570.75
307.272	577.75
307.502	556.75
307.731	556.75
307.961	568.75
308.191	568.75
308.421	547.75
308.651	554.75
308.881	548.75
309.111	581.75
309.341	566.75
309.571	539.75
309.8	550.75
310.03	568.75
310.26	567.75
310.49	574.75
310.72	582.75
310.949	550.75
311.179	562.75
311.409	598.75
311.639	552.75
311.868	612.75
312.098	604.75
312.328	593.75
312.557	587.75
312.787	592.75
313.017	585.75
313.246	624.75
313.476	600.75
313.706	619.75
313.935	613.75
314.165	617.75
314.394	602.75
314.624	618.75
314.853	612.75
315.083	584.75
315.312	608.75
315.542	616.75
315.771	620.75
316.001	602.75
316.23	596.75
316.46	597.75
316.689	577.75
316.919	596.75
317.148	601.75
317.377	595.75
317.607	602.75
317.836	592.75
318.065	599.75
318.295	609.75
318.524	599.75
318.753	609.75
318.983	581.75
319.212	602.75
319.441	596.75
319.67	591.75
319.9	602.75
320.129	599.75
320.358	585.75
320.587	582.75
320.816	590.75
321.046	601.75
321.275	593.75
321.504	605.75
321.733	611.75
321.962	590.75
322.191	597.75
322.42	588.75
322.649	610.75
322.878	594.75
323.108	608.75
323.337	631.75
323.566	613.75
323.795	636.75
324.024	612.75
324.253	610.75
324.482	617.75
324.71	617.75
324.939	617.75
325.168	602.75
325.397	620.75
325.626	636.75
325.855	618.75
326.084	661.75
326.313	656.75
326.542	674.75
326.77	658.75
326.999	642.75
327.228	642.75
327.457	668.75
327.686	649.75
327.914	647.75
328.143	653.75
328.372	650.75
328.6	667.75
328.829	652.75
329.058	651.75
329.287	665.75
329.515	653.75
329.744	658.75
329.972	682.75
330.201	671.75
330.43	667.75
330.658	678.75
330.887	685.75
331.115	664.75
331.344	690.75
331.572	712.75
331.801	694.75
332.03	738.75
332.258	725.75
332.486	765.75
332.715	769.75
332.943	813.75
333.172	828.75
333.4	891.75
333.629	893.75
333.857	891.75
334.085	880.75
334.314	853.75
334.542	858.75
334.771	847.75
334.999	847.75
335.227	818.75
335.455	813.75
335.684	840.75
335.912	813.75
336.14	805.75
336.369	795.75
336.597	774.75
336.825	806.75
337.053	809.75
337.281	797.75
337.51	736.75
337.738	752.75
337.966	756.75
338.194	714.75
338.422	717.75
338.65	719.75
338.878	708.75
339.106	723.75
339.334	713.75
339.562	700.75
339.79	673.75
340.018	712.75
340.246	691.75
340.474	676.75
340.702	665.75
340.93	700.75
341.158	706.75
341.386	705.75
341.614	690.75
341.842	703.75
342.07	665.75
342.298	678.75
342.526	665.75
342.754	704.75
342.981	718.75
343.209	725.75
343.437	731.75
343.665	760.75
343.893	814.75
344.12	842.75
344.348	797.75
344.576	768.75
344.804	755.75
345.031	731.75
345.259	700.75
345.487	684.75
345.714	702.75
345.942	683.75
346.17	680.75
346.397	693.75
346.625	661.75
346.853	659.75
347.08	666.75
347.308	680.75
347.535	646.75
347.763	678.75
347.99	659.75
348.218	705.75
348.445	657.75
348.673	668.75
348.9	648.75
349.128	673.75
349.355	654.75
349.583	646.75
349.81	657.75
350.037	639.75
350.265	633.75
350.492	618.75
350.72	646.75
350.947	611.75
351.174	638.75
351.402	634.75
351.629	631.75
351.856	645.75
352.083	623.75
352.311	631.75
352.538	626.75
352.765	645.75
352.992	637.75
353.22	624.75
353.447	630.75
353.674	631.75
353.901	636.75
354.128	636.75
354.355	644.75
354.583	613.75
354.81	649.75
355.037	640.75
355.264	647.75
355.491	637.75
355.718	648.75
355.945	654.75
356.172	668.75
356.399	642.75
356.626	648.75
356.853	648.75
357.08	652.75
357.307	645.75
357.534	643.75
357.761	645.75
357.988	658.75
358.215	644.75
358.441	635.75
358.668	630.75
358.895	625.75
359.122	647.75
359.349	638.75
359.576	656.75
359.802	621.75
360.029	612.75
360.256	636.75
360.483	641.75
360.709	615.75
360.936	633.75
361.163	634.75
361.39	638.75
361.616	618.75
361.843	664.75
362.07	663.75
362.296	650.75
362.523	611.75
362.749	633.75
362.976	649.75
363.203	643.75
363.429	650.75
363.656	651.75
363.882	637.75
364.109	634.75
364.335	644.75
364.562	621.75
364.788	648.75
365.015	618.75
365.241	638.75
365.468	626.75
365.694	652.75
365.92	644.75
366.147	659.75
366.373	620.75
366.599	626.75
366.826	646.75
367.052	638.75
367.278	667.75
367.505	648.75
367.731	645.75
367.957	646.75
368.184	666.75
368.41	645.75
368.636	632.75
368.862	654.75
369.089	672.75
369.315	674.75
369.541	677.75
369.767	658.75
369.993	674.75
370.219	673.75
370.445	678.75
370.672	688.75
370.898	704.75
371.124	698.75
371.35	695.75
371.576	690.75
371.802	709.75
372.028	711.75
372.254	685.75
372.48	692.75
372.706	729.75
372.932	734.75
373.158	729.75
373.384	710.75
373.61	692.75
373.835	702.75
374.061	706.75
374.287	718.75
374.513	723.75
374.739	728.75
374.965	762.75
375.191	750.75
375.416	791.75
375.642	740.75
375.868	743.75
376.094	754.75
376.319	712.75
376.545	710.75
376.771	732.75
376.997	724.75
377.222	695.75
377.448	709.75
377.674	690.75
377.899	698.75
378.125	713.75
378.35	684.75
378.576	695.75
378.802	705.75
379.027	670.75
379.253	702.75
379.478	698.75
379.704	689.75
379.929	688.75
380.155	685.75
380.38	684.75
380.606	702.75
380.831	678.75
381.057	698.75
381.282	698.75
381.507	685.75
381.733	695.75
381.958	734.75
382.184	692.75
382.409	728.75
382.634	708.75
382.86	722.75
383.085	734.75
383.31	750.75
383.535	761.75
383.761	778.75
383.986	773.75
384.211	785.75
384.436	826.75
384.662	824.75
384.887	823.75
385.112	826.75
385.337	841.75
385.562	845.75
385.787	840.75
386.013	854.75
386.238	842.75
386.463	858.75
386.688	853.75
386.913	837.75
387.138	829.75
387.363	803.75
387.588	808.75
387.813	828.75
388.038	802.75
388.263	838.75
388.488	832.75
388.713	822.75
388.938	824.75
389.163	808.75
389.387	820.75
389.612	798.75
389.837	810.75
390.062	841.75
390.287	822.75
390.512	839.75
390.736	850.75
390.961	833.75
391.186	858.75
391.411	859.75
391.636	909.75
391.86	921.75
392.085	944.75
392.31	963.75
392.534	922.75
392.759	924.75
392.984	872.75
393.208	890.75
393.433	873.75
393.658	914.75
393.882	904.75
394.107	886.75
394.331	922.75
394.556	881.75
394.78	894.75
395.005	901.75
395.229	903.75
395.454	961.75
395.678	956.75
395.903	962.75
396.127	909.75
396.352	912.75
396.576	896.75
396.801	898.75
397.025	900.75
397.249	905.75
397.474	955.75
397.698	931.75
397.922	960.75
398.147	935.75
398.371	989.75
398.595	992.75
398.82	1068.75
399.044	1102.75
399.268	1224.75
399.492	1386.75
399.717	1574.75
399.941	1585.75
400.165	1390.75
400.389	1318.75
400.613	1170.75
400.837	1115.75
401.062	1095.75
401.286	1077.75
401.51	1083.75
401.734	1055.75
401.958	1090.75
402.182	1076.75
402.406	1091.75
402.63	1133.75
402.854	1122.75
403.078	1158.75
403.302	1144.75
403.526	1180.75
403.75	1197.75
403.974	1222.75
404.198	1179.75
404.422	1204.75
404.645	1190.75
404.869	1162.75
405.093	1191.75
405.317	1158.75
405.541	1168.75
405.765	1146.75
405.988	1148.75
406.212	1146.75
406.436	1165.75
406.66	1177.75
406.883	1182.75
407.107	1260.75
407.331	1350.75
407.555	1361.75
407.778	1389.75
408.002	1321.75
408.226	1328.75
408.449	1287.75
408.673	1239.75
408.896	1204.75
409.12	1209.75
409.344	1210.75
409.567	1182.75
409.791	1212.75
410.014	1184.75
410.238	1222.75
410.461	1169.75
410.685	1136.75
410.908	1130.75
411.132	1116.75
411.355	1094.75
411.578	1096.75
411.802	1073.75
412.025	1111.75
412.249	1107.75
412.472	1144.75
412.695	1093.75
412.919	1064.75
413.142	1049.75
413.365	1063.75
413.589	1071.75
413.812	1070.75
414.035	1014.75
414.258	1042.75
414.482	1055.75
414.705	1073.75
414.928	1075.75
415.151	1091.75
415.374	1063.75
415.597	1016.75
415.821	1059.75
416.044	1034.75
416.267	1014.75
416.49	1029.75
416.713	1039.75
416.936	1067.75
417.159	1032.75
417.382	1022.75
417.605	1006.75
417.828	1058.75
418.051	1043.75
418.274	1044.75
418.497	1036.75
418.72	1038.75
418.943	1069.75
419.166	1138.75
419.389	1181.75
419.611	1198.75
419.834	1125.75
420.057	1115.75
420.28	1063.75
420.503	1054.75
420.726	1031.75
420.948	1037.75
421.171	1028.75
421.394	1031.75
421.617	1030.75
421.839	1032.75
422.062	1033.75
422.285	1028.75
422.507	1046.75
422.73	1037.75
422.953	1054.75
423.175	1075.75
423.398	1079.75
423.621	1105.75
423.843	1127.75
424.066	1098.75
424.288	1105.75
424.511	1101.75
424.733	1065.75
424.956	1070.75
425.178	1057.75
425.401	1052.75
425.623	1076.75
425.846	1000.75
426.068	982.75
426.291	1024.75
426.513	972.75
426.735	964.75
426.958	974.75
427.18	956.75
427.402	955.75
427.625	953.75
427.847	927.75
428.069	949.75
428.292	908.75
428.514	918.75
428.736	937.75
428.958	920.75
429.181	925.75
429.403	900.75
429.625	894.75
429.847	914.75
430.069	905.75
430.292	883.75
430.514	890.75
430.736	899.75
430.958	891.75
431.18	917.75
431.402	918.75
431.624	932.75
431.846	916.75
432.068	933.75
432.29	958.75
432.512	928.75
432.734	939.75
432.956	903.75
433.178	946.75
433.4	914.75
433.622	928.75
433.844	969.75
434.066	962.75
434.287	956.75
434.509	987.75
434.731	997.75
434.953	1031.75
435.175	1027.75
435.397	1052.75
435.618	1008.75
435.84	958.75
436.062	928.75
436.284	955.75
436.505	924.75
436.727	935.75
436.949	948.75
437.17	911.75
437.392	893.75
437.614	908.75
437.835	891.75
438.057	890.75
438.278	871.75
438.5	889.75
438.721	876.75
438.943	902.75
439.165	886.75
439.386	886.75
439.608	900.75
439.829	939.75
440.05	937.75
440.272	919.75
440.493	893.75
440.715	923.75
440.936	977.75
441.158	968.75
441.379	996.75
441.6	1030.75
441.822	1057.75
442.043	1042.75
442.264	1021.75
442.486	990.75
442.707	1017.75
442.928	1017.75
443.149	995.75
443.371	1030.75
443.592	1026.75
443.813	1056.75
444.034	1031.75
444.255	1088.75
444.476	1123.75
444.698	1164.75
444.919	1226.75
445.14	1281.75
445.361	1164.75
445.582	1078.75
445.803	1016.75
446.024	962.75
446.245	992.75
446.466	966.75
446.687	939.75
446.908	953.75
447.129	934.75
447.35	933.75
447.571	900.75
447.792	878.75
448.013	875.75
448.234	853.75
448.455	851.75
448.675	822.75
448.896	850.75
449.117	829.75
449.338	834.75
449.559	834.75
449.779	796.75
450	845.75
450.221	849.75
450.442	842.75
450.662	859.75
450.883	873.75
451.104	885.75
451.324	876.75
451.545	873.75
451.766	864.75
451.986	845.75
452.207	849.75
452.428	866.75
452.648	851.75
452.869	830.75
453.089	829.75
453.31	813.75
453.53	805.75
453.751	826.75
453.971	829.75
454.192	818.75
454.412	782.75
454.633	804.75
454.853	796.75
455.073	808.75
455.294	794.75
455.514	787.75
455.734	797.75
455.955	786.75
456.175	796.75
456.395	786.75
456.616	781.75
456.836	792.75
457.056	794.75
457.276	753.75
457.497	788.75
457.717	786.75
457.937	790.75
458.157	801.75
458.377	810.75
458.598	833.75
458.818	847.75
459.038	880.75
459.258	900.75
459.478	930.75
459.698	962.75
459.918	1020.75
460.138	1021.75
460.358	1120.75
460.578	1080.75
460.798	1113.75
461.018	1140.75
461.238	1082.75
461.458	1090.75
461.678	1076.75
461.898	1114.75
462.118	1112.75
462.338	1168.75
462.558	1189.75
462.777	1221.75
462.997	1322.75
463.217	1451.75
463.437	1484.75
463.657	1350.75
463.876	1326.75
464.096	1311.75
464.316	1295.75
464.536	1286.75
464.755	1237.75
464.975	1181.75
465.195	1137.75
465.414	1077.75
465.634	989.75
465.854	964.75
466.073	960.75
466.293	954.75
466.512	904.75
466.732	904.75
466.951	878.75
467.171	894.75
467.391	877.75
467.61	886.75
467.829	892.75
468.049	882.75
468.268	861.75
468.488	836.75
468.707	846.75
468.927	854.75
469.146	855.75
469.365	872.75
469.585	888.75
469.804	902.75
470.023	890.75
470.243	882.75
470.462	903.75
470.681	932.75
470.901	918.75
471.12	912.75
471.339	914.75
471.558	899.75
471.777	877.75
471.997	861.75
472.216	870.75
472.435	857.75
472.654	856.75
472.873	822.75
473.092	843.75
473.311	827.75
473.53	843.75
473.749	809.75
473.968	806.75
474.187	829.75
474.406	812.75
474.625	819.75
474.844	845.75
475.063	820.75
475.282	826.75
475.501	859.75
475.72	847.75
475.939	860.75
476.158	844.75
476.377	865.75
476.596	873.75
476.814	892.75
477.033	868.75
477.252	884.75
477.471	922.75
477.69	937.75
477.908	953.75
478.127	992.75
478.346	1015.75
478.564	1013.75
478.783	1006.75
479.002	1048.75
479.22	1036.75
479.439	1061.75
479.658	1060.75
479.876	1044.75
480.095	1069.75
480.313	1069.75
480.532	1102.75
480.751	1097.75
480.969	1091.75
481.188	1024.75
481.406	1014.75
481.624	1002.75
481.843	958.75
482.061	948.75
482.28	918.75
482.498	953.75
482.717	933.75
482.935	911.75
483.153	923.75
483.372	950.75
483.59	916.75
483.808	951.75
484.027	951.75
484.245	939.75
484.463	971.75
484.681	988.75
484.9	999.75
485.118	995.75
485.336	942.75
485.554	979.75
485.772	987.75
485.99	1025.75
486.209	1018.75
486.427	1017.75
486.645	1026.75
486.863	1006.75
487.081	995.75
487.299	980.75
487.517	1008.75
487.735	1001.75
487.953	1008.75
488.171	999.75
488.389	971.75
488.607	960.75
488.825	966.75
489.043	970.75
489.261	979.75
489.479	998.75
489.696	1008.75
489.914	1003.75
490.132	997.75
490.35	1009.75
490.568	984.75
490.786	1011.75
491.003	1016.75
491.221	1023.75
491.439	996.75
491.657	1018.75
491.874	1004.75
492.092	1042.75
492.31	1037.75
492.527	1040.75
492.745	1028.75
492.963	993.75
493.18	1041.75
493.398	1019.75
493.615	1062.75
493.833	1020.75
494.05	1056.75
494.268	1070.75
494.485	1088.75
494.703	1100.75
494.92	1056.75
495.138	1063.75
495.355	1030.75
495.573	1059.75
495.79	1101.75
496.008	1062.75
496.225	1087.75
496.442	1120.75
496.66	1121.75
496.877	1138.75
497.094	1156.75
497.312	1188.75
497.529	1180.75
497.746	1225.75
497.963	1257.75
498.181	1300.75
498.398	1370.75
