Data from NiCl2@0.0625M.TitratingCurve.Agarose3%dH2O.NegLispCup.LampEnergy10.LIBS07252019_HRD10591_18-33-03-577.txt Node
Date: Thu Jul 25 18:33:03 EDT 2019
User: cochatt
Spectrometer: HR+D1059
Trigger mode: 1
Integration Time (sec): 1.000000E-1
Scans to average: 1
Electric dark correction enabled: true
Nonlinearity correction enabled: false
Boxcar width: 0
XAxis mode: Wavelengths
Number of Pixels in Spectrum: 2048
>>>>>Begin Spectral Data<<<<<
223.165	-17
223.4	-17
223.635	-17
223.869	-2
224.104	-12
224.338	-16
224.573	-22
224.808	-13
225.042	-7
225.277	-2
225.511	-7
225.746	8
225.98	-5
226.215	-4
226.449	15
226.683	23
226.918	31
227.152	30
227.387	42
227.621	43
227.856	32
228.09	48
228.324	38
228.559	54
228.793	82
229.027	126
229.262	150
229.496	180
229.73	171
229.964	182
230.199	194
230.433	204
230.667	202
230.901	197
231.136	182
231.37	188
231.604	212
231.838	211
232.072	209
232.306	196
232.541	214
232.775	214
233.009	217
233.243	208
233.477	205
233.711	213
233.945	211
234.179	226
234.413	219
234.647	236
234.881	219
235.115	230
235.349	242
235.583	221
235.817	234
236.051	231
236.285	226
236.519	227
236.753	229
236.987	260
237.221	233
237.455	237
237.689	251
237.922	257
238.156	261
238.39	260
238.624	264
238.858	271
239.091	245
239.325	267
239.559	278
239.793	273
240.027	293
240.26	278
240.494	285
240.728	282
240.961	281
241.195	298
241.429	299
241.662	286
241.896	294
242.13	322
242.363	320
242.597	324
242.83	335
243.064	329
243.298	318
243.531	312
243.765	323
243.998	344
244.232	346
244.465	345
244.699	361
244.932	357
245.166	370
245.399	354
245.633	336
245.866	360
246.099	353
246.333	346
246.566	351
246.8	369
247.033	357
247.266	364
247.5	358
247.733	389
247.966	398
248.2	404
248.433	401
248.666	404
248.899	377
249.133	405
249.366	403
249.599	414
249.832	394
250.066	430
250.299	397
250.532	432
250.765	427
250.998	413
251.231	441
251.465	442
251.698	439
251.931	461
252.164	452
252.397	467
252.63	469
252.863	469
253.096	473
253.329	450
253.562	472
253.795	457
254.028	459
254.261	467
254.494	476
254.727	488
254.96	463
255.193	474
255.426	502
255.659	490
255.892	472
256.124	489
256.357	486
256.59	492
256.823	492
257.056	505
257.289	503
257.521	504
257.754	521
257.987	522
258.22	536
258.452	524
258.685	530
258.918	521
259.151	541
259.383	544
259.616	534
259.849	530
260.081	536
260.314	560
260.547	559
260.779	557
261.012	569
261.244	584
261.477	585
261.71	583
261.942	582
262.175	566
262.407	565
262.64	577
262.872	584
263.105	585
263.337	588
263.57	622
263.802	589
264.035	580
264.267	598
264.499	610
264.732	585
264.964	582
265.197	581
265.429	589
265.661	595
265.894	608
266.126	595
266.358	611
266.591	616
266.823	630
267.055	634
267.287	648
267.52	640
267.752	636
267.984	648
268.216	647
268.448	657
268.681	642
268.913	640
269.145	640
269.377	636
269.609	666
269.841	659
270.073	633
270.306	658
270.538	642
270.77	660
271.002	677
271.234	653
271.466	690
271.698	713
271.93	682
272.162	681
272.394	696
272.626	684
272.858	719
273.09	723
273.322	709
273.553	717
273.785	734
274.017	721
274.249	726
274.481	746
274.713	714
274.945	725
275.176	758
275.408	740
275.64	752
275.872	754
276.104	755
276.335	745
276.567	725
276.799	745
277.031	780
277.262	761
277.494	782
277.726	782
277.957	779
278.189	789
278.421	739
278.652	770
278.884	802
279.115	790
279.347	776
279.579	802
279.81	802
280.042	802
280.273	818
280.505	817
280.736	802
280.968	801
281.199	823
281.431	832
281.662	864
281.894	854
282.125	835
282.356	844
282.588	854
282.819	859
283.051	869
283.282	861
283.513	870
283.745	845
283.976	862
284.207	872
284.439	873
284.67	854
284.901	870
285.132	850
285.364	880
285.595	892
285.826	889
286.057	916
286.288	893
286.52	916
286.751	864
286.982	884
287.213	917
287.444	901
287.675	890
287.906	905
288.138	906
288.369	907
288.6	911
288.831	895
289.062	928
289.293	911
289.524	909
289.755	923
289.986	939
290.217	953
290.448	928
290.679	944
290.91	941
291.141	937
291.371	960
291.602	916
291.833	960
292.064	976
292.295	928
292.526	958
292.757	920
292.987	957
293.218	909
293.449	950
293.68	965
293.91	940
294.141	956
294.372	930
294.603	956
294.833	942
295.064	979
295.295	989
295.525	933
295.756	965
295.987	970
296.217	993
296.448	969
296.679	997
296.909	982
297.14	997
297.37	1001
297.601	1004
297.831	995
298.062	1010
298.292	1053
298.523	1037
298.753	1011
298.984	1024
299.214	1015
299.445	1029
299.675	1026
299.905	1038
300.136	1018
300.366	1042
300.597	1075
300.827	1056
301.057	1051
301.288	1063
301.518	1062
301.748	1067
301.979	1062
302.209	1091
302.439	1065
302.669	1062
302.9	1065
303.13	1092
303.36	1085
303.59	1078
303.82	1060
304.051	1070
304.281	1092
304.511	1076
304.741	1101
304.971	1084
305.201	1100
305.431	1099
305.661	1085
305.891	1067
306.121	1088
306.352	1063
306.582	1048
306.812	1078
307.042	1064
307.272	1073
307.502	1049
307.731	1074
307.961	1070
308.191	1068
308.421	1089
308.651	1067
308.881	1036
309.111	1054
309.341	1052
309.571	1060
309.8	1081
310.03	1102
310.26	1078
310.49	1064
310.72	1072
310.949	1056
311.179	1086
311.409	1117
311.639	1084
311.868	1094
312.098	1129
312.328	1121
312.557	1088
312.787	1115
313.017	1104
313.246	1160
313.476	1164
313.706	1160
313.935	1144
314.165	1156
314.394	1127
314.624	1170
314.853	1142
315.083	1129
315.312	1178
315.542	1131
315.771	1128
316.001	1142
316.23	1147
316.46	1148
316.689	1127
316.919	1136
317.148	1164
317.377	1126
317.607	1123
317.836	1148
318.065	1121
318.295	1149
318.524	1154
318.753	1151
318.983	1157
319.212	1090
319.441	1134
319.67	1121
319.9	1124
320.129	1148
320.358	1138
320.587	1123
320.816	1124
321.046	1153
321.275	1128
321.504	1153
321.733	1154
321.962	1180
322.191	1194
322.42	1172
322.649	1150
322.878	1165
323.108	1165
323.337	1161
323.566	1186
323.795	1176
324.024	1196
324.253	1184
324.482	1187
324.71	1160
324.939	1193
325.168	1214
325.397	1178
325.626	1223
325.855	1213
326.084	1244
326.313	1264
326.542	1256
326.77	1290
326.999	1260
327.228	1228
327.457	1238
327.686	1256
327.914	1246
328.143	1239
328.372	1207
328.6	1253
328.829	1233
329.058	1247
329.287	1236
329.515	1262
329.744	1265
329.972	1287
330.201	1297
330.43	1305
330.658	1271
330.887	1306
331.115	1321
331.344	1342
331.572	1323
331.801	1360
332.03	1376
332.258	1376
332.486	1398
332.715	1454
332.943	1472
333.172	1515
333.4	1546
333.629	1599
333.857	1612
334.085	1573
334.314	1601
334.542	1588
334.771	1597
334.999	1558
335.227	1543
335.455	1540
335.684	1526
335.912	1542
336.14	1515
336.369	1508
336.597	1554
336.825	1487
337.053	1509
337.281	1478
337.51	1454
337.738	1443
337.966	1387
338.194	1421
338.422	1378
338.65	1359
338.878	1353
339.106	1381
339.334	1376
339.562	1331
339.79	1310
340.018	1327
340.246	1330
340.474	1287
340.702	1313
340.93	1328
341.158	1308
341.386	1293
341.614	1305
341.842	1328
342.07	1321
342.298	1315
342.526	1294
342.754	1317
342.981	1286
343.209	1332
343.437	1357
343.665	1467
343.893	1509
344.12	1564
344.348	1533
344.576	1458
344.804	1454
345.031	1392
345.259	1357
345.487	1371
345.714	1302
345.942	1281
346.17	1342
346.397	1291
346.625	1252
346.853	1272
347.08	1244
347.308	1280
347.535	1284
347.763	1270
347.99	1240
348.218	1249
348.445	1244
348.673	1245
348.9	1244
349.128	1230
349.355	1212
349.583	1237
349.81	1213
350.037	1219
350.265	1205
350.492	1229
350.72	1253
350.947	1227
351.174	1214
351.402	1209
351.629	1214
351.856	1190
352.083	1189
352.311	1220
352.538	1216
352.765	1241
352.992	1204
353.22	1172
353.447	1213
353.674	1180
353.901	1189
354.128	1225
354.355	1186
354.583	1176
354.81	1209
355.037	1217
355.264	1190
355.491	1220
355.718	1230
355.945	1215
356.172	1196
356.399	1199
356.626	1214
356.853	1238
357.08	1224
357.307	1245
357.534	1198
357.761	1233
357.988	1234
358.215	1225
358.441	1192
358.668	1207
358.895	1219
359.122	1218
359.349	1204
359.576	1223
359.802	1216
360.029	1211
360.256	1207
360.483	1212
360.709	1251
360.936	1206
361.163	1240
361.39	1242
361.616	1218
361.843	1213
362.07	1214
362.296	1230
362.523	1202
362.749	1227
362.976	1202
363.203	1218
363.429	1201
363.656	1214
363.882	1234
364.109	1193
364.335	1211
364.562	1206
364.788	1203
365.015	1193
365.241	1231
365.468	1231
365.694	1227
365.92	1193
366.147	1190
366.373	1238
366.599	1223
366.826	1224
367.052	1215
367.278	1204
367.505	1226
367.731	1234
367.957	1244
368.184	1233
368.41	1264
368.636	1262
368.862	1239
369.089	1277
369.315	1239
369.541	1250
369.767	1300
369.993	1261
370.219	1273
370.445	1290
370.672	1286
370.898	1280
371.124	1304
371.35	1355
371.576	1307
371.802	1353
372.028	1266
372.254	1327
372.48	1333
372.706	1337
372.932	1380
373.158	1370
373.384	1319
373.61	1332
373.835	1326
374.061	1326
374.287	1325
374.513	1382
374.739	1386
374.965	1412
375.191	1458
375.416	1468
375.642	1360
375.868	1411
376.094	1386
376.319	1340
376.545	1349
376.771	1341
376.997	1341
377.222	1336
377.448	1330
377.674	1305
377.899	1321
378.125	1333
378.35	1336
378.576	1332
378.802	1312
379.027	1321
379.253	1303
379.478	1282
379.704	1308
379.929	1282
380.155	1292
380.38	1308
380.606	1305
380.831	1316
381.057	1310
381.282	1358
381.507	1329
381.733	1335
381.958	1317
382.184	1372
382.409	1368
382.634	1369
382.86	1379
383.085	1379
383.31	1375
383.535	1469
383.761	1448
383.986	1458
384.211	1504
384.436	1463
384.662	1496
384.887	1544
385.112	1557
385.337	1548
385.562	1589
385.787	1584
386.013	1584
386.238	1547
386.463	1590
386.688	1629
386.913	1596
387.138	1570
387.363	1578
387.588	1574
387.813	1559
388.038	1572
388.263	1574
388.488	1589
388.713	1550
388.938	1588
389.163	1592
389.387	1554
389.612	1550
389.837	1569
390.062	1545
390.287	1590
390.512	1541
390.736	1598
390.961	1626
391.186	1637
391.411	1656
391.636	1697
391.86	1732
392.085	1753
392.31	1736
392.534	1717
392.759	1730
392.984	1694
393.208	1661
393.433	1748
393.658	1757
393.882	1701
394.107	1701
394.331	1670
394.556	1699
394.78	1683
395.005	1725
395.229	1722
395.454	1724
395.678	1789
395.903	1753
396.127	1739
396.352	1720
396.576	1688
396.801	1697
397.025	1745
397.249	1762
397.474	1764
397.698	1746
397.922	1777
398.147	1753
398.371	1828
398.595	1849
398.82	1912
399.044	2076
399.268	2256
399.492	2504
399.717	2675
399.941	2755
400.165	2503
400.389	2275
400.613	2194
400.837	2075
401.062	2036
401.286	2040
401.51	1940
401.734	1963
401.958	1934
402.182	2006
402.406	2029
402.63	2012
402.854	2018
403.078	2013
403.302	2098
403.526	2108
403.75	2103
403.974	2181
404.198	2112
404.422	2143
404.645	2136
404.869	2120
405.093	2144
405.317	2056
405.541	2114
405.765	2120
405.988	2078
406.212	2169
406.436	2122
406.66	2131
406.883	2226
407.107	2328
407.331	2428
407.555	2457
407.778	2442
408.002	2439
408.226	2379
408.449	2344
408.673	2259
408.896	2210
409.12	2240
409.344	2210
409.567	2186
409.791	2198
410.014	2165
410.238	2113
410.461	2120
410.685	2124
410.908	2096
411.132	2092
411.355	2046
411.578	2052
411.802	2018
412.025	2065
412.249	2061
412.472	2051
412.695	2031
412.919	1971
413.142	1968
413.365	1982
413.589	1979
413.812	1976
414.035	1906
414.258	1926
414.482	1950
414.705	1955
414.928	1953
415.151	1948
415.374	1970
415.597	1941
415.821	1905
416.044	1912
416.267	1889
416.49	1882
416.713	1897
416.936	1845
417.159	1885
417.382	1840
417.605	1886
417.828	1856
418.051	1900
418.274	1879
418.497	1852
418.72	1937
418.943	1930
419.166	2069
419.389	2212
419.611	2136
419.834	1990
420.057	1983
420.28	1943
420.503	1861
420.726	1874
420.948	1868
421.171	1883
421.394	1908
421.617	1884
421.839	1906
422.062	1900
422.285	1870
422.507	1933
422.73	1972
422.953	1906
423.175	1891
423.398	1975
423.621	1888
423.843	1933
424.066	1944
424.288	1940
424.511	1950
424.733	1957
424.956	1931
425.178	1912
425.401	1915
425.623	1943
425.846	1896
426.068	1837
426.291	1810
426.513	1834
426.735	1802
426.958	1793
427.18	1767
427.402	1765
427.625	1766
427.847	1710
428.069	1715
428.292	1747
428.514	1723
428.736	1729
428.958	1765
429.181	1702
429.403	1694
429.625	1678
429.847	1680
430.069	1675
430.292	1644
430.514	1641
430.736	1699
430.958	1694
431.18	1669
431.402	1701
431.624	1704
431.846	1737
432.068	1741
432.29	1734
432.512	1700
432.734	1739
432.956	1716
433.178	1713
433.4	1733
433.622	1746
433.844	1772
434.066	1739
434.287	1756
434.509	1795
434.731	1885
434.953	1917
435.175	1927
435.397	1894
435.618	1807
435.84	1740
436.062	1723
436.284	1734
436.505	1707
436.727	1716
436.949	1760
437.17	1686
437.392	1674
437.614	1672
437.835	1649
438.057	1646
438.278	1643
438.5	1643
438.721	1640
438.943	1681
439.165	1634
439.386	1629
439.608	1652
439.829	1686
440.05	1663
440.272	1696
440.493	1689
440.715	1722
440.936	1739
441.158	1717
441.379	1769
441.6	1844
441.822	1864
442.043	1826
442.264	1815
442.486	1772
442.707	1820
442.928	1858
443.149	1842
443.371	1835
443.592	1853
443.813	1842
444.034	1873
444.255	1915
444.476	1956
444.698	2057
444.919	2116
445.14	2208
445.361	2061
445.582	1928
445.803	1871
446.024	1754
446.245	1769
446.466	1748
446.687	1698
446.908	1702
447.129	1644
447.35	1629
447.571	1646
447.792	1614
448.013	1606
448.234	1563
448.455	1588
448.675	1505
448.896	1520
449.117	1508
449.338	1530
449.559	1491
449.779	1521
450	1510
450.221	1489
450.442	1535
450.662	1526
450.883	1515
451.104	1541
451.324	1502
451.545	1530
451.766	1536
451.986	1542
452.207	1515
452.428	1505
452.648	1481
452.869	1475
453.089	1464
453.31	1490
453.53	1474
453.751	1446
453.971	1437
454.192	1452
454.412	1438
454.633	1436
454.853	1473
455.073	1467
455.294	1446
455.514	1415
455.734	1429
455.955	1459
456.175	1419
456.395	1417
456.616	1425
456.836	1437
457.056	1453
457.276	1416
457.497	1462
457.717	1438
457.937	1500
458.157	1484
458.377	1500
458.598	1527
458.818	1548
459.038	1569
459.258	1655
459.478	1668
459.698	1723
459.918	1833
460.138	1821
460.358	1856
460.578	1871
460.798	1901
461.018	1942
461.238	1963
461.458	1955
461.678	1916
461.898	1983
462.118	2016
462.338	2073
462.558	2104
462.777	2170
462.997	2327
463.217	2420
463.437	2512
463.657	2319
463.876	2194
464.096	2221
464.316	2211
464.536	2224
464.755	2139
464.975	2070
465.195	1959
465.414	1921
465.634	1798
465.854	1770
466.073	1724
466.293	1673
466.512	1649
466.732	1622
466.951	1629
467.171	1629
467.391	1635
467.61	1618
467.829	1579
468.049	1586
468.268	1570
468.488	1566
468.707	1550
468.927	1571
469.146	1602
469.365	1580
469.585	1586
469.804	1600
470.023	1638
470.243	1657
470.462	1649
470.681	1634
470.901	1660
471.12	1582
471.339	1609
471.558	1590
471.777	1590
471.997	1582
472.216	1559
472.435	1545
472.654	1528
472.873	1551
473.092	1540
473.311	1514
473.53	1502
473.749	1517
473.968	1548
474.187	1538
474.406	1515
474.625	1540
474.844	1538
475.063	1542
475.282	1564
475.501	1593
475.72	1576
475.939	1596
476.158	1564
476.377	1610
476.596	1658
476.814	1665
477.033	1638
477.252	1648
477.471	1729
477.69	1751
477.908	1778
478.127	1800
478.346	1801
478.564	1896
478.783	1881
479.002	1922
479.22	1947
479.439	1929
479.658	1901
479.876	1946
480.095	1946
480.313	2033
480.532	2038
480.751	2059
480.969	2003
481.188	1944
481.406	1890
481.624	1889
481.843	1882
482.061	1847
482.28	1864
482.498	1866
482.717	1856
482.935	1858
483.153	1830
483.372	1885
483.59	1932
483.808	1870
484.027	1935
484.245	1954
484.463	1946
484.681	1957
484.9	1998
485.118	1990
485.336	1977
485.554	2018
485.772	2036
485.99	2013
486.209	2034
486.427	2017
486.645	2029
486.863	2002
487.081	2005
487.299	2005
487.517	1972
487.735	2019
487.953	1996
488.171	2017
488.389	1962
488.607	1937
488.825	1928
489.043	1973
489.261	1958
489.479	1925
489.696	1946
489.914	1946
490.132	1936
490.35	1921
490.568	1911
490.786	1917
491.003	1921
491.221	1950
491.439	1934
491.657	1907
491.874	1908
492.092	1972
492.31	1920
492.527	1954
492.745	1947
492.963	1946
493.18	1932
493.398	1943
493.615	1978
493.833	1963
494.05	2006
494.268	1972
494.485	1993
494.703	1972
494.92	1993
495.138	1984
495.355	2002
495.573	1978
495.79	2000
496.008	2038
496.225	2013
496.442	2064
496.66	2064
496.877	2048
497.094	2097
497.312	2166
497.529	2192
497.746	2226
497.963	2284
498.181	2371
498.398	2499
498.615	2645
498.832	2715
499.049	2933
499.267	3100
499.484	3427
499.701	3711
499.918	4008
500.135	4392
500.352	4855
500.569	4996
500.786	4937
501.003	4712
501.22	4343
501.437	3935
501.654	3600
501.871	3274
502.088	3039
502.305	2940
502.522	2775
502.739	2677
502.956	2522
503.172	2416
503.389	2334
503.606	2277
503.823	2304
504.04	2258
504.256	2211
504.473	2224
504.69	2246
504.907	2199
505.123	2127
505.34	1993
505.557	1904
505.773	1882
505.99	1859
506.207	1800
506.423	1756
506.64	1799
506.856	1763
507.073	1718
507.289	1723
507.506	1675
507.722	1683
507.939	1654
508.155	1651
508.372	1647
508.588	1625
508.805	1601
509.021	1626
509.238	1600
509.454	1594
509.67	1571
509.887	1595
510.103	1562
510.319	1511
510.536	1557
510.752	1524
510.968	1516
511.184	1529
511.401	1521
511.617	1531
511.833	1568
512.049	1545
512.265	1531
512.481	1537
512.698	1534
512.914	1552
513.13	1566
513.346	1506
513.562	1515
513.778	1549
513.994	1560
514.21	1487
514.426	1552
514.642	1569
514.858	1556
515.074	1557
515.29	1592
515.506	1604
515.721	1645
515.937	1634
516.153	1691
516.369	1698
516.585	1737
516.801	1771
517.016	1849
517.232	1898
517.448	1915
517.664	2033
517.879	2022
518.095	2030
518.311	1971
518.527	1969
518.742	1843
518.958	1802
519.173	1780
519.389	1718
519.605	1688
519.82	1620
520.036	1625
520.251	1570
520.467	1535
520.682	1530
520.898	1483
521.113	1466
521.329	1504
521.544	1479
521.76	1504
521.975	1445
522.19	1452
522.406	1441
522.621	1389
522.836	1426
523.052	1428
523.267	1434
523.482	1446
523.698	1440
523.913	1418
524.128	1426
524.343	1417
524.559	1389
524.774	1377
524.989	1425
525.204	1378
525.419	1339
525.634	1324
525.849	1382
526.064	1384
526.28	1379
526.495	1367
526.71	1344
526.925	1354
527.14	1340
527.355	1325
527.57	1346
527.785	1378
527.999	1353
528.214	1352
528.429	1377
528.644	1355
528.859	1336
529.074	1337
529.289	1348
529.503	1373
529.718	1342
529.933	1311
530.148	1352
530.363	1353
530.577	1330
530.792	1342
531.007	1300
531.221	1323
531.436	1334
531.651	1371
531.865	1363
532.08	1310
532.295	1340
532.509	1347
532.724	1322
532.938	1383
533.153	1280
533.367	1331
533.582	1323
533.796	1284
534.011	1339
534.225	1300
534.44	1298
534.654	1290
534.868	1284
535.083	1276
535.297	1320
535.511	1315
535.726	1292
535.94	1259
536.154	1248
536.369	1257
536.583	1250
536.797	1258
537.011	1225
537.225	1222
537.44	1239
537.654	1246
537.868	1218
538.082	1242
538.296	1218
538.51	1190
538.724	1245
538.938	1230
539.153	1205
539.367	1216
539.581	1219
539.795	1185
540.009	1182
540.222	1211
540.436	1173
540.65	1203
540.864	1213
541.078	1200
541.292	1171
541.506	1193
541.72	1172
541.934	1190
542.147	1198
542.361	1188
542.575	1195
542.789	1187
543.002	1166
543.216	1155
543.43	1143
543.644	1179
543.857	1163
544.071	1176
544.285	1205
544.498	1162
544.712	1160
