Data from NiCl2@0.5M.TitratingCurve.Agarose3%dH2O.NegLispCup.LampEnergy10.LIBS07252019_HRD10591_18-18-33-570.txt Node
Date: Thu Jul 25 18:18:33 EDT 2019
User: cochatt
Spectrometer: HR+D1059
Trigger mode: 1
Integration Time (sec): 1.000000E-1
Scans to average: 1
Electric dark correction enabled: true
Nonlinearity correction enabled: false
Boxcar width: 0
XAxis mode: Wavelengths
Number of Pixels in Spectrum: 2048
>>>>>Begin Spectral Data<<<<<
223.165	-10.5
223.4	-10.5
223.635	-10.5
223.869	-18.5
224.104	-24.5
224.338	-23.5
224.573	-9.5
224.808	-16.5
225.042	-16.5
225.277	-0.5
225.511	4.5
225.746	3.5
225.98	6.5
226.215	5.5
226.449	19.5
226.683	18.5
226.918	40.5
227.152	21.5
227.387	36.5
227.621	30.5
227.856	34.5
228.09	51.5
228.324	33.5
228.559	59.5
228.793	75.5
229.027	136.5
229.262	161.5
229.496	167.5
229.73	165.5
229.964	181.5
230.199	191.5
230.433	175.5
230.667	196.5
230.901	186.5
231.136	194.5
231.37	194.5
231.604	200.5
231.838	204.5
232.072	213.5
232.306	227.5
232.541	224.5
232.775	213.5
233.009	198.5
233.243	205.5
233.477	192.5
233.711	216.5
233.945	213.5
234.179	212.5
234.413	209.5
234.647	220.5
234.881	224.5
235.115	204.5
235.349	218.5
235.583	225.5
235.817	236.5
236.051	204.5
236.285	209.5
236.519	211.5
236.753	238.5
236.987	235.5
237.221	236.5
237.455	249.5
237.689	257.5
237.922	236.5
238.156	245.5
238.39	236.5
238.624	254.5
238.858	256.5
239.091	237.5
239.325	266.5
239.559	255.5
239.793	269.5
240.027	271.5
240.26	267.5
240.494	279.5
240.728	276.5
240.961	293.5
241.195	277.5
241.429	295.5
241.662	292.5
241.896	301.5
242.13	313.5
242.363	313.5
242.597	317.5
242.83	316.5
243.064	289.5
243.298	326.5
243.531	297.5
243.765	320.5
243.998	340.5
244.232	323.5
244.465	346.5
244.699	319.5
244.932	319.5
245.166	343.5
245.399	345.5
245.633	335.5
245.866	341.5
246.099	338.5
246.333	355.5
246.566	347.5
246.8	341.5
247.033	345.5
247.266	350.5
247.5	362.5
247.733	363.5
247.966	375.5
248.2	399.5
248.433	360.5
248.666	377.5
248.899	387.5
249.133	369.5
249.366	380.5
249.599	386.5
249.832	374.5
250.066	391.5
250.299	413.5
250.532	394.5
250.765	397.5
250.998	415.5
251.231	402.5
251.465	418.5
251.698	424.5
251.931	432.5
252.164	428.5
252.397	437.5
252.63	443.5
252.863	435.5
253.096	434.5
253.329	441.5
253.562	438.5
253.795	453.5
254.028	457.5
254.261	451.5
254.494	433.5
254.727	435.5
254.96	441.5
255.193	449.5
255.426	445.5
255.659	451.5
255.892	461.5
256.124	461.5
256.357	483.5
256.59	457.5
256.823	479.5
257.056	491.5
257.289	496.5
257.521	491.5
257.754	505.5
257.987	483.5
258.22	492.5
258.452	509.5
258.685	509.5
258.918	500.5
259.151	508.5
259.383	499.5
259.616	495.5
259.849	518.5
260.081	529.5
260.314	503.5
260.547	529.5
260.779	519.5
261.012	530.5
261.244	527.5
261.477	537.5
261.71	540.5
261.942	536.5
262.175	559.5
262.407	552.5
262.64	539.5
262.872	557.5
263.105	549.5
263.337	569.5
263.57	564.5
263.802	546.5
264.035	578.5
264.267	575.5
264.499	567.5
264.732	583.5
264.964	571.5
265.197	571.5
265.429	580.5
265.661	588.5
265.894	579.5
266.126	624.5
266.358	621.5
266.591	601.5
266.823	613.5
267.055	610.5
267.287	601.5
267.52	605.5
267.752	605.5
267.984	628.5
268.216	628.5
268.448	619.5
268.681	631.5
268.913	614.5
269.145	641.5
269.377	629.5
269.609	645.5
269.841	650.5
270.073	628.5
270.306	645.5
270.538	633.5
270.77	633.5
271.002	661.5
271.234	640.5
271.466	647.5
271.698	646.5
271.93	653.5
272.162	659.5
272.394	686.5
272.626	671.5
272.858	674.5
273.09	688.5
273.322	682.5
273.553	676.5
273.785	696.5
274.017	694.5
274.249	677.5
274.481	706.5
274.713	707.5
274.945	666.5
275.176	717.5
275.408	717.5
275.64	728.5
275.872	716.5
276.104	712.5
276.335	695.5
276.567	741.5
276.799	723.5
277.031	714.5
277.262	749.5
277.494	743.5
277.726	732.5
277.957	745.5
278.189	738.5
278.421	739.5
278.652	775.5
278.884	758.5
279.115	735.5
279.347	760.5
279.579	779.5
279.81	776.5
280.042	780.5
280.273	784.5
280.505	785.5
280.736	802.5
280.968	799.5
281.199	835.5
281.431	809.5
281.662	803.5
281.894	795.5
282.125	785.5
282.356	812.5
282.588	801.5
282.819	829.5
283.051	810.5
283.282	802.5
283.513	841.5
283.745	836.5
283.976	817.5
284.207	845.5
284.439	821.5
284.67	828.5
284.901	828.5
285.132	836.5
285.364	838.5
285.595	860.5
285.826	863.5
286.057	850.5
286.288	885.5
286.52	877.5
286.751	850.5
286.982	853.5
287.213	887.5
287.444	868.5
287.675	883.5
287.906	892.5
288.138	858.5
288.369	876.5
288.6	912.5
288.831	876.5
289.062	914.5
289.293	905.5
289.524	896.5
289.755	887.5
289.986	893.5
290.217	916.5
290.448	890.5
290.679	895.5
290.91	902.5
291.141	923.5
291.371	893.5
291.602	915.5
291.833	913.5
292.064	911.5
292.295	905.5
292.526	917.5
292.757	917.5
292.987	921.5
293.218	901.5
293.449	905.5
293.68	937.5
293.91	928.5
294.141	903.5
294.372	921.5
294.603	927.5
294.833	936.5
295.064	939.5
295.295	913.5
295.525	913.5
295.756	957.5
295.987	934.5
296.217	965.5
296.448	953.5
296.679	949.5
296.909	973.5
297.14	970.5
297.37	946.5
297.601	957.5
297.831	981.5
298.062	976.5
298.292	987.5
298.523	1017.5
298.753	993.5
298.984	1031.5
299.214	1020.5
299.445	987.5
299.675	1007.5
299.905	1009.5
300.136	1021.5
300.366	1085.5
300.597	1118.5
300.827	1059.5
301.057	1067.5
301.288	1078.5
301.518	1093.5
301.748	1069.5
301.979	1033.5
302.209	1091.5
302.439	1050.5
302.669	1071.5
302.9	1033.5
303.13	1076.5
303.36	1050.5
303.59	1082.5
303.82	1077.5
304.051	1088.5
304.281	1068.5
304.511	1063.5
304.741	1094.5
304.971	1074.5
305.201	1113.5
305.431	1138.5
305.661	1126.5
305.891	1093.5
306.121	1098.5
306.352	1066.5
306.582	1045.5
306.812	1037.5
307.042	1081.5
307.272	1072.5
307.502	1008.5
307.731	1036.5
307.961	1045.5
308.191	1041.5
308.421	1016.5
308.651	1040.5
308.881	1052.5
309.111	1074.5
309.341	1027.5
309.571	1066.5
309.8	1069.5
310.03	1093.5
310.26	1144.5
310.49	1153.5
310.72	1064.5
310.949	1075.5
311.179	1094.5
311.409	1081.5
311.639	1096.5
311.868	1071.5
312.098	1089.5
312.328	1093.5
312.557	1099.5
312.787	1110.5
313.017	1143.5
313.246	1145.5
313.476	1167.5
313.706	1165.5
313.935	1153.5
314.165	1130.5
314.394	1137.5
314.624	1123.5
314.853	1130.5
315.083	1125.5
315.312	1153.5
315.542	1165.5
315.771	1143.5
316.001	1108.5
316.23	1109.5
316.46	1126.5
316.689	1137.5
316.919	1095.5
317.148	1119.5
317.377	1131.5
317.607	1117.5
317.836	1084.5
318.065	1092.5
318.295	1121.5
318.524	1109.5
318.753	1126.5
318.983	1143.5
319.212	1145.5
319.441	1131.5
319.67	1157.5
319.9	1132.5
320.129	1111.5
320.358	1128.5
320.587	1123.5
320.816	1144.5
321.046	1147.5
321.275	1137.5
321.504	1167.5
321.733	1143.5
321.962	1150.5
322.191	1161.5
322.42	1142.5
322.649	1156.5
322.878	1169.5
323.108	1152.5
323.337	1179.5
323.566	1187.5
323.795	1193.5
324.024	1185.5
324.253	1171.5
324.482	1169.5
324.71	1155.5
324.939	1188.5
325.168	1207.5
325.397	1203.5
325.626	1191.5
325.855	1210.5
326.084	1226.5
326.313	1234.5
326.542	1209.5
326.77	1247.5
326.999	1245.5
327.228	1197.5
327.457	1228.5
327.686	1230.5
327.914	1209.5
328.143	1250.5
328.372	1229.5
328.6	1224.5
328.829	1216.5
329.058	1242.5
329.287	1249.5
329.515	1229.5
329.744	1270.5
329.972	1256.5
330.201	1273.5
330.43	1252.5
330.658	1250.5
330.887	1216.5
331.115	1299.5
331.344	1303.5
331.572	1348.5
331.801	1348.5
332.03	1366.5
332.258	1391.5
332.486	1419.5
332.715	1414.5
332.943	1448.5
333.172	1469.5
333.4	1550.5
333.629	1539.5
333.857	1592.5
334.085	1620.5
334.314	1581.5
334.542	1575.5
334.771	1575.5
334.999	1537.5
335.227	1532.5
335.455	1549.5
335.684	1540.5
335.912	1500.5
336.14	1532.5
336.369	1502.5
336.597	1495.5
336.825	1528.5
337.053	1515.5
337.281	1506.5
337.51	1445.5
337.738	1418.5
337.966	1439.5
338.194	1480.5
338.422	1451.5
338.65	1375.5
338.878	1368.5
339.106	1404.5
339.334	1421.5
339.562	1423.5
339.79	1350.5
340.018	1307.5
340.246	1305.5
340.474	1291.5
340.702	1310.5
340.93	1331.5
341.158	1317.5
341.386	1401.5
341.614	1516.5
341.842	1450.5
342.07	1337.5
342.298	1337.5
342.526	1343.5
342.754	1314.5
342.981	1305.5
343.209	1345.5
343.437	1432.5
343.665	1505.5
343.893	1546.5
344.12	1583.5
344.348	1481.5
344.576	1497.5
344.804	1512.5
345.031	1413.5
345.259	1354.5
345.487	1365.5
345.714	1364.5
345.942	1414.5
346.17	1449.5
346.397	1444.5
346.625	1311.5
346.853	1226.5
347.08	1240.5
347.308	1281.5
347.535	1309.5
347.763	1224.5
347.99	1238.5
348.218	1265.5
348.445	1211.5
348.673	1215.5
348.9	1228.5
349.128	1232.5
349.355	1349.5
349.583	1362.5
349.81	1243.5
350.037	1181.5
350.265	1225.5
350.492	1239.5
350.72	1197.5
350.947	1217.5
351.174	1255.5
351.402	1326.5
351.629	1369.5
351.856	1319.5
352.083	1232.5
352.311	1300.5
352.538	1395.5
352.765	1415.5
352.992	1219.5
353.22	1137.5
353.447	1146.5
353.674	1177.5
353.901	1155.5
354.128	1203.5
354.355	1148.5
354.583	1172.5
354.81	1165.5
355.037	1210.5
355.264	1169.5
355.491	1207.5
355.718	1199.5
355.945	1192.5
356.172	1228.5
356.399	1213.5
356.626	1273.5
356.853	1329.5
357.08	1267.5
357.307	1222.5
357.534	1203.5
357.761	1179.5
357.988	1172.5
358.215	1197.5
358.441	1209.5
358.668	1193.5
358.895	1173.5
359.122	1177.5
359.349	1185.5
359.576	1204.5
359.802	1206.5
360.029	1203.5
360.256	1207.5
360.483	1139.5
360.709	1181.5
360.936	1203.5
361.163	1233.5
361.39	1234.5
361.616	1204.5
361.843	1276.5
362.07	1356.5
362.296	1308.5
362.523	1193.5
362.749	1171.5
362.976	1153.5
363.203	1159.5
363.429	1126.5
363.656	1166.5
363.882	1167.5
364.109	1191.5
364.335	1163.5
364.562	1158.5
364.788	1176.5
365.015	1161.5
365.241	1156.5
365.468	1159.5
365.694	1155.5
365.92	1172.5
366.147	1174.5
366.373	1156.5
366.599	1154.5
366.826	1180.5
367.052	1149.5
367.278	1168.5
367.505	1211.5
367.731	1151.5
367.957	1157.5
368.184	1176.5
368.41	1205.5
368.636	1190.5
368.862	1195.5
369.089	1190.5
369.315	1234.5
369.541	1190.5
369.767	1218.5
369.993	1201.5
370.219	1192.5
370.445	1213.5
370.672	1226.5
370.898	1231.5
371.124	1239.5
371.35	1250.5
371.576	1231.5
371.802	1255.5
372.028	1248.5
372.254	1268.5
372.48	1253.5
372.706	1254.5
372.932	1286.5
373.158	1320.5
373.384	1301.5
373.61	1238.5
373.835	1270.5
374.061	1255.5
374.287	1246.5
374.513	1283.5
374.739	1335.5
374.965	1349.5
375.191	1344.5
375.416	1365.5
375.642	1311.5
375.868	1295.5
376.094	1285.5
376.319	1265.5
376.545	1320.5
376.771	1247.5
376.997	1252.5
377.222	1270.5
377.448	1235.5
377.674	1252.5
377.899	1250.5
378.125	1224.5
378.35	1233.5
378.576	1263.5
378.802	1256.5
379.027	1213.5
379.253	1216.5
379.478	1224.5
379.704	1219.5
379.929	1222.5
380.155	1216.5
380.38	1213.5
380.606	1235.5
380.831	1235.5
381.057	1265.5
381.282	1219.5
381.507	1249.5
381.733	1266.5
381.958	1227.5
382.184	1234.5
382.409	1264.5
382.634	1255.5
382.86	1303.5
383.085	1282.5
383.31	1316.5
383.535	1351.5
383.761	1309.5
383.986	1372.5
384.211	1368.5
384.436	1397.5
384.662	1427.5
384.887	1478.5
385.112	1427.5
385.337	1421.5
385.562	1479.5
385.787	1492.5
386.013	1535.5
386.238	1508.5
386.463	1464.5
386.688	1519.5
386.913	1467.5
387.138	1489.5
387.363	1467.5
387.588	1448.5
387.813	1485.5
388.038	1475.5
388.263	1459.5
388.488	1467.5
388.713	1477.5
388.938	1451.5
389.163	1443.5
389.387	1444.5
389.612	1473.5
389.837	1448.5
390.062	1448.5
390.287	1458.5
390.512	1441.5
390.736	1472.5
390.961	1480.5
391.186	1531.5
391.411	1527.5
391.636	1581.5
391.86	1612.5
392.085	1614.5
392.31	1594.5
392.534	1595.5
392.759	1560.5
392.984	1554.5
393.208	1524.5
393.433	1561.5
393.658	1529.5
393.882	1537.5
394.107	1577.5
394.331	1583.5
394.556	1562.5
394.78	1563.5
395.005	1576.5
395.229	1525.5
395.454	1596.5
395.678	1633.5
395.903	1611.5
396.127	1633.5
396.352	1580.5
396.576	1562.5
396.801	1594.5
397.025	1571.5
397.249	1645.5
397.474	1638.5
397.698	1648.5
397.922	1657.5
398.147	1667.5
398.371	1734.5
398.595	1755.5
398.82	1843.5
399.044	1940.5
399.268	2091.5
399.492	2346.5
399.717	2512.5
399.941	2547.5
400.165	2386.5
400.389	2191.5
400.613	2058.5
400.837	1929.5
401.062	1926.5
401.286	1879.5
401.51	1827.5
401.734	1787.5
401.958	1862.5
402.182	1890.5
402.406	1843.5
402.63	1884.5
402.854	1887.5
403.078	1916.5
403.302	1987.5
403.526	2004.5
403.75	2000.5
403.974	2020.5
404.198	1973.5
404.422	2054.5
404.645	2017.5
404.869	1997.5
405.093	2008.5
405.317	1997.5
405.541	1964.5
405.765	1991.5
405.988	1994.5
406.212	2016.5
406.436	2014.5
406.66	2087.5
406.883	2053.5
407.107	2168.5
407.331	2263.5
407.555	2360.5
407.778	2331.5
408.002	2256.5
408.226	2214.5
408.449	2187.5
408.673	2040.5
408.896	2053.5
409.12	2017.5
409.344	2058.5
409.567	1990.5
409.791	2032.5
410.014	2009.5
410.238	1975.5
410.461	2023.5
410.685	2003.5
410.908	1941.5
411.132	1920.5
411.355	1891.5
411.578	1884.5
411.802	1891.5
412.025	1875.5
412.249	1956.5
412.472	1960.5
412.695	1900.5
412.919	1857.5
413.142	1827.5
413.365	1851.5
413.589	1833.5
413.812	1848.5
414.035	1851.5
414.258	1827.5
414.482	1816.5
414.705	1895.5
414.928	1850.5
415.151	1845.5
415.374	1849.5
415.597	1799.5
415.821	1790.5
416.044	1751.5
416.267	1775.5
416.49	1752.5
416.713	1751.5
416.936	1807.5
417.159	1798.5
417.382	1761.5
417.605	1764.5
417.828	1766.5
418.051	1820.5
418.274	1763.5
418.497	1765.5
418.72	1861.5
418.943	1868.5
419.166	1939.5
419.389	2050.5
419.611	2007.5
419.834	1959.5
420.057	1906.5
420.28	1850.5
420.503	1811.5
420.726	1759.5
420.948	1771.5
421.171	1738.5
421.394	1762.5
421.617	1799.5
421.839	1795.5
422.062	1828.5
422.285	1755.5
422.507	1851.5
422.73	1823.5
422.953	1840.5
423.175	1817.5
423.398	1842.5
423.621	1823.5
423.843	1833.5
424.066	1878.5
424.288	1845.5
424.511	1815.5
424.733	1809.5
424.956	1817.5
425.178	1836.5
425.401	1804.5
425.623	1832.5
425.846	1779.5
426.068	1739.5
426.291	1713.5
426.513	1733.5
426.735	1729.5
426.958	1683.5
427.18	1675.5
427.402	1705.5
427.625	1674.5
427.847	1683.5
428.069	1627.5
428.292	1676.5
428.514	1671.5
428.736	1615.5
428.958	1644.5
429.181	1621.5
429.403	1615.5
429.625	1571.5
429.847	1613.5
430.069	1589.5
430.292	1608.5
430.514	1581.5
430.736	1626.5
430.958	1618.5
431.18	1590.5
431.402	1632.5
431.624	1620.5
431.846	1631.5
432.068	1649.5
432.29	1680.5
432.512	1632.5
432.734	1686.5
432.956	1599.5
433.178	1666.5
433.4	1668.5
433.622	1740.5
433.844	1700.5
434.066	1701.5
434.287	1703.5
434.509	1749.5
434.731	1770.5
434.953	1777.5
435.175	1853.5
435.397	1849.5
435.618	1753.5
435.84	1743.5
436.062	1667.5
436.284	1663.5
436.505	1676.5
436.727	1654.5
436.949	1676.5
437.17	1645.5
437.392	1653.5
437.614	1609.5
437.835	1614.5
438.057	1599.5
438.278	1566.5
438.5	1573.5
438.721	1591.5
438.943	1628.5
439.165	1575.5
439.386	1615.5
439.608	1621.5
439.829	1653.5
440.05	1625.5
440.272	1669.5
440.493	1687.5
440.715	1678.5
440.936	1704.5
441.158	1703.5
441.379	1750.5
441.6	1834.5
441.822	1817.5
442.043	1795.5
442.264	1795.5
442.486	1773.5
442.707	1791.5
442.928	1784.5
443.149	1793.5
443.371	1811.5
443.592	1778.5
443.813	1827.5
444.034	1822.5
444.255	1929.5
444.476	1960.5
444.698	2022.5
444.919	2070.5
445.14	2154.5
445.361	2033.5
445.582	1911.5
445.803	1783.5
446.024	1740.5
446.245	1714.5
446.466	1682.5
446.687	1642.5
446.908	1645.5
447.129	1636.5
447.35	1619.5
447.571	1585.5
447.792	1561.5
448.013	1539.5
448.234	1527.5
448.455	1523.5
448.675	1512.5
448.896	1516.5
449.117	1483.5
449.338	1506.5
449.559	1489.5
449.779	1469.5
450	1465.5
450.221	1510.5
450.442	1526.5
450.662	1492.5
450.883	1559.5
451.104	1545.5
451.324	1527.5
451.545	1511.5
451.766	1518.5
451.986	1485.5
452.207	1491.5
452.428	1443.5
452.648	1467.5
452.869	1411.5
453.089	1463.5
453.31	1489.5
453.53	1481.5
453.751	1467.5
453.971	1454.5
454.192	1487.5
454.412	1445.5
454.633	1441.5
454.853	1440.5
455.073	1417.5
455.294	1468.5
455.514	1409.5
455.734	1419.5
455.955	1397.5
456.175	1435.5
456.395	1410.5
456.616	1380.5
456.836	1439.5
457.056	1393.5
457.276	1382.5
457.497	1435.5
457.717	1449.5
457.937	1404.5
458.157	1455.5
458.377	1475.5
458.598	1473.5
458.818	1512.5
459.038	1564.5
459.258	1605.5
459.478	1667.5
459.698	1749.5
459.918	1776.5
460.138	1811.5
460.358	1859.5
460.578	1912.5
460.798	1947.5
461.018	1931.5
461.238	1910.5
461.458	1912.5
461.678	1953.5
461.898	1940.5
462.118	1948.5
462.338	2028.5
462.558	2084.5
462.777	2201.5
462.997	2322.5
463.217	2389.5
463.437	2507.5
463.657	2327.5
463.876	2218.5
464.096	2258.5
464.316	2218.5
464.536	2190.5
464.755	2137.5
464.975	2071.5
465.195	1993.5
465.414	1886.5
465.634	1777.5
465.854	1761.5
466.073	1689.5
466.293	1683.5
466.512	1616.5
466.732	1596.5
466.951	1597.5
467.171	1602.5
467.391	1622.5
467.61	1635.5
467.829	1602.5
468.049	1584.5
468.268	1539.5
468.488	1540.5
468.707	1541.5
468.927	1572.5
469.146	1552.5
469.365	1580.5
469.585	1617.5
469.804	1635.5
470.023	1619.5
470.243	1630.5
470.462	1661.5
470.681	1660.5
470.901	1688.5
471.12	1596.5
471.339	1601.5
471.558	1613.5
471.777	1629.5
471.997	1563.5
472.216	1552.5
472.435	1545.5
472.654	1513.5
472.873	1507.5
473.092	1526.5
473.311	1522.5
473.53	1569.5
473.749	1531.5
473.968	1533.5
474.187	1517.5
474.406	1506.5
474.625	1495.5
474.844	1495.5
475.063	1549.5
475.282	1523.5
475.501	1581.5
475.72	1576.5
475.939	1565.5
476.158	1586.5
476.377	1621.5
476.596	1620.5
476.814	1622.5
477.033	1640.5
477.252	1657.5
477.471	1708.5
477.69	1765.5
477.908	1768.5
478.127	1787.5
478.346	1835.5
478.564	1881.5
478.783	1864.5
479.002	1958.5
479.22	1953.5
479.439	1943.5
479.658	1933.5
479.876	1932.5
480.095	1932.5
480.313	2036.5
480.532	2040.5
480.751	2057.5
480.969	1948.5
481.188	1901.5
481.406	1879.5
481.624	1829.5
481.843	1825.5
482.061	1817.5
482.28	1825.5
482.498	1799.5
482.717	1758.5
482.935	1813.5
483.153	1818.5
483.372	1835.5
483.59	1843.5
483.808	1836.5
484.027	1817.5
484.245	1857.5
484.463	1837.5
484.681	1900.5
484.9	1889.5
485.118	1929.5
485.336	1879.5
485.554	1905.5
485.772	1949.5
485.99	1964.5
486.209	1915.5
486.427	1947.5
486.645	1928.5
486.863	1985.5
487.081	1901.5
487.299	1905.5
487.517	1925.5
487.735	1944.5
487.953	1923.5
488.171	1927.5
488.389	1913.5
488.607	1922.5
488.825	1835.5
489.043	1871.5
489.261	1901.5
489.479	1909.5
489.696	1875.5
489.914	1951.5
490.132	1910.5
490.35	1892.5
490.568	1913.5
490.786	1917.5
491.003	1883.5
491.221	1890.5
491.439	1904.5
491.657	1899.5
491.874	1937.5
492.092	1967.5
492.31	1940.5
492.527	1977.5
492.745	1937.5
492.963	1975.5
493.18	1970.5
493.398	1991.5
493.615	1993.5
493.833	1957.5
494.05	2022.5
494.268	2037.5
494.485	1974.5
494.703	1991.5
494.92	1981.5
495.138	1973.5
495.355	2020.5
495.573	2007.5
495.79	1989.5
496.008	2036.5
496.225	2065.5
496.442	2080.5
496.66	2122.5
496.877	2083.5
497.094	2150.5
497.312	2191.5
497.529	2233.5
497.746	2254.5
497.963	2338.5
498.181	2404.5
498.398	2549.5
498.615	2727.5
498.832	2839.5
499.049	2984.5
499.267	3199.5
499.484	3464.5
499.701	3735.5
499.918	4075.5
500.135	4458.5
500.352	4854.5
500.569	5065.5
500.786	4947.5
501.003	4685.5
501.22	4393.5
501.437	4005.5
501.654	3605.5
501.871	3370.5
502.088	3135.5
502.305	2970.5
502.522	2823.5
502.739	2681.5
502.956	2528.5
503.172	2431.5
503.389	2327.5
503.606	2337.5
503.823	2305.5
504.04	2230.5
504.256	2248.5
504.473	2301.5
504.69	2330.5
504.907	2201.5
505.123	2141.5
505.34	2053.5
505.557	1953.5
505.773	1919.5
505.99	1876.5
506.207	1868.5
