Data from NiCl2@0.5M.TitratingCurve.Agarose3%dH2O.NegLispCup.LampEnergy10.LIBS07252019_HRD10591_18-20-24-572.txt Node
Date: Thu Jul 25 18:20:24 EDT 2019
User: cochatt
Spectrometer: HR+D1059
Trigger mode: 1
Integration Time (sec): 1.000000E-1
Scans to average: 1
Electric dark correction enabled: true
Nonlinearity correction enabled: false
Boxcar width: 0
XAxis mode: Wavelengths
Number of Pixels in Spectrum: 2048
>>>>>Begin Spectral Data<<<<<
223.165	-28.81
223.4	-28.81
223.635	-28.81
223.869	-20.81
224.104	-17.81
224.338	-17.81
224.573	-9.81
224.808	2.19
225.042	6.19
225.277	4.19
225.511	-6.81
225.746	-9.81
225.98	3.19
226.215	10.19
226.449	10.19
226.683	15.19
226.918	25.19
227.152	35.19
227.387	34.19
227.621	40.19
227.856	47.19
228.09	34.19
228.324	38.19
228.559	60.19
228.793	62.19
229.027	97.19
229.262	115.19
229.496	118.19
229.73	129.19
229.964	121.19
230.199	138.19
230.433	138.19
230.667	127.19
230.901	142.19
231.136	140.19
231.37	142.19
231.604	136.19
231.838	151.19
232.072	148.19
232.306	150.19
232.541	165.19
232.775	164.19
233.009	153.19
233.243	162.19
233.477	157.19
233.711	150.19
233.945	149.19
234.179	151.19
234.413	166.19
234.647	158.19
234.881	147.19
235.115	157.19
235.349	171.19
235.583	162.19
235.817	160.19
236.051	156.19
236.285	159.19
236.519	158.19
236.753	163.19
236.987	162.19
237.221	167.19
237.455	160.19
237.689	155.19
237.922	175.19
238.156	160.19
238.39	168.19
238.624	183.19
238.858	183.19
239.091	172.19
239.325	179.19
239.559	182.19
239.793	184.19
240.027	186.19
240.26	185.19
240.494	190.19
240.728	200.19
240.961	184.19
241.195	187.19
241.429	182.19
241.662	207.19
241.896	211.19
242.13	216.19
242.363	219.19
242.597	207.19
242.83	214.19
243.064	216.19
243.298	212.19
243.531	210.19
243.765	213.19
243.998	220.19
244.232	229.19
244.465	224.19
244.699	208.19
244.932	222.19
245.166	209.19
245.399	223.19
245.633	223.19
245.866	223.19
246.099	245.19
246.333	234.19
246.566	214.19
246.8	229.19
247.033	250.19
247.266	228.19
247.5	232.19
247.733	233.19
247.966	249.19
248.2	262.19
248.433	262.19
248.666	242.19
248.899	245.19
249.133	228.19
249.366	242.19
249.599	260.19
249.832	273.19
250.066	272.19
250.299	252.19
250.532	251.19
250.765	264.19
250.998	267.19
251.231	276.19
251.465	271.19
251.698	283.19
251.931	272.19
252.164	275.19
252.397	284.19
252.63	271.19
252.863	280.19
253.096	281.19
253.329	297.19
253.562	269.19
253.795	293.19
254.028	283.19
254.261	304.19
254.494	304.19
254.727	267.19
254.96	279.19
255.193	288.19
255.426	301.19
255.659	296.19
255.892	293.19
256.124	307.19
256.357	294.19
256.59	319.19
256.823	308.19
257.056	314.19
257.289	319.19
257.521	314.19
257.754	326.19
257.987	312.19
258.22	327.19
258.452	308.19
258.685	320.19
258.918	322.19
259.151	341.19
259.383	318.19
259.616	330.19
259.849	328.19
260.081	332.19
260.314	338.19
260.547	327.19
260.779	344.19
261.012	340.19
261.244	325.19
261.477	341.19
261.71	345.19
261.942	330.19
262.175	354.19
262.407	343.19
262.64	335.19
262.872	346.19
263.105	340.19
263.337	338.19
263.57	359.19
263.802	354.19
264.035	346.19
264.267	352.19
264.499	354.19
264.732	343.19
264.964	363.19
265.197	386.19
265.429	355.19
265.661	349.19
265.894	376.19
266.126	359.19
266.358	372.19
266.591	375.19
266.823	372.19
267.055	378.19
267.287	379.19
267.52	377.19
267.752	372.19
267.984	399.19
268.216	372.19
268.448	380.19
268.681	381.19
268.913	376.19
269.145	404.19
269.377	391.19
269.609	416.19
269.841	378.19
270.073	379.19
270.306	396.19
270.538	397.19
270.77	385.19
271.002	391.19
271.234	409.19
271.466	410.19
271.698	385.19
271.93	396.19
272.162	414.19
272.394	413.19
272.626	404.19
272.858	401.19
273.09	417.19
273.322	444.19
273.553	411.19
273.785	399.19
274.017	428.19
274.249	458.19
274.481	423.19
274.713	420.19
274.945	436.19
275.176	425.19
275.408	423.19
275.64	432.19
275.872	429.19
276.104	443.19
276.335	430.19
276.567	446.19
276.799	419.19
277.031	452.19
277.262	445.19
277.494	443.19
277.726	424.19
277.957	450.19
278.189	467.19
278.421	437.19
278.652	454.19
278.884	459.19
279.115	463.19
279.347	474.19
279.579	458.19
279.81	476.19
280.042	457.19
280.273	484.19
280.505	477.19
280.736	488.19
280.968	459.19
281.199	479.19
281.431	478.19
281.662	502.19
281.894	511.19
282.125	471.19
282.356	472.19
282.588	496.19
282.819	472.19
283.051	493.19
283.282	506.19
283.513	498.19
283.745	507.19
283.976	515.19
284.207	518.19
284.439	513.19
284.67	512.19
284.901	529.19
285.132	516.19
285.364	522.19
285.595	513.19
285.826	517.19
286.057	531.19
286.288	510.19
286.52	531.19
286.751	515.19
286.982	544.19
287.213	526.19
287.444	531.19
287.675	544.19
287.906	537.19
288.138	554.19
288.369	537.19
288.6	542.19
288.831	551.19
289.062	524.19
289.293	555.19
289.524	555.19
289.755	534.19
289.986	549.19
290.217	565.19
290.448	556.19
290.679	550.19
290.91	547.19
291.141	557.19
291.371	542.19
291.602	567.19
291.833	568.19
292.064	579.19
292.295	571.19
292.526	563.19
292.757	573.19
292.987	547.19
293.218	542.19
293.449	568.19
293.68	584.19
293.91	543.19
294.141	566.19
294.372	556.19
294.603	553.19
294.833	583.19
295.064	569.19
295.295	554.19
295.525	581.19
295.756	579.19
295.987	560.19
296.217	587.19
296.448	562.19
296.679	574.19
296.909	581.19
297.14	604.19
297.37	593.19
297.601	621.19
297.831	596.19
298.062	586.19
298.292	601.19
298.523	605.19
298.753	607.19
298.984	607.19
299.214	600.19
299.445	615.19
299.675	614.19
299.905	615.19
300.136	605.19
300.366	617.19
300.597	644.19
300.827	642.19
301.057	649.19
301.288	623.19
301.518	640.19
301.748	635.19
301.979	630.19
302.209	630.19
302.439	623.19
302.669	628.19
302.9	645.19
303.13	636.19
303.36	642.19
303.59	629.19
303.82	665.19
304.051	665.19
304.281	628.19
304.511	644.19
304.741	638.19
304.971	642.19
305.201	654.19
305.431	654.19
305.661	639.19
305.891	635.19
306.121	627.19
306.352	646.19
306.582	628.19
306.812	635.19
307.042	628.19
307.272	628.19
307.502	661.19
307.731	634.19
307.961	617.19
308.191	631.19
308.421	629.19
308.651	626.19
308.881	631.19
309.111	649.19
309.341	619.19
309.571	630.19
309.8	635.19
310.03	640.19
310.26	649.19
310.49	628.19
310.72	624.19
310.949	631.19
311.179	628.19
311.409	628.19
311.639	667.19
311.868	662.19
312.098	655.19
312.328	650.19
312.557	664.19
312.787	674.19
313.017	652.19
313.246	664.19
313.476	665.19
313.706	675.19
313.935	694.19
314.165	709.19
314.394	676.19
314.624	694.19
314.853	656.19
315.083	696.19
315.312	687.19
315.542	686.19
315.771	658.19
316.001	692.19
316.23	671.19
316.46	677.19
316.689	682.19
316.919	686.19
317.148	682.19
317.377	686.19
317.607	661.19
317.836	683.19
318.065	684.19
318.295	673.19
318.524	690.19
318.753	670.19
318.983	648.19
319.212	666.19
319.441	667.19
319.67	675.19
319.9	669.19
320.129	671.19
320.358	655.19
320.587	676.19
320.816	674.19
321.046	676.19
321.275	686.19
321.504	695.19
321.733	680.19
321.962	685.19
322.191	679.19
322.42	679.19
322.649	684.19
322.878	687.19
323.108	692.19
323.337	722.19
323.566	673.19
323.795	684.19
324.024	702.19
324.253	678.19
324.482	677.19
324.71	710.19
324.939	722.19
325.168	692.19
325.397	715.19
325.626	712.19
325.855	728.19
326.084	742.19
326.313	763.19
326.542	768.19
326.77	730.19
326.999	750.19
327.228	768.19
327.457	731.19
327.686	726.19
327.914	734.19
328.143	751.19
328.372	738.19
328.6	725.19
328.829	738.19
329.058	726.19
329.287	724.19
329.515	769.19
329.744	757.19
329.972	749.19
330.201	748.19
330.43	755.19
330.658	772.19
330.887	770.19
331.115	760.19
331.344	787.19
331.572	802.19
331.801	805.19
332.03	815.19
332.258	835.19
332.486	842.19
332.715	867.19
332.943	901.19
333.172	933.19
333.4	948.19
333.629	957.19
333.857	977.19
334.085	976.19
334.314	959.19
334.542	938.19
334.771	934.19
334.999	924.19
335.227	923.19
335.455	910.19
335.684	900.19
335.912	891.19
336.14	906.19
336.369	879.19
336.597	886.19
336.825	883.19
337.053	895.19
337.281	865.19
337.51	868.19
337.738	844.19
337.966	865.19
338.194	834.19
338.422	826.19
338.65	798.19
338.878	796.19
339.106	796.19
339.334	823.19
339.562	824.19
339.79	796.19
340.018	783.19
340.246	766.19
340.474	772.19
340.702	775.19
340.93	761.19
341.158	762.19
341.386	787.19
341.614	788.19
341.842	780.19
342.07	765.19
342.298	728.19
342.526	781.19
342.754	774.19
342.981	771.19
343.209	759.19
343.437	819.19
343.665	854.19
343.893	910.19
344.12	914.19
344.348	888.19
344.576	880.19
344.804	850.19
345.031	788.19
345.259	799.19
345.487	804.19
345.714	808.19
345.942	795.19
346.17	801.19
346.397	792.19
346.625	743.19
346.853	760.19
347.08	758.19
347.308	750.19
347.535	762.19
347.763	768.19
347.99	733.19
348.218	754.19
348.445	744.19
348.673	746.19
348.9	721.19
349.128	733.19
349.355	729.19
349.583	764.19
349.81	719.19
350.037	719.19
350.265	737.19
350.492	744.19
350.72	717.19
350.947	727.19
351.174	727.19
351.402	759.19
351.629	751.19
351.856	732.19
352.083	742.19
352.311	728.19
352.538	732.19
352.765	737.19
352.992	719.19
353.22	723.19
353.447	703.19
353.674	674.19
353.901	706.19
354.128	703.19
354.355	701.19
354.583	714.19
354.81	692.19
355.037	707.19
355.264	709.19
355.491	719.19
355.718	711.19
355.945	700.19
356.172	700.19
356.399	729.19
356.626	715.19
356.853	729.19
357.08	712.19
357.307	724.19
357.534	710.19
357.761	712.19
357.988	715.19
358.215	683.19
358.441	693.19
358.668	687.19
358.895	686.19
359.122	699.19
359.349	684.19
359.576	703.19
359.802	698.19
360.029	738.19
360.256	716.19
360.483	733.19
360.709	701.19
360.936	687.19
361.163	715.19
361.39	695.19
361.616	714.19
361.843	714.19
362.07	737.19
362.296	734.19
362.523	708.19
362.749	713.19
362.976	703.19
363.203	692.19
363.429	682.19
363.656	718.19
363.882	711.19
364.109	693.19
364.335	703.19
364.562	692.19
364.788	698.19
365.015	717.19
365.241	695.19
365.468	699.19
365.694	705.19
365.92	702.19
366.147	700.19
366.373	686.19
366.599	696.19
366.826	716.19
367.052	701.19
367.278	720.19
367.505	696.19
367.731	702.19
367.957	679.19
368.184	723.19
368.41	717.19
368.636	715.19
368.862	699.19
369.089	727.19
369.315	720.19
369.541	723.19
369.767	711.19
369.993	701.19
370.219	730.19
370.445	719.19
370.672	715.19
370.898	767.19
371.124	754.19
371.35	765.19
371.576	788.19
371.802	771.19
372.028	748.19
372.254	749.19
372.48	759.19
372.706	778.19
372.932	770.19
373.158	774.19
373.384	745.19
373.61	735.19
373.835	758.19
374.061	742.19
374.287	762.19
374.513	777.19
374.739	757.19
374.965	815.19
375.191	809.19
375.416	819.19
375.642	781.19
375.868	788.19
376.094	792.19
376.319	760.19
376.545	746.19
376.771	756.19
376.997	755.19
377.222	748.19
377.448	734.19
377.674	743.19
377.899	741.19
378.125	738.19
378.35	747.19
378.576	727.19
378.802	727.19
379.027	731.19
379.253	735.19
379.478	724.19
379.704	720.19
379.929	715.19
380.155	723.19
380.38	717.19
380.606	710.19
380.831	747.19
381.057	735.19
381.282	726.19
381.507	706.19
381.733	733.19
381.958	790.19
382.184	754.19
382.409	750.19
382.634	777.19
382.86	772.19
383.085	779.19
383.31	810.19
383.535	791.19
383.761	795.19
383.986	825.19
384.211	841.19
384.436	843.19
384.662	856.19
384.887	878.19
385.112	875.19
385.337	856.19
385.562	878.19
385.787	866.19
386.013	900.19
386.238	889.19
386.463	887.19
386.688	875.19
386.913	864.19
387.138	878.19
387.363	872.19
387.588	877.19
387.813	851.19
388.038	863.19
388.263	887.19
388.488	859.19
388.713	874.19
388.938	852.19
389.163	841.19
389.387	842.19
389.612	848.19
389.837	840.19
390.062	845.19
390.287	873.19
390.512	840.19
390.736	860.19
390.961	884.19
391.186	899.19
391.411	929.19
391.636	943.19
391.86	965.19
392.085	990.19
392.31	954.19
392.534	936.19
392.759	938.19
392.984	930.19
393.208	907.19
393.433	921.19
393.658	931.19
393.882	925.19
394.107	932.19
394.331	941.19
394.556	922.19
394.78	968.19
395.005	914.19
395.229	956.19
395.454	967.19
395.678	974.19
395.903	983.19
396.127	977.19
396.352	950.19
396.576	921.19
396.801	928.19
397.025	941.19
397.249	954.19
397.474	997.19
397.698	971.19
397.922	1014.19
398.147	970.19
398.371	1002.19
398.595	1053.19
398.82	1089.19
399.044	1173.19
399.268	1248.19
399.492	1432.19
399.717	1596.19
399.941	1558.19
400.165	1417.19
400.389	1304.19
400.613	1229.19
400.837	1169.19
401.062	1126.19
401.286	1121.19
401.51	1066.19
401.734	1095.19
401.958	1101.19
402.182	1086.19
402.406	1116.19
402.63	1141.19
402.854	1159.19
403.078	1176.19
403.302	1203.19
403.526	1227.19
403.75	1207.19
403.974	1196.19
404.198	1226.19
404.422	1261.19
404.645	1213.19
404.869	1202.19
405.093	1211.19
405.317	1178.19
405.541	1228.19
405.765	1226.19
405.988	1192.19
406.212	1218.19
406.436	1186.19
406.66	1228.19
406.883	1213.19
407.107	1286.19
407.331	1360.19
407.555	1402.19
407.778	1396.19
408.002	1340.19
408.226	1312.19
408.449	1306.19
408.673	1227.19
408.896	1242.19
409.12	1228.19
409.344	1239.19
409.567	1252.19
409.791	1206.19
410.014	1259.19
410.238	1187.19
410.461	1190.19
410.685	1197.19
410.908	1158.19
411.132	1168.19
411.355	1145.19
411.578	1142.19
411.802	1146.19
412.025	1146.19
412.249	1157.19
412.472	1118.19
412.695	1106.19
412.919	1103.19
413.142	1129.19
413.365	1099.19
413.589	1116.19
413.812	1090.19
414.035	1090.19
414.258	1094.19
414.482	1110.19
414.705	1114.19
414.928	1116.19
415.151	1120.19
415.374	1097.19
415.597	1098.19
415.821	1103.19
416.044	1074.19
416.267	1062.19
416.49	1079.19
416.713	1069.19
416.936	1074.19
417.159	1062.19
417.382	1059.19
417.605	1066.19
417.828	1076.19
418.051	1095.19
418.274	1082.19
418.497	1115.19
418.72	1113.19
418.943	1117.19
419.166	1183.19
419.389	1248.19
419.611	1206.19
419.834	1197.19
420.057	1124.19
420.28	1119.19
420.503	1090.19
420.726	1080.19
420.948	1076.19
421.171	1082.19
421.394	1089.19
421.617	1090.19
421.839	1108.19
422.062	1155.19
422.285	1095.19
422.507	1114.19
422.73	1100.19
422.953	1135.19
423.175	1163.19
423.398	1126.19
423.621	1120.19
423.843	1173.19
424.066	1126.19
424.288	1156.19
424.511	1148.19
424.733	1137.19
424.956	1120.19
425.178	1098.19
425.401	1134.19
425.623	1113.19
425.846	1069.19
426.068	1079.19
426.291	1050.19
426.513	1048.19
426.735	1043.19
426.958	1038.19
427.18	1032.19
427.402	1019.19
427.625	1018.19
427.847	1012.19
428.069	988.19
428.292	1007.19
428.514	987.19
428.736	958.19
428.958	992.19
429.181	982.19
429.403	994.19
429.625	981.19
429.847	982.19
430.069	964.19
430.292	980.19
430.514	950.19
430.736	984.19
430.958	983.19
431.18	987.19
431.402	998.19
431.624	980.19
431.846	997.19
432.068	1006.19
432.29	1019.19
432.512	960.19
432.734	1010.19
432.956	1010.19
433.178	990.19
433.4	1001.19
433.622	1022.19
433.844	1016.19
434.066	1031.19
434.287	1011.19
434.509	1025.19
434.731	1092.19
434.953	1094.19
435.175	1127.19
435.397	1127.19
435.618	1074.19
435.84	1038.19
436.062	977.19
436.284	987.19
436.505	975.19
436.727	1036.19
436.949	980.19
437.17	996.19
437.392	966.19
437.614	993.19
437.835	956.19
438.057	977.19
438.278	958.19
438.5	970.19
438.721	976.19
438.943	1018.19
439.165	990.19
439.386	999.19
439.608	980.19
439.829	975.19
440.05	1050.19
440.272	1018.19
440.493	1014.19
440.715	1029.19
440.936	1050.19
441.158	1064.19
441.379	1087.19
441.6	1097.19
441.822	1124.19
442.043	1114.19
442.264	1104.19
442.486	1078.19
442.707	1114.19
442.928	1090.19
443.149	1105.19
443.371	1112.19
443.592	1131.19
443.813	1135.19
444.034	1133.19
444.255	1209.19
444.476	1236.19
444.698	1266.19
444.919	1326.19
445.14	1375.19
445.361	1274.19
445.582	1150.19
445.803	1128.19
446.024	1089.19
446.245	1046.19
446.466	1041.19
446.687	1019.19
446.908	1011.19
447.129	970.19
447.35	984.19
447.571	979.19
447.792	975.19
448.013	974.19
448.234	955.19
448.455	926.19
448.675	923.19
448.896	938.19
449.117	898.19
449.338	921.19
449.559	919.19
449.779	932.19
450	912.19
450.221	939.19
450.442	935.19
450.662	930.19
450.883	960.19
451.104	971.19
451.324	964.19
451.545	958.19
451.766	958.19
451.986	910.19
452.207	950.19
452.428	919.19
452.648	913.19
452.869	931.19
453.089	896.19
453.31	913.19
453.53	912.19
453.751	909.19
453.971	876.19
454.192	892.19
454.412	872.19
454.633	883.19
454.853	871.19
455.073	862.19
455.294	856.19
455.514	892.19
455.734	894.19
455.955	893.19
456.175	857.19
456.395	876.19
456.616	867.19
456.836	854.19
457.056	877.19
457.276	859.19
457.497	879.19
457.717	860.19
457.937	889.19
458.157	904.19
458.377	896.19
458.598	918.19
458.818	936.19
459.038	967.19
459.258	982.19
459.478	1059.19
459.698	1019.19
459.918	1069.19
460.138	1127.19
460.358	1169.19
460.578	1156.19
460.798	1191.19
461.018	1223.19
461.238	1177.19
461.458	1178.19
461.678	1175.19
461.898	1203.19
462.118	1179.19
462.338	1273.19
462.558	1294.19
462.777	1367.19
462.997	1434.19
463.217	1546.19
463.437	1597.19
463.657	1432.19
463.876	1413.19
464.096	1400.19
464.316	1352.19
464.536	1370.19
464.755	1334.19
464.975	1276.19
465.195	1231.19
465.414	1155.19
465.634	1103.19
465.854	1056.19
466.073	1030.19
466.293	1027.19
466.512	979.19
466.732	986.19
466.951	984.19
467.171	974.19
467.391	961.19
467.61	958.19
467.829	987.19
468.049	986.19
468.268	931.19
468.488	954.19
468.707	938.19
468.927	957.19
469.146	947.19
469.365	969.19
469.585	974.19
469.804	978.19
470.023	1010.19
470.243	1006.19
470.462	990.19
470.681	1026.19
470.901	1002.19
471.12	1026.19
471.339	986.19
471.558	977.19
471.777	986.19
471.997	988.19
472.216	974.19
472.435	960.19
472.654	923.19
472.873	926.19
473.092	925.19
473.311	945.19
473.53	949.19
473.749	943.19
473.968	927.19
474.187	932.19
474.406	930.19
474.625	930.19
474.844	940.19
475.063	936.19
475.282	959.19
475.501	941.19
475.72	971.19
475.939	940.19
476.158	962.19
476.377	983.19
476.596	986.19
476.814	993.19
477.033	954.19
477.252	1031.19
477.471	1008.19
477.69	1058.19
477.908	1092.19
478.127	1116.19
478.346	1114.19
478.564	1129.19
478.783	1153.19
479.002	1163.19
479.22	1192.19
479.439	1158.19
479.658	1147.19
479.876	1142.19
480.095	1167.19
480.313	1234.19
480.532	1218.19
480.751	1238.19
480.969	1174.19
481.188	1165.19
481.406	1141.19
481.624	1115.19
481.843	1101.19
482.061	1083.19
482.28	1070.19
482.498	1060.19
482.717	1115.19
482.935	1081.19
483.153	1080.19
483.372	1102.19
483.59	1086.19
483.808	1132.19
484.027	1087.19
484.245	1074.19
484.463	1106.19
484.681	1123.19
484.9	1123.19
485.118	1118.19
485.336	1112.19
485.554	1131.19
485.772	1145.19
485.99	1127.19
486.209	1148.19
486.427	1150.19
486.645	1134.19
486.863	1165.19
487.081	1134.19
487.299	1130.19
487.517	1135.19
487.735	1135.19
487.953	1132.19
488.171	1132.19
488.389	1113.19
488.607	1132.19
488.825	1102.19
489.043	1119.19
489.261	1103.19
489.479	1127.19
489.696	1156.19
489.914	1128.19
490.132	1129.19
490.35	1132.19
490.568	1130.19
490.786	1135.19
491.003	1164.19
491.221	1162.19
491.439	1150.19
491.657	1119.19
491.874	1159.19
492.092	1185.19
492.31	1170.19
492.527	1144.19
492.745	1184.19
492.963	1177.19
493.18	1190.19
493.398	1167.19
493.615	1186.19
493.833	1202.19
494.05	1164.19
494.268	1206.19
494.485	1216.19
494.703	1207.19
494.92	1211.19
495.138	1190.19
495.355	1199.19
495.573	1195.19
495.79	1205.19
496.008	1214.19
496.225	1197.19
496.442	1236.19
496.66	1236.19
496.877	1232.19
497.094	1273.19
497.312	1320.19
