Data from NiCl2@0.125M.TitratingCurve.Agarose3%dH2O.NegLispCup.LampEnergy10.LIBS07252019_HRD10591_18-28-19-575.txt Node
Date: Thu Jul 25 18:28:19 EDT 2019
User: cochatt
Spectrometer: HR+D1059
Trigger mode: 1
Integration Time (sec): 1.000000E-1
Scans to average: 1
Electric dark correction enabled: true
Nonlinearity correction enabled: false
Boxcar width: 0
XAxis mode: Wavelengths
Number of Pixels in Spectrum: 2048
>>>>>Begin Spectral Data<<<<<
223.165	-15.69
223.4	-15.69
223.635	-15.69
223.869	-24.69
224.104	-17.69
224.338	-8.69
224.573	-28.69
224.808	-23.69
225.042	-10.69
225.277	10.31
225.511	6.31
225.746	5.31
225.98	12.31
226.215	12.31
226.449	13.31
226.683	20.31
226.918	28.31
227.152	21.31
227.387	38.31
227.621	30.31
227.856	52.31
228.09	57.31
228.324	56.31
228.559	61.31
228.793	70.31
229.027	112.31
229.262	110.31
229.496	121.31
229.73	134.31
229.964	148.31
230.199	134.31
230.433	151.31
230.667	151.31
230.901	141.31
231.136	156.31
231.37	150.31
231.604	158.31
231.838	146.31
232.072	154.31
232.306	152.31
232.541	160.31
232.775	151.31
233.009	156.31
233.243	164.31
233.477	165.31
233.711	174.31
233.945	156.31
234.179	176.31
234.413	160.31
234.647	144.31
234.881	159.31
235.115	160.31
235.349	173.31
235.583	175.31
235.817	173.31
236.051	174.31
236.285	176.31
236.519	176.31
236.753	174.31
236.987	173.31
237.221	183.31
237.455	181.31
237.689	181.31
237.922	183.31
238.156	185.31
238.39	187.31
238.624	180.31
238.858	191.31
239.091	205.31
239.325	186.31
239.559	214.31
239.793	198.31
240.027	203.31
240.26	182.31
240.494	199.31
240.728	206.31
240.961	204.31
241.195	207.31
241.429	214.31
241.662	215.31
241.896	225.31
242.13	222.31
242.363	215.31
242.597	206.31
242.83	226.31
243.064	222.31
243.298	235.31
243.531	220.31
243.765	236.31
243.998	239.31
244.232	246.31
244.465	232.31
244.699	233.31
244.932	237.31
245.166	256.31
245.399	244.31
245.633	254.31
245.866	258.31
246.099	237.31
246.333	248.31
246.566	265.31
246.8	250.31
247.033	255.31
247.266	266.31
247.5	264.31
247.733	262.31
247.966	247.31
248.2	271.31
248.433	260.31
248.666	256.31
248.899	260.31
249.133	297.31
249.366	271.31
249.599	278.31
249.832	281.31
250.066	298.31
250.299	295.31
250.532	288.31
250.765	300.31
250.998	293.31
251.231	298.31
251.465	292.31
251.698	304.31
251.931	287.31
252.164	311.31
252.397	317.31
252.63	307.31
252.863	294.31
253.096	314.31
253.329	284.31
253.562	304.31
253.795	316.31
254.028	318.31
254.261	315.31
254.494	325.31
254.727	319.31
254.96	321.31
255.193	318.31
255.426	327.31
255.659	290.31
255.892	342.31
256.124	328.31
256.357	330.31
256.59	311.31
256.823	337.31
257.056	325.31
257.289	339.31
257.521	342.31
257.754	346.31
257.987	332.31
258.22	336.31
258.452	336.31
258.685	336.31
258.918	335.31
259.151	349.31
259.383	356.31
259.616	340.31
259.849	343.31
260.081	367.31
260.314	380.31
260.547	360.31
260.779	348.31
261.012	376.31
261.244	374.31
261.477	372.31
261.71	390.31
261.942	383.31
262.175	376.31
262.407	379.31
262.64	351.31
262.872	375.31
263.105	372.31
263.337	390.31
263.57	368.31
263.802	370.31
264.035	392.31
264.267	379.31
264.499	364.31
264.732	386.31
264.964	410.31
265.197	396.31
265.429	405.31
265.661	399.31
265.894	410.31
266.126	402.31
266.358	395.31
266.591	407.31
266.823	404.31
267.055	406.31
267.287	410.31
267.52	409.31
267.752	424.31
267.984	425.31
268.216	418.31
268.448	416.31
268.681	418.31
268.913	426.31
269.145	426.31
269.377	427.31
269.609	430.31
269.841	419.31
270.073	406.31
270.306	421.31
270.538	450.31
270.77	426.31
271.002	442.31
271.234	444.31
271.466	455.31
271.698	453.31
271.93	439.31
272.162	447.31
272.394	422.31
272.626	438.31
272.858	458.31
273.09	446.31
273.322	444.31
273.553	454.31
273.785	460.31
274.017	444.31
274.249	457.31
274.481	480.31
274.713	451.31
274.945	487.31
275.176	456.31
275.408	458.31
275.64	462.31
275.872	475.31
276.104	480.31
276.335	487.31
276.567	490.31
276.799	463.31
277.031	485.31
277.262	484.31
277.494	499.31
277.726	470.31
277.957	479.31
278.189	514.31
278.421	514.31
278.652	496.31
278.884	500.31
279.115	501.31
279.347	519.31
279.579	505.31
279.81	518.31
280.042	501.31
280.273	516.31
280.505	483.31
280.736	517.31
280.968	518.31
281.199	509.31
281.431	522.31
281.662	521.31
281.894	524.31
282.125	527.31
282.356	506.31
282.588	534.31
282.819	522.31
283.051	540.31
283.282	557.31
283.513	540.31
283.745	529.31
283.976	551.31
284.207	550.31
284.439	554.31
284.67	568.31
284.901	553.31
285.132	576.31
285.364	542.31
285.595	564.31
285.826	557.31
286.057	578.31
286.288	541.31
286.52	564.31
286.751	587.31
286.982	567.31
287.213	559.31
287.444	548.31
287.675	571.31
287.906	570.31
288.138	592.31
288.369	578.31
288.6	590.31
288.831	586.31
289.062	584.31
289.293	591.31
289.524	599.31
289.755	591.31
289.986	590.31
290.217	618.31
290.448	644.31
290.679	610.31
290.91	607.31
291.141	573.31
291.371	604.31
291.602	593.31
291.833	611.31
292.064	588.31
292.295	626.31
292.526	591.31
292.757	600.31
292.987	609.31
293.218	589.31
293.449	602.31
293.68	612.31
293.91	607.31
294.141	600.31
294.372	592.31
294.603	612.31
294.833	618.31
295.064	626.31
295.295	624.31
295.525	603.31
295.756	650.31
295.987	626.31
296.217	638.31
296.448	614.31
296.679	632.31
296.909	628.31
297.14	622.31
297.37	638.31
297.601	656.31
297.831	660.31
298.062	644.31
298.292	640.31
298.523	664.31
298.753	675.31
298.984	664.31
299.214	647.31
299.445	676.31
299.675	638.31
299.905	642.31
300.136	645.31
300.366	675.31
300.597	672.31
300.827	676.31
301.057	664.31
301.288	720.31
301.518	680.31
301.748	719.31
301.979	722.31
302.209	671.31
302.439	718.31
302.669	702.31
302.9	684.31
303.13	658.31
303.36	680.31
303.59	671.31
303.82	671.31
304.051	676.31
304.281	643.31
304.511	665.31
304.741	672.31
304.971	662.31
305.201	664.31
305.431	679.31
305.661	698.31
305.891	694.31
306.121	672.31
306.352	675.31
306.582	665.31
306.812	677.31
307.042	688.31
307.272	673.31
307.502	651.31
307.731	677.31
307.961	684.31
308.191	677.31
308.421	658.31
308.651	693.31
308.881	662.31
309.111	667.31
309.341	638.31
309.571	668.31
309.8	660.31
310.03	641.31
310.26	648.31
310.49	670.31
310.72	662.31
310.949	663.31
311.179	682.31
311.409	682.31
311.639	696.31
311.868	654.31
312.098	686.31
312.328	674.31
312.557	717.31
312.787	678.31
313.017	692.31
313.246	719.31
313.476	706.31
313.706	698.31
313.935	730.31
314.165	712.31
314.394	724.31
314.624	713.31
314.853	693.31
315.083	696.31
315.312	705.31
315.542	725.31
315.771	678.31
316.001	696.31
316.23	686.31
316.46	699.31
316.689	704.31
316.919	687.31
317.148	707.31
317.377	687.31
317.607	704.31
317.836	717.31
318.065	695.31
318.295	694.31
318.524	686.31
318.753	694.31
318.983	680.31
319.212	687.31
319.441	700.31
319.67	684.31
319.9	682.31
320.129	715.31
320.358	683.31
320.587	688.31
320.816	695.31
321.046	702.31
321.275	703.31
321.504	735.31
321.733	696.31
321.962	699.31
322.191	728.31
322.42	708.31
322.649	715.31
322.878	714.31
323.108	698.31
323.337	728.31
323.566	703.31
323.795	739.31
324.024	724.31
324.253	724.31
324.482	702.31
324.71	703.31
324.939	723.31
325.168	727.31
325.397	724.31
325.626	722.31
325.855	716.31
326.084	772.31
326.313	759.31
326.542	749.31
326.77	782.31
326.999	771.31
327.228	754.31
327.457	769.31
327.686	761.31
327.914	750.31
328.143	751.31
328.372	779.31
328.6	762.31
328.829	775.31
329.058	761.31
329.287	788.31
329.515	738.31
329.744	781.31
329.972	768.31
330.201	762.31
330.43	766.31
330.658	785.31
330.887	799.31
331.115	773.31
331.344	799.31
331.572	805.31
331.801	818.31
332.03	834.31
332.258	852.31
332.486	882.31
332.715	917.31
332.943	943.31
333.172	987.31
333.4	1030.31
333.629	1042.31
333.857	1070.31
334.085	1048.31
334.314	1020.31
334.542	997.31
334.771	1000.31
334.999	979.31
335.227	961.31
335.455	967.31
335.684	949.31
335.912	964.31
336.14	949.31
336.369	925.31
336.597	913.31
336.825	930.31
337.053	914.31
337.281	884.31
337.51	862.31
337.738	884.31
337.966	840.31
338.194	848.31
338.422	828.31
338.65	829.31
338.878	820.31
339.106	837.31
339.334	833.31
339.562	815.31
339.79	820.31
340.018	822.31
340.246	772.31
340.474	793.31
340.702	816.31
340.93	810.31
341.158	834.31
341.386	823.31
341.614	798.31
341.842	802.31
342.07	777.31
342.298	805.31
342.526	819.31
342.754	799.31
342.981	775.31
343.209	821.31
343.437	836.31
343.665	916.31
343.893	987.31
344.12	1009.31
344.348	995.31
344.576	944.31
344.804	902.31
345.031	867.31
345.259	807.31
345.487	802.31
345.714	806.31
345.942	795.31
346.17	788.31
346.397	794.31
346.625	782.31
346.853	773.31
347.08	770.31
347.308	763.31
347.535	804.31
347.763	811.31
347.99	764.31
348.218	798.31
348.445	782.31
348.673	777.31
348.9	786.31
349.128	778.31
349.355	751.31
349.583	757.31
349.81	754.31
350.037	746.31
350.265	738.31
350.492	732.31
350.72	760.31
350.947	744.31
351.174	725.31
351.402	750.31
351.629	764.31
351.856	740.31
352.083	741.31
352.311	729.31
352.538	785.31
352.765	739.31
352.992	735.31
353.22	708.31
353.447	721.31
353.674	735.31
353.901	746.31
354.128	741.31
354.355	719.31
354.583	730.31
354.81	748.31
355.037	744.31
355.264	744.31
355.491	730.31
355.718	730.31
355.945	748.31
356.172	751.31
356.399	754.31
356.626	758.31
356.853	766.31
357.08	737.31
357.307	751.31
357.534	748.31
357.761	725.31
357.988	757.31
358.215	739.31
358.441	724.31
358.668	763.31
358.895	762.31
359.122	772.31
359.349	752.31
359.576	729.31
359.802	736.31
360.029	730.31
360.256	738.31
360.483	767.31
360.709	736.31
360.936	776.31
361.163	766.31
361.39	750.31
361.616	756.31
361.843	754.31
362.07	755.31
362.296	724.31
362.523	738.31
362.749	739.31
362.976	742.31
363.203	743.31
363.429	732.31
363.656	744.31
363.882	717.31
364.109	722.31
364.335	743.31
364.562	743.31
364.788	723.31
365.015	747.31
365.241	748.31
365.468	715.31
365.694	728.31
365.92	757.31
366.147	735.31
366.373	726.31
366.599	743.31
366.826	733.31
367.052	724.31
367.278	758.31
367.505	765.31
367.731	772.31
367.957	751.31
368.184	758.31
368.41	746.31
368.636	742.31
368.862	744.31
369.089	780.31
369.315	744.31
369.541	777.31
369.767	759.31
369.993	768.31
370.219	776.31
370.445	789.31
370.672	782.31
370.898	807.31
371.124	786.31
371.35	785.31
371.576	808.31
371.802	826.31
372.028	798.31
372.254	825.31
372.48	825.31
372.706	866.31
372.932	858.31
373.158	865.31
373.384	832.31
373.61	811.31
373.835	820.31
374.061	839.31
374.287	853.31
374.513	826.31
374.739	859.31
374.965	875.31
375.191	899.31
375.416	887.31
375.642	876.31
375.868	849.31
376.094	833.31
376.319	846.31
376.545	818.31
376.771	843.31
376.997	819.31
377.222	839.31
377.448	802.31
377.674	811.31
377.899	825.31
378.125	798.31
378.35	799.31
378.576	783.31
378.802	800.31
379.027	819.31
379.253	796.31
379.478	803.31
379.704	803.31
379.929	811.31
380.155	816.31
380.38	786.31
380.606	776.31
380.831	813.31
381.057	838.31
381.282	816.31
381.507	834.31
381.733	829.31
381.958	787.31
382.184	845.31
382.409	869.31
382.634	841.31
382.86	834.31
383.085	871.31
383.31	870.31
383.535	898.31
383.761	898.31
383.986	913.31
384.211	928.31
384.436	956.31
384.662	984.31
384.887	964.31
385.112	975.31
385.337	1034.31
385.562	1008.31
385.787	971.31
386.013	973.31
386.238	990.31
386.463	992.31
386.688	1011.31
386.913	976.31
387.138	966.31
387.363	963.31
387.588	973.31
387.813	937.31
388.038	1001.31
388.263	959.31
388.488	988.31
388.713	949.31
388.938	942.31
389.163	958.31
389.387	949.31
389.612	934.31
389.837	938.31
390.062	940.31
390.287	943.31
390.512	955.31
390.736	988.31
390.961	976.31
391.186	986.31
391.411	1030.31
391.636	1062.31
391.86	1094.31
392.085	1140.31
392.31	1127.31
392.534	1071.31
392.759	1086.31
392.984	1026.31
393.208	1032.31
393.433	1054.31
393.658	1043.31
393.882	1031.31
394.107	1069.31
394.331	1019.31
394.556	1018.31
394.78	1034.31
395.005	1068.31
395.229	1061.31
395.454	1106.31
395.678	1139.31
395.903	1112.31
396.127	1084.31
396.352	1061.31
396.576	1053.31
396.801	1032.31
397.025	1078.31
397.249	1075.31
397.474	1065.31
397.698	1093.31
397.922	1099.31
398.147	1059.31
398.371	1115.31
398.595	1170.31
398.82	1228.31
399.044	1278.31
399.268	1436.31
399.492	1636.31
399.717	1920.31
399.941	1960.31
400.165	1740.31
400.389	1544.31
400.613	1379.31
400.837	1306.31
401.062	1244.31
401.286	1221.31
401.51	1219.31
401.734	1196.31
401.958	1247.31
402.182	1276.31
402.406	1268.31
402.63	1320.31
402.854	1327.31
403.078	1351.31
403.302	1397.31
403.526	1385.31
403.75	1410.31
403.974	1464.31
404.198	1451.31
404.422	1448.31
404.645	1469.31
404.869	1468.31
405.093	1438.31
405.317	1431.31
405.541	1401.31
405.765	1378.31
405.988	1354.31
406.212	1355.31
406.436	1342.31
406.66	1396.31
406.883	1369.31
407.107	1526.31
407.331	1564.31
407.555	1599.31
407.778	1631.31
408.002	1598.31
408.226	1515.31
408.449	1471.31
408.673	1438.31
408.896	1426.31
409.12	1381.31
409.344	1387.31
409.567	1404.31
409.791	1434.31
410.014	1410.31
410.238	1355.31
410.461	1360.31
410.685	1360.31
410.908	1359.31
411.132	1346.31
411.355	1295.31
411.578	1281.31
411.802	1253.31
412.025	1318.31
412.249	1320.31
412.472	1320.31
412.695	1253.31
412.919	1238.31
413.142	1224.31
413.365	1235.31
413.589	1274.31
413.812	1198.31
414.035	1204.31
414.258	1206.31
414.482	1262.31
414.705	1268.31
414.928	1284.31
415.151	1259.31
415.374	1234.31
415.597	1238.31
415.821	1205.31
416.044	1206.31
416.267	1211.31
416.49	1191.31
416.713	1186.31
416.936	1226.31
417.159	1196.31
417.382	1214.31
417.605	1208.31
417.828	1177.31
418.051	1214.31
418.274	1220.31
418.497	1250.31
418.72	1267.31
418.943	1288.31
419.166	1369.31
419.389	1466.31
419.611	1420.31
419.834	1339.31
420.057	1276.31
420.28	1268.31
420.503	1208.31
420.726	1229.31
420.948	1191.31
421.171	1230.31
421.394	1215.31
421.617	1217.31
421.839	1248.31
422.062	1257.31
422.285	1227.31
422.507	1264.31
422.73	1227.31
422.953	1274.31
423.175	1285.31
423.398	1284.31
423.621	1303.31
423.843	1300.31
424.066	1352.31
424.288	1328.31
424.511	1310.31
424.733	1280.31
424.956	1306.31
425.178	1244.31
425.401	1252.31
425.623	1233.31
425.846	1189.31
426.068	1221.31
426.291	1182.31
426.513	1158.31
426.735	1173.31
426.958	1150.31
427.18	1141.31
427.402	1097.31
427.625	1088.31
427.847	1094.31
428.069	1115.31
428.292	1115.31
428.514	1090.31
428.736	1092.31
428.958	1100.31
429.181	1081.31
429.403	1088.31
429.625	1066.31
429.847	1057.31
430.069	1026.31
430.292	1079.31
430.514	1039.31
430.736	1061.31
430.958	1050.31
431.18	1056.31
431.402	1056.31
431.624	1062.31
431.846	1102.31
432.068	1142.31
432.29	1119.31
432.512	1081.31
432.734	1126.31
432.956	1114.31
433.178	1098.31
433.4	1083.31
433.622	1110.31
433.844	1130.31
434.066	1071.31
434.287	1103.31
434.509	1138.31
434.731	1218.31
434.953	1254.31
435.175	1254.31
435.397	1231.31
435.618	1174.31
435.84	1136.31
436.062	1119.31
436.284	1105.31
436.505	1088.31
436.727	1115.31
436.949	1107.31
437.17	1107.31
437.392	1063.31
437.614	1078.31
437.835	1017.31
438.057	1062.31
438.278	1039.31
438.5	1031.31
438.721	1063.31
438.943	1107.31
439.165	1078.31
439.386	1071.31
439.608	1062.31
439.829	1102.31
440.05	1119.31
440.272	1101.31
440.493	1082.31
440.715	1143.31
440.936	1137.31
441.158	1124.31
441.379	1184.31
441.6	1246.31
441.822	1271.31
442.043	1256.31
442.264	1228.31
442.486	1197.31
442.707	1183.31
442.928	1202.31
443.149	1191.31
443.371	1189.31
443.592	1233.31
443.813	1282.31
444.034	1256.31
444.255	1308.31
444.476	1373.31
444.698	1469.31
444.919	1517.31
445.14	1607.31
445.361	1445.31
445.582	1314.31
445.803	1223.31
446.024	1158.31
446.245	1167.31
446.466	1144.31
446.687	1143.31
446.908	1135.31
447.129	1101.31
447.35	1073.31
447.571	1066.31
447.792	1033.31
448.013	1076.31
448.234	1041.31
448.455	1041.31
448.675	1005.31
448.896	1026.31
449.117	988.31
449.338	1016.31
449.559	996.31
449.779	985.31
450	994.31
450.221	1012.31
450.442	988.31
450.662	1021.31
450.883	1027.31
451.104	1049.31
451.324	1057.31
451.545	1018.31
451.766	1017.31
451.986	1037.31
452.207	1012.31
452.428	1028.31
452.648	1018.31
452.869	1009.31
453.089	947.31
453.31	991.31
453.53	966.31
453.751	1001.31
453.971	979.31
454.192	986.31
454.412	967.31
454.633	946.31
454.853	922.31
455.073	943.31
455.294	951.31
455.514	934.31
455.734	950.31
455.955	980.31
456.175	928.31
456.395	918.31
456.616	940.31
456.836	901.31
457.056	931.31
457.276	923.31
457.497	970.31
457.717	942.31
457.937	946.31
458.157	943.31
458.377	980.31
458.598	1001.31
458.818	1030.31
459.038	1024.31
459.258	1106.31
459.478	1127.31
459.698	1145.31
459.918	1172.31
460.138	1215.31
460.358	1288.31
460.578	1297.31
460.798	1327.31
461.018	1333.31
461.238	1341.31
461.458	1313.31
461.678	1267.31
461.898	1310.31
462.118	1342.31
462.338	1403.31
462.558	1458.31
462.777	1492.31
462.997	1591.31
463.217	1774.31
463.437	1805.31
463.657	1662.31
463.876	1566.31
464.096	1591.31
464.316	1541.31
464.536	1582.31
464.755	1503.31
464.975	1461.31
465.195	1395.31
465.414	1283.31
465.634	1206.31
465.854	1173.31
466.073	1148.31
466.293	1149.31
466.512	1080.31
466.732	1067.31
466.951	1051.31
467.171	1060.31
467.391	1076.31
467.61	1082.31
467.829	1040.31
468.049	1068.31
468.268	1002.31
468.488	1007.31
468.707	981.31
468.927	1007.31
469.146	1016.31
469.365	1024.31
469.585	1047.31
469.804	1071.31
470.023	1105.31
470.243	1099.31
470.462	1126.31
470.681	1119.31
470.901	1071.31
471.12	1077.31
471.339	1064.31
471.558	1093.31
471.777	1051.31
471.997	1012.31
472.216	1010.31
472.435	1003.31
472.654	1006.31
472.873	955.31
473.092	992.31
473.311	989.31
473.53	974.31
473.749	994.31
473.968	968.31
474.187	959.31
474.406	987.31
474.625	997.31
474.844	1000.31
475.063	970.31
475.282	963.31
475.501	946.31
475.72	982.31
475.939	1007.31
476.158	1039.31
476.377	1016.31
476.596	1039.31
476.814	1036.31
477.033	1040.31
477.252	1067.31
477.471	1095.31
477.69	1103.31
477.908	1160.31
478.127	1174.31
478.346	1185.31
478.564	1203.31
478.783	1210.31
479.002	1211.31
479.22	1256.31
479.439	1220.31
479.658	1268.31
479.876	1248.31
480.095	1250.31
480.313	1270.31
480.532	1367.31
480.751	1366.31
480.969	1305.31
481.188	1197.31
481.406	1175.31
481.624	1166.31
481.843	1136.31
482.061	1106.31
482.28	1133.31
482.498	1126.31
482.717	1064.31
482.935	1120.31
483.153	1118.31
483.372	1111.31
483.59	1150.31
483.808	1111.31
484.027	1133.31
484.245	1149.31
484.463	1123.31
484.681	1186.31
484.9	1183.31
485.118	1190.31
485.336	1179.31
485.554	1190.31
485.772	1164.31
485.99	1184.31
486.209	1193.31
486.427	1222.31
486.645	1198.31
486.863	1197.31
487.081	1164.31
487.299	1164.31
487.517	1164.31
487.735	1202.31
487.953	1166.31
488.171	1180.31
488.389	1181.31
488.607	1159.31
488.825	1124.31
489.043	1148.31
489.261	1148.31
489.479	1160.31
489.696	1140.31
489.914	1166.31
490.132	1181.31
490.35	1173.31
490.568	1181.31
490.786	1178.31
491.003	1197.31
491.221	1194.31
491.439	1202.31
491.657	1187.31
491.874	1166.31
492.092	1176.31
492.31	1213.31
492.527	1206.31
492.745	1224.31
492.963	1179.31
493.18	1228.31
493.398	1219.31
493.615	1240.31
493.833	1230.31
494.05	1232.31
494.268	1227.31
494.485	1290.31
494.703	1219.31
494.92	1272.31
495.138	1215.31
495.355	1245.31
495.573	1240.31
