Data from NiCl2@0.0625M.TitratingCurve.Agarose3%dH2O.NegLispCup.LampEnergy10.LIBS07252019_HRD10591_18-35-06-577.txt Node
Date: Thu Jul 25 18:35:06 EDT 2019
User: cochatt
Spectrometer: HR+D1059
Trigger mode: 1
Integration Time (sec): 1.000000E-1
Scans to average: 1
Electric dark correction enabled: true
Nonlinearity correction enabled: false
Boxcar width: 0
XAxis mode: Wavelengths
Number of Pixels in Spectrum: 2048
>>>>>Begin Spectral Data<<<<<
223.165	-8.38
223.4	-8.38
223.635	-8.38
223.869	-7.38
224.104	-23.38
224.338	-8.38
224.573	-15.38
224.808	-4.38
225.042	-12.38
225.277	-12.38
225.511	-4.38
225.746	-0.38
225.98	-2.38
226.215	6.62
226.449	8.62
226.683	25.62
226.918	30.62
227.152	27.62
227.387	48.62
227.621	32.62
227.856	52.62
228.09	60.62
228.324	58.62
228.559	38.62
228.793	85.62
229.027	137.62
229.262	138.62
229.496	146.62
229.73	154.62
229.964	151.62
230.199	145.62
230.433	158.62
230.667	163.62
230.901	170.62
231.136	169.62
231.37	167.62
231.604	168.62
231.838	175.62
232.072	187.62
232.306	170.62
232.541	187.62
232.775	187.62
233.009	191.62
233.243	187.62
233.477	184.62
233.711	189.62
233.945	184.62
234.179	185.62
234.413	191.62
234.647	183.62
234.881	210.62
235.115	203.62
235.349	195.62
235.583	195.62
235.817	188.62
236.051	218.62
236.285	191.62
236.519	214.62
236.753	218.62
236.987	196.62
237.221	209.62
237.455	212.62
237.689	206.62
237.922	214.62
238.156	210.62
238.39	221.62
238.624	210.62
238.858	221.62
239.091	231.62
239.325	236.62
239.559	248.62
239.793	244.62
240.027	241.62
240.26	246.62
240.494	243.62
240.728	246.62
240.961	248.62
241.195	283.62
241.429	263.62
241.662	253.62
241.896	276.62
242.13	285.62
242.363	261.62
242.597	275.62
242.83	287.62
243.064	271.62
243.298	280.62
243.531	295.62
243.765	295.62
243.998	289.62
244.232	284.62
244.465	285.62
244.699	293.62
244.932	300.62
245.166	299.62
245.399	299.62
245.633	291.62
245.866	288.62
246.099	331.62
246.333	310.62
246.566	307.62
246.8	320.62
247.033	321.62
247.266	319.62
247.5	308.62
247.733	319.62
247.966	314.62
248.2	317.62
248.433	339.62
248.666	335.62
248.899	336.62
249.133	343.62
249.366	345.62
249.599	344.62
249.832	349.62
250.066	352.62
250.299	364.62
250.532	368.62
250.765	379.62
250.998	361.62
251.231	369.62
251.465	358.62
251.698	373.62
251.931	373.62
252.164	379.62
252.397	375.62
252.63	382.62
252.863	377.62
253.096	387.62
253.329	410.62
253.562	417.62
253.795	389.62
254.028	395.62
254.261	399.62
254.494	407.62
254.727	397.62
254.96	393.62
255.193	419.62
255.426	394.62
255.659	418.62
255.892	424.62
256.124	423.62
256.357	415.62
256.59	418.62
256.823	412.62
257.056	421.62
257.289	426.62
257.521	433.62
257.754	439.62
257.987	442.62
258.22	436.62
258.452	424.62
258.685	437.62
258.918	438.62
259.151	447.62
259.383	464.62
259.616	460.62
259.849	456.62
260.081	475.62
260.314	474.62
260.547	469.62
260.779	472.62
261.012	467.62
261.244	480.62
261.477	483.62
261.71	491.62
261.942	495.62
262.175	469.62
262.407	483.62
262.64	495.62
262.872	513.62
263.105	495.62
263.337	478.62
263.57	507.62
263.802	495.62
264.035	493.62
264.267	477.62
264.499	490.62
264.732	517.62
264.964	519.62
265.197	524.62
265.429	475.62
265.661	495.62
265.894	537.62
266.126	507.62
266.358	526.62
266.591	544.62
266.823	514.62
267.055	527.62
267.287	533.62
267.52	565.62
267.752	532.62
267.984	538.62
268.216	524.62
268.448	566.62
268.681	547.62
268.913	551.62
269.145	544.62
269.377	575.62
269.609	563.62
269.841	555.62
270.073	552.62
270.306	563.62
270.538	572.62
270.77	554.62
271.002	561.62
271.234	555.62
271.466	581.62
271.698	575.62
271.93	564.62
272.162	584.62
272.394	594.62
272.626	572.62
272.858	586.62
273.09	595.62
273.322	604.62
273.553	611.62
273.785	599.62
274.017	614.62
274.249	614.62
274.481	609.62
274.713	624.62
274.945	621.62
275.176	613.62
275.408	622.62
275.64	609.62
275.872	615.62
276.104	643.62
276.335	649.62
276.567	642.62
276.799	637.62
277.031	652.62
277.262	634.62
277.494	648.62
277.726	636.62
277.957	666.62
278.189	636.62
278.421	658.62
278.652	656.62
278.884	649.62
279.115	653.62
279.347	671.62
279.579	664.62
279.81	667.62
280.042	668.62
280.273	672.62
280.505	676.62
280.736	664.62
280.968	694.62
281.199	673.62
281.431	687.62
281.662	691.62
281.894	703.62
282.125	704.62
282.356	706.62
282.588	698.62
282.819	709.62
283.051	697.62
283.282	704.62
283.513	721.62
283.745	727.62
283.976	715.62
284.207	736.62
284.439	733.62
284.67	737.62
284.901	748.62
285.132	740.62
285.364	732.62
285.595	729.62
285.826	744.62
286.057	735.62
286.288	724.62
286.52	743.62
286.751	753.62
286.982	787.62
287.213	767.62
287.444	735.62
287.675	759.62
287.906	757.62
288.138	786.62
288.369	769.62
288.6	791.62
288.831	782.62
289.062	769.62
289.293	749.62
289.524	789.62
289.755	767.62
289.986	780.62
290.217	791.62
290.448	781.62
290.679	794.62
290.91	792.62
291.141	785.62
291.371	803.62
291.602	799.62
291.833	791.62
292.064	758.62
292.295	779.62
292.526	769.62
292.757	799.62
292.987	772.62
293.218	777.62
293.449	767.62
293.68	789.62
293.91	779.62
294.141	804.62
294.372	800.62
294.603	799.62
294.833	819.62
295.064	808.62
295.295	819.62
295.525	827.62
295.756	819.62
295.987	802.62
296.217	815.62
296.448	791.62
296.679	836.62
296.909	811.62
297.14	825.62
297.37	840.62
297.601	849.62
297.831	822.62
298.062	818.62
298.292	850.62
298.523	873.62
298.753	899.62
298.984	855.62
299.214	854.62
299.445	859.62
299.675	854.62
299.905	846.62
300.136	856.62
300.366	840.62
300.597	873.62
300.827	867.62
301.057	898.62
301.288	881.62
301.518	871.62
301.748	891.62
301.979	893.62
302.209	913.62
302.439	905.62
302.669	932.62
302.9	908.62
303.13	879.62
303.36	901.62
303.59	906.62
303.82	908.62
304.051	912.62
304.281	919.62
304.511	904.62
304.741	903.62
304.971	921.62
305.201	896.62
305.431	881.62
305.661	919.62
305.891	903.62
306.121	906.62
306.352	908.62
306.582	854.62
306.812	895.62
307.042	901.62
307.272	903.62
307.502	897.62
307.731	885.62
307.961	870.62
308.191	851.62
308.421	888.62
308.651	905.62
308.881	858.62
309.111	876.62
309.341	869.62
309.571	896.62
309.8	918.62
310.03	916.62
310.26	897.62
310.49	895.62
310.72	906.62
310.949	932.62
311.179	912.62
311.409	919.62
311.639	899.62
311.868	898.62
312.098	937.62
312.328	913.62
312.557	929.62
312.787	951.62
313.017	940.62
313.246	956.62
313.476	947.62
313.706	947.62
313.935	949.62
314.165	991.62
314.394	949.62
314.624	952.62
314.853	964.62
315.083	965.62
315.312	979.62
315.542	932.62
315.771	948.62
316.001	931.62
316.23	964.62
316.46	938.62
316.689	940.62
316.919	934.62
317.148	903.62
317.377	964.62
317.607	927.62
317.836	946.62
318.065	954.62
318.295	953.62
318.524	949.62
318.753	935.62
318.983	948.62
319.212	954.62
319.441	945.62
319.67	927.62
319.9	977.62
320.129	962.62
320.358	972.62
320.587	951.62
320.816	949.62
321.046	933.62
321.275	959.62
321.504	965.62
321.733	983.62
321.962	958.62
322.191	969.62
322.42	975.62
322.649	986.62
322.878	991.62
323.108	954.62
323.337	988.62
323.566	994.62
323.795	1000.62
324.024	977.62
324.253	988.62
324.482	986.62
324.71	963.62
324.939	1009.62
325.168	994.62
325.397	1009.62
325.626	992.62
325.855	1023.62
326.084	1022.62
326.313	1052.62
326.542	1053.62
326.77	1080.62
326.999	1031.62
327.228	1061.62
327.457	1052.62
327.686	1024.62
327.914	1051.62
328.143	1051.62
328.372	1039.62
328.6	1043.62
328.829	1043.62
329.058	1051.62
329.287	1052.62
329.515	1059.62
329.744	1037.62
329.972	1075.62
330.201	1066.62
330.43	1043.62
330.658	1062.62
330.887	1060.62
331.115	1075.62
331.344	1079.62
331.572	1105.62
331.801	1129.62
332.03	1092.62
332.258	1143.62
332.486	1169.62
332.715	1179.62
332.943	1233.62
333.172	1254.62
333.4	1297.62
333.629	1312.62
333.857	1299.62
334.085	1307.62
334.314	1316.62
334.542	1292.62
334.771	1267.62
334.999	1312.62
335.227	1303.62
335.455	1256.62
335.684	1264.62
335.912	1267.62
336.14	1260.62
336.369	1269.62
336.597	1259.62
336.825	1235.62
337.053	1224.62
337.281	1215.62
337.51	1216.62
337.738	1209.62
337.966	1188.62
338.194	1169.62
338.422	1158.62
338.65	1134.62
338.878	1132.62
339.106	1157.62
339.334	1145.62
339.562	1142.62
339.79	1115.62
340.018	1117.62
340.246	1075.62
340.474	1104.62
340.702	1072.62
340.93	1079.62
341.158	1096.62
341.386	1091.62
341.614	1101.62
341.842	1097.62
342.07	1083.62
342.298	1087.62
342.526	1099.62
342.754	1092.62
342.981	1081.62
343.209	1114.62
343.437	1160.62
343.665	1199.62
343.893	1259.62
344.12	1278.62
344.348	1257.62
344.576	1217.62
344.804	1162.62
345.031	1147.62
345.259	1127.62
345.487	1109.62
345.714	1089.62
345.942	1081.62
346.17	1070.62
346.397	1075.62
346.625	1047.62
346.853	1034.62
347.08	1059.62
347.308	1060.62
347.535	1050.62
347.763	1057.62
347.99	1044.62
348.218	1079.62
348.445	1061.62
348.673	1043.62
348.9	1039.62
349.128	1042.62
349.355	1029.62
349.583	1022.62
349.81	1027.62
350.037	999.62
350.265	1008.62
350.492	1026.62
350.72	1007.62
350.947	1043.62
351.174	1018.62
351.402	1010.62
351.629	1011.62
351.856	1003.62
352.083	990.62
352.311	1020.62
352.538	985.62
352.765	996.62
352.992	1001.62
353.22	976.62
353.447	992.62
353.674	984.62
353.901	1015.62
354.128	1009.62
354.355	988.62
354.583	989.62
354.81	975.62
355.037	1019.62
355.264	1037.62
355.491	1029.62
355.718	986.62
355.945	999.62
356.172	997.62
356.399	1040.62
356.626	1003.62
356.853	1017.62
357.08	1026.62
357.307	1030.62
357.534	1042.62
357.761	1029.62
357.988	987.62
358.215	1002.62
358.441	1005.62
358.668	1000.62
358.895	1009.62
359.122	1032.62
359.349	1015.62
359.576	1026.62
359.802	1011.62
360.029	1029.62
360.256	1020.62
360.483	1026.62
360.709	1042.62
360.936	1028.62
361.163	1007.62
361.39	986.62
361.616	1011.62
361.843	1023.62
362.07	1036.62
362.296	1018.62
362.523	1024.62
362.749	1026.62
362.976	1013.62
363.203	1039.62
363.429	989.62
363.656	1019.62
363.882	1025.62
364.109	1035.62
364.335	990.62
364.562	1014.62
364.788	1028.62
365.015	1040.62
365.241	1010.62
365.468	1027.62
365.694	1038.62
365.92	986.62
366.147	995.62
366.373	1015.62
366.599	1003.62
366.826	1011.62
367.052	1028.62
367.278	1025.62
367.505	1045.62
367.731	1008.62
367.957	1023.62
368.184	1044.62
368.41	1041.62
368.636	1043.62
368.862	1019.62
369.089	1072.62
369.315	1041.62
369.541	1047.62
369.767	1076.62
369.993	1075.62
370.219	1065.62
370.445	1077.62
370.672	1073.62
370.898	1072.62
371.124	1068.62
371.35	1096.62
371.576	1113.62
371.802	1088.62
372.028	1097.62
372.254	1081.62
372.48	1123.62
372.706	1132.62
372.932	1126.62
373.158	1132.62
373.384	1128.62
373.61	1125.62
373.835	1111.62
374.061	1149.62
374.287	1137.62
374.513	1098.62
374.739	1157.62
374.965	1209.62
375.191	1207.62
375.416	1184.62
375.642	1163.62
375.868	1129.62
376.094	1126.62
376.319	1104.62
376.545	1092.62
376.771	1126.62
376.997	1132.62
377.222	1085.62
377.448	1096.62
377.674	1121.62
377.899	1092.62
378.125	1085.62
378.35	1093.62
378.576	1065.62
378.802	1065.62
379.027	1114.62
379.253	1106.62
379.478	1088.62
379.704	1048.62
379.929	1072.62
380.155	1066.62
380.38	1073.62
380.606	1106.62
380.831	1071.62
381.057	1096.62
381.282	1095.62
381.507	1092.62
381.733	1103.62
381.958	1102.62
382.184	1100.62
382.409	1128.62
382.634	1143.62
382.86	1132.62
383.085	1169.62
383.31	1159.62
383.535	1179.62
383.761	1161.62
383.986	1178.62
384.211	1192.62
384.436	1224.62
384.662	1201.62
384.887	1242.62
385.112	1237.62
385.337	1294.62
385.562	1300.62
385.787	1318.62
386.013	1327.62
386.238	1302.62
386.463	1280.62
386.688	1330.62
386.913	1283.62
387.138	1263.62
387.363	1300.62
387.588	1297.62
387.813	1300.62
388.038	1315.62
388.263	1276.62
388.488	1308.62
388.713	1293.62
388.938	1272.62
389.163	1304.62
389.387	1284.62
389.612	1267.62
389.837	1288.62
390.062	1264.62
390.287	1296.62
390.512	1305.62
390.736	1320.62
390.961	1309.62
391.186	1316.62
391.411	1372.62
391.636	1371.62
391.86	1448.62
392.085	1440.62
392.31	1418.62
392.534	1412.62
392.759	1411.62
392.984	1377.62
393.208	1366.62
393.433	1347.62
393.658	1322.62
393.882	1378.62
394.107	1355.62
394.331	1342.62
394.556	1388.62
394.78	1363.62
395.005	1382.62
395.229	1388.62
395.454	1443.62
395.678	1463.62
395.903	1439.62
396.127	1431.62
396.352	1419.62
396.576	1405.62
396.801	1393.62
397.025	1408.62
397.249	1449.62
397.474	1463.62
397.698	1450.62
397.922	1461.62
398.147	1453.62
398.371	1471.62
398.595	1524.62
398.82	1605.62
399.044	1652.62
399.268	1826.62
399.492	1995.62
399.717	2145.62
399.941	2188.62
400.165	2035.62
400.389	1897.62
400.613	1814.62
400.837	1685.62
401.062	1635.62
401.286	1674.62
401.51	1639.62
401.734	1619.62
401.958	1627.62
402.182	1602.62
402.406	1602.62
402.63	1580.62
402.854	1659.62
403.078	1668.62
403.302	1668.62
403.526	1730.62
403.75	1766.62
403.974	1778.62
404.198	1764.62
404.422	1755.62
404.645	1696.62
404.869	1745.62
405.093	1741.62
405.317	1720.62
405.541	1717.62
405.765	1724.62
405.988	1708.62
406.212	1744.62
406.436	1761.62
406.66	1752.62
406.883	1834.62
407.107	1924.62
407.331	1945.62
407.555	1986.62
407.778	2005.62
408.002	1923.62
408.226	1937.62
408.449	1912.62
408.673	1840.62
408.896	1819.62
409.12	1809.62
409.344	1794.62
409.567	1760.62
409.791	1768.62
410.014	1748.62
410.238	1735.62
410.461	1738.62
410.685	1716.62
410.908	1720.62
411.132	1704.62
411.355	1670.62
411.578	1674.62
411.802	1673.62
412.025	1679.62
412.249	1721.62
412.472	1705.62
412.695	1655.62
412.919	1610.62
413.142	1621.62
413.365	1625.62
413.589	1620.62
413.812	1594.62
414.035	1639.62
414.258	1594.62
414.482	1631.62
414.705	1635.62
414.928	1617.62
415.151	1619.62
415.374	1546.62
415.597	1592.62
415.821	1543.62
416.044	1538.62
416.267	1544.62
416.49	1555.62
416.713	1550.62
416.936	1564.62
417.159	1524.62
417.382	1532.62
417.605	1544.62
417.828	1533.62
418.051	1585.62
418.274	1559.62
418.497	1542.62
418.72	1585.62
418.943	1566.62
419.166	1695.62
419.389	1801.62
419.611	1798.62
419.834	1642.62
420.057	1620.62
420.28	1560.62
420.503	1510.62
420.726	1508.62
420.948	1522.62
421.171	1531.62
421.394	1542.62
421.617	1551.62
421.839	1524.62
422.062	1561.62
422.285	1505.62
422.507	1578.62
422.73	1548.62
422.953	1540.62
423.175	1585.62
423.398	1564.62
423.621	1583.62
423.843	1588.62
424.066	1564.62
424.288	1554.62
424.511	1594.62
424.733	1569.62
424.956	1557.62
425.178	1609.62
425.401	1516.62
425.623	1557.62
425.846	1517.62
426.068	1484.62
426.291	1485.62
426.513	1476.62
426.735	1451.62
426.958	1461.62
427.18	1462.62
427.402	1425.62
427.625	1444.62
427.847	1405.62
428.069	1392.62
428.292	1432.62
428.514	1392.62
428.736	1417.62
428.958	1458.62
429.181	1409.62
429.403	1367.62
429.625	1403.62
429.847	1398.62
430.069	1363.62
430.292	1392.62
430.514	1379.62
430.736	1385.62
430.958	1406.62
431.18	1380.62
431.402	1425.62
431.624	1409.62
431.846	1430.62
432.068	1443.62
432.29	1464.62
432.512	1403.62
432.734	1433.62
432.956	1407.62
433.178	1489.62
433.4	1431.62
433.622	1439.62
433.844	1461.62
434.066	1458.62
434.287	1451.62
434.509	1521.62
434.731	1546.62
434.953	1581.62
435.175	1561.62
435.397	1529.62
435.618	1495.62
435.84	1482.62
436.062	1462.62
436.284	1448.62
436.505	1412.62
436.727	1417.62
436.949	1401.62
437.17	1374.62
437.392	1365.62
437.614	1370.62
437.835	1343.62
438.057	1380.62
438.278	1366.62
438.5	1393.62
438.721	1365.62
438.943	1367.62
439.165	1383.62
439.386	1389.62
439.608	1400.62
439.829	1375.62
440.05	1376.62
440.272	1366.62
440.493	1414.62
440.715	1400.62
440.936	1441.62
441.158	1446.62
441.379	1445.62
441.6	1512.62
441.822	1507.62
442.043	1506.62
442.264	1541.62
442.486	1495.62
442.707	1485.62
442.928	1483.62
443.149	1489.62
443.371	1494.62
443.592	1480.62
443.813	1539.62
444.034	1569.62
444.255	1557.62
444.476	1613.62
444.698	1685.62
444.919	1705.62
445.14	1797.62
445.361	1708.62
445.582	1552.62
445.803	1548.62
446.024	1477.62
446.245	1496.62
446.466	1418.62
446.687	1419.62
446.908	1367.62
447.129	1361.62
447.35	1365.62
447.571	1361.62
447.792	1300.62
448.013	1331.62
448.234	1294.62
448.455	1286.62
448.675	1277.62
448.896	1292.62
449.117	1289.62
449.338	1277.62
449.559	1257.62
449.779	1221.62
450	1224.62
450.221	1273.62
450.442	1248.62
450.662	1265.62
450.883	1239.62
451.104	1308.62
451.324	1258.62
451.545	1255.62
451.766	1195.62
451.986	1245.62
452.207	1233.62
452.428	1247.62
452.648	1228.62
452.869	1209.62
453.089	1222.62
453.31	1205.62
453.53	1235.62
453.751	1222.62
453.971	1192.62
454.192	1193.62
454.412	1220.62
454.633	1211.62
454.853	1199.62
455.073	1183.62
455.294	1163.62
455.514	1183.62
455.734	1173.62
455.955	1194.62
456.175	1179.62
456.395	1178.62
456.616	1169.62
456.836	1171.62
457.056	1197.62
457.276	1186.62
457.497	1179.62
457.717	1220.62
457.937	1213.62
458.157	1207.62
458.377	1235.62
458.598	1253.62
458.818	1304.62
459.038	1309.62
459.258	1357.62
459.478	1408.62
459.698	1431.62
459.918	1413.62
460.138	1474.62
460.358	1556.62
460.578	1541.62
460.798	1606.62
461.018	1559.62
461.238	1560.62
461.458	1589.62
461.678	1565.62
461.898	1612.62
462.118	1598.62
462.338	1669.62
462.558	1705.62
462.777	1756.62
462.997	1856.62
463.217	1976.62
463.437	1974.62
463.657	1915.62
463.876	1810.62
464.096	1789.62
464.316	1791.62
464.536	1761.62
464.755	1744.62
464.975	1694.62
465.195	1632.62
465.414	1585.62
465.634	1510.62
465.854	1439.62
466.073	1430.62
466.293	1386.62
466.512	1339.62
466.732	1325.62
466.951	1361.62
467.171	1321.62
467.391	1342.62
467.61	1299.62
467.829	1322.62
468.049	1310.62
468.268	1290.62
468.488	1272.62
468.707	1247.62
468.927	1279.62
469.146	1324.62
469.365	1294.62
469.585	1273.62
469.804	1330.62
470.023	1335.62
470.243	1331.62
470.462	1372.62
470.681	1371.62
470.901	1351.62
471.12	1335.62
471.339	1354.62
471.558	1323.62
471.777	1295.62
471.997	1287.62
472.216	1281.62
472.435	1297.62
472.654	1282.62
472.873	1283.62
473.092	1217.62
473.311	1241.62
473.53	1274.62
473.749	1255.62
473.968	1256.62
474.187	1272.62
474.406	1257.62
474.625	1265.62
474.844	1253.62
475.063	1277.62
475.282	1268.62
475.501	1314.62
475.72	1281.62
475.939	1323.62
476.158	1349.62
476.377	1332.62
476.596	1347.62
476.814	1347.62
477.033	1323.62
477.252	1392.62
477.471	1411.62
477.69	1419.62
477.908	1460.62
478.127	1484.62
478.346	1467.62
478.564	1570.62
478.783	1545.62
479.002	1581.62
479.22	1595.62
479.439	1571.62
479.658	1590.62
479.876	1599.62
480.095	1581.62
480.313	1674.62
480.532	1706.62
480.751	1673.62
480.969	1633.62
481.188	1635.62
481.406	1586.62
481.624	1571.62
481.843	1561.62
482.061	1528.62
482.28	1533.62
482.498	1543.62
482.717	1554.62
482.935	1560.62
483.153	1553.62
483.372	1576.62
483.59	1595.62
483.808	1569.62
484.027	1590.62
484.245	1561.62
484.463	1598.62
484.681	1649.62
484.9	1672.62
485.118	1672.62
485.336	1673.62
485.554	1676.62
485.772	1685.62
485.99	1661.62
486.209	1698.62
486.427	1657.62
486.645	1677.62
486.863	1693.62
487.081	1676.62
487.299	1658.62
487.517	1652.62
487.735	1674.62
487.953	1678.62
488.171	1645.62
488.389	1648.62
488.607	1624.62
488.825	1604.62
489.043	1571.62
489.261	1593.62
489.479	1589.62
489.696	1632.62
489.914	1604.62
490.132	1585.62
490.35	1608.62
490.568	1575.62
490.786	1604.62
491.003	1554.62
491.221	1602.62
491.439	1619.62
491.657	1612.62
