Data from NiCl2@0.0625M.TitratingCurve.Agarose3%dH2O.NegLispCup.LampEnergy10.LIBS07252019_HRD10591_18-35-13-577.txt Node
Date: Thu Jul 25 18:35:13 EDT 2019
User: cochatt
Spectrometer: HR+D1059
Trigger mode: 1
Integration Time (sec): 1.000000E-1
Scans to average: 1
Electric dark correction enabled: true
Nonlinearity correction enabled: false
Boxcar width: 0
XAxis mode: Wavelengths
Number of Pixels in Spectrum: 2048
>>>>>Begin Spectral Data<<<<<
223.165	-28.56
223.4	-28.56
223.635	-28.56
223.869	-17.56
224.104	-6.56
224.338	-27.56
224.573	-22.56
224.808	-18.56
225.042	-13.56
225.277	-3.56
225.511	-2.56
225.746	8.44
225.98	9.44
226.215	14.44
226.449	17.44
226.683	29.44
226.918	30.44
227.152	31.44
227.387	26.44
227.621	29.44
227.856	41.44
228.09	39.44
228.324	46.44
228.559	67.44
228.793	97.44
229.027	134.44
229.262	123.44
229.496	143.44
229.73	152.44
229.964	165.44
230.199	159.44
230.433	157.44
230.667	169.44
230.901	179.44
231.136	174.44
231.37	177.44
231.604	167.44
231.838	176.44
232.072	181.44
232.306	186.44
232.541	189.44
232.775	173.44
233.009	179.44
233.243	185.44
233.477	181.44
233.711	189.44
233.945	189.44
234.179	195.44
234.413	189.44
234.647	193.44
234.881	184.44
235.115	203.44
235.349	200.44
235.583	187.44
235.817	207.44
236.051	207.44
236.285	199.44
236.519	199.44
236.753	208.44
236.987	209.44
237.221	226.44
237.455	214.44
237.689	224.44
237.922	216.44
238.156	243.44
238.39	230.44
238.624	237.44
238.858	239.44
239.091	234.44
239.325	230.44
239.559	235.44
239.793	229.44
240.027	255.44
240.26	248.44
240.494	243.44
240.728	262.44
240.961	253.44
241.195	251.44
241.429	254.44
241.662	248.44
241.896	267.44
242.13	261.44
242.363	250.44
242.597	281.44
242.83	285.44
243.064	279.44
243.298	266.44
243.531	289.44
243.765	294.44
243.998	303.44
244.232	303.44
244.465	314.44
244.699	289.44
244.932	293.44
245.166	315.44
245.399	311.44
245.633	315.44
245.866	325.44
246.099	311.44
246.333	321.44
246.566	306.44
246.8	325.44
247.033	315.44
247.266	322.44
247.5	342.44
247.733	337.44
247.966	331.44
248.2	318.44
248.433	358.44
248.666	349.44
248.899	354.44
249.133	345.44
249.366	347.44
249.599	376.44
249.832	371.44
250.066	362.44
250.299	349.44
250.532	355.44
250.765	366.44
250.998	387.44
251.231	384.44
251.465	379.44
251.698	398.44
251.931	407.44
252.164	389.44
252.397	375.44
252.63	395.44
252.863	395.44
253.096	395.44
253.329	403.44
253.562	413.44
253.795	395.44
254.028	406.44
254.261	401.44
254.494	400.44
254.727	421.44
254.96	427.44
255.193	414.44
255.426	431.44
255.659	435.44
255.892	443.44
256.124	430.44
256.357	418.44
256.59	427.44
256.823	431.44
257.056	441.44
257.289	417.44
257.521	441.44
257.754	465.44
257.987	456.44
258.22	460.44
258.452	452.44
258.685	434.44
258.918	441.44
259.151	467.44
259.383	458.44
259.616	450.44
259.849	466.44
260.081	477.44
260.314	456.44
260.547	460.44
260.779	497.44
261.012	479.44
261.244	493.44
261.477	485.44
261.71	468.44
261.942	486.44
262.175	504.44
262.407	507.44
262.64	504.44
262.872	496.44
263.105	483.44
263.337	510.44
263.57	529.44
263.802	529.44
264.035	493.44
264.267	517.44
264.499	498.44
264.732	522.44
264.964	510.44
265.197	528.44
265.429	505.44
265.661	516.44
265.894	545.44
266.126	546.44
266.358	527.44
266.591	550.44
266.823	566.44
267.055	541.44
267.287	535.44
267.52	557.44
267.752	552.44
267.984	551.44
268.216	565.44
268.448	563.44
268.681	531.44
268.913	561.44
269.145	554.44
269.377	560.44
269.609	571.44
269.841	564.44
270.073	587.44
270.306	601.44
270.538	573.44
270.77	571.44
271.002	591.44
271.234	578.44
271.466	581.44
271.698	590.44
271.93	597.44
272.162	591.44
272.394	589.44
272.626	587.44
272.858	606.44
273.09	587.44
273.322	607.44
273.553	599.44
273.785	643.44
274.017	621.44
274.249	606.44
274.481	619.44
274.713	606.44
274.945	632.44
275.176	615.44
275.408	633.44
275.64	632.44
275.872	634.44
276.104	642.44
276.335	634.44
276.567	636.44
276.799	637.44
277.031	658.44
277.262	666.44
277.494	634.44
277.726	655.44
277.957	646.44
278.189	660.44
278.421	635.44
278.652	636.44
278.884	691.44
279.115	682.44
279.347	666.44
279.579	682.44
279.81	699.44
280.042	668.44
280.273	706.44
280.505	681.44
280.736	714.44
280.968	694.44
281.199	710.44
281.431	729.44
281.662	735.44
281.894	728.44
282.125	722.44
282.356	720.44
282.588	723.44
282.819	709.44
283.051	723.44
283.282	710.44
283.513	727.44
283.745	723.44
283.976	723.44
284.207	730.44
284.439	724.44
284.67	756.44
284.901	730.44
285.132	756.44
285.364	772.44
285.595	753.44
285.826	753.44
286.057	742.44
286.288	765.44
286.52	783.44
286.751	798.44
286.982	769.44
287.213	764.44
287.444	771.44
287.675	769.44
287.906	769.44
288.138	783.44
288.369	763.44
288.6	801.44
288.831	818.44
289.062	793.44
289.293	789.44
289.524	799.44
289.755	788.44
289.986	791.44
290.217	789.44
290.448	806.44
290.679	807.44
290.91	796.44
291.141	794.44
291.371	834.44
291.602	825.44
291.833	815.44
292.064	770.44
292.295	787.44
292.526	803.44
292.757	803.44
292.987	813.44
293.218	799.44
293.449	821.44
293.68	805.44
293.91	818.44
294.141	809.44
294.372	815.44
294.603	817.44
294.833	830.44
295.064	835.44
295.295	833.44
295.525	821.44
295.756	796.44
295.987	793.44
296.217	821.44
296.448	827.44
296.679	824.44
296.909	838.44
297.14	827.44
297.37	851.44
297.601	877.44
297.831	872.44
298.062	872.44
298.292	855.44
298.523	893.44
298.753	878.44
298.984	885.44
299.214	891.44
299.445	859.44
299.675	872.44
299.905	887.44
300.136	843.44
300.366	918.44
300.597	868.44
300.827	901.44
301.057	890.44
301.288	913.44
301.518	899.44
301.748	892.44
301.979	929.44
302.209	925.44
302.439	913.44
302.669	926.44
302.9	932.44
303.13	909.44
303.36	927.44
303.59	895.44
303.82	910.44
304.051	924.44
304.281	931.44
304.511	917.44
304.741	947.44
304.971	911.44
305.201	949.44
305.431	942.44
305.661	914.44
305.891	896.44
306.121	933.44
306.352	917.44
306.582	906.44
306.812	932.44
307.042	901.44
307.272	917.44
307.502	907.44
307.731	911.44
307.961	923.44
308.191	913.44
308.421	927.44
308.651	911.44
308.881	894.44
309.111	922.44
309.341	873.44
309.571	902.44
309.8	906.44
310.03	922.44
310.26	913.44
310.49	899.44
310.72	912.44
310.949	908.44
311.179	913.44
311.409	930.44
311.639	938.44
311.868	920.44
312.098	919.44
312.328	945.44
312.557	951.44
312.787	972.44
313.017	968.44
313.246	962.44
313.476	969.44
313.706	991.44
313.935	983.44
314.165	957.44
314.394	994.44
314.624	1002.44
314.853	976.44
315.083	996.44
315.312	986.44
315.542	981.44
315.771	1008.44
316.001	986.44
316.23	982.44
316.46	974.44
316.689	944.44
316.919	960.44
317.148	966.44
317.377	957.44
317.607	977.44
317.836	970.44
318.065	955.44
318.295	977.44
318.524	985.44
318.753	964.44
318.983	961.44
319.212	967.44
319.441	981.44
319.67	947.44
319.9	967.44
320.129	975.44
320.358	938.44
320.587	977.44
320.816	975.44
321.046	991.44
321.275	1001.44
321.504	985.44
321.733	959.44
321.962	969.44
322.191	989.44
322.42	997.44
322.649	977.44
322.878	979.44
323.108	981.44
323.337	997.44
323.566	1002.44
323.795	987.44
324.024	1038.44
324.253	1029.44
324.482	1005.44
324.71	1028.44
324.939	1019.44
325.168	1013.44
325.397	1008.44
325.626	1058.44
325.855	1030.44
326.084	1074.44
326.313	1030.44
326.542	1065.44
326.77	1072.44
326.999	1074.44
327.228	1045.44
327.457	1008.44
327.686	1026.44
327.914	1112.44
328.143	1049.44
328.372	1049.44
328.6	1048.44
328.829	1032.44
329.058	1079.44
329.287	1073.44
329.515	1099.44
329.744	1048.44
329.972	1106.44
330.201	1077.44
330.43	1105.44
330.658	1101.44
330.887	1093.44
331.115	1102.44
331.344	1119.44
331.572	1132.44
331.801	1167.44
332.03	1136.44
332.258	1178.44
332.486	1180.44
332.715	1203.44
332.943	1253.44
333.172	1258.44
333.4	1323.44
333.629	1335.44
333.857	1373.44
334.085	1379.44
334.314	1351.44
334.542	1386.44
334.771	1334.44
334.999	1333.44
335.227	1343.44
335.455	1298.44
335.684	1301.44
335.912	1319.44
336.14	1290.44
336.369	1313.44
336.597	1303.44
336.825	1273.44
337.053	1238.44
337.281	1255.44
337.51	1239.44
337.738	1202.44
337.966	1183.44
338.194	1176.44
338.422	1185.44
338.65	1158.44
338.878	1158.44
339.106	1187.44
339.334	1153.44
339.562	1143.44
339.79	1139.44
340.018	1106.44
340.246	1131.44
340.474	1138.44
340.702	1120.44
340.93	1124.44
341.158	1119.44
341.386	1145.44
341.614	1143.44
341.842	1131.44
342.07	1095.44
342.298	1102.44
342.526	1125.44
342.754	1135.44
342.981	1104.44
343.209	1123.44
343.437	1160.44
343.665	1209.44
343.893	1257.44
344.12	1310.44
344.348	1281.44
344.576	1249.44
344.804	1222.44
345.031	1159.44
345.259	1145.44
345.487	1139.44
345.714	1109.44
345.942	1112.44
346.17	1103.44
346.397	1106.44
346.625	1077.44
346.853	1075.44
347.08	1058.44
347.308	1035.44
347.535	1043.44
347.763	1067.44
347.99	1071.44
348.218	1081.44
348.445	1050.44
348.673	1061.44
348.9	1050.44
349.128	1071.44
349.355	1048.44
349.583	1034.44
349.81	1039.44
350.037	1007.44
350.265	1052.44
350.492	1027.44
350.72	1034.44
350.947	1054.44
351.174	1032.44
351.402	1027.44
351.629	1025.44
351.856	1061.44
352.083	1017.44
352.311	1015.44
352.538	1049.44
352.765	1064.44
352.992	1027.44
353.22	1017.44
353.447	1005.44
353.674	1021.44
353.901	1028.44
354.128	1027.44
354.355	1014.44
354.583	1021.44
354.81	1011.44
355.037	1026.44
355.264	1012.44
355.491	1008.44
355.718	1063.44
355.945	978.44
356.172	1025.44
356.399	1039.44
356.626	1013.44
356.853	1045.44
357.08	1010.44
357.307	1055.44
357.534	1045.44
357.761	1046.44
357.988	1057.44
358.215	1009.44
358.441	1029.44
358.668	1023.44
358.895	1041.44
359.122	1026.44
359.349	1024.44
359.576	1025.44
359.802	1049.44
360.029	1052.44
360.256	1041.44
360.483	1025.44
360.709	1023.44
360.936	1077.44
361.163	1041.44
361.39	1043.44
361.616	1022.44
361.843	1024.44
362.07	1048.44
362.296	1037.44
362.523	1033.44
362.749	1038.44
362.976	1052.44
363.203	1066.44
363.429	1045.44
363.656	1035.44
363.882	1037.44
364.109	1033.44
364.335	1019.44
364.562	1055.44
364.788	1062.44
365.015	1034.44
365.241	1035.44
365.468	1030.44
365.694	1007.44
365.92	995.44
366.147	1029.44
366.373	1056.44
366.599	1023.44
366.826	1039.44
367.052	1066.44
367.278	1061.44
367.505	1051.44
367.731	1077.44
367.957	1025.44
368.184	1080.44
368.41	1055.44
368.636	1092.44
368.862	1079.44
369.089	1066.44
369.315	1087.44
369.541	1083.44
369.767	1072.44
369.993	1099.44
370.219	1053.44
370.445	1116.44
370.672	1081.44
370.898	1075.44
371.124	1109.44
371.35	1122.44
371.576	1128.44
371.802	1127.44
372.028	1125.44
372.254	1134.44
372.48	1113.44
372.706	1140.44
372.932	1173.44
373.158	1156.44
373.384	1156.44
373.61	1162.44
373.835	1132.44
374.061	1135.44
374.287	1136.44
374.513	1153.44
374.739	1186.44
374.965	1204.44
375.191	1209.44
375.416	1191.44
375.642	1193.44
375.868	1183.44
376.094	1172.44
376.319	1156.44
376.545	1130.44
376.771	1122.44
376.997	1122.44
377.222	1128.44
377.448	1128.44
377.674	1135.44
377.899	1117.44
378.125	1117.44
378.35	1102.44
378.576	1109.44
378.802	1085.44
379.027	1119.44
379.253	1151.44
379.478	1105.44
379.704	1100.44
379.929	1097.44
380.155	1082.44
380.38	1133.44
380.606	1139.44
380.831	1098.44
381.057	1117.44
381.282	1105.44
381.507	1103.44
381.733	1104.44
381.958	1131.44
382.184	1147.44
382.409	1134.44
382.634	1174.44
382.86	1159.44
383.085	1155.44
383.31	1181.44
383.535	1209.44
383.761	1203.44
383.986	1228.44
384.211	1231.44
384.436	1244.44
384.662	1255.44
384.887	1250.44
385.112	1269.44
385.337	1317.44
385.562	1297.44
385.787	1319.44
386.013	1333.44
386.238	1326.44
386.463	1304.44
386.688	1333.44
386.913	1280.44
387.138	1352.44
387.363	1304.44
387.588	1335.44
387.813	1301.44
388.038	1319.44
388.263	1322.44
388.488	1335.44
388.713	1345.44
388.938	1297.44
389.163	1321.44
389.387	1306.44
389.612	1297.44
389.837	1313.44
390.062	1287.44
390.287	1320.44
390.512	1309.44
390.736	1361.44
390.961	1357.44
391.186	1351.44
391.411	1370.44
391.636	1425.44
391.86	1444.44
392.085	1472.44
392.31	1456.44
392.534	1417.44
392.759	1399.44
392.984	1397.44
393.208	1389.44
393.433	1399.44
393.658	1393.44
393.882	1399.44
394.107	1393.44
394.331	1400.44
394.556	1389.44
394.78	1396.44
395.005	1396.44
395.229	1396.44
395.454	1472.44
395.678	1473.44
395.903	1439.44
396.127	1465.44
396.352	1429.44
396.576	1411.44
396.801	1411.44
397.025	1450.44
397.249	1483.44
397.474	1483.44
397.698	1469.44
397.922	1518.44
398.147	1467.44
398.371	1521.44
398.595	1543.44
398.82	1616.44
399.044	1729.44
399.268	1831.44
399.492	2066.44
399.717	2206.44
399.941	2239.44
400.165	2089.44
400.389	1956.44
400.613	1819.44
400.837	1735.44
401.062	1703.44
401.286	1661.44
401.51	1664.44
401.734	1622.44
401.958	1676.44
402.182	1679.44
402.406	1675.44
402.63	1705.44
402.854	1692.44
403.078	1680.44
403.302	1707.44
403.526	1739.44
403.75	1792.44
403.974	1777.44
404.198	1781.44
404.422	1760.44
404.645	1804.44
404.869	1758.44
405.093	1825.44
405.317	1721.44
405.541	1753.44
405.765	1739.44
405.988	1768.44
406.212	1763.44
406.436	1825.44
406.66	1828.44
406.883	1817.44
407.107	1955.44
407.331	1954.44
407.555	2035.44
407.778	2042.44
408.002	2030.44
408.226	2001.44
408.449	1949.44
408.673	1907.44
408.896	1851.44
409.12	1800.44
409.344	1816.44
409.567	1824.44
409.791	1841.44
410.014	1765.44
410.238	1793.44
410.461	1801.44
410.685	1774.44
410.908	1789.44
411.132	1752.44
411.355	1667.44
411.578	1736.44
411.802	1731.44
412.025	1722.44
412.249	1735.44
412.472	1757.44
412.695	1689.44
412.919	1665.44
413.142	1657.44
413.365	1669.44
413.589	1622.44
413.812	1641.44
414.035	1615.44
414.258	1650.44
414.482	1624.44
414.705	1647.44
414.928	1649.44
415.151	1643.44
415.374	1629.44
415.597	1621.44
415.821	1593.44
416.044	1585.44
416.267	1574.44
416.49	1543.44
416.713	1569.44
416.936	1596.44
417.159	1537.44
417.382	1546.44
417.605	1548.44
417.828	1581.44
418.051	1590.44
418.274	1591.44
418.497	1561.44
418.72	1607.44
418.943	1590.44
419.166	1698.44
419.389	1827.44
419.611	1747.44
419.834	1719.44
420.057	1684.44
420.28	1627.44
420.503	1551.44
420.726	1551.44
420.948	1568.44
421.171	1551.44
421.394	1577.44
421.617	1574.44
421.839	1566.44
422.062	1571.44
422.285	1594.44
422.507	1616.44
422.73	1599.44
422.953	1631.44
423.175	1598.44
423.398	1616.44
423.621	1601.44
423.843	1579.44
424.066	1618.44
424.288	1619.44
424.511	1587.44
424.733	1623.44
424.956	1606.44
425.178	1591.44
425.401	1584.44
425.623	1599.44
425.846	1555.44
426.068	1570.44
426.291	1483.44
426.513	1471.44
426.735	1497.44
426.958	1502.44
427.18	1477.44
427.402	1493.44
427.625	1450.44
427.847	1466.44
428.069	1479.44
428.292	1513.44
428.514	1439.44
428.736	1453.44
428.958	1413.44
429.181	1403.44
429.403	1409.44
429.625	1410.44
429.847	1407.44
430.069	1402.44
430.292	1417.44
430.514	1373.44
430.736	1473.44
430.958	1451.44
431.18	1404.44
431.402	1443.44
431.624	1403.44
431.846	1453.44
432.068	1463.44
432.29	1461.44
432.512	1465.44
432.734	1464.44
432.956	1448.44
433.178	1481.44
433.4	1486.44
433.622	1468.44
433.844	1478.44
434.066	1489.44
434.287	1483.44
434.509	1510.44
434.731	1578.44
434.953	1604.44
435.175	1622.44
435.397	1554.44
435.618	1526.44
435.84	1479.44
436.062	1476.44
436.284	1448.44
436.505	1465.44
436.727	1462.44
436.949	1438.44
437.17	1414.44
437.392	1424.44
437.614	1429.44
437.835	1370.44
438.057	1409.44
438.278	1407.44
438.5	1374.44
438.721	1367.44
438.943	1389.44
439.165	1375.44
439.386	1395.44
439.608	1421.44
439.829	1433.44
440.05	1403.44
440.272	1411.44
440.493	1435.44
440.715	1439.44
440.936	1516.44
441.158	1465.44
441.379	1519.44
441.6	1588.44
441.822	1542.44
442.043	1588.44
442.264	1563.44
442.486	1486.44
442.707	1525.44
442.928	1518.44
443.149	1529.44
443.371	1509.44
443.592	1532.44
443.813	1510.44
444.034	1545.44
444.255	1609.44
444.476	1642.44
444.698	1707.44
444.919	1765.44
445.14	1826.44
445.361	1689.44
445.582	1620.44
445.803	1541.44
446.024	1489.44
446.245	1519.44
446.466	1478.44
446.687	1453.44
446.908	1429.44
447.129	1384.44
447.35	1370.44
447.571	1400.44
447.792	1346.44
448.013	1348.44
448.234	1315.44
448.455	1338.44
448.675	1289.44
448.896	1283.44
449.117	1295.44
449.338	1295.44
449.559	1290.44
449.779	1277.44
450	1255.44
450.221	1277.44
450.442	1320.44
450.662	1259.44
450.883	1288.44
451.104	1308.44
451.324	1318.44
451.545	1287.44
451.766	1238.44
451.986	1289.44
452.207	1276.44
452.428	1252.44
452.648	1240.44
452.869	1256.44
453.089	1225.44
453.31	1239.44
453.53	1225.44
453.751	1249.44
453.971	1216.44
454.192	1232.44
454.412	1196.44
454.633	1229.44
454.853	1228.44
455.073	1212.44
455.294	1214.44
455.514	1206.44
455.734	1203.44
455.955	1199.44
456.175	1214.44
456.395	1177.44
456.616	1201.44
456.836	1254.44
457.056	1226.44
457.276	1176.44
457.497	1217.44
457.717	1245.44
457.937	1218.44
458.157	1249.44
458.377	1241.44
458.598	1285.44
458.818	1318.44
459.038	1358.44
459.258	1394.44
459.478	1427.44
459.698	1437.44
459.918	1477.44
460.138	1500.44
460.358	1574.44
460.578	1562.44
460.798	1598.44
461.018	1637.44
461.238	1604.44
461.458	1601.44
461.678	1594.44
461.898	1628.44
462.118	1650.44
462.338	1747.44
462.558	1721.44
462.777	1816.44
462.997	1905.44
463.217	1960.44
463.437	2008.44
463.657	1922.44
463.876	1839.44
464.096	1874.44
464.316	1873.44
464.536	1826.44
464.755	1788.44
464.975	1713.44
465.195	1662.44
465.414	1619.44
465.634	1539.44
465.854	1478.44
466.073	1432.44
466.293	1419.44
466.512	1387.44
466.732	1381.44
466.951	1366.44
467.171	1362.44
467.391	1369.44
467.61	1367.44
467.829	1347.44
468.049	1327.44
468.268	1311.44
468.488	1287.44
468.707	1306.44
468.927	1311.44
469.146	1322.44
469.365	1375.44
469.585	1323.44
469.804	1370.44
470.023	1400.44
470.243	1416.44
470.462	1362.44
470.681	1437.44
470.901	1388.44
471.12	1398.44
471.339	1393.44
471.558	1348.44
471.777	1345.44
471.997	1321.44
472.216	1307.44
472.435	1305.44
472.654	1298.44
472.873	1293.44
473.092	1293.44
473.311	1323.44
473.53	1295.44
473.749	1279.44
473.968	1282.44
474.187	1283.44
474.406	1297.44
474.625	1321.44
474.844	1306.44
475.063	1297.44
475.282	1329.44
475.501	1329.44
475.72	1352.44
475.939	1342.44
476.158	1344.44
476.377	1377.44
476.596	1358.44
476.814	1369.44
477.033	1377.44
477.252	1402.44
477.471	1455.44
477.69	1449.44
477.908	1491.44
478.127	1514.44
478.346	1557.44
478.564	1509.44
478.783	1592.44
479.002	1616.44
479.22	1629.44
479.439	1631.44
479.658	1609.44
479.876	1611.44
480.095	1652.44
480.313	1686.44
480.532	1711.44
480.751	1715.44
480.969	1653.44
481.188	1606.44
481.406	1610.44
481.624	1609.44
481.843	1607.44
482.061	1579.44
482.28	1585.44
482.498	1569.44
482.717	1579.44
482.935	1596.44
483.153	1577.44
483.372	1572.44
483.59	1638.44
483.808	1607.44
484.027	1621.44
484.245	1612.44
484.463	1649.44
484.681	1681.44
484.9	1683.44
485.118	1703.44
485.336	1679.44
485.554	1713.44
485.772	1698.44
485.99	1738.44
486.209	1734.44
486.427	1701.44
486.645	1723.44
486.863	1733.44
487.081	1715.44
487.299	1686.44
487.517	1685.44
487.735	1646.44
487.953	1677.44
488.171	1694.44
488.389	1642.44
488.607	1679.44
488.825	1636.44
489.043	1629.44
489.261	1617.44
489.479	1669.44
489.696	1651.44
489.914	1643.44
490.132	1639.44
490.35	1607.44
490.568	1653.44
490.786	1652.44
491.003	1622.44
491.221	1621.44
