Data from NiCl2@0.125M.TitratingCurve.Agarose3%dH2O.NegLispCup.LampEnergy10.LIBS07252019_HRD10591_18-28-54-582.txt Node
Date: Thu Jul 25 18:28:54 EDT 2019
User: cochatt
Spectrometer: HR+D1059
Trigger mode: 1
Integration Time (sec): 1.000000E-1
Scans to average: 1
Electric dark correction enabled: true
Nonlinearity correction enabled: false
Boxcar width: 0
XAxis mode: Wavelengths
Number of Pixels in Spectrum: 2048
>>>>>Begin Spectral Data<<<<<
223.165	3.69
223.4	3.69
223.635	3.69
223.869	-18.31
224.104	-17.31
224.338	-16.31
224.573	-15.31
224.808	-12.31
225.042	-12.31
225.277	-17.31
225.511	5.69
225.746	9.69
225.98	1.69
226.215	9.69
226.449	15.69
226.683	22.69
226.918	24.69
227.152	15.69
227.387	23.69
227.621	24.69
227.856	49.69
228.09	41.69
228.324	44.69
228.559	62.69
228.793	80.69
229.027	98.69
229.262	119.69
229.496	117.69
229.73	112.69
229.964	102.69
230.199	121.69
230.433	116.69
230.667	121.69
230.901	132.69
231.136	133.69
231.37	128.69
231.604	134.69
231.838	137.69
232.072	121.69
232.306	136.69
232.541	145.69
232.775	139.69
233.009	153.69
233.243	134.69
233.477	151.69
233.711	147.69
233.945	129.69
234.179	149.69
234.413	144.69
234.647	140.69
234.881	135.69
235.115	143.69
235.349	147.69
235.583	143.69
235.817	141.69
236.051	136.69
236.285	147.69
236.519	137.69
236.753	146.69
236.987	153.69
237.221	140.69
237.455	145.69
237.689	150.69
237.922	157.69
238.156	152.69
238.39	155.69
238.624	169.69
238.858	167.69
239.091	166.69
239.325	158.69
239.559	169.69
239.793	190.69
240.027	186.69
240.26	151.69
240.494	163.69
240.728	180.69
240.961	181.69
241.195	185.69
241.429	177.69
241.662	177.69
241.896	161.69
242.13	186.69
242.363	175.69
242.597	190.69
242.83	184.69
243.064	192.69
243.298	188.69
243.531	192.69
243.765	189.69
243.998	215.69
244.232	193.69
244.465	193.69
244.699	196.69
244.932	199.69
245.166	208.69
245.399	223.69
245.633	194.69
245.866	210.69
246.099	207.69
246.333	218.69
246.566	209.69
246.8	213.69
247.033	210.69
247.266	218.69
247.5	222.69
247.733	215.69
247.966	233.69
248.2	218.69
248.433	215.69
248.666	221.69
248.899	221.69
249.133	214.69
249.366	243.69
249.599	249.69
249.832	248.69
250.066	241.69
250.299	246.69
250.532	251.69
250.765	251.69
250.998	235.69
251.231	249.69
251.465	253.69
251.698	255.69
251.931	244.69
252.164	242.69
252.397	261.69
252.63	249.69
252.863	259.69
253.096	256.69
253.329	255.69
253.562	264.69
253.795	254.69
254.028	275.69
254.261	271.69
254.494	265.69
254.727	247.69
254.96	275.69
255.193	259.69
255.426	287.69
255.659	272.69
255.892	278.69
256.124	263.69
256.357	266.69
256.59	272.69
256.823	286.69
257.056	246.69
257.289	267.69
257.521	261.69
257.754	292.69
257.987	278.69
258.22	299.69
258.452	294.69
258.685	295.69
258.918	304.69
259.151	297.69
259.383	284.69
259.616	283.69
259.849	283.69
260.081	287.69
260.314	289.69
260.547	295.69
260.779	310.69
261.012	296.69
261.244	289.69
261.477	325.69
261.71	309.69
261.942	291.69
262.175	303.69
262.407	297.69
262.64	322.69
262.872	301.69
263.105	296.69
263.337	309.69
263.57	328.69
263.802	313.69
264.035	317.69
264.267	317.69
264.499	326.69
264.732	311.69
264.964	319.69
265.197	334.69
265.429	330.69
265.661	340.69
265.894	326.69
266.126	341.69
266.358	347.69
266.591	333.69
266.823	336.69
267.055	348.69
267.287	327.69
267.52	331.69
267.752	324.69
267.984	346.69
268.216	345.69
268.448	365.69
268.681	349.69
268.913	347.69
269.145	342.69
269.377	345.69
269.609	359.69
269.841	341.69
270.073	341.69
270.306	349.69
270.538	327.69
270.77	362.69
271.002	358.69
271.234	346.69
271.466	344.69
271.698	357.69
271.93	351.69
272.162	376.69
272.394	360.69
272.626	379.69
272.858	377.69
273.09	350.69
273.322	374.69
273.553	365.69
273.785	381.69
274.017	380.69
274.249	352.69
274.481	352.69
274.713	380.69
274.945	387.69
275.176	373.69
275.408	381.69
275.64	393.69
275.872	398.69
276.104	388.69
276.335	375.69
276.567	377.69
276.799	381.69
277.031	417.69
277.262	375.69
277.494	394.69
277.726	401.69
277.957	400.69
278.189	406.69
278.421	383.69
278.652	397.69
278.884	388.69
279.115	393.69
279.347	415.69
279.579	413.69
279.81	415.69
280.042	411.69
280.273	414.69
280.505	415.69
280.736	415.69
280.968	404.69
281.199	404.69
281.431	425.69
281.662	405.69
281.894	416.69
282.125	422.69
282.356	430.69
282.588	440.69
282.819	427.69
283.051	425.69
283.282	435.69
283.513	439.69
283.745	443.69
283.976	429.69
284.207	442.69
284.439	459.69
284.67	447.69
284.901	456.69
285.132	457.69
285.364	450.69
285.595	453.69
285.826	461.69
286.057	486.69
286.288	440.69
286.52	458.69
286.751	454.69
286.982	464.69
287.213	447.69
287.444	471.69
287.675	479.69
287.906	460.69
288.138	466.69
288.369	466.69
288.6	502.69
288.831	493.69
289.062	478.69
289.293	478.69
289.524	470.69
289.755	485.69
289.986	493.69
290.217	476.69
290.448	506.69
290.679	488.69
290.91	472.69
291.141	489.69
291.371	464.69
291.602	486.69
291.833	480.69
292.064	491.69
292.295	485.69
292.526	487.69
292.757	496.69
292.987	485.69
293.218	477.69
293.449	498.69
293.68	501.69
293.91	476.69
294.141	480.69
294.372	502.69
294.603	517.69
294.833	507.69
295.064	481.69
295.295	514.69
295.525	511.69
295.756	497.69
295.987	501.69
296.217	491.69
296.448	498.69
296.679	506.69
296.909	515.69
297.14	509.69
297.37	545.69
297.601	538.69
297.831	544.69
298.062	520.69
298.292	516.69
298.523	537.69
298.753	581.69
298.984	525.69
299.214	531.69
299.445	510.69
299.675	521.69
299.905	535.69
300.136	522.69
300.366	527.69
300.597	553.69
300.827	573.69
301.057	561.69
301.288	562.69
301.518	576.69
301.748	572.69
301.979	574.69
302.209	564.69
302.439	568.69
302.669	550.69
302.9	551.69
303.13	536.69
303.36	542.69
303.59	531.69
303.82	543.69
304.051	545.69
304.281	544.69
304.511	558.69
304.741	547.69
304.971	536.69
305.201	547.69
305.431	558.69
305.661	566.69
305.891	544.69
306.121	544.69
306.352	546.69
306.582	514.69
306.812	539.69
307.042	553.69
307.272	526.69
307.502	546.69
307.731	546.69
307.961	564.69
308.191	535.69
308.421	541.69
308.651	530.69
308.881	529.69
309.111	529.69
309.341	521.69
309.571	518.69
309.8	537.69
310.03	536.69
310.26	533.69
310.49	534.69
310.72	524.69
310.949	562.69
311.179	533.69
311.409	561.69
311.639	521.69
311.868	532.69
312.098	568.69
312.328	547.69
312.557	563.69
312.787	558.69
313.017	569.69
313.246	574.69
313.476	573.69
313.706	534.69
313.935	561.69
314.165	574.69
314.394	578.69
314.624	583.69
314.853	584.69
315.083	557.69
315.312	577.69
315.542	546.69
315.771	576.69
316.001	561.69
316.23	540.69
316.46	528.69
316.689	568.69
316.919	561.69
317.148	566.69
317.377	559.69
317.607	549.69
317.836	539.69
318.065	549.69
318.295	575.69
318.524	531.69
318.753	568.69
318.983	553.69
319.212	534.69
319.441	557.69
319.67	567.69
319.9	588.69
320.129	550.69
320.358	562.69
320.587	570.69
320.816	576.69
321.046	586.69
321.275	567.69
321.504	572.69
321.733	587.69
321.962	576.69
322.191	568.69
322.42	573.69
322.649	541.69
322.878	568.69
323.108	571.69
323.337	552.69
323.566	569.69
323.795	594.69
324.024	564.69
324.253	594.69
324.482	537.69
324.71	585.69
324.939	566.69
325.168	583.69
325.397	587.69
325.626	577.69
325.855	602.69
326.084	601.69
326.313	605.69
326.542	637.69
326.77	597.69
326.999	629.69
327.228	611.69
327.457	603.69
327.686	588.69
327.914	611.69
328.143	618.69
328.372	581.69
328.6	614.69
328.829	614.69
329.058	607.69
329.287	602.69
329.515	606.69
329.744	629.69
329.972	615.69
330.201	617.69
330.43	621.69
330.658	633.69
330.887	618.69
331.115	621.69
331.344	626.69
331.572	650.69
331.801	670.69
332.03	650.69
332.258	706.69
332.486	708.69
332.715	743.69
332.943	779.69
333.172	769.69
333.4	811.69
333.629	801.69
333.857	833.69
334.085	817.69
334.314	804.69
334.542	781.69
334.771	772.69
334.999	772.69
335.227	769.69
335.455	761.69
335.684	746.69
335.912	775.69
336.14	736.69
336.369	727.69
336.597	736.69
336.825	722.69
337.053	752.69
337.281	725.69
337.51	717.69
337.738	676.69
337.966	667.69
338.194	637.69
338.422	636.69
338.65	637.69
338.878	662.69
339.106	643.69
339.334	656.69
339.562	671.69
339.79	647.69
340.018	626.69
340.246	625.69
340.474	634.69
340.702	614.69
340.93	623.69
341.158	633.69
341.386	635.69
341.614	634.69
341.842	618.69
342.07	609.69
342.298	617.69
342.526	624.69
342.754	620.69
342.981	618.69
343.209	659.69
343.437	666.69
343.665	727.69
343.893	775.69
344.12	810.69
344.348	785.69
344.576	725.69
344.804	679.69
345.031	648.69
345.259	648.69
345.487	658.69
345.714	665.69
345.942	629.69
346.17	637.69
346.397	621.69
346.625	633.69
346.853	644.69
347.08	608.69
347.308	629.69
347.535	624.69
347.763	639.69
347.99	637.69
348.218	656.69
348.445	637.69
348.673	666.69
348.9	620.69
349.128	608.69
349.355	595.69
349.583	639.69
349.81	630.69
350.037	593.69
350.265	607.69
350.492	595.69
350.72	606.69
350.947	599.69
351.174	607.69
351.402	577.69
351.629	576.69
351.856	591.69
352.083	614.69
352.311	588.69
352.538	593.69
352.765	582.69
352.992	595.69
353.22	589.69
353.447	553.69
353.674	562.69
353.901	596.69
354.128	582.69
354.355	570.69
354.583	583.69
354.81	587.69
355.037	594.69
355.264	593.69
355.491	572.69
355.718	571.69
355.945	601.69
356.172	601.69
356.399	594.69
356.626	591.69
356.853	593.69
357.08	598.69
357.307	600.69
357.534	560.69
357.761	582.69
357.988	573.69
358.215	593.69
358.441	586.69
358.668	567.69
358.895	600.69
359.122	578.69
359.349	579.69
359.576	593.69
359.802	589.69
360.029	594.69
360.256	570.69
360.483	610.69
360.709	583.69
360.936	607.69
361.163	600.69
361.39	593.69
361.616	598.69
361.843	585.69
362.07	589.69
362.296	595.69
362.523	593.69
362.749	580.69
362.976	586.69
363.203	587.69
363.429	552.69
363.656	563.69
363.882	591.69
364.109	581.69
364.335	588.69
364.562	587.69
364.788	596.69
365.015	600.69
365.241	579.69
365.468	587.69
365.694	586.69
365.92	607.69
366.147	575.69
366.373	599.69
366.599	584.69
366.826	579.69
367.052	590.69
367.278	579.69
367.505	591.69
367.731	585.69
367.957	602.69
368.184	597.69
368.41	589.69
368.636	590.69
368.862	610.69
369.089	623.69
369.315	610.69
369.541	623.69
369.767	617.69
369.993	637.69
370.219	598.69
370.445	634.69
370.672	617.69
370.898	639.69
371.124	614.69
371.35	631.69
371.576	641.69
371.802	663.69
372.028	626.69
372.254	649.69
372.48	645.69
372.706	646.69
372.932	666.69
373.158	674.69
373.384	670.69
373.61	641.69
373.835	643.69
374.061	651.69
374.287	622.69
374.513	664.69
374.739	666.69
374.965	682.69
375.191	733.69
375.416	717.69
375.642	710.69
375.868	697.69
376.094	671.69
376.319	674.69
376.545	635.69
376.771	646.69
376.997	651.69
377.222	651.69
377.448	641.69
377.674	643.69
377.899	625.69
378.125	639.69
378.35	627.69
378.576	634.69
378.802	633.69
379.027	647.69
379.253	632.69
379.478	631.69
379.704	652.69
379.929	631.69
380.155	639.69
380.38	614.69
380.606	619.69
380.831	624.69
381.057	643.69
381.282	622.69
381.507	628.69
381.733	652.69
381.958	649.69
382.184	674.69
382.409	639.69
382.634	675.69
382.86	669.69
383.085	692.69
383.31	708.69
383.535	702.69
383.761	705.69
383.986	729.69
384.211	700.69
384.436	730.69
384.662	763.69
384.887	758.69
385.112	774.69
385.337	783.69
385.562	775.69
385.787	793.69
386.013	800.69
386.238	763.69
386.463	800.69
386.688	765.69
386.913	766.69
387.138	795.69
387.363	774.69
387.588	729.69
387.813	749.69
388.038	756.69
388.263	752.69
388.488	777.69
388.713	738.69
388.938	736.69
389.163	740.69
389.387	756.69
389.612	763.69
389.837	727.69
390.062	752.69
390.287	750.69
390.512	756.69
390.736	760.69
390.961	779.69
391.186	771.69
391.411	785.69
391.636	816.69
391.86	838.69
392.085	833.69
392.31	853.69
392.534	850.69
392.759	831.69
392.984	827.69
393.208	793.69
393.433	791.69
393.658	805.69
393.882	806.69
394.107	820.69
394.331	815.69
394.556	837.69
394.78	827.69
395.005	841.69
395.229	820.69
395.454	837.69
395.678	860.69
395.903	878.69
396.127	863.69
396.352	810.69
396.576	798.69
396.801	792.69
397.025	807.69
397.249	818.69
397.474	852.69
397.698	853.69
397.922	844.69
398.147	832.69
398.371	879.69
398.595	898.69
398.82	939.69
399.044	993.69
399.268	1088.69
399.492	1290.69
399.717	1451.69
399.941	1475.69
400.165	1361.69
400.389	1162.69
400.613	1068.69
400.837	974.69
401.062	997.69
401.286	976.69
401.51	959.69
401.734	958.69
401.958	953.69
402.182	981.69
402.406	995.69
402.63	979.69
402.854	1033.69
403.078	1018.69
403.302	1055.69
403.526	1097.69
403.75	1079.69
403.974	1124.69
404.198	1100.69
404.422	1128.69
404.645	1101.69
404.869	1103.69
405.093	1111.69
405.317	1080.69
405.541	1096.69
405.765	1075.69
405.988	1076.69
406.212	1057.69
406.436	1079.69
406.66	1090.69
406.883	1086.69
407.107	1159.69
407.331	1232.69
407.555	1265.69
407.778	1237.69
408.002	1237.69
408.226	1161.69
408.449	1184.69
408.673	1135.69
408.896	1089.69
409.12	1091.69
409.344	1098.69
409.567	1103.69
409.791	1134.69
410.014	1117.69
410.238	1083.69
410.461	1100.69
410.685	1076.69
410.908	1015.69
411.132	991.69
411.355	991.69
411.578	978.69
411.802	994.69
412.025	1023.69
412.249	1044.69
412.472	1026.69
412.695	975.69
412.919	981.69
413.142	963.69
413.365	958.69
413.589	971.69
413.812	952.69
414.035	947.69
414.258	948.69
414.482	941.69
414.705	970.69
414.928	958.69
415.151	952.69
415.374	965.69
415.597	954.69
415.821	961.69
416.044	956.69
416.267	947.69
416.49	926.69
416.713	966.69
416.936	942.69
417.159	935.69
417.382	946.69
417.605	943.69
417.828	936.69
418.051	976.69
418.274	961.69
418.497	959.69
418.72	971.69
418.943	982.69
419.166	1058.69
419.389	1134.69
419.611	1092.69
419.834	1074.69
420.057	998.69
420.28	980.69
420.503	945.69
420.726	965.69
420.948	952.69
421.171	962.69
421.394	958.69
421.617	952.69
421.839	923.69
422.062	938.69
422.285	944.69
422.507	962.69
422.73	958.69
422.953	993.69
423.175	1006.69
423.398	1027.69
423.621	1006.69
423.843	1025.69
424.066	1049.69
424.288	1024.69
424.511	1017.69
424.733	993.69
424.956	996.69
425.178	979.69
425.401	994.69
425.623	961.69
425.846	956.69
426.068	937.69
426.291	920.69
426.513	900.69
426.735	888.69
426.958	873.69
427.18	849.69
427.402	883.69
427.625	891.69
427.847	865.69
428.069	878.69
428.292	878.69
428.514	854.69
428.736	853.69
428.958	855.69
429.181	810.69
429.403	843.69
429.625	854.69
429.847	828.69
430.069	833.69
430.292	842.69
430.514	855.69
430.736	837.69
430.958	832.69
431.18	844.69
431.402	846.69
431.624	833.69
431.846	857.69
432.068	851.69
432.29	879.69
432.512	859.69
432.734	895.69
432.956	855.69
433.178	870.69
433.4	885.69
433.622	881.69
433.844	864.69
434.066	871.69
434.287	888.69
434.509	897.69
434.731	942.69
434.953	955.69
435.175	988.69
435.397	952.69
435.618	925.69
435.84	883.69
436.062	879.69
436.284	880.69
436.505	843.69
436.727	889.69
436.949	861.69
437.17	863.69
437.392	855.69
437.614	862.69
437.835	815.69
438.057	863.69
438.278	834.69
438.5	832.69
438.721	830.69
438.943	848.69
439.165	834.69
439.386	841.69
439.608	879.69
439.829	883.69
440.05	854.69
440.272	886.69
440.493	888.69
440.715	900.69
440.936	877.69
441.158	905.69
441.379	947.69
441.6	1006.69
441.822	998.69
442.043	987.69
442.264	983.69
442.486	953.69
442.707	946.69
442.928	975.69
443.149	972.69
443.371	960.69
443.592	954.69
443.813	965.69
444.034	1001.69
444.255	1014.69
444.476	1049.69
444.698	1130.69
444.919	1145.69
445.14	1271.69
445.361	1110.69
445.582	999.69
445.803	982.69
446.024	939.69
446.245	908.69
446.466	896.69
446.687	867.69
446.908	882.69
447.129	835.69
447.35	857.69
447.571	818.69
447.792	831.69
448.013	842.69
448.234	802.69
448.455	803.69
448.675	829.69
448.896	813.69
449.117	754.69
449.338	794.69
449.559	798.69
449.779	800.69
450	798.69
450.221	793.69
450.442	803.69
450.662	813.69
450.883	810.69
451.104	817.69
451.324	813.69
451.545	832.69
451.766	854.69
451.986	820.69
452.207	824.69
452.428	811.69
452.648	805.69
452.869	785.69
453.089	792.69
453.31	825.69
453.53	755.69
453.751	795.69
453.971	770.69
454.192	778.69
454.412	739.69
454.633	753.69
454.853	761.69
455.073	777.69
455.294	770.69
455.514	768.69
455.734	756.69
455.955	753.69
456.175	765.69
456.395	778.69
456.616	728.69
456.836	757.69
457.056	736.69
457.276	739.69
457.497	738.69
457.717	749.69
457.937	781.69
458.157	770.69
458.377	776.69
458.598	766.69
458.818	827.69
459.038	802.69
459.258	868.69
459.478	907.69
459.698	893.69
459.918	945.69
460.138	1007.69
460.358	997.69
460.578	1031.69
460.798	1045.69
461.018	1054.69
461.238	1016.69
461.458	1010.69
461.678	1030.69
461.898	1026.69
462.118	1046.69
462.338	1111.69
462.558	1110.69
462.777	1186.69
462.997	1265.69
463.217	1399.69
463.437	1391.69
463.657	1294.69
463.876	1233.69
464.096	1233.69
464.316	1196.69
464.536	1225.69
464.755	1191.69
464.975	1134.69
465.195	1064.69
465.414	1016.69
465.634	938.69
465.854	937.69
466.073	891.69
466.293	877.69
466.512	853.69
466.732	861.69
466.951	836.69
467.171	821.69
467.391	832.69
467.61	806.69
467.829	834.69
468.049	821.69
468.268	819.69
468.488	797.69
468.707	794.69
468.927	800.69
469.146	790.69
469.365	820.69
469.585	832.69
469.804	841.69
470.023	894.69
470.243	861.69
470.462	870.69
470.681	836.69
470.901	841.69
471.12	846.69
471.339	862.69
471.558	837.69
471.777	808.69
471.997	809.69
472.216	813.69
472.435	803.69
472.654	789.69
472.873	783.69
473.092	786.69
473.311	775.69
473.53	769.69
473.749	780.69
473.968	775.69
474.187	774.69
474.406	785.69
474.625	787.69
474.844	794.69
475.063	785.69
475.282	798.69
475.501	769.69
475.72	776.69
475.939	784.69
476.158	793.69
476.377	817.69
476.596	822.69
476.814	830.69
477.033	814.69
477.252	842.69
477.471	859.69
477.69	881.69
477.908	913.69
478.127	935.69
478.346	918.69
478.564	942.69
478.783	990.69
479.002	957.69
479.22	979.69
479.439	933.69
479.658	938.69
479.876	945.69
480.095	983.69
480.313	1030.69
480.532	1027.69
480.751	1059.69
480.969	1014.69
481.188	973.69
481.406	933.69
481.624	919.69
481.843	901.69
482.061	880.69
482.28	868.69
482.498	878.69
482.717	861.69
482.935	870.69
483.153	875.69
483.372	883.69
483.59	888.69
483.808	884.69
484.027	893.69
484.245	904.69
484.463	879.69
484.681	929.69
484.9	907.69
485.118	888.69
485.336	908.69
485.554	925.69
485.772	937.69
485.99	945.69
486.209	932.69
486.427	963.69
486.645	958.69
486.863	958.69
487.081	954.69
487.299	947.69
487.517	917.69
487.735	930.69
487.953	936.69
488.171	969.69
488.389	909.69
488.607	890.69
488.825	891.69
489.043	898.69
489.261	908.69
489.479	903.69
489.696	921.69
489.914	908.69
490.132	949.69
490.35	948.69
490.568	942.69
490.786	953.69
491.003	917.69
491.221	937.69
491.439	947.69
491.657	929.69
491.874	940.69
492.092	952.69
492.31	944.69
492.527	952.69
492.745	928.69
492.963	965.69
493.18	972.69
493.398	934.69
493.615	979.69
493.833	931.69
494.05	978.69
494.268	970.69
494.485	1002.69
494.703	978.69
494.92	992.69
495.138	975.69
495.355	952.69
495.573	973.69
495.79	989.69
496.008	1011.69
496.225	978.69
496.442	1018.69
496.66	1039.69
496.877	1019.69
497.094	1058.69
497.312	1028.69
497.529	1059.69
497.746	1090.69
497.963	1131.69
498.181	1179.69
498.398	1210.69
498.615	1287.69
498.832	1409.69
499.049	1485.69
499.267	1613.69
499.484	1807.69
499.701	1956.69
499.918	2193.69
500.135	2485.69
