Data from NiCl2@0.25M.TitratingCurve.Agarose3%dH2O.NegLispCup.LampEnergy10.LIBS07252019_HRD10591_18-25-37-573.txt Node
Date: Thu Jul 25 18:25:37 EDT 2019
User: cochatt
Spectrometer: HR+D1059
Trigger mode: 1
Integration Time (sec): 1.000000E-1
Scans to average: 1
Electric dark correction enabled: true
Nonlinearity correction enabled: false
Boxcar width: 0
XAxis mode: Wavelengths
Number of Pixels in Spectrum: 2048
>>>>>Begin Spectral Data<<<<<
223.165	-13.75
223.4	-13.75
223.635	-13.75
223.869	-20.75
224.104	-12.75
224.338	-17.75
224.573	-2.75
224.808	-7.75
225.042	-9.75
225.277	-15.75
225.511	-3.75
225.746	1.25
225.98	-7.75
226.215	7.25
226.449	20.25
226.683	22.25
226.918	31.25
227.152	30.25
227.387	37.25
227.621	12.25
227.856	48.25
228.09	46.25
228.324	59.25
228.559	58.25
228.793	69.25
229.027	126.25
229.262	131.25
229.496	147.25
229.73	144.25
229.964	154.25
230.199	156.25
230.433	170.25
230.667	141.25
230.901	162.25
231.136	161.25
231.37	157.25
231.604	164.25
231.838	159.25
232.072	159.25
232.306	199.25
232.541	174.25
232.775	186.25
233.009	173.25
233.243	182.25
233.477	197.25
233.711	188.25
233.945	187.25
234.179	185.25
234.413	177.25
234.647	182.25
234.881	191.25
235.115	191.25
235.349	196.25
235.583	199.25
235.817	202.25
236.051	183.25
236.285	200.25
236.519	198.25
236.753	197.25
236.987	219.25
237.221	200.25
237.455	199.25
237.689	209.25
237.922	208.25
238.156	213.25
238.39	202.25
238.624	225.25
238.858	218.25
239.091	228.25
239.325	218.25
239.559	236.25
239.793	236.25
240.027	232.25
240.26	222.25
240.494	223.25
240.728	244.25
240.961	239.25
241.195	260.25
241.429	241.25
241.662	248.25
241.896	244.25
242.13	260.25
242.363	260.25
242.597	262.25
242.83	267.25
243.064	264.25
243.298	266.25
243.531	274.25
243.765	280.25
243.998	290.25
244.232	264.25
244.465	282.25
244.699	284.25
244.932	288.25
245.166	295.25
245.399	283.25
245.633	284.25
245.866	301.25
246.099	293.25
246.333	274.25
246.566	315.25
246.8	302.25
247.033	310.25
247.266	293.25
247.5	315.25
247.733	308.25
247.966	308.25
248.2	337.25
248.433	333.25
248.666	310.25
248.899	321.25
249.133	317.25
249.366	325.25
249.599	333.25
249.832	342.25
250.066	355.25
250.299	363.25
250.532	344.25
250.765	344.25
250.998	337.25
251.231	326.25
251.465	350.25
251.698	341.25
251.931	368.25
252.164	352.25
252.397	355.25
252.63	370.25
252.863	374.25
253.096	379.25
253.329	380.25
253.562	363.25
253.795	360.25
254.028	375.25
254.261	376.25
254.494	385.25
254.727	392.25
254.96	386.25
255.193	378.25
255.426	386.25
255.659	383.25
255.892	389.25
256.124	394.25
256.357	388.25
256.59	387.25
256.823	389.25
257.056	396.25
257.289	389.25
257.521	399.25
257.754	402.25
257.987	422.25
258.22	409.25
258.452	396.25
258.685	418.25
258.918	420.25
259.151	393.25
259.383	419.25
259.616	409.25
259.849	418.25
260.081	421.25
260.314	427.25
260.547	401.25
260.779	414.25
261.012	430.25
261.244	438.25
261.477	447.25
261.71	432.25
261.942	439.25
262.175	427.25
262.407	432.25
262.64	446.25
262.872	452.25
263.105	450.25
263.337	467.25
263.57	458.25
263.802	466.25
264.035	465.25
264.267	475.25
264.499	464.25
264.732	481.25
264.964	473.25
265.197	482.25
265.429	464.25
265.661	488.25
265.894	485.25
266.126	501.25
266.358	483.25
266.591	498.25
266.823	496.25
267.055	513.25
267.287	481.25
267.52	483.25
267.752	507.25
267.984	504.25
268.216	502.25
268.448	514.25
268.681	501.25
268.913	527.25
269.145	516.25
269.377	508.25
269.609	498.25
269.841	496.25
270.073	506.25
270.306	509.25
270.538	501.25
270.77	538.25
271.002	534.25
271.234	538.25
271.466	531.25
271.698	527.25
271.93	537.25
272.162	539.25
272.394	527.25
272.626	530.25
272.858	562.25
273.09	538.25
273.322	577.25
273.553	535.25
273.785	547.25
274.017	571.25
274.249	568.25
274.481	550.25
274.713	578.25
274.945	578.25
275.176	575.25
275.408	574.25
275.64	572.25
275.872	572.25
276.104	590.25
276.335	586.25
276.567	579.25
276.799	600.25
277.031	602.25
277.262	582.25
277.494	583.25
277.726	606.25
277.957	596.25
278.189	611.25
278.421	614.25
278.652	612.25
278.884	635.25
279.115	596.25
279.347	613.25
279.579	615.25
279.81	625.25
280.042	621.25
280.273	634.25
280.505	616.25
280.736	622.25
280.968	628.25
281.199	652.25
281.431	659.25
281.662	652.25
281.894	635.25
282.125	649.25
282.356	655.25
282.588	651.25
282.819	674.25
283.051	665.25
283.282	678.25
283.513	687.25
283.745	684.25
283.976	653.25
284.207	640.25
284.439	671.25
284.67	684.25
284.901	693.25
285.132	676.25
285.364	675.25
285.595	672.25
285.826	681.25
286.057	690.25
286.288	670.25
286.52	662.25
286.751	715.25
286.982	694.25
287.213	704.25
287.444	715.25
287.675	693.25
287.906	698.25
288.138	724.25
288.369	741.25
288.6	706.25
288.831	708.25
289.062	694.25
289.293	734.25
289.524	717.25
289.755	713.25
289.986	735.25
290.217	714.25
290.448	747.25
290.679	726.25
290.91	738.25
291.141	719.25
291.371	725.25
291.602	736.25
291.833	712.25
292.064	727.25
292.295	729.25
292.526	749.25
292.757	755.25
292.987	710.25
293.218	738.25
293.449	737.25
293.68	737.25
293.91	762.25
294.141	726.25
294.372	748.25
294.603	771.25
294.833	761.25
295.064	731.25
295.295	763.25
295.525	747.25
295.756	747.25
295.987	770.25
296.217	764.25
296.448	742.25
296.679	760.25
296.909	771.25
297.14	790.25
297.37	786.25
297.601	764.25
297.831	806.25
298.062	767.25
298.292	822.25
298.523	796.25
298.753	829.25
298.984	805.25
299.214	791.25
299.445	804.25
299.675	817.25
299.905	804.25
300.136	794.25
300.366	816.25
300.597	813.25
300.827	831.25
301.057	844.25
301.288	857.25
301.518	853.25
301.748	851.25
301.979	866.25
302.209	880.25
302.439	871.25
302.669	845.25
302.9	829.25
303.13	846.25
303.36	838.25
303.59	834.25
303.82	844.25
304.051	854.25
304.281	814.25
304.511	836.25
304.741	824.25
304.971	827.25
305.201	840.25
305.431	823.25
305.661	832.25
305.891	839.25
306.121	838.25
306.352	820.25
306.582	818.25
306.812	818.25
307.042	848.25
307.272	832.25
307.502	821.25
307.731	825.25
307.961	792.25
308.191	836.25
308.421	833.25
308.651	821.25
308.881	828.25
309.111	817.25
309.341	803.25
309.571	798.25
309.8	808.25
310.03	829.25
310.26	804.25
310.49	807.25
310.72	821.25
310.949	809.25
311.179	834.25
311.409	827.25
311.639	827.25
311.868	810.25
312.098	825.25
312.328	844.25
312.557	853.25
312.787	858.25
313.017	860.25
313.246	874.25
313.476	854.25
313.706	867.25
313.935	890.25
314.165	870.25
314.394	892.25
314.624	856.25
314.853	887.25
315.083	882.25
315.312	894.25
315.542	886.25
315.771	849.25
316.001	869.25
316.23	886.25
316.46	860.25
316.689	876.25
316.919	877.25
317.148	866.25
317.377	850.25
317.607	865.25
317.836	859.25
318.065	871.25
318.295	857.25
318.524	869.25
318.753	852.25
318.983	858.25
319.212	828.25
319.441	842.25
319.67	869.25
319.9	888.25
320.129	863.25
320.358	875.25
320.587	867.25
320.816	850.25
321.046	841.25
321.275	881.25
321.504	864.25
321.733	868.25
321.962	862.25
322.191	873.25
322.42	876.25
322.649	875.25
322.878	880.25
323.108	877.25
323.337	886.25
323.566	899.25
323.795	909.25
324.024	896.25
324.253	866.25
324.482	882.25
324.71	898.25
324.939	907.25
325.168	922.25
325.397	929.25
325.626	917.25
325.855	923.25
326.084	941.25
326.313	952.25
326.542	930.25
326.77	960.25
326.999	947.25
327.228	942.25
327.457	927.25
327.686	954.25
327.914	939.25
328.143	944.25
328.372	946.25
328.6	948.25
328.829	949.25
329.058	949.25
329.287	935.25
329.515	935.25
329.744	950.25
329.972	961.25
330.201	958.25
330.43	989.25
330.658	983.25
330.887	1006.25
331.115	1004.25
331.344	995.25
331.572	997.25
331.801	1014.25
332.03	1052.25
332.258	1041.25
332.486	1080.25
332.715	1105.25
332.943	1140.25
333.172	1172.25
333.4	1236.25
333.629	1271.25
333.857	1268.25
334.085	1278.25
334.314	1253.25
334.542	1238.25
334.771	1231.25
334.999	1242.25
335.227	1208.25
335.455	1211.25
335.684	1208.25
335.912	1203.25
336.14	1174.25
336.369	1197.25
336.597	1185.25
336.825	1151.25
337.053	1149.25
337.281	1126.25
337.51	1146.25
337.738	1108.25
337.966	1038.25
338.194	1096.25
338.422	1065.25
338.65	1078.25
338.878	1041.25
339.106	1030.25
339.334	1035.25
339.562	1009.25
339.79	982.25
340.018	1001.25
340.246	1028.25
340.474	988.25
340.702	985.25
340.93	1024.25
341.158	1012.25
341.386	981.25
341.614	981.25
341.842	986.25
342.07	984.25
342.298	1002.25
342.526	978.25
342.754	1004.25
342.981	1009.25
343.209	1032.25
343.437	1041.25
343.665	1102.25
343.893	1197.25
344.12	1237.25
344.348	1200.25
344.576	1164.25
344.804	1102.25
345.031	1050.25
345.259	1020.25
345.487	1008.25
345.714	1006.25
345.942	950.25
346.17	993.25
346.397	982.25
346.625	968.25
346.853	962.25
347.08	939.25
347.308	946.25
347.535	970.25
347.763	956.25
347.99	949.25
348.218	948.25
348.445	954.25
348.673	949.25
348.9	956.25
349.128	961.25
349.355	946.25
349.583	941.25
349.81	920.25
350.037	922.25
350.265	897.25
350.492	937.25
350.72	926.25
350.947	909.25
351.174	909.25
351.402	928.25
351.629	932.25
351.856	892.25
352.083	903.25
352.311	914.25
352.538	897.25
352.765	918.25
352.992	908.25
353.22	903.25
353.447	905.25
353.674	885.25
353.901	898.25
354.128	916.25
354.355	908.25
354.583	901.25
354.81	934.25
355.037	930.25
355.264	908.25
355.491	904.25
355.718	927.25
355.945	947.25
356.172	930.25
356.399	950.25
356.626	919.25
356.853	941.25
357.08	909.25
357.307	914.25
357.534	905.25
357.761	914.25
357.988	919.25
358.215	918.25
358.441	917.25
358.668	887.25
358.895	909.25
359.122	896.25
359.349	894.25
359.576	915.25
359.802	904.25
360.029	908.25
360.256	948.25
360.483	932.25
360.709	925.25
360.936	930.25
361.163	912.25
361.39	896.25
361.616	946.25
361.843	923.25
362.07	935.25
362.296	944.25
362.523	921.25
362.749	946.25
362.976	924.25
363.203	896.25
363.429	891.25
363.656	909.25
363.882	908.25
364.109	918.25
364.335	904.25
364.562	914.25
364.788	918.25
365.015	925.25
365.241	936.25
365.468	918.25
365.694	909.25
365.92	931.25
366.147	899.25
366.373	922.25
366.599	924.25
366.826	918.25
367.052	924.25
367.278	914.25
367.505	912.25
367.731	932.25
367.957	918.25
368.184	921.25
368.41	909.25
368.636	957.25
368.862	928.25
369.089	915.25
369.315	933.25
369.541	947.25
369.767	972.25
369.993	951.25
370.219	927.25
370.445	954.25
370.672	943.25
370.898	968.25
371.124	997.25
371.35	978.25
371.576	1018.25
371.802	998.25
372.028	993.25
372.254	1011.25
372.48	1015.25
372.706	1038.25
372.932	1046.25
373.158	1021.25
373.384	1009.25
373.61	1009.25
373.835	973.25
374.061	996.25
374.287	1019.25
374.513	1037.25
374.739	1031.25
374.965	1069.25
375.191	1096.25
375.416	1103.25
375.642	1086.25
375.868	1064.25
376.094	1068.25
376.319	1014.25
376.545	1032.25
376.771	1009.25
376.997	1009.25
377.222	1014.25
377.448	981.25
377.674	1018.25
377.899	967.25
378.125	1011.25
378.35	972.25
378.576	984.25
378.802	988.25
379.027	992.25
379.253	986.25
379.478	1005.25
379.704	977.25
379.929	974.25
380.155	983.25
380.38	997.25
380.606	1018.25
380.831	983.25
381.057	1008.25
381.282	986.25
381.507	996.25
381.733	1002.25
381.958	1024.25
382.184	1032.25
382.409	1033.25
382.634	1045.25
382.86	1044.25
383.085	1076.25
383.31	1073.25
383.535	1085.25
383.761	1082.25
383.986	1109.25
384.211	1149.25
384.436	1142.25
384.662	1140.25
384.887	1192.25
385.112	1194.25
385.337	1227.25
385.562	1181.25
385.787	1216.25
386.013	1216.25
386.238	1229.25
386.463	1237.25
386.688	1238.25
386.913	1236.25
387.138	1226.25
387.363	1208.25
387.588	1212.25
387.813	1195.25
388.038	1170.25
388.263	1210.25
388.488	1191.25
388.713	1216.25
388.938	1171.25
389.163	1194.25
389.387	1171.25
389.612	1146.25
389.837	1194.25
390.062	1192.25
390.287	1186.25
390.512	1191.25
390.736	1207.25
390.961	1233.25
391.186	1244.25
391.411	1279.25
391.636	1305.25
391.86	1338.25
392.085	1384.25
392.31	1375.25
392.534	1330.25
392.759	1306.25
392.984	1296.25
393.208	1308.25
393.433	1287.25
393.658	1297.25
393.882	1290.25
394.107	1286.25
394.331	1314.25
394.556	1288.25
394.78	1328.25
395.005	1329.25
395.229	1312.25
395.454	1352.25
395.678	1368.25
395.903	1377.25
396.127	1394.25
396.352	1323.25
396.576	1332.25
396.801	1280.25
397.025	1329.25
397.249	1296.25
397.474	1345.25
397.698	1392.25
397.922	1404.25
398.147	1384.25
398.371	1391.25
398.595	1499.25
398.82	1518.25
399.044	1656.25
399.268	1790.25
399.492	1971.25
399.717	2228.25
399.941	2265.25
400.165	2089.25
400.389	1929.25
400.613	1798.25
400.837	1701.25
401.062	1638.25
401.286	1616.25
401.51	1579.25
401.734	1581.25
401.958	1547.25
402.182	1571.25
402.406	1587.25
402.63	1590.25
402.854	1634.25
403.078	1620.25
403.302	1673.25
403.526	1689.25
403.75	1724.25
403.974	1730.25
404.198	1754.25
404.422	1747.25
404.645	1744.25
404.869	1723.25
405.093	1747.25
405.317	1674.25
405.541	1690.25
405.765	1692.25
405.988	1709.25
406.212	1708.25
406.436	1729.25
406.66	1769.25
406.883	1743.25
407.107	1876.25
407.331	1927.25
407.555	2013.25
407.778	2000.25
408.002	1972.25
408.226	1900.25
408.449	1893.25
408.673	1792.25
408.896	1741.25
409.12	1737.25
409.344	1739.25
409.567	1722.25
409.791	1767.25
410.014	1700.25
410.238	1694.25
410.461	1706.25
410.685	1693.25
410.908	1660.25
411.132	1622.25
411.355	1595.25
411.578	1580.25
411.802	1597.25
412.025	1586.25
412.249	1644.25
412.472	1660.25
412.695	1574.25
412.919	1548.25
413.142	1517.25
413.365	1511.25
413.589	1562.25
413.812	1524.25
414.035	1535.25
414.258	1548.25
414.482	1550.25
414.705	1550.25
414.928	1564.25
415.151	1559.25
415.374	1539.25
415.597	1522.25
415.821	1517.25
416.044	1504.25
416.267	1471.25
416.49	1450.25
416.713	1482.25
416.936	1462.25
417.159	1493.25
417.382	1438.25
417.605	1498.25
417.828	1496.25
418.051	1543.25
418.274	1506.25
418.497	1474.25
418.72	1526.25
418.943	1551.25
419.166	1654.25
419.389	1729.25
419.611	1741.25
419.834	1646.25
420.057	1584.25
420.28	1570.25
420.503	1499.25
420.726	1454.25
420.948	1475.25
421.171	1494.25
421.394	1501.25
421.617	1483.25
421.839	1515.25
422.062	1508.25
422.285	1473.25
422.507	1546.25
422.73	1536.25
422.953	1553.25
423.175	1547.25
423.398	1535.25
423.621	1556.25
423.843	1592.25
424.066	1553.25
424.288	1558.25
424.511	1539.25
424.733	1532.25
424.956	1543.25
425.178	1477.25
425.401	1514.25
425.623	1476.25
425.846	1450.25
426.068	1476.25
426.291	1477.25
426.513	1432.25
426.735	1404.25
426.958	1420.25
427.18	1388.25
427.402	1390.25
427.625	1349.25
427.847	1376.25
428.069	1341.25
428.292	1332.25
428.514	1339.25
428.736	1361.25
428.958	1376.25
429.181	1300.25
429.403	1309.25
429.625	1318.25
429.847	1299.25
430.069	1282.25
430.292	1329.25
430.514	1290.25
430.736	1312.25
430.958	1296.25
431.18	1292.25
431.402	1307.25
431.624	1317.25
431.846	1343.25
432.068	1366.25
432.29	1354.25
432.512	1329.25
432.734	1334.25
432.956	1300.25
433.178	1309.25
433.4	1353.25
433.622	1346.25
433.844	1357.25
434.066	1358.25
434.287	1349.25
434.509	1416.25
434.731	1479.25
434.953	1454.25
435.175	1507.25
435.397	1493.25
435.618	1390.25
435.84	1384.25
436.062	1373.25
436.284	1338.25
436.505	1346.25
436.727	1326.25
436.949	1351.25
437.17	1321.25
437.392	1331.25
437.614	1306.25
437.835	1249.25
438.057	1293.25
438.278	1266.25
438.5	1269.25
438.721	1300.25
438.943	1290.25
439.165	1258.25
439.386	1287.25
439.608	1316.25
439.829	1308.25
440.05	1334.25
440.272	1328.25
440.493	1335.25
440.715	1330.25
440.936	1340.25
441.158	1358.25
441.379	1402.25
441.6	1505.25
441.822	1505.25
442.043	1497.25
442.264	1437.25
442.486	1422.25
442.707	1459.25
442.928	1468.25
443.149	1492.25
443.371	1441.25
443.592	1477.25
443.813	1499.25
444.034	1501.25
444.255	1525.25
444.476	1602.25
444.698	1715.25
444.919	1725.25
445.14	1810.25
445.361	1691.25
445.582	1579.25
445.803	1478.25
446.024	1412.25
446.245	1420.25
446.466	1363.25
446.687	1352.25
446.908	1364.25
447.129	1321.25
447.35	1300.25
447.571	1264.25
447.792	1235.25
448.013	1258.25
448.234	1236.25
448.455	1213.25
448.675	1228.25
448.896	1241.25
449.117	1190.25
449.338	1176.25
449.559	1195.25
449.779	1160.25
450	1193.25
450.221	1183.25
450.442	1224.25
450.662	1218.25
450.883	1243.25
451.104	1237.25
451.324	1222.25
451.545	1230.25
451.766	1253.25
451.986	1189.25
452.207	1204.25
452.428	1181.25
452.648	1192.25
452.869	1174.25
453.089	1174.25
453.31	1195.25
453.53	1156.25
453.751	1158.25
453.971	1161.25
454.192	1132.25
454.412	1118.25
454.633	1146.25
454.853	1140.25
455.073	1133.25
455.294	1134.25
455.514	1115.25
455.734	1147.25
455.955	1134.25
456.175	1115.25
456.395	1120.25
456.616	1140.25
456.836	1120.25
457.056	1130.25
457.276	1150.25
457.497	1128.25
457.717	1136.25
457.937	1165.25
458.157	1152.25
458.377	1179.25
458.598	1176.25
458.818	1258.25
459.038	1280.25
459.258	1276.25
459.478	1339.25
459.698	1364.25
459.918	1403.25
460.138	1462.25
460.358	1541.25
460.578	1544.25
460.798	1552.25
461.018	1580.25
461.238	1578.25
461.458	1585.25
461.678	1571.25
461.898	1602.25
462.118	1575.25
462.338	1709.25
462.558	1742.25
462.777	1810.25
462.997	1959.25
463.217	2032.25
463.437	2053.25
463.657	2000.25
463.876	1892.25
464.096	1884.25
464.316	1845.25
464.536	1849.25
464.755	1758.25
464.975	1687.25
465.195	1664.25
465.414	1570.25
465.634	1426.25
465.854	1382.25
466.073	1374.25
466.293	1321.25
466.512	1330.25
466.732	1300.25
466.951	1274.25
467.171	1260.25
467.391	1278.25
467.61	1241.25
467.829	1259.25
468.049	1248.25
468.268	1228.25
468.488	1216.25
468.707	1232.25
468.927	1211.25
469.146	1197.25
469.365	1227.25
469.585	1234.25
469.804	1275.25
470.023	1307.25
470.243	1341.25
470.462	1302.25
470.681	1301.25
470.901	1301.25
471.12	1298.25
471.339	1280.25
471.558	1276.25
471.777	1234.25
471.997	1223.25
472.216	1230.25
472.435	1173.25
472.654	1165.25
472.873	1180.25
473.092	1194.25
473.311	1182.25
473.53	1212.25
473.749	1181.25
473.968	1184.25
474.187	1182.25
474.406	1192.25
474.625	1200.25
474.844	1204.25
475.063	1198.25
475.282	1232.25
475.501	1232.25
475.72	1214.25
475.939	1231.25
476.158	1208.25
476.377	1230.25
476.596	1237.25
476.814	1256.25
477.033	1279.25
477.252	1308.25
477.471	1316.25
477.69	1336.25
477.908	1392.25
478.127	1422.25
478.346	1458.25
478.564	1464.25
478.783	1472.25
479.002	1485.25
479.22	1507.25
479.439	1487.25
479.658	1476.25
479.876	1495.25
480.095	1560.25
480.313	1560.25
480.532	1605.25
480.751	1626.25
480.969	1544.25
481.188	1496.25
481.406	1440.25
481.624	1434.25
481.843	1375.25
482.061	1404.25
482.28	1381.25
482.498	1378.25
482.717	1389.25
482.935	1394.25
483.153	1354.25
483.372	1379.25
483.59	1326.25
483.808	1345.25
484.027	1357.25
484.245	1357.25
484.463	1393.25
484.681	1426.25
484.9	1435.25
485.118	1422.25
485.336	1445.25
485.554	1432.25
485.772	1442.25
485.99	1426.25
486.209	1467.25
486.427	1454.25
486.645	1460.25
486.863	1462.25
487.081	1422.25
487.299	1477.25
487.517	1415.25
487.735	1408.25
487.953	1435.25
488.171	1421.25
488.389	1403.25
488.607	1421.25
488.825	1406.25
489.043	1399.25
489.261	1407.25
489.479	1403.25
489.696	1438.25
489.914	1451.25
490.132	1419.25
490.35	1421.25
490.568	1456.25
490.786	1498.25
491.003	1449.25
491.221	1446.25
491.439	1476.25
491.657	1444.25
491.874	1448.25
492.092	1436.25
492.31	1455.25
492.527	1471.25
492.745	1479.25
492.963	1489.25
493.18	1499.25
493.398	1501.25
493.615	1487.25
