Data from NiCl2@0.0625M.TitratingCurve.Agarose3%dH2O.NegLispCup.LampEnergy10.LIBS07252019_HRD10591_18-34-19-577.txt Node
Date: Thu Jul 25 18:34:19 EDT 2019
User: cochatt
Spectrometer: HR+D1059
Trigger mode: 1
Integration Time (sec): 1.000000E-1
Scans to average: 1
Electric dark correction enabled: true
Nonlinearity correction enabled: false
Boxcar width: 0
XAxis mode: Wavelengths
Number of Pixels in Spectrum: 2048
>>>>>Begin Spectral Data<<<<<
223.165	-25.81
223.4	-25.81
223.635	-25.81
223.869	-18.81
224.104	-14.81
224.338	-7.81
224.573	-14.81
224.808	-19.81
225.042	-0.81
225.277	1.19
225.511	-12.81
225.746	4.19
225.98	20.19
226.215	14.19
226.449	5.19
226.683	9.19
226.918	17.19
227.152	44.19
227.387	36.19
227.621	40.19
227.856	51.19
228.09	40.19
228.324	37.19
228.559	51.19
228.793	74.19
229.027	147.19
229.262	144.19
229.496	151.19
229.73	163.19
229.964	164.19
230.199	163.19
230.433	171.19
230.667	178.19
230.901	170.19
231.136	168.19
231.37	179.19
231.604	175.19
231.838	176.19
232.072	184.19
232.306	186.19
232.541	211.19
232.775	203.19
233.009	191.19
233.243	186.19
233.477	201.19
233.711	211.19
233.945	209.19
234.179	190.19
234.413	194.19
234.647	215.19
234.881	216.19
235.115	216.19
235.349	205.19
235.583	216.19
235.817	218.19
236.051	214.19
236.285	209.19
236.519	217.19
236.753	218.19
236.987	224.19
237.221	217.19
237.455	219.19
237.689	242.19
237.922	234.19
238.156	231.19
238.39	223.19
238.624	253.19
238.858	245.19
239.091	241.19
239.325	261.19
239.559	244.19
239.793	265.19
240.027	268.19
240.26	261.19
240.494	260.19
240.728	270.19
240.961	275.19
241.195	291.19
241.429	263.19
241.662	257.19
241.896	265.19
242.13	272.19
242.363	298.19
242.597	287.19
242.83	287.19
243.064	297.19
243.298	307.19
243.531	307.19
243.765	311.19
243.998	298.19
244.232	305.19
244.465	326.19
244.699	316.19
244.932	334.19
245.166	340.19
245.399	314.19
245.633	328.19
245.866	333.19
246.099	312.19
246.333	322.19
246.566	318.19
246.8	341.19
247.033	344.19
247.266	347.19
247.5	358.19
247.733	353.19
247.966	380.19
248.2	382.19
248.433	356.19
248.666	370.19
248.899	360.19
249.133	364.19
249.366	375.19
249.599	388.19
249.832	387.19
250.066	373.19
250.299	375.19
250.532	389.19
250.765	399.19
250.998	384.19
251.231	388.19
251.465	399.19
251.698	401.19
251.931	409.19
252.164	397.19
252.397	431.19
252.63	440.19
252.863	443.19
253.096	435.19
253.329	429.19
253.562	409.19
253.795	418.19
254.028	432.19
254.261	434.19
254.494	434.19
254.727	438.19
254.96	447.19
255.193	435.19
255.426	438.19
255.659	445.19
255.892	456.19
256.124	448.19
256.357	461.19
256.59	467.19
256.823	461.19
257.056	465.19
257.289	455.19
257.521	476.19
257.754	471.19
257.987	462.19
258.22	488.19
258.452	465.19
258.685	482.19
258.918	481.19
259.151	474.19
259.383	509.19
259.616	482.19
259.849	479.19
260.081	494.19
260.314	515.19
260.547	508.19
260.779	511.19
261.012	488.19
261.244	495.19
261.477	512.19
261.71	514.19
261.942	516.19
262.175	522.19
262.407	513.19
262.64	519.19
262.872	520.19
263.105	523.19
263.337	533.19
263.57	559.19
263.802	545.19
264.035	556.19
264.267	573.19
264.499	533.19
264.732	570.19
264.964	573.19
265.197	566.19
265.429	539.19
265.661	550.19
265.894	559.19
266.126	565.19
266.358	564.19
266.591	554.19
266.823	591.19
267.055	584.19
267.287	593.19
267.52	595.19
267.752	588.19
267.984	586.19
268.216	614.19
268.448	603.19
268.681	605.19
268.913	588.19
269.145	598.19
269.377	587.19
269.609	627.19
269.841	597.19
270.073	599.19
270.306	628.19
270.538	619.19
270.77	593.19
271.002	605.19
271.234	632.19
271.466	642.19
271.698	643.19
271.93	610.19
272.162	636.19
272.394	626.19
272.626	643.19
272.858	644.19
273.09	639.19
273.322	653.19
273.553	650.19
273.785	664.19
274.017	650.19
274.249	663.19
274.481	681.19
274.713	674.19
274.945	653.19
275.176	674.19
275.408	676.19
275.64	701.19
275.872	695.19
276.104	697.19
276.335	698.19
276.567	711.19
276.799	712.19
277.031	695.19
277.262	720.19
277.494	730.19
277.726	705.19
277.957	700.19
278.189	695.19
278.421	694.19
278.652	716.19
278.884	691.19
279.115	735.19
279.347	721.19
279.579	767.19
279.81	728.19
280.042	738.19
280.273	768.19
280.505	757.19
280.736	756.19
280.968	742.19
281.199	755.19
281.431	752.19
281.662	778.19
281.894	778.19
282.125	771.19
282.356	776.19
282.588	768.19
282.819	784.19
283.051	767.19
283.282	787.19
283.513	802.19
283.745	819.19
283.976	802.19
284.207	793.19
284.439	800.19
284.67	812.19
284.901	790.19
285.132	804.19
285.364	802.19
285.595	796.19
285.826	779.19
286.057	841.19
286.288	792.19
286.52	802.19
286.751	815.19
286.982	824.19
287.213	808.19
287.444	822.19
287.675	823.19
287.906	830.19
288.138	855.19
288.369	836.19
288.6	855.19
288.831	844.19
289.062	842.19
289.293	868.19
289.524	853.19
289.755	865.19
289.986	857.19
290.217	869.19
290.448	868.19
290.679	869.19
290.91	851.19
291.141	835.19
291.371	856.19
291.602	855.19
291.833	854.19
292.064	897.19
292.295	884.19
292.526	883.19
292.757	850.19
292.987	867.19
293.218	860.19
293.449	885.19
293.68	879.19
293.91	873.19
294.141	865.19
294.372	875.19
294.603	881.19
294.833	882.19
295.064	898.19
295.295	891.19
295.525	864.19
295.756	880.19
295.987	868.19
296.217	904.19
296.448	891.19
296.679	901.19
296.909	917.19
297.14	963.19
297.37	929.19
297.601	899.19
297.831	913.19
298.062	932.19
298.292	938.19
298.523	945.19
298.753	964.19
298.984	956.19
299.214	943.19
299.445	936.19
299.675	951.19
299.905	944.19
300.136	956.19
300.366	958.19
300.597	985.19
300.827	947.19
301.057	959.19
301.288	979.19
301.518	974.19
301.748	994.19
301.979	996.19
302.209	987.19
302.439	999.19
302.669	957.19
302.9	959.19
303.13	964.19
303.36	988.19
303.59	998.19
303.82	982.19
304.051	981.19
304.281	1014.19
304.511	979.19
304.741	1000.19
304.971	1017.19
305.201	975.19
305.431	983.19
305.661	1011.19
305.891	971.19
306.121	976.19
306.352	1000.19
306.582	967.19
306.812	979.19
307.042	985.19
307.272	985.19
307.502	960.19
307.731	994.19
307.961	969.19
308.191	965.19
308.421	1011.19
308.651	959.19
308.881	969.19
309.111	965.19
309.341	1010.19
309.571	989.19
309.8	973.19
310.03	966.19
310.26	977.19
310.49	998.19
310.72	1007.19
310.949	985.19
311.179	985.19
311.409	959.19
311.639	1012.19
311.868	1000.19
312.098	987.19
312.328	996.19
312.557	1023.19
312.787	1011.19
313.017	1031.19
313.246	1054.19
313.476	1034.19
313.706	1036.19
313.935	1032.19
314.165	1084.19
314.394	1057.19
314.624	1068.19
314.853	1066.19
315.083	1073.19
315.312	1089.19
315.542	1080.19
315.771	1071.19
316.001	1057.19
316.23	1056.19
316.46	1021.19
316.689	1073.19
316.919	1048.19
317.148	1037.19
317.377	1075.19
317.607	1037.19
317.836	1035.19
318.065	1023.19
318.295	1036.19
318.524	1042.19
318.753	1023.19
318.983	1043.19
319.212	1039.19
319.441	1062.19
319.67	1041.19
319.9	1047.19
320.129	1049.19
320.358	1067.19
320.587	1080.19
320.816	1074.19
321.046	1050.19
321.275	1044.19
321.504	1042.19
321.733	1058.19
321.962	1039.19
322.191	1055.19
322.42	1035.19
322.649	1049.19
322.878	1093.19
323.108	1055.19
323.337	1087.19
323.566	1086.19
323.795	1075.19
324.024	1089.19
324.253	1052.19
324.482	1080.19
324.71	1089.19
324.939	1096.19
325.168	1130.19
325.397	1081.19
325.626	1110.19
325.855	1102.19
326.084	1132.19
326.313	1164.19
326.542	1117.19
326.77	1161.19
326.999	1119.19
327.228	1149.19
327.457	1159.19
327.686	1150.19
327.914	1151.19
328.143	1159.19
328.372	1151.19
328.6	1141.19
328.829	1130.19
329.058	1166.19
329.287	1155.19
329.515	1166.19
329.744	1156.19
329.972	1151.19
330.201	1162.19
330.43	1184.19
330.658	1173.19
330.887	1175.19
331.115	1181.19
331.344	1196.19
331.572	1261.19
331.801	1214.19
332.03	1252.19
332.258	1286.19
332.486	1296.19
332.715	1315.19
332.943	1369.19
333.172	1413.19
333.4	1444.19
333.629	1462.19
333.857	1516.19
334.085	1491.19
334.314	1461.19
334.542	1467.19
334.771	1459.19
334.999	1437.19
335.227	1437.19
335.455	1425.19
335.684	1412.19
335.912	1419.19
336.14	1392.19
336.369	1371.19
336.597	1421.19
336.825	1388.19
337.053	1372.19
337.281	1354.19
337.51	1357.19
337.738	1324.19
337.966	1260.19
338.194	1253.19
338.422	1247.19
338.65	1283.19
338.878	1283.19
339.106	1261.19
339.334	1257.19
339.562	1283.19
339.79	1224.19
340.018	1225.19
340.246	1196.19
340.474	1203.19
340.702	1207.19
340.93	1184.19
341.158	1260.19
341.386	1213.19
341.614	1202.19
341.842	1194.19
342.07	1201.19
342.298	1172.19
342.526	1178.19
342.754	1218.19
342.981	1208.19
343.209	1224.19
343.437	1234.19
343.665	1347.19
343.893	1371.19
344.12	1437.19
344.348	1403.19
344.576	1352.19
344.804	1301.19
345.031	1272.19
345.259	1256.19
345.487	1232.19
345.714	1201.19
345.942	1163.19
346.17	1173.19
346.397	1215.19
346.625	1171.19
346.853	1149.19
347.08	1153.19
347.308	1153.19
347.535	1167.19
347.763	1183.19
347.99	1156.19
348.218	1159.19
348.445	1178.19
348.673	1139.19
348.9	1146.19
349.128	1132.19
349.355	1139.19
349.583	1105.19
349.81	1150.19
350.037	1147.19
350.265	1139.19
350.492	1127.19
350.72	1146.19
350.947	1126.19
351.174	1138.19
351.402	1159.19
351.629	1124.19
351.856	1109.19
352.083	1137.19
352.311	1079.19
352.538	1102.19
352.765	1104.19
352.992	1091.19
353.22	1098.19
353.447	1073.19
353.674	1079.19
353.901	1111.19
354.128	1123.19
354.355	1097.19
354.583	1116.19
354.81	1092.19
355.037	1103.19
355.264	1096.19
355.491	1114.19
355.718	1107.19
355.945	1099.19
356.172	1092.19
356.399	1108.19
356.626	1131.19
356.853	1125.19
357.08	1117.19
357.307	1127.19
357.534	1117.19
357.761	1159.19
357.988	1133.19
358.215	1124.19
358.441	1108.19
358.668	1107.19
358.895	1129.19
359.122	1127.19
359.349	1104.19
359.576	1113.19
359.802	1105.19
360.029	1108.19
360.256	1125.19
360.483	1102.19
360.709	1113.19
360.936	1095.19
361.163	1086.19
361.39	1107.19
361.616	1107.19
361.843	1090.19
362.07	1132.19
362.296	1094.19
362.523	1108.19
362.749	1157.19
362.976	1124.19
363.203	1120.19
363.429	1121.19
363.656	1128.19
363.882	1117.19
364.109	1089.19
364.335	1093.19
364.562	1111.19
364.788	1103.19
365.015	1137.19
365.241	1101.19
365.468	1115.19
365.694	1123.19
365.92	1119.19
366.147	1112.19
366.373	1124.19
366.599	1137.19
366.826	1100.19
367.052	1090.19
367.278	1128.19
367.505	1128.19
367.731	1136.19
367.957	1141.19
368.184	1138.19
368.41	1137.19
368.636	1135.19
368.862	1135.19
369.089	1123.19
369.315	1167.19
369.541	1150.19
369.767	1164.19
369.993	1167.19
370.219	1157.19
370.445	1198.19
370.672	1195.19
370.898	1165.19
371.124	1212.19
371.35	1214.19
371.576	1228.19
371.802	1211.19
372.028	1226.19
372.254	1225.19
372.48	1239.19
372.706	1259.19
372.932	1258.19
373.158	1260.19
373.384	1240.19
373.61	1196.19
373.835	1242.19
374.061	1207.19
374.287	1232.19
374.513	1269.19
374.739	1273.19
374.965	1309.19
375.191	1352.19
375.416	1345.19
375.642	1307.19
375.868	1293.19
376.094	1235.19
376.319	1244.19
376.545	1268.19
376.771	1210.19
376.997	1213.19
377.222	1223.19
377.448	1189.19
377.674	1195.19
377.899	1224.19
378.125	1236.19
378.35	1210.19
378.576	1196.19
378.802	1195.19
379.027	1201.19
379.253	1207.19
379.478	1178.19
379.704	1173.19
379.929	1168.19
380.155	1197.19
380.38	1204.19
380.606	1224.19
380.831	1210.19
381.057	1221.19
381.282	1206.19
381.507	1213.19
381.733	1224.19
381.958	1216.19
382.184	1211.19
382.409	1237.19
382.634	1244.19
382.86	1265.19
383.085	1279.19
383.31	1273.19
383.535	1297.19
383.761	1313.19
383.986	1348.19
384.211	1354.19
384.436	1373.19
384.662	1372.19
384.887	1416.19
385.112	1423.19
385.337	1384.19
385.562	1433.19
385.787	1422.19
386.013	1435.19
386.238	1479.19
386.463	1429.19
386.688	1449.19
386.913	1449.19
387.138	1433.19
387.363	1455.19
387.588	1445.19
387.813	1396.19
388.038	1445.19
388.263	1456.19
388.488	1441.19
388.713	1449.19
388.938	1446.19
389.163	1435.19
389.387	1479.19
389.612	1409.19
389.837	1419.19
390.062	1409.19
390.287	1427.19
390.512	1417.19
390.736	1448.19
390.961	1460.19
391.186	1494.19
391.411	1511.19
391.636	1544.19
391.86	1574.19
392.085	1604.19
392.31	1589.19
392.534	1579.19
392.759	1548.19
392.984	1556.19
393.208	1547.19
393.433	1521.19
393.658	1537.19
393.882	1498.19
394.107	1512.19
394.331	1543.19
394.556	1505.19
394.78	1547.19
395.005	1553.19
395.229	1571.19
395.454	1608.19
395.678	1624.19
395.903	1588.19
396.127	1587.19
396.352	1547.19
396.576	1558.19
396.801	1537.19
397.025	1555.19
397.249	1615.19
397.474	1623.19
397.698	1592.19
397.922	1583.19
398.147	1617.19
398.371	1667.19
398.595	1716.19
398.82	1791.19
399.044	1879.19
399.268	2053.19
399.492	2265.19
399.717	2447.19
399.941	2476.19
400.165	2344.19
400.389	2171.19
400.613	1981.19
400.837	1869.19
401.062	1855.19
401.286	1847.19
401.51	1806.19
401.734	1777.19
401.958	1793.19
402.182	1846.19
402.406	1857.19
402.63	1844.19
402.854	1833.19
403.078	1861.19
403.302	1917.19
403.526	1919.19
403.75	1935.19
403.974	1972.19
404.198	1964.19
404.422	1967.19
404.645	1995.19
404.869	1947.19
405.093	1985.19
405.317	1919.19
405.541	1965.19
405.765	1963.19
405.988	1945.19
406.212	1987.19
406.436	1979.19
406.66	2016.19
406.883	1998.19
407.107	2115.19
407.331	2231.19
407.555	2291.19
407.778	2242.19
408.002	2231.19
408.226	2154.19
408.449	2144.19
408.673	2066.19
408.896	2013.19
409.12	2013.19
409.344	2051.19
409.567	1984.19
409.791	1960.19
410.014	2010.19
410.238	1987.19
410.461	2024.19
410.685	1979.19
410.908	1937.19
411.132	1964.19
411.355	1857.19
411.578	1867.19
411.802	1884.19
412.025	1887.19
412.249	1864.19
412.472	1903.19
412.695	1886.19
412.919	1844.19
413.142	1841.19
413.365	1869.19
413.589	1865.19
413.812	1776.19
414.035	1787.19
414.258	1800.19
414.482	1815.19
414.705	1811.19
414.928	1811.19
415.151	1797.19
415.374	1781.19
415.597	1763.19
415.821	1770.19
416.044	1742.19
416.267	1765.19
416.49	1718.19
416.713	1717.19
416.936	1784.19
417.159	1720.19
417.382	1720.19
417.605	1720.19
417.828	1730.19
418.051	1768.19
418.274	1771.19
418.497	1748.19
418.72	1777.19
418.943	1754.19
419.166	1921.19
419.389	2027.19
419.611	1951.19
419.834	1856.19
420.057	1844.19
420.28	1772.19
420.503	1735.19
420.726	1731.19
420.948	1708.19
421.171	1706.19
421.394	1754.19
421.617	1688.19
421.839	1768.19
422.062	1738.19
422.285	1719.19
422.507	1766.19
422.73	1727.19
422.953	1741.19
423.175	1762.19
423.398	1724.19
423.621	1755.19
423.843	1781.19
424.066	1807.19
424.288	1776.19
424.511	1808.19
424.733	1755.19
424.956	1740.19
425.178	1767.19
425.401	1748.19
425.623	1744.19
425.846	1722.19
426.068	1667.19
426.291	1651.19
426.513	1656.19
426.735	1634.19
426.958	1651.19
427.18	1609.19
427.402	1626.19
427.625	1625.19
427.847	1618.19
428.069	1604.19
428.292	1641.19
428.514	1543.19
428.736	1564.19
428.958	1591.19
429.181	1518.19
429.403	1513.19
429.625	1559.19
429.847	1552.19
430.069	1558.19
430.292	1540.19
430.514	1524.19
430.736	1563.19
430.958	1548.19
431.18	1576.19
431.402	1563.19
431.624	1568.19
431.846	1602.19
432.068	1601.19
432.29	1609.19
432.512	1607.19
432.734	1624.19
432.956	1611.19
433.178	1582.19
433.4	1596.19
433.622	1652.19
433.844	1604.19
434.066	1621.19
434.287	1653.19
434.509	1671.19
434.731	1737.19
434.953	1768.19
435.175	1765.19
435.397	1741.19
435.618	1696.19
435.84	1656.19
436.062	1606.19
436.284	1583.19
436.505	1597.19
436.727	1602.19
436.949	1601.19
437.17	1546.19
437.392	1570.19
437.614	1547.19
437.835	1468.19
438.057	1517.19
438.278	1479.19
438.5	1516.19
438.721	1467.19
438.943	1500.19
439.165	1512.19
439.386	1537.19
439.608	1563.19
439.829	1556.19
440.05	1548.19
440.272	1580.19
440.493	1564.19
440.715	1552.19
440.936	1601.19
441.158	1608.19
441.379	1613.19
441.6	1703.19
441.822	1736.19
442.043	1717.19
442.264	1718.19
442.486	1653.19
442.707	1667.19
442.928	1627.19
443.149	1651.19
443.371	1675.19
443.592	1708.19
443.813	1723.19
444.034	1753.19
444.255	1759.19
444.476	1844.19
444.698	1879.19
444.919	1932.19
445.14	2091.19
445.361	1838.19
445.582	1757.19
445.803	1688.19
446.024	1627.19
446.245	1633.19
446.466	1596.19
446.687	1551.19
446.908	1565.19
447.129	1506.19
447.35	1460.19
447.571	1495.19
447.792	1481.19
448.013	1464.19
448.234	1439.19
448.455	1423.19
448.675	1440.19
448.896	1412.19
449.117	1409.19
449.338	1406.19
449.559	1393.19
449.779	1404.19
450	1385.19
450.221	1403.19
450.442	1411.19
450.662	1399.19
450.883	1378.19
451.104	1455.19
451.324	1413.19
451.545	1419.19
451.766	1446.19
451.986	1381.19
452.207	1367.19
452.428	1391.19
452.648	1384.19
452.869	1379.19
453.089	1361.19
453.31	1384.19
453.53	1356.19
453.751	1354.19
453.971	1296.19
454.192	1382.19
454.412	1329.19
454.633	1321.19
454.853	1314.19
455.073	1320.19
455.294	1317.19
455.514	1307.19
455.734	1327.19
455.955	1304.19
456.175	1315.19
456.395	1296.19
456.616	1307.19
456.836	1350.19
457.056	1322.19
457.276	1269.19
457.497	1349.19
457.717	1328.19
457.937	1316.19
458.157	1347.19
458.377	1340.19
458.598	1417.19
458.818	1451.19
459.038	1420.19
459.258	1517.19
459.478	1527.19
459.698	1571.19
459.918	1596.19
460.138	1612.19
460.358	1747.19
460.578	1759.19
460.798	1776.19
461.018	1795.19
461.238	1792.19
461.458	1768.19
461.678	1773.19
461.898	1798.19
462.118	1853.19
462.338	1905.19
462.558	1931.19
462.777	1995.19
462.997	2137.19
463.217	2259.19
463.437	2255.19
463.657	2100.19
463.876	2034.19
464.096	2076.19
464.316	1987.19
464.536	2035.19
464.755	2007.19
464.975	1892.19
465.195	1801.19
465.414	1721.19
465.634	1628.19
465.854	1617.19
466.073	1573.19
466.293	1539.19
466.512	1555.19
466.732	1483.19
466.951	1490.19
467.171	1481.19
467.391	1511.19
467.61	1465.19
467.829	1469.19
468.049	1437.19
468.268	1402.19
468.488	1415.19
468.707	1422.19
468.927	1429.19
469.146	1439.19
469.365	1428.19
469.585	1420.19
469.804	1447.19
470.023	1505.19
470.243	1488.19
470.462	1525.19
470.681	1515.19
470.901	1529.19
471.12	1521.19
471.339	1475.19
471.558	1474.19
471.777	1460.19
471.997	1448.19
472.216	1432.19
472.435	1403.19
472.654	1410.19
472.873	1411.19
473.092	1406.19
473.311	1409.19
473.53	1385.19
473.749	1401.19
473.968	1405.19
474.187	1383.19
474.406	1370.19
474.625	1402.19
474.844	1393.19
475.063	1403.19
475.282	1424.19
475.501	1411.19
475.72	1429.19
475.939	1446.19
476.158	1475.19
476.377	1491.19
476.596	1452.19
476.814	1469.19
477.033	1483.19
477.252	1545.19
477.471	1549.19
477.69	1578.19
477.908	1596.19
478.127	1685.19
478.346	1687.19
478.564	1706.19
478.783	1716.19
479.002	1762.19
479.22	1806.19
479.439	1786.19
479.658	1755.19
479.876	1814.19
480.095	1815.19
480.313	1850.19
480.532	1857.19
480.751	1905.19
480.969	1841.19
481.188	1816.19
481.406	1770.19
481.624	1746.19
481.843	1741.19
482.061	1723.19
482.28	1692.19
482.498	1693.19
482.717	1712.19
482.935	1725.19
483.153	1721.19
483.372	1736.19
483.59	1744.19
483.808	1774.19
484.027	1754.19
484.245	1764.19
484.463	1780.19
484.681	1817.19
484.9	1859.19
485.118	1875.19
485.336	1884.19
485.554	1893.19
485.772	1899.19
485.99	1899.19
486.209	1859.19
486.427	1876.19
486.645	1867.19
486.863	1905.19
487.081	1885.19
487.299	1849.19
487.517	1877.19
487.735	1850.19
487.953	1845.19
488.171	1827.19
488.389	1839.19
488.607	1803.19
488.825	1812.19
489.043	1792.19
489.261	1795.19
489.479	1762.19
489.696	1773.19
489.914	1759.19
490.132	1752.19
490.35	1807.19
490.568	1756.19
