Data from NiCl2@0.0625M.TitratingCurve.Agarose3%dH2O.NegLispCup.LampEnergy10.LIBS07252019_HRD10591_18-34-30-577.txt Node
Date: Thu Jul 25 18:34:30 EDT 2019
User: cochatt
Spectrometer: HR+D1059
Trigger mode: 1
Integration Time (sec): 1.000000E-1
Scans to average: 1
Electric dark correction enabled: true
Nonlinearity correction enabled: false
Boxcar width: 0
XAxis mode: Wavelengths
Number of Pixels in Spectrum: 2048
>>>>>Begin Spectral Data<<<<<
223.165	-10.06
223.4	-10.06
223.635	-10.06
223.869	-17.06
224.104	-10.06
224.338	-23.06
224.573	-19.06
224.808	-7.06
225.042	-15.06
225.277	-9.06
225.511	-5.06
225.746	8.94
225.98	6.94
226.215	10.94
226.449	9.94
226.683	20.94
226.918	28.94
227.152	28.94
227.387	16.94
227.621	21.94
227.856	30.94
228.09	56.94
228.324	35.94
228.559	59.94
228.793	82.94
229.027	136.94
229.262	151.94
229.496	136.94
229.73	166.94
229.964	159.94
230.199	165.94
230.433	176.94
230.667	162.94
230.901	175.94
231.136	169.94
231.37	170.94
231.604	180.94
231.838	189.94
232.072	196.94
232.306	182.94
232.541	202.94
232.775	191.94
233.009	202.94
233.243	205.94
233.477	199.94
233.711	197.94
233.945	188.94
234.179	197.94
234.413	188.94
234.647	202.94
234.881	197.94
235.115	222.94
235.349	202.94
235.583	218.94
235.817	207.94
236.051	208.94
236.285	202.94
236.519	214.94
236.753	208.94
236.987	221.94
237.221	214.94
237.455	222.94
237.689	227.94
237.922	220.94
238.156	234.94
238.39	236.94
238.624	235.94
238.858	243.94
239.091	231.94
239.325	250.94
239.559	254.94
239.793	236.94
240.027	242.94
240.26	258.94
240.494	250.94
240.728	253.94
240.961	284.94
241.195	268.94
241.429	265.94
241.662	265.94
241.896	282.94
242.13	278.94
242.363	294.94
242.597	278.94
242.83	290.94
243.064	287.94
243.298	311.94
243.531	291.94
243.765	302.94
243.998	308.94
244.232	305.94
244.465	307.94
244.699	322.94
244.932	320.94
245.166	333.94
245.399	328.94
245.633	316.94
245.866	319.94
246.099	332.94
246.333	322.94
246.566	316.94
246.8	336.94
247.033	327.94
247.266	345.94
247.5	354.94
247.733	340.94
247.966	336.94
248.2	337.94
248.433	377.94
248.666	368.94
248.899	376.94
249.133	368.94
249.366	376.94
249.599	355.94
249.832	376.94
250.066	372.94
250.299	397.94
250.532	392.94
250.765	374.94
250.998	382.94
251.231	401.94
251.465	392.94
251.698	390.94
251.931	404.94
252.164	393.94
252.397	415.94
252.63	413.94
252.863	408.94
253.096	406.94
253.329	407.94
253.562	425.94
253.795	417.94
254.028	422.94
254.261	434.94
254.494	423.94
254.727	442.94
254.96	423.94
255.193	417.94
255.426	437.94
255.659	464.94
255.892	452.94
256.124	458.94
256.357	433.94
256.59	451.94
256.823	460.94
257.056	466.94
257.289	461.94
257.521	463.94
257.754	457.94
257.987	479.94
258.22	466.94
258.452	464.94
258.685	475.94
258.918	469.94
259.151	469.94
259.383	476.94
259.616	473.94
259.849	487.94
260.081	521.94
260.314	492.94
260.547	469.94
260.779	508.94
261.012	522.94
261.244	486.94
261.477	509.94
261.71	518.94
261.942	519.94
262.175	514.94
262.407	505.94
262.64	489.94
262.872	522.94
263.105	519.94
263.337	522.94
263.57	555.94
263.802	546.94
264.035	551.94
264.267	530.94
264.499	547.94
264.732	538.94
264.964	530.94
265.197	554.94
265.429	551.94
265.661	550.94
265.894	553.94
266.126	568.94
266.358	568.94
266.591	561.94
266.823	578.94
267.055	580.94
267.287	578.94
267.52	565.94
267.752	562.94
267.984	585.94
268.216	585.94
268.448	605.94
268.681	613.94
268.913	594.94
269.145	600.94
269.377	587.94
269.609	580.94
269.841	614.94
270.073	613.94
270.306	605.94
270.538	607.94
270.77	610.94
271.002	629.94
271.234	646.94
271.466	621.94
271.698	608.94
271.93	614.94
272.162	649.94
272.394	636.94
272.626	640.94
272.858	654.94
273.09	657.94
273.322	633.94
273.553	642.94
273.785	642.94
274.017	660.94
274.249	664.94
274.481	654.94
274.713	640.94
274.945	667.94
275.176	677.94
275.408	672.94
275.64	666.94
275.872	692.94
276.104	684.94
276.335	665.94
276.567	677.94
276.799	677.94
277.031	696.94
277.262	711.94
277.494	670.94
277.726	707.94
277.957	704.94
278.189	687.94
278.421	696.94
278.652	710.94
278.884	734.94
279.115	745.94
279.347	713.94
279.579	717.94
279.81	737.94
280.042	692.94
280.273	706.94
280.505	744.94
280.736	728.94
280.968	726.94
281.199	747.94
281.431	770.94
281.662	750.94
281.894	762.94
282.125	734.94
282.356	769.94
282.588	776.94
282.819	752.94
283.051	788.94
283.282	756.94
283.513	766.94
283.745	788.94
283.976	790.94
284.207	774.94
284.439	777.94
284.67	790.94
284.901	776.94
285.132	780.94
285.364	802.94
285.595	781.94
285.826	788.94
286.057	808.94
286.288	817.94
286.52	816.94
286.751	820.94
286.982	828.94
287.213	845.94
287.444	827.94
287.675	830.94
287.906	815.94
288.138	828.94
288.369	831.94
288.6	846.94
288.831	831.94
289.062	820.94
289.293	840.94
289.524	842.94
289.755	849.94
289.986	858.94
290.217	871.94
290.448	851.94
290.679	869.94
290.91	833.94
291.141	842.94
291.371	856.94
291.602	858.94
291.833	853.94
292.064	845.94
292.295	831.94
292.526	882.94
292.757	875.94
292.987	851.94
293.218	841.94
293.449	876.94
293.68	863.94
293.91	864.94
294.141	865.94
294.372	861.94
294.603	852.94
294.833	870.94
295.064	868.94
295.295	898.94
295.525	866.94
295.756	881.94
295.987	861.94
296.217	884.94
296.448	870.94
296.679	889.94
296.909	904.94
297.14	865.94
297.37	886.94
297.601	912.94
297.831	934.94
298.062	961.94
298.292	921.94
298.523	944.94
298.753	974.94
298.984	913.94
299.214	930.94
299.445	906.94
299.675	904.94
299.905	929.94
300.136	912.94
300.366	937.94
300.597	977.94
300.827	960.94
301.057	995.94
301.288	985.94
301.518	974.94
301.748	983.94
301.979	1004.94
302.209	990.94
302.439	1005.94
302.669	988.94
302.9	985.94
303.13	975.94
303.36	1028.94
303.59	997.94
303.82	965.94
304.051	954.94
304.281	1014.94
304.511	986.94
304.741	966.94
304.971	989.94
305.201	950.94
305.431	963.94
305.661	972.94
305.891	970.94
306.121	979.94
306.352	983.94
306.582	962.94
306.812	961.94
307.042	960.94
307.272	943.94
307.502	950.94
307.731	941.94
307.961	970.94
308.191	964.94
308.421	970.94
308.651	948.94
308.881	938.94
309.111	961.94
309.341	979.94
309.571	993.94
309.8	932.94
310.03	960.94
310.26	947.94
310.49	960.94
310.72	974.94
310.949	990.94
311.179	977.94
311.409	974.94
311.639	990.94
311.868	984.94
312.098	1023.94
312.328	1021.94
312.557	1023.94
312.787	1011.94
313.017	1037.94
313.246	1032.94
313.476	1000.94
313.706	1031.94
313.935	1043.94
314.165	1052.94
314.394	1042.94
314.624	1067.94
314.853	1041.94
315.083	1040.94
315.312	1054.94
315.542	1027.94
315.771	1034.94
316.001	1017.94
316.23	1040.94
316.46	1008.94
316.689	1045.94
316.919	1038.94
317.148	1033.94
317.377	1032.94
317.607	1016.94
317.836	1040.94
318.065	996.94
318.295	1009.94
318.524	1039.94
318.753	1013.94
318.983	1026.94
319.212	978.94
319.441	1023.94
319.67	1019.94
319.9	1039.94
320.129	1034.94
320.358	1026.94
320.587	1034.94
320.816	1026.94
321.046	1057.94
321.275	1048.94
321.504	1043.94
321.733	1061.94
321.962	1052.94
322.191	1013.94
322.42	1023.94
322.649	1032.94
322.878	1053.94
323.108	1009.94
323.337	1067.94
323.566	1078.94
323.795	1060.94
324.024	1047.94
324.253	1040.94
324.482	1091.94
324.71	1054.94
324.939	1063.94
325.168	1105.94
325.397	1088.94
325.626	1066.94
325.855	1112.94
326.084	1139.94
326.313	1103.94
326.542	1141.94
326.77	1146.94
326.999	1114.94
327.228	1134.94
327.457	1125.94
327.686	1097.94
327.914	1106.94
328.143	1125.94
328.372	1143.94
328.6	1145.94
328.829	1124.94
329.058	1138.94
329.287	1129.94
329.515	1142.94
329.744	1125.94
329.972	1176.94
330.201	1149.94
330.43	1170.94
330.658	1169.94
330.887	1166.94
331.115	1170.94
331.344	1200.94
331.572	1226.94
331.801	1214.94
332.03	1253.94
332.258	1254.94
332.486	1291.94
332.715	1316.94
332.943	1349.94
333.172	1378.94
333.4	1422.94
333.629	1472.94
333.857	1495.94
334.085	1473.94
334.314	1492.94
334.542	1447.94
334.771	1484.94
334.999	1410.94
335.227	1404.94
335.455	1414.94
335.684	1410.94
335.912	1409.94
336.14	1370.94
336.369	1366.94
336.597	1367.94
336.825	1384.94
337.053	1329.94
337.281	1299.94
337.51	1332.94
337.738	1317.94
337.966	1303.94
338.194	1257.94
338.422	1254.94
338.65	1254.94
338.878	1252.94
339.106	1254.94
339.334	1245.94
339.562	1246.94
339.79	1207.94
340.018	1191.94
340.246	1187.94
340.474	1187.94
340.702	1200.94
340.93	1206.94
341.158	1194.94
341.386	1226.94
341.614	1187.94
341.842	1193.94
342.07	1171.94
342.298	1178.94
342.526	1163.94
342.754	1182.94
342.981	1180.94
343.209	1214.94
343.437	1273.94
343.665	1285.94
343.893	1374.94
344.12	1468.94
344.348	1391.94
344.576	1317.94
344.804	1292.94
345.031	1233.94
345.259	1226.94
345.487	1201.94
345.714	1182.94
345.942	1158.94
346.17	1174.94
346.397	1138.94
346.625	1150.94
346.853	1153.94
347.08	1140.94
347.308	1113.94
347.535	1140.94
347.763	1122.94
347.99	1132.94
348.218	1119.94
348.445	1126.94
348.673	1113.94
348.9	1124.94
349.128	1144.94
349.355	1095.94
349.583	1117.94
349.81	1095.94
350.037	1108.94
350.265	1106.94
350.492	1103.94
350.72	1102.94
350.947	1104.94
351.174	1094.94
351.402	1107.94
351.629	1074.94
351.856	1089.94
352.083	1090.94
352.311	1106.94
352.538	1064.94
352.765	1079.94
352.992	1076.94
353.22	1096.94
353.447	1055.94
353.674	1072.94
353.901	1079.94
354.128	1078.94
354.355	1056.94
354.583	1081.94
354.81	1102.94
355.037	1093.94
355.264	1074.94
355.491	1086.94
355.718	1097.94
355.945	1117.94
356.172	1101.94
356.399	1080.94
356.626	1089.94
356.853	1150.94
357.08	1133.94
357.307	1115.94
357.534	1108.94
357.761	1067.94
357.988	1118.94
358.215	1097.94
358.441	1084.94
358.668	1119.94
358.895	1069.94
359.122	1087.94
359.349	1096.94
359.576	1089.94
359.802	1126.94
360.029	1079.94
360.256	1089.94
360.483	1113.94
360.709	1088.94
360.936	1079.94
361.163	1100.94
361.39	1073.94
361.616	1102.94
361.843	1105.94
362.07	1079.94
362.296	1091.94
362.523	1075.94
362.749	1082.94
362.976	1126.94
363.203	1086.94
363.429	1077.94
363.656	1081.94
363.882	1102.94
364.109	1084.94
364.335	1086.94
364.562	1121.94
364.788	1105.94
365.015	1088.94
365.241	1118.94
365.468	1102.94
365.694	1088.94
365.92	1099.94
366.147	1097.94
366.373	1108.94
366.599	1080.94
366.826	1094.94
367.052	1095.94
367.278	1138.94
367.505	1116.94
367.731	1103.94
367.957	1080.94
368.184	1102.94
368.41	1126.94
368.636	1115.94
368.862	1133.94
369.089	1124.94
369.315	1097.94
369.541	1124.94
369.767	1133.94
369.993	1150.94
370.219	1137.94
370.445	1143.94
370.672	1187.94
370.898	1161.94
371.124	1160.94
371.35	1237.94
371.576	1193.94
371.802	1191.94
372.028	1200.94
372.254	1177.94
372.48	1213.94
372.706	1220.94
372.932	1253.94
373.158	1234.94
373.384	1217.94
373.61	1196.94
373.835	1208.94
374.061	1214.94
374.287	1221.94
374.513	1229.94
374.739	1237.94
374.965	1244.94
375.191	1309.94
375.416	1312.94
375.642	1303.94
375.868	1266.94
376.094	1237.94
376.319	1218.94
376.545	1239.94
376.771	1235.94
376.997	1205.94
377.222	1188.94
377.448	1191.94
377.674	1208.94
377.899	1206.94
378.125	1171.94
378.35	1184.94
378.576	1164.94
378.802	1127.94
379.027	1173.94
379.253	1163.94
379.478	1174.94
379.704	1162.94
379.929	1170.94
380.155	1162.94
380.38	1188.94
380.606	1220.94
380.831	1200.94
381.057	1207.94
381.282	1173.94
381.507	1189.94
381.733	1215.94
381.958	1173.94
382.184	1220.94
382.409	1249.94
382.634	1246.94
382.86	1258.94
383.085	1264.94
383.31	1243.94
383.535	1289.94
383.761	1306.94
383.986	1305.94
384.211	1349.94
384.436	1378.94
384.662	1376.94
384.887	1348.94
385.112	1409.94
385.337	1376.94
385.562	1422.94
385.787	1430.94
386.013	1408.94
386.238	1412.94
386.463	1427.94
386.688	1448.94
386.913	1406.94
387.138	1429.94
387.363	1398.94
387.588	1407.94
387.813	1445.94
388.038	1399.94
388.263	1415.94
388.488	1428.94
388.713	1435.94
388.938	1433.94
389.163	1413.94
389.387	1439.94
389.612	1391.94
389.837	1396.94
390.062	1418.94
390.287	1423.94
390.512	1386.94
390.736	1392.94
390.961	1458.94
391.186	1463.94
391.411	1527.94
391.636	1516.94
391.86	1558.94
392.085	1574.94
392.31	1575.94
392.534	1540.94
392.759	1537.94
392.984	1525.94
393.208	1496.94
393.433	1505.94
393.658	1504.94
393.882	1495.94
394.107	1508.94
394.331	1525.94
394.556	1504.94
394.78	1520.94
395.005	1559.94
395.229	1514.94
395.454	1569.94
395.678	1618.94
395.903	1618.94
396.127	1569.94
396.352	1549.94
396.576	1572.94
396.801	1507.94
397.025	1552.94
397.249	1574.94
397.474	1609.94
397.698	1617.94
397.922	1630.94
398.147	1615.94
398.371	1683.94
398.595	1715.94
398.82	1760.94
399.044	1872.94
399.268	2048.94
399.492	2321.94
399.717	2528.94
399.941	2546.94
400.165	2374.94
400.389	2174.94
400.613	2066.94
400.837	1884.94
401.062	1852.94
401.286	1838.94
401.51	1813.94
401.734	1780.94
401.958	1738.94
402.182	1799.94
402.406	1842.94
402.63	1826.94
402.854	1832.94
403.078	1910.94
403.302	1914.94
403.526	1948.94
403.75	1946.94
403.974	1998.94
404.198	1970.94
404.422	1997.94
404.645	2007.94
404.869	1947.94
405.093	1994.94
405.317	1902.94
405.541	1965.94
405.765	1929.94
405.988	1950.94
406.212	1897.94
406.436	1922.94
406.66	1996.94
406.883	2038.94
407.107	2123.94
407.331	2215.94
407.555	2286.94
407.778	2254.94
408.002	2213.94
408.226	2174.94
408.449	2131.94
408.673	2057.94
408.896	1990.94
409.12	1986.94
409.344	2004.94
409.567	2004.94
409.791	2015.94
410.014	1979.94
410.238	1985.94
410.461	1942.94
410.685	1953.94
410.908	1973.94
411.132	1899.94
411.355	1839.94
411.578	1842.94
411.802	1869.94
412.025	1865.94
412.249	1882.94
412.472	1880.94
412.695	1848.94
412.919	1823.94
413.142	1805.94
413.365	1778.94
413.589	1816.94
413.812	1797.94
414.035	1788.94
414.258	1753.94
414.482	1760.94
414.705	1791.94
414.928	1816.94
415.151	1770.94
415.374	1782.94
415.597	1775.94
415.821	1724.94
416.044	1756.94
416.267	1755.94
416.49	1701.94
416.713	1730.94
416.936	1758.94
417.159	1677.94
417.382	1677.94
417.605	1689.94
417.828	1729.94
418.051	1727.94
418.274	1723.94
418.497	1720.94
418.72	1742.94
418.943	1732.94
419.166	1872.94
419.389	2020.94
419.611	1976.94
419.834	1879.94
420.057	1824.94
420.28	1793.94
420.503	1701.94
420.726	1719.94
420.948	1690.94
421.171	1717.94
421.394	1730.94
421.617	1668.94
421.839	1766.94
422.062	1704.94
422.285	1680.94
422.507	1750.94
422.73	1738.94
422.953	1751.94
423.175	1780.94
423.398	1767.94
423.621	1746.94
423.843	1794.94
424.066	1798.94
424.288	1784.94
424.511	1772.94
424.733	1763.94
424.956	1753.94
425.178	1724.94
425.401	1754.94
425.623	1738.94
425.846	1686.94
426.068	1693.94
426.291	1689.94
426.513	1660.94
426.735	1634.94
426.958	1616.94
427.18	1618.94
427.402	1582.94
427.625	1598.94
427.847	1575.94
428.069	1554.94
428.292	1568.94
428.514	1568.94
428.736	1563.94
428.958	1550.94
429.181	1542.94
429.403	1535.94
429.625	1542.94
429.847	1516.94
430.069	1506.94
430.292	1531.94
430.514	1525.94
430.736	1496.94
430.958	1570.94
431.18	1571.94
431.402	1543.94
431.624	1496.94
431.846	1552.94
432.068	1586.94
432.29	1600.94
432.512	1578.94
432.734	1611.94
432.956	1543.94
433.178	1557.94
433.4	1581.94
433.622	1589.94
433.844	1586.94
434.066	1665.94
434.287	1650.94
434.509	1667.94
434.731	1682.94
434.953	1744.94
435.175	1749.94
435.397	1735.94
435.618	1657.94
435.84	1592.94
436.062	1591.94
436.284	1559.94
436.505	1532.94
436.727	1565.94
436.949	1548.94
437.17	1591.94
437.392	1540.94
437.614	1508.94
437.835	1508.94
438.057	1530.94
438.278	1514.94
438.5	1461.94
438.721	1488.94
438.943	1500.94
439.165	1496.94
439.386	1508.94
439.608	1552.94
439.829	1504.94
440.05	1569.94
440.272	1554.94
440.493	1541.94
440.715	1569.94
440.936	1597.94
441.158	1607.94
441.379	1622.94
441.6	1692.94
441.822	1706.94
442.043	1680.94
442.264	1732.94
442.486	1695.94
442.707	1676.94
442.928	1668.94
443.149	1658.94
443.371	1674.94
443.592	1663.94
443.813	1712.94
444.034	1735.94
444.255	1773.94
444.476	1833.94
444.698	1917.94
444.919	1952.94
445.14	2056.94
445.361	1875.94
445.582	1712.94
445.803	1688.94
446.024	1622.94
446.245	1603.94
446.466	1610.94
446.687	1555.94
446.908	1560.94
447.129	1492.94
447.35	1478.94
447.571	1474.94
447.792	1479.94
448.013	1493.94
448.234	1397.94
448.455	1397.94
448.675	1402.94
448.896	1423.94
449.117	1390.94
449.338	1389.94
449.559	1361.94
449.779	1396.94
450	1376.94
450.221	1389.94
450.442	1356.94
450.662	1363.94
450.883	1390.94
451.104	1404.94
451.324	1402.94
451.545	1404.94
451.766	1437.94
451.986	1402.94
452.207	1373.94
452.428	1391.94
452.648	1376.94
452.869	1372.94
453.089	1335.94
453.31	1358.94
453.53	1391.94
453.751	1316.94
453.971	1327.94
454.192	1326.94
454.412	1320.94
454.633	1321.94
454.853	1300.94
455.073	1314.94
455.294	1332.94
455.514	1290.94
455.734	1286.94
455.955	1276.94
456.175	1322.94
456.395	1286.94
456.616	1294.94
456.836	1294.94
457.056	1300.94
457.276	1297.94
457.497	1340.94
457.717	1294.94
457.937	1332.94
458.157	1350.94
458.377	1327.94
458.598	1396.94
458.818	1412.94
459.038	1456.94
459.258	1453.94
459.478	1543.94
459.698	1578.94
459.918	1622.94
460.138	1670.94
460.358	1744.94
460.578	1766.94
460.798	1778.94
461.018	1785.94
461.238	1811.94
461.458	1773.94
461.678	1758.94
461.898	1805.94
462.118	1770.94
462.338	1906.94
462.558	1938.94
462.777	1991.94
462.997	2172.94
463.217	2284.94
463.437	2299.94
463.657	2149.94
463.876	2020.94
464.096	2028.94
464.316	2071.94
464.536	2023.94
464.755	1954.94
464.975	1924.94
465.195	1805.94
465.414	1740.94
465.634	1683.94
465.854	1626.94
466.073	1568.94
466.293	1550.94
466.512	1494.94
466.732	1472.94
466.951	1488.94
467.171	1473.94
467.391	1442.94
467.61	1445.94
467.829	1454.94
468.049	1418.94
468.268	1400.94
468.488	1402.94
468.707	1433.94
468.927	1407.94
469.146	1392.94
469.365	1397.94
469.585	1425.94
469.804	1486.94
470.023	1473.94
470.243	1490.94
470.462	1498.94
470.681	1488.94
470.901	1496.94
471.12	1519.94
471.339	1455.94
471.558	1443.94
471.777	1423.94
471.997	1424.94
472.216	1425.94
472.435	1428.94
472.654	1385.94
472.873	1377.94
473.092	1377.94
473.311	1384.94
473.53	1412.94
473.749	1390.94
473.968	1358.94
474.187	1375.94
474.406	1351.94
474.625	1382.94
474.844	1345.94
475.063	1405.94
475.282	1398.94
475.501	1389.94
475.72	1382.94
475.939	1424.94
476.158	1425.94
476.377	1496.94
476.596	1436.94
476.814	1463.94
477.033	1484.94
477.252	1486.94
477.471	1540.94
477.69	1562.94
477.908	1567.94
478.127	1615.94
478.346	1664.94
478.564	1675.94
478.783	1708.94
479.002	1742.94
479.22	1715.94
479.439	1702.94
479.658	1724.94
479.876	1725.94
480.095	1785.94
480.313	1808.94
480.532	1866.94
480.751	1843.94
480.969	1823.94
481.188	1801.94
481.406	1734.94
481.624	1692.94
481.843	1682.94
482.061	1671.94
482.28	1682.94
482.498	1666.94
482.717	1644.94
482.935	1649.94
483.153	1660.94
483.372	1687.94
483.59	1704.94
483.808	1677.94
484.027	1706.94
484.245	1746.94
484.463	1784.94
484.681	1767.94
484.9	1782.94
485.118	1784.94
485.336	1811.94
485.554	1838.94
485.772	1822.94
485.99	1841.94
486.209	1857.94
486.427	1847.94
486.645	1804.94
486.863	1806.94
487.081	1805.94
487.299	1827.94
487.517	1790.94
487.735	1810.94
487.953	1814.94
488.171	1813.94
488.389	1781.94
488.607	1774.94
488.825	1765.94
489.043	1721.94
489.261	1709.94
489.479	1772.94
489.696	1728.94
489.914	1750.94
490.132	1742.94
490.35	1748.94
490.568	1728.94
