Data from NiCl2@0.25M.TitratingCurve.Agarose3%dH2O.NegLispCup.LampEnergy10.LIBS07252019_HRD10591_18-23-53-572.txt Node
Date: Thu Jul 25 18:23:53 EDT 2019
User: cochatt
Spectrometer: HR+D1059
Trigger mode: 1
Integration Time (sec): 1.000000E-1
Scans to average: 1
Electric dark correction enabled: true
Nonlinearity correction enabled: false
Boxcar width: 0
XAxis mode: Wavelengths
Number of Pixels in Spectrum: 2048
>>>>>Begin Spectral Data<<<<<
223.165	-26
223.4	-26
223.635	-26
223.869	-24
224.104	-19
224.338	-12
224.573	-5
224.808	-2
225.042	8
225.277	-12
225.511	-3
225.746	8
225.98	3
226.215	12
226.449	21
226.683	15
226.918	16
227.152	20
227.387	42
227.621	30
227.856	58
228.09	41
228.324	51
228.559	48
228.793	73
229.027	99
229.262	109
229.496	101
229.73	104
229.964	118
230.199	109
230.433	124
230.667	129
230.901	115
231.136	121
231.37	121
231.604	123
231.838	142
232.072	137
232.306	147
232.541	137
232.775	128
233.009	138
233.243	149
233.477	141
233.711	150
233.945	142
234.179	135
234.413	125
234.647	142
234.881	138
235.115	153
235.349	157
235.583	147
235.817	141
236.051	129
236.285	142
236.519	153
236.753	149
236.987	149
237.221	158
237.455	144
237.689	157
237.922	148
238.156	146
238.39	151
238.624	147
238.858	150
239.091	144
239.325	153
239.559	157
239.793	170
240.027	162
240.26	161
240.494	174
240.728	162
240.961	161
241.195	166
241.429	171
241.662	176
241.896	166
242.13	181
242.363	172
242.597	183
242.83	180
243.064	189
243.298	170
243.531	188
243.765	183
243.998	197
244.232	187
244.465	187
244.699	182
244.932	198
245.166	181
245.399	191
245.633	191
245.866	197
246.099	190
246.333	190
246.566	186
246.8	197
247.033	198
247.266	186
247.5	218
247.733	228
247.966	216
248.2	217
248.433	212
248.666	201
248.899	200
249.133	219
249.366	210
249.599	234
249.832	216
250.066	204
250.299	211
250.532	218
250.765	222
250.998	202
251.231	233
251.465	219
251.698	222
251.931	223
252.164	243
252.397	234
252.63	255
252.863	257
253.096	223
253.329	232
253.562	230
253.795	235
254.028	265
254.261	261
254.494	252
254.727	247
254.96	235
255.193	223
255.426	274
255.659	253
255.892	235
256.124	246
256.357	261
256.59	223
256.823	247
257.056	243
257.289	255
257.521	266
257.754	265
257.987	249
258.22	256
258.452	265
258.685	272
258.918	273
259.151	262
259.383	238
259.616	265
259.849	271
260.081	276
260.314	259
260.547	278
260.779	269
261.012	294
261.244	275
261.477	278
261.71	274
261.942	285
262.175	285
262.407	279
262.64	283
262.872	284
263.105	290
263.337	292
263.57	295
263.802	299
264.035	285
264.267	282
264.499	289
264.732	301
264.964	291
265.197	303
265.429	295
265.661	307
265.894	307
266.126	324
266.358	303
266.591	300
266.823	300
267.055	306
267.287	339
267.52	302
267.752	307
267.984	325
268.216	329
268.448	319
268.681	314
268.913	291
269.145	315
269.377	323
269.609	317
269.841	309
270.073	305
270.306	333
270.538	330
270.77	320
271.002	330
271.234	313
271.466	332
271.698	350
271.93	345
272.162	344
272.394	346
272.626	335
272.858	321
273.09	329
273.322	331
273.553	341
273.785	341
274.017	347
274.249	343
274.481	355
274.713	350
274.945	337
275.176	369
275.408	336
275.64	371
275.872	339
276.104	345
276.335	359
276.567	346
276.799	353
277.031	375
277.262	349
277.494	350
277.726	376
277.957	373
278.189	363
278.421	379
278.652	379
278.884	400
279.115	373
279.347	375
279.579	374
279.81	379
280.042	378
280.273	382
280.505	389
280.736	383
280.968	376
281.199	380
281.431	394
281.662	409
281.894	403
282.125	396
282.356	399
282.588	421
282.819	399
283.051	399
283.282	403
283.513	422
283.745	396
283.976	430
284.207	405
284.439	413
284.67	399
284.901	421
285.132	434
285.364	414
285.595	437
285.826	424
286.057	445
286.288	423
286.52	435
286.751	431
286.982	446
287.213	415
287.444	440
287.675	436
287.906	420
288.138	428
288.369	447
288.6	456
288.831	437
289.062	449
289.293	427
289.524	426
289.755	454
289.986	417
290.217	452
290.448	461
290.679	453
290.91	461
291.141	446
291.371	467
291.602	445
291.833	436
292.064	449
292.295	459
292.526	466
292.757	451
292.987	449
293.218	450
293.449	447
293.68	439
293.91	487
294.141	469
294.372	458
294.603	458
294.833	467
295.064	458
295.295	463
295.525	474
295.756	437
295.987	460
296.217	445
296.448	464
296.679	478
296.909	469
297.14	462
297.37	479
297.601	489
297.831	474
298.062	505
298.292	499
298.523	517
298.753	487
298.984	480
299.214	493
299.445	484
299.675	492
299.905	478
300.136	485
300.366	493
300.597	511
300.827	502
301.057	501
301.288	505
301.518	531
301.748	515
301.979	529
302.209	518
302.439	527
302.669	511
302.9	514
303.13	539
303.36	515
303.59	503
303.82	509
304.051	493
304.281	506
304.511	505
304.741	516
304.971	505
305.201	506
305.431	506
305.661	502
305.891	495
306.121	493
306.352	493
306.582	485
306.812	501
307.042	505
307.272	494
307.502	497
307.731	488
307.961	505
308.191	489
308.421	481
308.651	504
308.881	497
309.111	489
309.341	497
309.571	502
309.8	482
310.03	514
310.26	500
310.49	510
310.72	512
310.949	501
311.179	497
311.409	505
311.639	514
311.868	503
312.098	522
312.328	534
312.557	527
312.787	533
313.017	535
313.246	532
313.476	546
313.706	562
313.935	564
314.165	558
314.394	576
314.624	567
314.853	549
315.083	556
315.312	548
315.542	550
315.771	538
316.001	528
316.23	535
316.46	536
316.689	525
316.919	540
317.148	546
317.377	521
317.607	540
317.836	512
318.065	533
318.295	531
318.524	532
318.753	544
318.983	542
319.212	520
319.441	525
319.67	541
319.9	539
320.129	532
320.358	532
320.587	542
320.816	531
321.046	534
321.275	546
321.504	526
321.733	545
321.962	547
322.191	529
322.42	536
322.649	523
322.878	549
323.108	552
323.337	546
323.566	535
323.795	548
324.024	567
324.253	553
324.482	543
324.71	571
324.939	550
325.168	571
325.397	577
325.626	554
325.855	571
326.084	559
326.313	575
326.542	587
326.77	599
326.999	599
327.228	557
327.457	584
327.686	581
327.914	561
328.143	557
328.372	580
328.6	580
328.829	601
329.058	585
329.287	594
329.515	595
329.744	599
329.972	588
330.201	622
330.43	602
330.658	598
330.887	603
331.115	604
331.344	632
331.572	605
331.801	633
332.03	668
332.258	664
332.486	660
332.715	707
332.943	717
333.172	725
333.4	779
333.629	796
333.857	781
334.085	778
334.314	777
334.542	755
334.771	754
334.999	763
335.227	716
335.455	748
335.684	723
335.912	698
336.14	711
336.369	717
336.597	723
336.825	705
337.053	740
337.281	694
337.51	683
337.738	684
337.966	660
338.194	657
338.422	652
338.65	632
338.878	641
339.106	634
339.334	660
339.562	634
339.79	621
340.018	615
340.246	606
340.474	618
340.702	612
340.93	615
341.158	641
341.386	628
341.614	618
341.842	612
342.07	612
342.298	614
342.526	623
342.754	600
342.981	615
343.209	634
343.437	659
343.665	707
343.893	733
344.12	749
344.348	738
344.576	706
344.804	663
345.031	641
345.259	611
345.487	613
345.714	609
345.942	600
346.17	611
346.397	594
346.625	590
346.853	597
347.08	601
347.308	576
347.535	597
347.763	592
347.99	572
348.218	588
348.445	568
348.673	585
348.9	565
349.128	597
349.355	574
349.583	579
349.81	573
350.037	581
350.265	559
350.492	594
350.72	581
350.947	554
351.174	563
351.402	561
351.629	572
351.856	563
352.083	572
352.311	559
352.538	570
352.765	577
352.992	567
353.22	581
353.447	583
353.674	546
353.901	568
354.128	566
354.355	565
354.583	585
354.81	558
355.037	562
355.264	559
355.491	589
355.718	565
355.945	568
356.172	595
356.399	541
356.626	571
356.853	579
357.08	567
357.307	565
357.534	579
357.761	583
357.988	558
358.215	593
358.441	583
358.668	565
358.895	580
359.122	556
359.349	589
359.576	578
359.802	571
360.029	571
360.256	559
360.483	554
360.709	577
360.936	587
361.163	578
361.39	555
361.616	590
361.843	595
362.07	589
362.296	586
362.523	582
362.749	573
362.976	581
363.203	572
363.429	550
363.656	569
363.882	571
364.109	578
364.335	566
364.562	545
364.788	553
365.015	566
365.241	581
365.468	552
365.694	583
365.92	578
366.147	555
366.373	566
366.599	577
366.826	569
367.052	580
367.278	555
367.505	585
367.731	563
367.957	564
368.184	547
368.41	569
368.636	575
368.862	581
369.089	551
369.315	586
369.541	590
369.767	591
369.993	586
370.219	583
370.445	593
370.672	606
370.898	581
371.124	612
371.35	643
371.576	625
371.802	597
372.028	605
372.254	622
372.48	610
372.706	628
372.932	646
373.158	676
373.384	633
373.61	621
373.835	623
374.061	636
374.287	663
374.513	673
374.739	690
374.965	658
375.191	693
375.416	693
375.642	645
375.868	656
376.094	656
376.319	633
376.545	617
376.771	643
376.997	603
377.222	630
377.448	621
377.674	614
377.899	596
378.125	628
378.35	614
378.576	601
378.802	597
379.027	619
379.253	608
379.478	610
379.704	622
379.929	610
380.155	625
380.38	629
380.606	620
380.831	625
381.057	637
381.282	620
381.507	621
381.733	634
381.958	603
382.184	633
382.409	630
382.634	663
382.86	690
383.085	686
383.31	691
383.535	673
383.761	689
383.986	723
384.211	713
384.436	696
384.662	737
384.887	730
385.112	754
385.337	728
385.562	749
385.787	738
386.013	785
386.238	763
386.463	781
386.688	756
386.913	736
387.138	751
387.363	740
387.588	753
387.813	746
388.038	731
388.263	744
388.488	758
388.713	719
388.938	732
389.163	700
389.387	734
389.612	742
389.837	732
390.062	717
390.287	716
390.512	748
390.736	731
390.961	773
391.186	799
391.411	808
391.636	812
391.86	846
392.085	839
392.31	838
392.534	809
392.759	821
392.984	790
393.208	798
393.433	775
393.658	802
393.882	793
394.107	792
394.331	799
394.556	812
394.78	790
395.005	806
395.229	783
395.454	847
395.678	845
395.903	844
396.127	801
396.352	812
396.576	803
396.801	791
397.025	804
397.249	821
397.474	845
397.698	876
397.922	855
398.147	845
398.371	858
398.595	898
398.82	947
399.044	1016
399.268	1133
399.492	1284
399.717	1461
399.941	1405
400.165	1262
400.389	1143
400.613	1047
400.837	974
401.062	995
401.286	945
401.51	954
401.734	923
401.958	970
402.182	959
402.406	968
402.63	988
402.854	997
403.078	1014
403.302	1037
403.526	1073
403.75	1052
403.974	1118
404.198	1091
404.422	1116
404.645	1105
404.869	1051
405.093	1061
405.317	1029
405.541	1041
405.765	1061
405.988	1045
406.212	1037
406.436	1013
406.66	1091
406.883	1093
407.107	1160
407.331	1198
407.555	1218
407.778	1190
408.002	1175
408.226	1140
408.449	1143
408.673	1107
408.896	1077
409.12	1060
409.344	1073
409.567	1045
409.791	1066
410.014	1034
410.238	1037
410.461	1003
410.685	1007
410.908	1005
411.132	988
411.355	954
411.578	969
411.802	977
412.025	999
412.249	1022
412.472	1015
412.695	982
412.919	954
413.142	938
413.365	931
413.589	950
413.812	923
414.035	918
414.258	919
414.482	933
414.705	970
414.928	970
415.151	930
415.374	925
415.597	953
415.821	932
416.044	915
416.267	895
416.49	909
416.713	920
416.936	947
417.159	928
417.382	937
417.605	909
417.828	934
418.051	937
418.274	948
418.497	976
418.72	972
418.943	948
419.166	1019
419.389	1089
419.611	1081
419.834	985
420.057	1018
420.28	958
420.503	957
420.726	909
420.948	925
421.171	919
421.394	935
421.617	933
421.839	926
422.062	924
422.285	934
422.507	950
422.73	963
422.953	926
423.175	963
423.398	977
423.621	993
423.843	1001
424.066	978
424.288	983
424.511	978
424.733	985
424.956	939
425.178	935
425.401	952
425.623	915
425.846	905
426.068	907
426.291	889
426.513	896
426.735	885
426.958	876
427.18	840
427.402	835
427.625	845
427.847	834
428.069	799
428.292	854
428.514	809
428.736	812
428.958	819
429.181	802
429.403	807
429.625	809
429.847	811
430.069	794
430.292	797
430.514	801
430.736	820
430.958	807
431.18	787
431.402	791
431.624	812
431.846	818
432.068	835
432.29	841
432.512	837
432.734	814
432.956	793
433.178	821
433.4	821
433.622	852
433.844	850
434.066	838
434.287	870
434.509	858
434.731	909
434.953	921
435.175	950
435.397	922
435.618	893
435.84	836
436.062	813
436.284	814
436.505	812
436.727	841
436.949	809
437.17	829
437.392	791
437.614	826
437.835	773
438.057	800
438.278	772
438.5	778
438.721	773
438.943	811
439.165	793
439.386	794
439.608	771
439.829	821
440.05	842
440.272	853
440.493	815
440.715	831
440.936	876
441.158	866
441.379	890
441.6	889
441.822	960
442.043	943
442.264	906
442.486	893
442.707	903
442.928	904
443.149	893
443.371	895
443.592	922
443.813	938
444.034	916
444.255	967
444.476	996
444.698	1081
444.919	1104
445.14	1158
445.361	1053
445.582	966
445.803	921
446.024	874
446.245	871
446.466	833
446.687	816
446.908	813
447.129	794
447.35	803
447.571	790
447.792	773
448.013	791
448.234	769
448.455	747
448.675	737
448.896	731
449.117	717
449.338	737
449.559	753
449.779	750
450	735
450.221	736
450.442	748
450.662	764
450.883	756
451.104	772
451.324	770
451.545	772
451.766	735
451.986	746
452.207	763
452.428	741
452.648	733
452.869	741
453.089	739
453.31	751
453.53	741
453.751	728
453.971	701
454.192	715
454.412	704
454.633	711
454.853	715
455.073	698
455.294	693
455.514	680
455.734	717
455.955	695
456.175	681
456.395	683
456.616	717
456.836	707
457.056	711
457.276	697
457.497	707
457.717	673
457.937	705
458.157	712
458.377	714
458.598	761
458.818	761
459.038	773
459.258	795
459.478	853
459.698	857
459.918	896
460.138	933
460.358	1001
460.578	965
460.798	983
461.018	986
461.238	964
461.458	952
461.678	948
461.898	958
462.118	1014
462.338	1040
462.558	1053
462.777	1095
462.997	1206
463.217	1299
463.437	1306
463.657	1196
463.876	1154
464.096	1132
464.316	1121
464.536	1160
464.755	1091
464.975	1052
465.195	1003
465.414	954
465.634	869
465.854	844
466.073	833
466.293	849
466.512	798
466.732	783
466.951	782
467.171	782
467.391	807
467.61	789
467.829	781
468.049	789
468.268	764
468.488	728
468.707	750
468.927	738
469.146	729
469.365	755
469.585	787
469.804	775
470.023	758
470.243	783
470.462	801
470.681	809
470.901	802
471.12	784
471.339	785
471.558	760
471.777	789
471.997	780
472.216	771
472.435	753
472.654	720
472.873	745
473.092	723
473.311	706
473.53	724
473.749	734
473.968	744
474.187	747
474.406	726
474.625	736
474.844	748
475.063	739
475.282	717
475.501	763
475.72	739
475.939	747
476.158	749
476.377	758
476.596	782
476.814	802
477.033	771
477.252	797
477.471	806
477.69	826
477.908	862
478.127	864
478.346	878
478.564	885
478.783	907
479.002	933
479.22	943
479.439	939
479.658	929
479.876	908
480.095	955
480.313	990
480.532	990
480.751	995
480.969	949
481.188	920
481.406	895
481.624	884
481.843	853
482.061	822
482.28	837
482.498	851
482.717	821
482.935	822
483.153	818
483.372	842
483.59	844
483.808	811
484.027	838
484.245	851
484.463	844
484.681	888
484.9	857
485.118	865
485.336	873
485.554	894
485.772	877
485.99	891
486.209	872
486.427	879
486.645	870
486.863	884
487.081	851
487.299	867
487.517	883
487.735	892
487.953	887
488.171	866
488.389	876
488.607	872
488.825	854
489.043	842
489.261	841
489.479	867
489.696	894
489.914	890
490.132	873
490.35	903
490.568	870
490.786	884
491.003	843
491.221	893
491.439	890
491.657	894
491.874	915
492.092	890
492.31	901
492.527	906
492.745	932
492.963	927
493.18	899
493.398	897
493.615	902
493.833	914
494.05	934
494.268	961
494.485	920
494.703	951
494.92	946
495.138	953
495.355	945
495.573	953
495.79	948
496.008	954
496.225	968
496.442	974
496.66	994
496.877	988
497.094	1018
497.312	1028
497.529	1033
497.746	1074
497.963	1095
498.181	1151
498.398	1205
498.615	1279
498.832	1351
499.049	1475
499.267	1604
499.484	1734
499.701	1967
499.918	2134
500.135	2447
500.352	2836
500.569	2889
500.786	2873
501.003	2669
501.22	2350
501.437	2090
501.654	1834
501.871	1659
502.088	1583
502.305	1461
502.522	1379
502.739	1342
502.956	1265
503.172	1199
503.389	1133
503.606	1094
503.823	1085
504.04	1066
504.256	1113
504.473	1118
504.69	1130
504.907	1103
505.123	1032
505.34	1003
505.557	963
505.773	915
505.99	887
506.207	884
506.423	885
506.64	855
506.856	865
507.073	852
507.289	824
507.506	820
507.722	803
507.939	824
508.155	807
508.372	800
508.588	804
508.805	789
509.021	795
509.238	782
509.454	762
509.67	763
509.887	728
510.103	767
510.319	742
510.536	746
510.752	764
510.968	744
511.184	734
511.401	737
511.617	746
511.833	762
512.049	777
512.265	746
512.481	763
512.698	733
512.914	744
513.13	745
513.346	738
513.562	750
513.778	773
513.994	759
514.21	775
514.426	773
514.642	772
514.858	788
515.074	767
515.29	801
515.506	779
515.721	817
515.937	815
516.153	827
516.369	849
516.585	882
516.801	917
517.016	911
517.232	994
517.448	1044
517.664	1079
517.879	1037
518.095	1102
518.311	1061
518.527	996
518.742	947
518.958	926
519.173	886
519.389	872
519.605	829
519.82	821
520.036	810
520.251	795
520.467	779
520.682	765
520.898	760
521.113	738
521.329	745
521.544	750
521.76	729
521.975	757
522.19	719
522.406	713
522.621	715
522.836	725
523.052	710
523.267	711
523.482	709
523.698	676
523.913	690
524.128	687
524.343	714
524.559	677
524.774	693
524.989	671
525.204	710
525.419	683
525.634	690
525.849	715
526.064	677
526.28	673
526.495	698
526.71	694
526.925	676
527.14	669
527.355	681
527.57	651
527.785	675
527.999	673
528.214	683
528.429	680
528.644	695
528.859	680
529.074	689
529.289	684
529.503	695
529.718	677
529.933	686
530.148	661
530.363	667
530.577	662
530.792	648
531.007	673
531.221	661
531.436	657
531.651	671
531.865	676
532.08	659
532.295	674
532.509	660
532.724	661
532.938	674
533.153	695
533.367	684
533.582	695
533.796	691
534.011	693
534.225	672
534.44	635
534.654	667
534.868	668
535.083	645
535.297	651
535.511	673
535.726	654
535.94	667
536.154	643
536.369	638
536.583	637
536.797	641
537.011	639
537.225	612
537.44	635
537.654	629
537.868	605
538.082	616
538.296	615
538.51	629
538.724	635
538.938	597
539.153	624
539.367	608
539.581	597
539.795	604
540.009	591
540.222	592
540.436	614
540.65	611
540.864	614
541.078	594
541.292	608
541.506	622
541.72	601
541.934	603
542.147	620
542.361	600
542.575	605
542.789	616
543.002	593
543.216	592
543.43	595
543.644	606
543.857	581
544.071	603
544.285	630
544.498	617
544.712	595
544.925	613
545.139	611
545.352	637
545.566	621
545.779	641
545.993	642
546.206	624
546.42	621
546.633	612
546.847	632
547.06	623
547.274	633
547.487	610
547.7	634
547.914	622
548.127	652
548.34	625
548.554	625
548.767	629
548.98	629
549.193	642
549.407	634
549.62	643
549.833	661
550.046	636
550.259	663
550.473	636
550.686	622
550.899	620
551.112	605
551.325	625
551.538	599
551.751	598
551.964	617
552.177	629
552.39	603
552.603	660
552.816	673
553.029	702
553.242	685
553.455	703
553.667	691
553.88	684
554.093	647
554.306	645
554.519	634
554.732	632
554.944	627
555.157	599
555.37	572
555.583	599
555.795	574
556.008	545
556.221	566
556.433	585
556.646	535
556.859	537
557.071	539
557.284	538
557.496	560
557.709	540
557.921	549
558.134	542
558.346	520
558.559	521
558.771	514
558.984	518
559.196	529
559.409	511
559.621	532
559.833	511
560.046	513
560.258	526
560.47	524
560.683	508
560.895	514
561.107	494
561.32	521
