Data from NiCl2@0.25M.TitratingCurve.Agarose3%dH2O.NegLispCup.LampEnergy10.LIBS07252019_HRD10591_18-23-55-573.txt Node
Date: Thu Jul 25 18:23:55 EDT 2019
User: cochatt
Spectrometer: HR+D1059
Trigger mode: 1
Integration Time (sec): 1.000000E-1
Scans to average: 1
Electric dark correction enabled: true
Nonlinearity correction enabled: false
Boxcar width: 0
XAxis mode: Wavelengths
Number of Pixels in Spectrum: 2048
>>>>>Begin Spectral Data<<<<<
223.165	-17.88
223.4	-17.88
223.635	-17.88
223.869	-8.88
224.104	-31.88
224.338	-12.88
224.573	-4.88
224.808	-19.88
225.042	-2.88
225.277	-7.88
225.511	-8.88
225.746	1.12
225.98	10.12
226.215	6.12
226.449	19.12
226.683	13.12
226.918	33.12
227.152	33.12
227.387	36.12
227.621	45.12
227.856	49.12
228.09	47.12
228.324	61.12
228.559	49.12
228.793	80.12
229.027	111.12
229.262	102.12
229.496	115.12
229.73	116.12
229.964	131.12
230.199	124.12
230.433	121.12
230.667	132.12
230.901	135.12
231.136	147.12
231.37	143.12
231.604	148.12
231.838	135.12
232.072	141.12
232.306	152.12
232.541	165.12
232.775	151.12
233.009	166.12
233.243	142.12
233.477	157.12
233.711	145.12
233.945	162.12
234.179	141.12
234.413	142.12
234.647	159.12
234.881	148.12
235.115	131.12
235.349	147.12
235.583	143.12
235.817	159.12
236.051	155.12
236.285	165.12
236.519	177.12
236.753	157.12
236.987	151.12
237.221	166.12
237.455	152.12
237.689	157.12
237.922	173.12
238.156	158.12
238.39	165.12
238.624	168.12
238.858	183.12
239.091	174.12
239.325	158.12
239.559	164.12
239.793	167.12
240.027	179.12
240.26	180.12
240.494	171.12
240.728	192.12
240.961	178.12
241.195	174.12
241.429	197.12
241.662	199.12
241.896	199.12
242.13	187.12
242.363	181.12
242.597	204.12
242.83	194.12
243.064	207.12
243.298	195.12
243.531	212.12
243.765	207.12
243.998	221.12
244.232	227.12
244.465	215.12
244.699	216.12
244.932	215.12
245.166	209.12
245.399	214.12
245.633	219.12
245.866	212.12
246.099	218.12
246.333	215.12
246.566	215.12
246.8	209.12
247.033	220.12
247.266	212.12
247.5	222.12
247.733	226.12
247.966	234.12
248.2	246.12
248.433	228.12
248.666	228.12
248.899	243.12
249.133	236.12
249.366	249.12
249.599	251.12
249.832	262.12
250.066	243.12
250.299	257.12
250.532	233.12
250.765	255.12
250.998	244.12
251.231	261.12
251.465	253.12
251.698	246.12
251.931	259.12
252.164	275.12
252.397	286.12
252.63	280.12
252.863	274.12
253.096	250.12
253.329	262.12
253.562	263.12
253.795	269.12
254.028	266.12
254.261	286.12
254.494	281.12
254.727	290.12
254.96	290.12
255.193	278.12
255.426	299.12
255.659	310.12
255.892	283.12
256.124	281.12
256.357	285.12
256.59	291.12
256.823	273.12
257.056	293.12
257.289	290.12
257.521	307.12
257.754	290.12
257.987	307.12
258.22	303.12
258.452	310.12
258.685	302.12
258.918	290.12
259.151	302.12
259.383	300.12
259.616	308.12
259.849	310.12
260.081	305.12
260.314	301.12
260.547	308.12
260.779	316.12
261.012	322.12
261.244	324.12
261.477	324.12
261.71	312.12
261.942	321.12
262.175	323.12
262.407	327.12
262.64	322.12
262.872	335.12
263.105	314.12
263.337	329.12
263.57	341.12
263.802	335.12
264.035	322.12
264.267	337.12
264.499	330.12
264.732	334.12
264.964	342.12
265.197	346.12
265.429	344.12
265.661	337.12
265.894	351.12
266.126	349.12
266.358	366.12
266.591	347.12
266.823	352.12
267.055	359.12
267.287	345.12
267.52	341.12
267.752	371.12
267.984	365.12
268.216	369.12
268.448	373.12
268.681	359.12
268.913	403.12
269.145	385.12
269.377	369.12
269.609	365.12
269.841	360.12
270.073	350.12
270.306	363.12
270.538	341.12
270.77	370.12
271.002	393.12
271.234	372.12
271.466	385.12
271.698	402.12
271.93	403.12
272.162	389.12
272.394	407.12
272.626	390.12
272.858	398.12
273.09	405.12
273.322	391.12
273.553	415.12
273.785	388.12
274.017	408.12
274.249	405.12
274.481	390.12
274.713	419.12
274.945	401.12
275.176	424.12
275.408	408.12
275.64	422.12
275.872	405.12
276.104	426.12
276.335	420.12
276.567	421.12
276.799	408.12
277.031	430.12
277.262	429.12
277.494	422.12
277.726	434.12
277.957	419.12
278.189	427.12
278.421	426.12
278.652	439.12
278.884	426.12
279.115	427.12
279.347	452.12
279.579	433.12
279.81	443.12
280.042	452.12
280.273	452.12
280.505	441.12
280.736	459.12
280.968	454.12
281.199	460.12
281.431	446.12
281.662	447.12
281.894	457.12
282.125	453.12
282.356	456.12
282.588	454.12
282.819	463.12
283.051	473.12
283.282	474.12
283.513	483.12
283.745	487.12
283.976	482.12
284.207	465.12
284.439	492.12
284.67	471.12
284.901	476.12
285.132	468.12
285.364	481.12
285.595	482.12
285.826	499.12
286.057	504.12
286.288	505.12
286.52	485.12
286.751	497.12
286.982	510.12
287.213	490.12
287.444	510.12
287.675	532.12
287.906	546.12
288.138	513.12
288.369	524.12
288.6	530.12
288.831	512.12
289.062	506.12
289.293	537.12
289.524	517.12
289.755	514.12
289.986	516.12
290.217	539.12
290.448	522.12
290.679	528.12
290.91	518.12
291.141	511.12
291.371	556.12
291.602	533.12
291.833	517.12
292.064	526.12
292.295	524.12
292.526	526.12
292.757	538.12
292.987	541.12
293.218	523.12
293.449	519.12
293.68	527.12
293.91	538.12
294.141	531.12
294.372	540.12
294.603	548.12
294.833	523.12
295.064	541.12
295.295	556.12
295.525	511.12
295.756	537.12
295.987	521.12
296.217	537.12
296.448	547.12
296.679	539.12
296.909	555.12
297.14	547.12
297.37	558.12
297.601	552.12
297.831	579.12
298.062	562.12
298.292	581.12
298.523	574.12
298.753	593.12
298.984	585.12
299.214	571.12
299.445	563.12
299.675	572.12
299.905	595.12
300.136	574.12
300.366	576.12
300.597	585.12
300.827	589.12
301.057	602.12
301.288	618.12
301.518	616.12
301.748	608.12
301.979	589.12
302.209	607.12
302.439	622.12
302.669	605.12
302.9	621.12
303.13	591.12
303.36	625.12
303.59	603.12
303.82	589.12
304.051	603.12
304.281	620.12
304.511	613.12
304.741	612.12
304.971	613.12
305.201	605.12
305.431	602.12
305.661	609.12
305.891	607.12
306.121	620.12
306.352	588.12
306.582	577.12
306.812	569.12
307.042	570.12
307.272	610.12
307.502	594.12
307.731	580.12
307.961	604.12
308.191	600.12
308.421	590.12
308.651	572.12
308.881	605.12
309.111	578.12
309.341	596.12
309.571	579.12
309.8	587.12
310.03	592.12
310.26	600.12
310.49	591.12
310.72	595.12
310.949	609.12
311.179	598.12
311.409	607.12
311.639	612.12
311.868	609.12
312.098	617.12
312.328	619.12
312.557	626.12
312.787	639.12
313.017	636.12
313.246	617.12
313.476	651.12
313.706	614.12
313.935	648.12
314.165	653.12
314.394	638.12
314.624	652.12
314.853	623.12
315.083	629.12
315.312	639.12
315.542	623.12
315.771	645.12
316.001	644.12
316.23	650.12
316.46	635.12
316.689	634.12
316.919	614.12
317.148	643.12
317.377	639.12
317.607	642.12
317.836	634.12
318.065	626.12
318.295	616.12
318.524	629.12
318.753	625.12
318.983	644.12
319.212	624.12
319.441	613.12
319.67	635.12
319.9	642.12
320.129	631.12
320.358	629.12
320.587	635.12
320.816	638.12
321.046	639.12
321.275	628.12
321.504	619.12
321.733	643.12
321.962	659.12
322.191	627.12
322.42	636.12
322.649	624.12
322.878	623.12
323.108	615.12
323.337	635.12
323.566	630.12
323.795	644.12
324.024	665.12
324.253	655.12
324.482	638.12
324.71	649.12
324.939	659.12
325.168	655.12
325.397	655.12
325.626	637.12
325.855	699.12
326.084	693.12
326.313	678.12
326.542	693.12
326.77	735.12
326.999	694.12
327.228	675.12
327.457	689.12
327.686	674.12
327.914	713.12
328.143	718.12
328.372	684.12
328.6	678.12
328.829	700.12
329.058	699.12
329.287	695.12
329.515	723.12
329.744	701.12
329.972	711.12
330.201	710.12
330.43	710.12
330.658	698.12
330.887	726.12
331.115	712.12
331.344	734.12
331.572	729.12
331.801	737.12
332.03	784.12
332.258	796.12
332.486	812.12
332.715	820.12
332.943	855.12
333.172	893.12
333.4	965.12
333.629	932.12
333.857	973.12
334.085	943.12
334.314	912.12
334.542	903.12
334.771	894.12
334.999	909.12
335.227	879.12
335.455	855.12
335.684	863.12
335.912	832.12
336.14	845.12
336.369	843.12
336.597	842.12
336.825	827.12
337.053	863.12
337.281	801.12
337.51	806.12
337.738	788.12
337.966	783.12
338.194	763.12
338.422	764.12
338.65	746.12
338.878	775.12
339.106	781.12
339.334	748.12
339.562	703.12
339.79	730.12
340.018	705.12
340.246	715.12
340.474	745.12
340.702	734.12
340.93	756.12
341.158	729.12
341.386	737.12
341.614	742.12
341.842	740.12
342.07	722.12
342.298	744.12
342.526	705.12
342.754	701.12
342.981	719.12
343.209	750.12
343.437	801.12
343.665	818.12
343.893	887.12
344.12	890.12
344.348	859.12
344.576	824.12
344.804	783.12
345.031	762.12
345.259	740.12
345.487	722.12
345.714	749.12
345.942	727.12
346.17	718.12
346.397	738.12
346.625	707.12
346.853	705.12
347.08	729.12
347.308	693.12
347.535	725.12
347.763	722.12
347.99	721.12
348.218	692.12
348.445	707.12
348.673	710.12
348.9	696.12
349.128	671.12
349.355	708.12
349.583	691.12
349.81	670.12
350.037	667.12
350.265	680.12
350.492	679.12
350.72	676.12
350.947	690.12
351.174	684.12
351.402	686.12
351.629	694.12
351.856	686.12
352.083	671.12
352.311	653.12
352.538	681.12
352.765	673.12
352.992	672.12
353.22	665.12
353.447	647.12
353.674	668.12
353.901	664.12
354.128	671.12
354.355	653.12
354.583	673.12
354.81	673.12
355.037	693.12
355.264	666.12
355.491	663.12
355.718	670.12
355.945	669.12
356.172	695.12
356.399	673.12
356.626	685.12
356.853	699.12
357.08	687.12
357.307	655.12
357.534	663.12
357.761	665.12
357.988	667.12
358.215	689.12
358.441	665.12
358.668	677.12
358.895	683.12
359.122	660.12
359.349	673.12
359.576	658.12
359.802	681.12
360.029	677.12
360.256	667.12
360.483	654.12
360.709	669.12
360.936	660.12
361.163	699.12
361.39	656.12
361.616	674.12
361.843	654.12
362.07	657.12
362.296	679.12
362.523	685.12
362.749	668.12
362.976	675.12
363.203	679.12
363.429	687.12
363.656	657.12
363.882	687.12
364.109	670.12
364.335	655.12
364.562	684.12
364.788	666.12
365.015	678.12
365.241	639.12
365.468	680.12
365.694	674.12
365.92	660.12
366.147	662.12
366.373	671.12
366.599	692.12
366.826	669.12
367.052	665.12
367.278	674.12
367.505	682.12
367.731	689.12
367.957	676.12
368.184	661.12
368.41	655.12
368.636	673.12
368.862	691.12
369.089	701.12
369.315	683.12
369.541	711.12
369.767	705.12
369.993	722.12
370.219	688.12
370.445	735.12
370.672	720.12
370.898	719.12
371.124	727.12
371.35	724.12
371.576	739.12
371.802	719.12
372.028	735.12
372.254	773.12
372.48	783.12
372.706	775.12
372.932	758.12
373.158	750.12
373.384	738.12
373.61	719.12
373.835	753.12
374.061	741.12
374.287	761.12
374.513	776.12
374.739	786.12
374.965	802.12
375.191	828.12
375.416	802.12
375.642	789.12
375.868	802.12
376.094	776.12
376.319	760.12
376.545	725.12
376.771	754.12
376.997	742.12
377.222	718.12
377.448	734.12
377.674	724.12
377.899	723.12
378.125	725.12
378.35	727.12
378.576	734.12
378.802	711.12
379.027	727.12
379.253	736.12
379.478	733.12
379.704	745.12
379.929	724.12
380.155	734.12
380.38	727.12
380.606	734.12
380.831	706.12
381.057	747.12
381.282	754.12
381.507	716.12
381.733	730.12
381.958	745.12
382.184	742.12
382.409	741.12
382.634	777.12
382.86	771.12
383.085	789.12
383.31	788.12
383.535	835.12
383.761	822.12
383.986	829.12
384.211	874.12
384.436	849.12
384.662	866.12
384.887	925.12
385.112	891.12
385.337	908.12
385.562	902.12
385.787	874.12
386.013	897.12
386.238	902.12
386.463	885.12
386.688	888.12
386.913	887.12
387.138	859.12
387.363	862.12
387.588	874.12
387.813	873.12
388.038	911.12
388.263	884.12
388.488	899.12
388.713	866.12
388.938	873.12
389.163	865.12
389.387	876.12
389.612	869.12
389.837	881.12
390.062	847.12
390.287	857.12
390.512	893.12
390.736	909.12
390.961	911.12
391.186	925.12
391.411	953.12
391.636	967.12
391.86	1002.12
392.085	1034.12
392.31	1029.12
392.534	989.12
392.759	952.12
392.984	959.12
393.208	966.12
393.433	945.12
393.658	946.12
393.882	949.12
394.107	914.12
394.331	953.12
394.556	977.12
394.78	972.12
395.005	970.12
395.229	974.12
395.454	990.12
395.678	1015.12
395.903	1008.12
396.127	994.12
396.352	977.12
396.576	939.12
396.801	926.12
397.025	952.12
397.249	946.12
397.474	1025.12
397.698	1005.12
397.922	1012.12
398.147	1011.12
398.371	1013.12
398.595	1080.12
398.82	1111.12
399.044	1190.12
399.268	1386.12
399.492	1558.12
399.717	1729.12
399.941	1710.12
400.165	1528.12
400.389	1359.12
400.613	1279.12
400.837	1203.12
401.062	1154.12
401.286	1142.12
401.51	1169.12
401.734	1134.12
401.958	1155.12
402.182	1153.12
402.406	1155.12
402.63	1180.12
402.854	1207.12
403.078	1249.12
403.302	1261.12
403.526	1305.12
403.75	1308.12
403.974	1345.12
404.198	1318.12
404.422	1333.12
404.645	1338.12
404.869	1297.12
405.093	1287.12
405.317	1247.12
405.541	1265.12
405.765	1241.12
405.988	1242.12
406.212	1229.12
406.436	1251.12
406.66	1259.12
406.883	1287.12
407.107	1363.12
407.331	1459.12
407.555	1506.12
407.778	1469.12
408.002	1412.12
408.226	1393.12
408.449	1368.12
408.673	1329.12
408.896	1279.12
409.12	1265.12
409.344	1272.12
409.567	1244.12
409.791	1260.12
410.014	1250.12
410.238	1257.12
410.461	1250.12
410.685	1213.12
410.908	1215.12
411.132	1181.12
411.355	1132.12
411.578	1193.12
411.802	1180.12
412.025	1189.12
412.249	1182.12
412.472	1172.12
412.695	1159.12
412.919	1123.12
413.142	1125.12
413.365	1124.12
413.589	1132.12
413.812	1103.12
414.035	1122.12
414.258	1113.12
414.482	1146.12
414.705	1175.12
414.928	1136.12
415.151	1156.12
415.374	1145.12
415.597	1111.12
415.821	1121.12
416.044	1097.12
416.267	1113.12
416.49	1090.12
416.713	1093.12
416.936	1120.12
417.159	1076.12
417.382	1101.12
417.605	1115.12
417.828	1096.12
418.051	1105.12
418.274	1153.12
418.497	1137.12
418.72	1158.12
418.943	1133.12
419.166	1211.12
419.389	1300.12
419.611	1245.12
419.834	1208.12
420.057	1170.12
420.28	1146.12
420.503	1088.12
420.726	1097.12
420.948	1109.12
421.171	1103.12
421.394	1129.12
421.617	1125.12
421.839	1100.12
422.062	1124.12
422.285	1095.12
422.507	1132.12
422.73	1133.12
422.953	1179.12
423.175	1134.12
423.398	1161.12
423.621	1176.12
423.843	1178.12
424.066	1176.12
424.288	1198.12
424.511	1146.12
424.733	1177.12
424.956	1173.12
425.178	1163.12
425.401	1089.12
425.623	1107.12
425.846	1047.12
426.068	1052.12
426.291	1075.12
426.513	1043.12
426.735	1018.12
426.958	1052.12
427.18	981.12
427.402	1032.12
427.625	1013.12
427.847	979.12
428.069	989.12
428.292	975.12
428.514	978.12
428.736	989.12
428.958	982.12
429.181	950.12
429.403	946.12
429.625	945.12
429.847	949.12
430.069	969.12
430.292	967.12
430.514	943.12
430.736	958.12
430.958	945.12
431.18	946.12
431.402	962.12
431.624	973.12
431.846	971.12
432.068	979.12
432.29	981.12
432.512	1004.12
432.734	976.12
432.956	985.12
433.178	995.12
433.4	971.12
433.622	1025.12
433.844	1031.12
434.066	1004.12
434.287	991.12
434.509	1045.12
434.731	1085.12
434.953	1091.12
435.175	1132.12
435.397	1100.12
435.618	1047.12
435.84	1019.12
436.062	966.12
436.284	987.12
436.505	959.12
436.727	980.12
436.949	975.12
437.17	981.12
437.392	949.12
437.614	958.12
437.835	977.12
438.057	945.12
438.278	923.12
438.5	915.12
438.721	917.12
438.943	940.12
439.165	926.12
439.386	938.12
439.608	954.12
439.829	979.12
440.05	978.12
440.272	978.12
440.493	994.12
440.715	1005.12
440.936	1000.12
441.158	1009.12
441.379	1097.12
441.6	1067.12
441.822	1107.12
442.043	1092.12
442.264	1060.12
442.486	1087.12
442.707	1091.12
442.928	1097.12
443.149	1095.12
443.371	1069.12
443.592	1081.12
443.813	1102.12
444.034	1144.12
444.255	1159.12
444.476	1221.12
444.698	1304.12
444.919	1376.12
445.14	1380.12
445.361	1206.12
445.582	1123.12
445.803	1082.12
446.024	1000.12
446.245	1000.12
446.466	1044.12
446.687	993.12
446.908	983.12
447.129	938.12
447.35	919.12
447.571	933.12
447.792	939.12
448.013	919.12
448.234	878.12
448.455	898.12
448.675	887.12
448.896	911.12
449.117	877.12
449.338	904.12
449.559	886.12
449.779	861.12
450	871.12
450.221	881.12
450.442	891.12
450.662	892.12
450.883	878.12
451.104	911.12
451.324	871.12
451.545	910.12
451.766	901.12
451.986	891.12
452.207	866.12
452.428	883.12
452.648	889.12
452.869	865.12
453.089	857.12
453.31	853.12
453.53	852.12
453.751	857.12
453.971	870.12
454.192	868.12
454.412	821.12
454.633	831.12
454.853	820.12
455.073	854.12
455.294	842.12
455.514	825.12
455.734	821.12
455.955	801.12
456.175	819.12
456.395	831.12
456.616	810.12
456.836	835.12
457.056	809.12
457.276	812.12
457.497	838.12
457.717	828.12
457.937	830.12
458.157	822.12
458.377	857.12
458.598	875.12
458.818	883.12
459.038	933.12
459.258	970.12
459.478	1000.12
459.698	1025.12
459.918	1048.12
460.138	1071.12
460.358	1144.12
460.578	1173.12
460.798	1164.12
461.018	1191.12
461.238	1168.12
461.458	1137.12
461.678	1143.12
461.898	1167.12
462.118	1169.12
462.338	1238.12
462.558	1282.12
462.777	1291.12
462.997	1463.12
463.217	1611.12
463.437	1596.12
463.657	1454.12
463.876	1383.12
464.096	1358.12
464.316	1341.12
464.536	1334.12
464.755	1292.12
464.975	1230.12
465.195	1197.12
465.414	1114.12
465.634	1044.12
465.854	1037.12
466.073	982.12
466.293	987.12
466.512	938.12
466.732	959.12
466.951	969.12
467.171	943.12
467.391	936.12
467.61	931.12
467.829	932.12
468.049	897.12
468.268	911.12
468.488	893.12
468.707	853.12
468.927	905.12
469.146	915.12
469.365	898.12
469.585	911.12
469.804	936.12
470.023	936.12
470.243	982.12
470.462	959.12
470.681	1000.12
470.901	986.12
471.12	940.12
471.339	935.12
471.558	927.12
471.777	877.12
471.997	907.12
472.216	882.12
472.435	882.12
472.654	868.12
472.873	838.12
473.092	848.12
473.311	891.12
473.53	875.12
473.749	870.12
473.968	868.12
474.187	853.12
474.406	838.12
474.625	870.12
474.844	871.12
475.063	867.12
475.282	891.12
475.501	891.12
475.72	873.12
475.939	874.12
476.158	877.12
476.377	913.12
476.596	887.12
476.814	922.12
477.033	931.12
477.252	953.12
477.471	957.12
477.69	966.12
477.908	997.12
478.127	1005.12
478.346	1047.12
478.564	1073.12
478.783	1099.12
479.002	1105.12
479.22	1093.12
479.439	1113.12
479.658	1100.12
479.876	1102.12
480.095	1115.12
480.313	1158.12
480.532	1201.12
480.751	1205.12
480.969	1112.12
481.188	1117.12
481.406	1054.12
481.624	1027.12
481.843	1013.12
482.061	996.12
482.28	996.12
482.498	1007.12
482.717	981.12
482.935	974.12
483.153	995.12
483.372	997.12
483.59	975.12
483.808	961.12
484.027	999.12
484.245	991.12
484.463	1027.12
484.681	1050.12
484.9	1011.12
485.118	1036.12
485.336	1031.12
485.554	1018.12
485.772	1052.12
485.99	1019.12
486.209	1058.12
486.427	1045.12
486.645	1033.12
486.863	1045.12
487.081	1042.12
487.299	1020.12
487.517	1031.12
487.735	1022.12
487.953	1047.12
488.171	1014.12
488.389	1027.12
488.607	1004.12
488.825	1026.12
489.043	1007.12
489.261	1024.12
489.479	1016.12
489.696	1046.12
489.914	1038.12
490.132	1060.12
490.35	1035.12
490.568	1044.12
490.786	1057.12
491.003	1046.12
491.221	1067.12
491.439	1078.12
491.657	1061.12
491.874	1062.12
492.092	1093.12
492.31	1092.12
492.527	1076.12
492.745	1076.12
492.963	1076.12
493.18	1094.12
493.398	1076.12
493.615	1094.12
493.833	1099.12
494.05	1107.12
494.268	1107.12
494.485	1138.12
494.703	1150.12
494.92	1112.12
495.138	1101.12
495.355	1116.12
495.573	1127.12
495.79	1105.12
496.008	1117.12
496.225	1115.12
496.442	1183.12
496.66	1182.12
496.877	1191.12
497.094	1197.12
497.312	1223.12
497.529	1239.12
497.746	1268.12
