Data from NiCl2@0.25M.TitratingCurve.Agarose3%dH2O.NegLispCup.LampEnergy10.LIBS07252019_HRD10591_18-23-09-573.txt Node
Date: Thu Jul 25 18:23:09 EDT 2019
User: cochatt
Spectrometer: HR+D1059
Trigger mode: 1
Integration Time (sec): 1.000000E-1
Scans to average: 1
Electric dark correction enabled: true
Nonlinearity correction enabled: false
Boxcar width: 0
XAxis mode: Wavelengths
Number of Pixels in Spectrum: 2048
>>>>>Begin Spectral Data<<<<<
223.165	-19.38
223.4	-19.38
223.635	-19.38
223.869	-6.38
224.104	-16.38
224.338	-16.38
224.573	-29.38
224.808	-6.38
225.042	-14.38
225.277	-8.38
225.511	-3.38
225.746	9.62
225.98	-9.38
226.215	12.62
226.449	21.62
226.683	27.62
226.918	26.62
227.152	31.62
227.387	37.62
227.621	25.62
227.856	59.62
228.09	48.62
228.324	54.62
228.559	61.62
228.793	88.62
229.027	107.62
229.262	88.62
229.496	96.62
229.73	122.62
229.964	123.62
230.199	127.62
230.433	131.62
230.667	130.62
230.901	130.62
231.136	142.62
231.37	120.62
231.604	133.62
231.838	129.62
232.072	126.62
232.306	122.62
232.541	132.62
232.775	123.62
233.009	139.62
233.243	136.62
233.477	134.62
233.711	134.62
233.945	141.62
234.179	134.62
234.413	139.62
234.647	138.62
234.881	142.62
235.115	142.62
235.349	132.62
235.583	143.62
235.817	123.62
236.051	145.62
236.285	128.62
236.519	134.62
236.753	143.62
236.987	139.62
237.221	144.62
237.455	153.62
237.689	141.62
237.922	149.62
238.156	152.62
238.39	131.62
238.624	159.62
238.858	151.62
239.091	138.62
239.325	155.62
239.559	125.62
239.793	148.62
240.027	162.62
240.26	151.62
240.494	161.62
240.728	152.62
240.961	162.62
241.195	161.62
241.429	167.62
241.662	158.62
241.896	175.62
242.13	172.62
242.363	154.62
242.597	155.62
242.83	153.62
243.064	166.62
243.298	179.62
243.531	165.62
243.765	171.62
243.998	181.62
244.232	176.62
244.465	175.62
244.699	159.62
244.932	172.62
245.166	161.62
245.399	179.62
245.633	190.62
245.866	196.62
246.099	183.62
246.333	180.62
246.566	193.62
246.8	184.62
247.033	174.62
247.266	195.62
247.5	180.62
247.733	201.62
247.966	188.62
248.2	208.62
248.433	204.62
248.666	187.62
248.899	203.62
249.133	197.62
249.366	206.62
249.599	201.62
249.832	212.62
250.066	223.62
250.299	205.62
250.532	204.62
250.765	190.62
250.998	208.62
251.231	201.62
251.465	228.62
251.698	223.62
251.931	223.62
252.164	214.62
252.397	217.62
252.63	208.62
252.863	226.62
253.096	223.62
253.329	235.62
253.562	214.62
253.795	216.62
254.028	229.62
254.261	228.62
254.494	244.62
254.727	230.62
254.96	224.62
255.193	229.62
255.426	248.62
255.659	227.62
255.892	212.62
256.124	224.62
256.357	239.62
256.59	225.62
256.823	232.62
257.056	236.62
257.289	234.62
257.521	260.62
257.754	244.62
257.987	248.62
258.22	220.62
258.452	269.62
258.685	228.62
258.918	234.62
259.151	237.62
259.383	247.62
259.616	252.62
259.849	263.62
260.081	241.62
260.314	243.62
260.547	238.62
260.779	233.62
261.012	267.62
261.244	247.62
261.477	280.62
261.71	262.62
261.942	264.62
262.175	268.62
262.407	265.62
262.64	252.62
262.872	267.62
263.105	270.62
263.337	263.62
263.57	279.62
263.802	267.62
264.035	281.62
264.267	281.62
264.499	283.62
264.732	281.62
264.964	268.62
265.197	279.62
265.429	285.62
265.661	291.62
265.894	294.62
266.126	296.62
266.358	308.62
266.591	287.62
266.823	273.62
267.055	271.62
267.287	296.62
267.52	272.62
267.752	285.62
267.984	275.62
268.216	293.62
268.448	292.62
268.681	304.62
268.913	282.62
269.145	289.62
269.377	279.62
269.609	297.62
269.841	301.62
270.073	313.62
270.306	313.62
270.538	290.62
270.77	299.62
271.002	311.62
271.234	305.62
271.466	302.62
271.698	314.62
271.93	320.62
272.162	304.62
272.394	317.62
272.626	338.62
272.858	312.62
273.09	316.62
273.322	318.62
273.553	331.62
273.785	336.62
274.017	296.62
274.249	298.62
274.481	315.62
274.713	319.62
274.945	312.62
275.176	327.62
275.408	302.62
275.64	338.62
275.872	343.62
276.104	344.62
276.335	344.62
276.567	334.62
276.799	330.62
277.031	324.62
277.262	334.62
277.494	330.62
277.726	342.62
277.957	346.62
278.189	340.62
278.421	328.62
278.652	346.62
278.884	346.62
279.115	328.62
279.347	352.62
279.579	333.62
279.81	354.62
280.042	349.62
280.273	363.62
280.505	376.62
280.736	366.62
280.968	366.62
281.199	350.62
281.431	382.62
281.662	351.62
281.894	358.62
282.125	386.62
282.356	371.62
282.588	378.62
282.819	385.62
283.051	361.62
283.282	369.62
283.513	389.62
283.745	371.62
283.976	377.62
284.207	384.62
284.439	412.62
284.67	384.62
284.901	395.62
285.132	376.62
285.364	366.62
285.595	405.62
285.826	375.62
286.057	388.62
286.288	388.62
286.52	380.62
286.751	390.62
286.982	415.62
287.213	397.62
287.444	396.62
287.675	405.62
287.906	375.62
288.138	407.62
288.369	406.62
288.6	404.62
288.831	400.62
289.062	415.62
289.293	410.62
289.524	406.62
289.755	391.62
289.986	393.62
290.217	399.62
290.448	412.62
290.679	403.62
290.91	406.62
291.141	412.62
291.371	426.62
291.602	418.62
291.833	395.62
292.064	405.62
292.295	414.62
292.526	423.62
292.757	385.62
292.987	416.62
293.218	409.62
293.449	435.62
293.68	436.62
293.91	425.62
294.141	423.62
294.372	420.62
294.603	436.62
294.833	415.62
295.064	427.62
295.295	414.62
295.525	412.62
295.756	408.62
295.987	425.62
296.217	423.62
296.448	427.62
296.679	421.62
296.909	430.62
297.14	438.62
297.37	442.62
297.601	449.62
297.831	440.62
298.062	428.62
298.292	438.62
298.523	456.62
298.753	455.62
298.984	421.62
299.214	447.62
299.445	462.62
299.675	452.62
299.905	457.62
300.136	439.62
300.366	452.62
300.597	480.62
300.827	478.62
301.057	479.62
301.288	479.62
301.518	494.62
301.748	472.62
301.979	473.62
302.209	466.62
302.439	458.62
302.669	461.62
302.9	478.62
303.13	448.62
303.36	463.62
303.59	459.62
303.82	475.62
304.051	475.62
304.281	480.62
304.511	469.62
304.741	471.62
304.971	459.62
305.201	458.62
305.431	474.62
305.661	472.62
305.891	470.62
306.121	462.62
306.352	491.62
306.582	461.62
306.812	436.62
307.042	460.62
307.272	447.62
307.502	452.62
307.731	452.62
307.961	476.62
308.191	432.62
308.421	452.62
308.651	470.62
308.881	455.62
309.111	487.62
309.341	492.62
309.571	456.62
309.8	443.62
310.03	483.62
310.26	473.62
310.49	465.62
310.72	470.62
310.949	477.62
311.179	487.62
311.409	483.62
311.639	480.62
311.868	467.62
312.098	493.62
312.328	494.62
312.557	464.62
312.787	486.62
313.017	493.62
313.246	489.62
313.476	504.62
313.706	520.62
313.935	513.62
314.165	503.62
314.394	515.62
314.624	499.62
314.853	480.62
315.083	501.62
315.312	490.62
315.542	494.62
315.771	485.62
316.001	500.62
316.23	504.62
316.46	487.62
316.689	488.62
316.919	496.62
317.148	503.62
317.377	511.62
317.607	504.62
317.836	511.62
318.065	476.62
318.295	469.62
318.524	504.62
318.753	488.62
318.983	491.62
319.212	484.62
319.441	478.62
319.67	500.62
319.9	498.62
320.129	484.62
320.358	495.62
320.587	480.62
320.816	496.62
321.046	512.62
321.275	487.62
321.504	504.62
321.733	509.62
321.962	514.62
322.191	493.62
322.42	510.62
322.649	513.62
322.878	516.62
323.108	504.62
323.337	498.62
323.566	527.62
323.795	543.62
324.024	508.62
324.253	507.62
324.482	515.62
324.71	504.62
324.939	523.62
325.168	548.62
325.397	535.62
325.626	506.62
325.855	503.62
326.084	536.62
326.313	557.62
326.542	537.62
326.77	549.62
326.999	530.62
327.228	517.62
327.457	535.62
327.686	553.62
327.914	536.62
328.143	561.62
328.372	511.62
328.6	532.62
328.829	547.62
329.058	539.62
329.287	558.62
329.515	559.62
329.744	549.62
329.972	554.62
330.201	571.62
330.43	539.62
330.658	539.62
330.887	544.62
331.115	557.62
331.344	554.62
331.572	561.62
331.801	569.62
332.03	604.62
332.258	632.62
332.486	627.62
332.715	641.62
332.943	682.62
333.172	686.62
333.4	714.62
333.629	714.62
333.857	715.62
334.085	700.62
334.314	716.62
334.542	697.62
334.771	683.62
334.999	661.62
335.227	667.62
335.455	674.62
335.684	651.62
335.912	656.62
336.14	663.62
336.369	663.62
336.597	657.62
336.825	637.62
337.053	649.62
337.281	648.62
337.51	615.62
337.738	629.62
337.966	623.62
338.194	619.62
338.422	599.62
338.65	583.62
338.878	583.62
339.106	585.62
339.334	604.62
339.562	607.62
339.79	595.62
340.018	576.62
340.246	553.62
340.474	543.62
340.702	573.62
340.93	590.62
341.158	590.62
341.386	582.62
341.614	599.62
341.842	580.62
342.07	551.62
342.298	569.62
342.526	566.62
342.754	575.62
342.981	561.62
343.209	575.62
343.437	615.62
343.665	654.62
343.893	696.62
344.12	683.62
344.348	666.62
344.576	640.62
344.804	606.62
345.031	593.62
345.259	585.62
345.487	574.62
345.714	591.62
345.942	574.62
346.17	574.62
346.397	583.62
346.625	562.62
346.853	557.62
347.08	545.62
347.308	559.62
347.535	563.62
347.763	552.62
347.99	538.62
348.218	558.62
348.445	559.62
348.673	542.62
348.9	529.62
349.128	569.62
349.355	535.62
349.583	571.62
349.81	511.62
350.037	523.62
350.265	519.62
350.492	544.62
350.72	551.62
350.947	543.62
351.174	517.62
351.402	557.62
351.629	536.62
351.856	533.62
352.083	552.62
352.311	573.62
352.538	542.62
352.765	533.62
352.992	539.62
353.22	527.62
353.447	534.62
353.674	529.62
353.901	541.62
354.128	518.62
354.355	531.62
354.583	533.62
354.81	524.62
355.037	534.62
355.264	531.62
355.491	539.62
355.718	536.62
355.945	567.62
356.172	526.62
356.399	541.62
356.626	540.62
356.853	567.62
357.08	537.62
357.307	550.62
357.534	515.62
357.761	547.62
357.988	535.62
358.215	545.62
358.441	540.62
358.668	528.62
358.895	538.62
359.122	547.62
359.349	571.62
359.576	560.62
359.802	517.62
360.029	545.62
360.256	526.62
360.483	545.62
360.709	512.62
360.936	546.62
361.163	553.62
361.39	545.62
361.616	537.62
361.843	540.62
362.07	550.62
362.296	515.62
362.523	539.62
362.749	534.62
362.976	556.62
363.203	533.62
363.429	530.62
363.656	527.62
363.882	525.62
364.109	515.62
364.335	520.62
364.562	540.62
364.788	538.62
365.015	535.62
365.241	528.62
365.468	539.62
365.694	552.62
365.92	527.62
366.147	542.62
366.373	534.62
366.599	522.62
366.826	536.62
367.052	506.62
367.278	537.62
367.505	525.62
367.731	549.62
367.957	543.62
368.184	541.62
368.41	543.62
368.636	557.62
368.862	544.62
369.089	558.62
369.315	542.62
369.541	563.62
369.767	565.62
369.993	544.62
370.219	567.62
370.445	551.62
370.672	560.62
370.898	527.62
371.124	560.62
371.35	577.62
371.576	567.62
371.802	570.62
372.028	596.62
372.254	592.62
372.48	581.62
372.706	616.62
372.932	600.62
373.158	612.62
373.384	577.62
373.61	597.62
373.835	560.62
374.061	585.62
374.287	590.62
374.513	593.62
374.739	624.62
374.965	609.62
375.191	634.62
375.416	611.62
375.642	613.62
375.868	588.62
376.094	601.62
376.319	581.62
376.545	576.62
376.771	575.62
376.997	574.62
377.222	590.62
377.448	563.62
377.674	569.62
377.899	542.62
378.125	589.62
378.35	585.62
378.576	570.62
378.802	585.62
379.027	573.62
379.253	593.62
379.478	554.62
379.704	571.62
379.929	556.62
380.155	571.62
380.38	563.62
380.606	561.62
380.831	595.62
381.057	591.62
381.282	564.62
381.507	571.62
381.733	613.62
381.958	588.62
382.184	587.62
382.409	598.62
382.634	593.62
382.86	593.62
383.085	643.62
383.31	657.62
383.535	628.62
383.761	638.62
383.986	640.62
384.211	659.62
384.436	675.62
384.662	682.62
384.887	676.62
385.112	664.62
385.337	681.62
385.562	689.62
385.787	682.62
386.013	699.62
386.238	705.62
386.463	679.62
386.688	701.62
386.913	699.62
387.138	661.62
387.363	689.62
387.588	669.62
387.813	695.62
388.038	655.62
388.263	673.62
388.488	685.62
388.713	647.62
388.938	710.62
389.163	686.62
389.387	670.62
389.612	676.62
389.837	643.62
390.062	685.62
390.287	696.62
390.512	671.62
390.736	669.62
390.961	708.62
391.186	740.62
391.411	716.62
391.636	720.62
391.86	748.62
392.085	799.62
392.31	751.62
392.534	748.62
392.759	724.62
392.984	726.62
393.208	717.62
393.433	717.62
393.658	715.62
393.882	732.62
394.107	753.62
394.331	700.62
394.556	725.62
394.78	748.62
395.005	739.62
395.229	737.62
395.454	781.62
395.678	763.62
395.903	780.62
396.127	744.62
396.352	743.62
396.576	712.62
396.801	712.62
397.025	732.62
397.249	778.62
397.474	785.62
397.698	776.62
397.922	765.62
398.147	764.62
398.371	793.62
398.595	806.62
398.82	837.62
399.044	883.62
399.268	997.62
399.492	1153.62
399.717	1279.62
399.941	1222.62
400.165	1104.62
400.389	1004.62
400.613	923.62
400.837	885.62
401.062	863.62
401.286	841.62
401.51	841.62
401.734	859.62
401.958	883.62
402.182	872.62
402.406	875.62
402.63	873.62
402.854	900.62
403.078	907.62
403.302	922.62
403.526	941.62
403.75	977.62
403.974	1016.62
404.198	988.62
404.422	977.62
404.645	993.62
404.869	974.62
405.093	959.62
405.317	932.62
405.541	938.62
405.765	940.62
405.988	931.62
406.212	920.62
406.436	914.62
406.66	924.62
406.883	935.62
407.107	1007.62
407.331	1059.62
407.555	1073.62
407.778	1083.62
408.002	1060.62
408.226	1033.62
408.449	1006.62
408.673	966.62
408.896	958.62
409.12	965.62
409.344	969.62
409.567	938.62
409.791	972.62
410.014	911.62
410.238	929.62
410.461	924.62
410.685	923.62
410.908	885.62
411.132	902.62
411.355	880.62
411.578	862.62
411.802	888.62
412.025	885.62
412.249	921.62
412.472	879.62
412.695	875.62
412.919	835.62
413.142	830.62
413.365	855.62
413.589	875.62
413.812	856.62
414.035	840.62
414.258	838.62
414.482	860.62
414.705	866.62
414.928	871.62
415.151	850.62
415.374	842.62
415.597	860.62
415.821	831.62
416.044	827.62
416.267	828.62
416.49	800.62
416.713	814.62
416.936	841.62
417.159	816.62
417.382	857.62
417.605	840.62
417.828	814.62
418.051	832.62
418.274	841.62
418.497	816.62
418.72	879.62
418.943	861.62
419.166	910.62
419.389	943.62
419.611	939.62
419.834	885.62
420.057	870.62
420.28	862.62
420.503	830.62
420.726	807.62
420.948	814.62
421.171	822.62
421.394	832.62
421.617	830.62
421.839	847.62
422.062	836.62
422.285	828.62
422.507	857.62
422.73	854.62
422.953	863.62
423.175	876.62
423.398	899.62
423.621	883.62
423.843	878.62
424.066	890.62
424.288	879.62
424.511	857.62
424.733	853.62
424.956	864.62
425.178	845.62
425.401	834.62
425.623	856.62
425.846	804.62
426.068	825.62
426.291	811.62
426.513	772.62
426.735	779.62
426.958	792.62
427.18	777.62
427.402	759.62
427.625	760.62
427.847	769.62
428.069	776.62
428.292	745.62
428.514	709.62
428.736	733.62
428.958	740.62
429.181	740.62
429.403	732.62
429.625	741.62
429.847	741.62
430.069	726.62
430.292	733.62
430.514	760.62
430.736	745.62
430.958	735.62
431.18	733.62
431.402	740.62
431.624	745.62
431.846	736.62
432.068	747.62
432.29	776.62
432.512	761.62
432.734	746.62
432.956	754.62
433.178	743.62
433.4	729.62
433.622	787.62
433.844	756.62
434.066	752.62
434.287	774.62
434.509	791.62
434.731	829.62
434.953	825.62
435.175	833.62
435.397	823.62
435.618	772.62
435.84	780.62
436.062	752.62
436.284	765.62
436.505	732.62
436.727	761.62
436.949	763.62
437.17	748.62
437.392	728.62
437.614	732.62
437.835	709.62
438.057	697.62
438.278	705.62
438.5	713.62
438.721	718.62
438.943	709.62
439.165	725.62
439.386	735.62
439.608	734.62
439.829	715.62
440.05	738.62
440.272	764.62
440.493	765.62
440.715	766.62
440.936	781.62
441.158	777.62
441.379	816.62
441.6	816.62
441.822	832.62
442.043	809.62
442.264	808.62
442.486	801.62
442.707	825.62
442.928	831.62
443.149	828.62
443.371	821.62
443.592	828.62
443.813	824.62
444.034	838.62
444.255	878.62
444.476	888.62
444.698	969.62
444.919	1004.62
445.14	1067.62
445.361	969.62
445.582	843.62
445.803	803.62
446.024	767.62
446.245	767.62
446.466	761.62
446.687	741.62
446.908	756.62
447.129	743.62
447.35	719.62
447.571	701.62
447.792	696.62
448.013	699.62
448.234	685.62
448.455	668.62
448.675	683.62
448.896	662.62
449.117	685.62
449.338	688.62
449.559	646.62
449.779	662.62
450	672.62
450.221	668.62
450.442	699.62
450.662	663.62
450.883	673.62
451.104	709.62
451.324	680.62
451.545	683.62
451.766	709.62
451.986	692.62
452.207	695.62
452.428	675.62
452.648	679.62
452.869	662.62
453.089	668.62
453.31	687.62
453.53	647.62
453.751	647.62
453.971	669.62
454.192	649.62
454.412	637.62
454.633	646.62
454.853	661.62
455.073	640.62
455.294	649.62
455.514	652.62
455.734	639.62
455.955	647.62
456.175	628.62
456.395	631.62
456.616	629.62
456.836	644.62
457.056	641.62
457.276	623.62
457.497	643.62
457.717	633.62
457.937	653.62
458.157	636.62
458.377	652.62
458.598	646.62
458.818	694.62
459.038	695.62
459.258	717.62
459.478	734.62
459.698	792.62
459.918	782.62
460.138	817.62
460.358	876.62
460.578	890.62
460.798	881.62
461.018	901.62
461.238	884.62
461.458	862.62
461.678	845.62
461.898	852.62
462.118	870.62
462.338	921.62
462.558	955.62
462.777	969.62
462.997	1081.62
463.217	1157.62
463.437	1136.62
463.657	1059.62
463.876	997.62
464.096	993.62
464.316	1001.62
464.536	997.62
464.755	961.62
464.975	939.62
465.195	914.62
465.414	822.62
465.634	787.62
465.854	791.62
466.073	757.62
466.293	749.62
466.512	750.62
466.732	739.62
466.951	732.62
467.171	724.62
467.391	718.62
467.61	748.62
467.829	700.62
468.049	678.62
468.268	712.62
468.488	713.62
468.707	686.62
468.927	709.62
469.146	675.62
469.365	723.62
469.585	709.62
469.804	709.62
470.023	740.62
470.243	717.62
470.462	747.62
470.681	744.62
470.901	747.62
471.12	717.62
471.339	745.62
471.558	743.62
471.777	726.62
471.997	689.62
472.216	701.62
472.435	688.62
472.654	701.62
472.873	689.62
473.092	671.62
473.311	692.62
473.53	686.62
473.749	663.62
473.968	651.62
474.187	654.62
474.406	686.62
474.625	678.62
474.844	708.62
475.063	692.62
475.282	686.62
475.501	693.62
475.72	704.62
475.939	704.62
476.158	710.62
476.377	720.62
476.596	711.62
476.814	727.62
477.033	728.62
477.252	736.62
477.471	744.62
477.69	760.62
477.908	760.62
478.127	813.62
478.346	811.62
478.564	817.62
478.783	808.62
479.002	848.62
479.22	861.62
479.439	825.62
479.658	822.62
479.876	854.62
480.095	869.62
480.313	913.62
480.532	917.62
480.751	898.62
480.969	848.62
481.188	834.62
481.406	796.62
481.624	811.62
481.843	761.62
482.061	767.62
482.28	764.62
482.498	759.62
482.717	766.62
482.935	775.62
483.153	758.62
483.372	800.62
483.59	783.62
483.808	778.62
484.027	775.62
484.245	790.62
484.463	791.62
484.681	811.62
484.9	802.62
485.118	797.62
485.336	781.62
485.554	803.62
485.772	827.62
485.99	809.62
486.209	815.62
486.427	822.62
486.645	833.62
486.863	827.62
487.081	798.62
487.299	811.62
487.517	783.62
487.735	779.62
487.953	822.62
488.171	829.62
488.389	810.62
488.607	821.62
488.825	811.62
489.043	780.62
489.261	781.62
489.479	810.62
489.696	831.62
489.914	815.62
490.132	840.62
490.35	826.62
490.568	808.62
490.786	805.62
491.003	825.62
491.221	825.62
491.439	857.62
491.657	831.62
491.874	824.62
492.092	824.62
492.31	835.62
492.527	828.62
492.745	837.62
492.963	835.62
493.18	859.62
493.398	859.62
493.615	881.62
493.833	877.62
494.05	849.62
494.268	829.62
494.485	870.62
494.703	877.62
494.92	881.62
495.138	888.62
495.355	885.62
495.573	867.62
495.79	872.62
496.008	856.62
496.225	886.62
496.442	881.62
496.66	892.62
496.877	881.62
497.094	923.62
497.312	956.62
497.529	964.62
497.746	957.62
497.963	991.62
498.181	1073.62
498.398	1097.62
498.615	1173.62
498.832	1234.62
499.049	1333.62
499.267	1411.62
499.484	1541.62
499.701	1710.62
499.918	1887.62
500.135	2193.62
500.352	2432.62
500.569	2553.62
500.786	2539.62
501.003	2333.62
501.22	2023.62
