Data from NiCl2@0.0625M.TitratingCurve.Agarose3%dH2O.NegLispCup.LampEnergy10.LIBS07252019_HRD10591_18-32-45-580.txt Node
Date: Thu Jul 25 18:32:45 EDT 2019
User: cochatt
Spectrometer: HR+D1059
Trigger mode: 1
Integration Time (sec): 1.000000E-1
Scans to average: 1
Electric dark correction enabled: true
Nonlinearity correction enabled: false
Boxcar width: 0
XAxis mode: Wavelengths
Number of Pixels in Spectrum: 2048
>>>>>Begin Spectral Data<<<<<
223.165	-15.62
223.4	-15.62
223.635	-15.62
223.869	-20.62
224.104	-22.62
224.338	-4.62
224.573	-23.62
224.808	-16.62
225.042	-5.62
225.277	0.38
225.511	-4.62
225.746	2.38
225.98	9.38
226.215	4.38
226.449	-0.62
226.683	31.38
226.918	33.38
227.152	33.38
227.387	45.38
227.621	39.38
227.856	31.38
228.09	42.38
228.324	57.38
228.559	46.38
228.793	85.38
229.027	156.38
229.262	175.38
229.496	160.38
229.73	155.38
229.964	171.38
230.199	173.38
230.433	186.38
230.667	181.38
230.901	189.38
231.136	183.38
231.37	187.38
231.604	197.38
231.838	198.38
232.072	183.38
232.306	206.38
232.541	218.38
232.775	194.38
233.009	175.38
233.243	207.38
233.477	192.38
233.711	195.38
233.945	208.38
234.179	199.38
234.413	213.38
234.647	214.38
234.881	216.38
235.115	213.38
235.349	218.38
235.583	232.38
235.817	229.38
236.051	228.38
236.285	235.38
236.519	220.38
236.753	235.38
236.987	230.38
237.221	234.38
237.455	217.38
237.689	235.38
237.922	251.38
238.156	237.38
238.39	258.38
238.624	257.38
238.858	266.38
239.091	251.38
239.325	272.38
239.559	273.38
239.793	282.38
240.027	283.38
240.26	268.38
240.494	262.38
240.728	268.38
240.961	287.38
241.195	270.38
241.429	284.38
241.662	295.38
241.896	296.38
242.13	304.38
242.363	306.38
242.597	316.38
242.83	288.38
243.064	321.38
243.298	319.38
243.531	312.38
243.765	329.38
243.998	328.38
244.232	327.38
244.465	331.38
244.699	352.38
244.932	360.38
245.166	354.38
245.399	332.38
245.633	341.38
245.866	326.38
246.099	350.38
246.333	367.38
246.566	350.38
246.8	356.38
247.033	368.38
247.266	356.38
247.5	361.38
247.733	380.38
247.966	375.38
248.2	388.38
248.433	415.38
248.666	395.38
248.899	384.38
249.133	389.38
249.366	395.38
249.599	386.38
249.832	394.38
250.066	415.38
250.299	422.38
250.532	416.38
250.765	432.38
250.998	404.38
251.231	430.38
251.465	419.38
251.698	440.38
251.931	440.38
252.164	451.38
252.397	429.38
252.63	442.38
252.863	446.38
253.096	459.38
253.329	452.38
253.562	480.38
253.795	457.38
254.028	453.38
254.261	444.38
254.494	440.38
254.727	462.38
254.96	456.38
255.193	465.38
255.426	469.38
255.659	471.38
255.892	470.38
256.124	484.38
256.357	471.38
256.59	469.38
256.823	495.38
257.056	489.38
257.289	497.38
257.521	501.38
257.754	508.38
257.987	501.38
258.22	521.38
258.452	487.38
258.685	496.38
258.918	525.38
259.151	494.38
259.383	511.38
259.616	529.38
259.849	546.38
260.081	535.38
260.314	546.38
260.547	543.38
260.779	520.38
261.012	526.38
261.244	553.38
261.477	554.38
261.71	566.38
261.942	570.38
262.175	581.38
262.407	574.38
262.64	561.38
262.872	568.38
263.105	580.38
263.337	560.38
263.57	565.38
263.802	542.38
264.035	571.38
264.267	575.38
264.499	578.38
264.732	573.38
264.964	572.38
265.197	584.38
265.429	587.38
265.661	588.38
265.894	571.38
266.126	610.38
266.358	608.38
266.591	590.38
266.823	599.38
267.055	615.38
267.287	640.38
267.52	608.38
267.752	619.38
267.984	633.38
268.216	609.38
268.448	615.38
268.681	628.38
268.913	625.38
269.145	635.38
269.377	630.38
269.609	643.38
269.841	656.38
270.073	621.38
270.306	624.38
270.538	643.38
270.77	633.38
271.002	639.38
271.234	653.38
271.466	685.38
271.698	680.38
271.93	687.38
272.162	661.38
272.394	687.38
272.626	675.38
272.858	673.38
273.09	688.38
273.322	672.38
273.553	675.38
273.785	707.38
274.017	687.38
274.249	704.38
274.481	695.38
274.713	708.38
274.945	725.38
275.176	710.38
275.408	725.38
275.64	741.38
275.872	735.38
276.104	744.38
276.335	749.38
276.567	722.38
276.799	735.38
277.031	745.38
277.262	725.38
277.494	720.38
277.726	746.38
277.957	763.38
278.189	779.38
278.421	749.38
278.652	749.38
278.884	792.38
279.115	784.38
279.347	767.38
279.579	793.38
279.81	778.38
280.042	800.38
280.273	788.38
280.505	806.38
280.736	785.38
280.968	777.38
281.199	805.38
281.431	809.38
281.662	807.38
281.894	775.38
282.125	800.38
282.356	809.38
282.588	777.38
282.819	820.38
283.051	839.38
283.282	817.38
283.513	830.38
283.745	820.38
283.976	832.38
284.207	830.38
284.439	860.38
284.67	848.38
284.901	835.38
285.132	843.38
285.364	854.38
285.595	863.38
285.826	845.38
286.057	857.38
286.288	838.38
286.52	848.38
286.751	854.38
286.982	891.38
287.213	865.38
287.444	864.38
287.675	897.38
287.906	873.38
288.138	880.38
288.369	881.38
288.6	889.38
288.831	904.38
289.062	916.38
289.293	880.38
289.524	930.38
289.755	883.38
289.986	902.38
290.217	899.38
290.448	906.38
290.679	888.38
290.91	913.38
291.141	915.38
291.371	923.38
291.602	917.38
291.833	918.38
292.064	906.38
292.295	919.38
292.526	922.38
292.757	922.38
292.987	934.38
293.218	915.38
293.449	944.38
293.68	936.38
293.91	899.38
294.141	905.38
294.372	905.38
294.603	914.38
294.833	934.38
295.064	919.38
295.295	939.38
295.525	935.38
295.756	953.38
295.987	927.38
296.217	945.38
296.448	919.38
296.679	964.38
296.909	944.38
297.14	950.38
297.37	960.38
297.601	959.38
297.831	988.38
298.062	987.38
298.292	1004.38
298.523	996.38
298.753	984.38
298.984	991.38
299.214	982.38
299.445	989.38
299.675	991.38
299.905	983.38
300.136	961.38
300.366	998.38
300.597	1017.38
300.827	1027.38
301.057	1029.38
301.288	1012.38
301.518	1052.38
301.748	1046.38
301.979	1060.38
302.209	1053.38
302.439	1058.38
302.669	1032.38
302.9	1046.38
303.13	1064.38
303.36	1064.38
303.59	1039.38
303.82	1062.38
304.051	1047.38
304.281	1053.38
304.511	1062.38
304.741	1028.38
304.971	1063.38
305.201	1040.38
305.431	1063.38
305.661	1067.38
305.891	1039.38
306.121	1038.38
306.352	1033.38
306.582	1031.38
306.812	1013.38
307.042	1048.38
307.272	1039.38
307.502	1055.38
307.731	1019.38
307.961	1019.38
308.191	1039.38
308.421	1011.38
308.651	1004.38
308.881	1024.38
309.111	1024.38
309.341	1006.38
309.571	1049.38
309.8	1032.38
310.03	1056.38
310.26	1036.38
310.49	1045.38
310.72	1020.38
310.949	1071.38
311.179	1045.38
311.409	1029.38
311.639	1051.38
311.868	1064.38
312.098	1050.38
312.328	1058.38
312.557	1077.38
312.787	1077.38
313.017	1095.38
313.246	1122.38
313.476	1104.38
313.706	1122.38
313.935	1132.38
314.165	1127.38
314.394	1131.38
314.624	1121.38
314.853	1105.38
315.083	1114.38
315.312	1133.38
315.542	1104.38
315.771	1127.38
316.001	1105.38
316.23	1119.38
316.46	1091.38
316.689	1118.38
316.919	1103.38
317.148	1101.38
317.377	1127.38
317.607	1082.38
317.836	1103.38
318.065	1110.38
318.295	1096.38
318.524	1127.38
318.753	1103.38
318.983	1105.38
319.212	1098.38
319.441	1115.38
319.67	1118.38
319.9	1107.38
320.129	1101.38
320.358	1108.38
320.587	1097.38
320.816	1108.38
321.046	1119.38
321.275	1121.38
321.504	1136.38
321.733	1115.38
321.962	1125.38
322.191	1107.38
322.42	1128.38
322.649	1122.38
322.878	1118.38
323.108	1120.38
323.337	1131.38
323.566	1155.38
323.795	1149.38
324.024	1144.38
324.253	1169.38
324.482	1161.38
324.71	1146.38
324.939	1147.38
325.168	1165.38
325.397	1180.38
325.626	1197.38
325.855	1182.38
326.084	1207.38
326.313	1226.38
326.542	1211.38
326.77	1217.38
326.999	1208.38
327.228	1175.38
327.457	1197.38
327.686	1199.38
327.914	1203.38
328.143	1206.38
328.372	1220.38
328.6	1203.38
328.829	1227.38
329.058	1213.38
329.287	1215.38
329.515	1225.38
329.744	1204.38
329.972	1220.38
330.201	1225.38
330.43	1243.38
330.658	1261.38
330.887	1257.38
331.115	1281.38
331.344	1289.38
331.572	1301.38
331.801	1312.38
332.03	1317.38
332.258	1357.38
332.486	1353.38
332.715	1401.38
332.943	1428.38
333.172	1467.38
333.4	1518.38
333.629	1536.38
333.857	1598.38
334.085	1562.38
334.314	1559.38
334.542	1554.38
334.771	1508.38
334.999	1525.38
335.227	1517.38
335.455	1519.38
335.684	1505.38
335.912	1493.38
336.14	1485.38
336.369	1468.38
336.597	1487.38
336.825	1456.38
337.053	1463.38
337.281	1407.38
337.51	1380.38
337.738	1379.38
337.966	1345.38
338.194	1334.38
338.422	1347.38
338.65	1357.38
338.878	1345.38
339.106	1375.38
339.334	1358.38
339.562	1287.38
339.79	1296.38
340.018	1293.38
340.246	1307.38
340.474	1315.38
340.702	1268.38
340.93	1303.38
341.158	1286.38
341.386	1293.38
341.614	1289.38
341.842	1252.38
342.07	1255.38
342.298	1266.38
342.526	1288.38
342.754	1277.38
342.981	1265.38
343.209	1275.38
343.437	1376.38
343.665	1427.38
343.893	1451.38
344.12	1546.38
344.348	1486.38
344.576	1438.38
344.804	1395.38
345.031	1325.38
345.259	1314.38
345.487	1335.38
345.714	1263.38
345.942	1240.38
346.17	1239.38
346.397	1264.38
346.625	1239.38
346.853	1247.38
347.08	1198.38
347.308	1214.38
347.535	1216.38
347.763	1235.38
347.99	1191.38
348.218	1208.38
348.445	1197.38
348.673	1216.38
348.9	1245.38
349.128	1199.38
349.355	1204.38
349.583	1192.38
349.81	1195.38
350.037	1173.38
350.265	1196.38
350.492	1204.38
350.72	1205.38
350.947	1177.38
351.174	1207.38
351.402	1169.38
351.629	1176.38
351.856	1182.38
352.083	1167.38
352.311	1181.38
352.538	1193.38
352.765	1205.38
352.992	1167.38
353.22	1148.38
353.447	1176.38
353.674	1136.38
353.901	1147.38
354.128	1171.38
354.355	1161.38
354.583	1175.38
354.81	1132.38
355.037	1187.38
355.264	1174.38
355.491	1172.38
355.718	1185.38
355.945	1148.38
356.172	1187.38
356.399	1185.38
356.626	1172.38
356.853	1159.38
357.08	1183.38
357.307	1174.38
357.534	1205.38
357.761	1226.38
357.988	1183.38
358.215	1166.38
358.441	1170.38
358.668	1168.38
358.895	1190.38
359.122	1181.38
359.349	1180.38
359.576	1184.38
359.802	1184.38
360.029	1153.38
360.256	1185.38
360.483	1190.38
360.709	1154.38
360.936	1181.38
361.163	1192.38
361.39	1157.38
361.616	1182.38
361.843	1201.38
362.07	1215.38
362.296	1190.38
362.523	1153.38
362.749	1203.38
362.976	1184.38
363.203	1181.38
363.429	1174.38
363.656	1188.38
363.882	1189.38
364.109	1160.38
364.335	1167.38
364.562	1191.38
364.788	1196.38
365.015	1183.38
365.241	1188.38
365.468	1197.38
365.694	1204.38
365.92	1203.38
366.147	1181.38
366.373	1171.38
366.599	1215.38
366.826	1182.38
367.052	1157.38
367.278	1201.38
367.505	1188.38
367.731	1191.38
367.957	1178.38
368.184	1207.38
368.41	1215.38
368.636	1198.38
368.862	1211.38
369.089	1208.38
369.315	1223.38
369.541	1232.38
369.767	1226.38
369.993	1252.38
370.219	1216.38
370.445	1233.38
370.672	1253.38
370.898	1256.38
371.124	1260.38
371.35	1275.38
371.576	1275.38
371.802	1287.38
372.028	1264.38
372.254	1301.38
372.48	1313.38
372.706	1291.38
372.932	1326.38
373.158	1309.38
373.384	1357.38
373.61	1297.38
373.835	1310.38
374.061	1290.38
374.287	1303.38
374.513	1326.38
374.739	1357.38
374.965	1373.38
375.191	1428.38
375.416	1423.38
375.642	1340.38
375.868	1361.38
376.094	1358.38
376.319	1334.38
376.545	1317.38
376.771	1299.38
376.997	1286.38
377.222	1288.38
377.448	1276.38
377.674	1266.38
377.899	1275.38
378.125	1283.38
378.35	1271.38
378.576	1243.38
378.802	1319.38
379.027	1295.38
379.253	1281.38
379.478	1247.38
379.704	1289.38
379.929	1265.38
380.155	1267.38
380.38	1273.38
380.606	1258.38
380.831	1239.38
381.057	1299.38
381.282	1306.38
381.507	1283.38
381.733	1287.38
381.958	1313.38
382.184	1299.38
382.409	1325.38
382.634	1337.38
382.86	1317.38
383.085	1362.38
383.31	1379.38
383.535	1364.38
383.761	1371.38
383.986	1406.38
384.211	1404.38
384.436	1451.38
384.662	1465.38
384.887	1459.38
385.112	1488.38
385.337	1550.38
385.562	1483.38
385.787	1471.38
386.013	1531.38
386.238	1552.38
386.463	1564.38
386.688	1588.38
386.913	1531.38
387.138	1521.38
387.363	1503.38
387.588	1497.38
387.813	1529.38
388.038	1535.38
388.263	1514.38
388.488	1546.38
388.713	1534.38
388.938	1489.38
389.163	1512.38
389.387	1487.38
389.612	1465.38
389.837	1512.38
390.062	1507.38
390.287	1516.38
390.512	1520.38
390.736	1544.38
390.961	1562.38
391.186	1582.38
391.411	1614.38
391.636	1639.38
391.86	1639.38
392.085	1709.38
392.31	1693.38
392.534	1690.38
392.759	1653.38
392.984	1639.38
393.208	1637.38
393.433	1657.38
393.658	1635.38
393.882	1601.38
394.107	1640.38
394.331	1652.38
394.556	1646.38
394.78	1639.38
395.005	1651.38
395.229	1641.38
395.454	1673.38
395.678	1721.38
395.903	1760.38
396.127	1717.38
396.352	1681.38
396.576	1625.38
396.801	1664.38
397.025	1703.38
397.249	1720.38
397.474	1715.38
397.698	1713.38
397.922	1725.38
398.147	1739.38
398.371	1805.38
398.595	1812.38
398.82	1901.38
399.044	2016.38
399.268	2187.38
399.492	2395.38
399.717	2583.38
399.941	2623.38
400.165	2464.38
400.389	2275.38
400.613	2138.38
400.837	1994.38
401.062	1972.38
401.286	1916.38
401.51	1928.38
401.734	1868.38
401.958	1917.38
402.182	1931.38
402.406	1919.38
402.63	1939.38
402.854	2016.38
403.078	1980.38
403.302	2018.38
403.526	2076.38
403.75	2057.38
403.974	2117.38
404.198	2052.38
404.422	2128.38
404.645	2092.38
404.869	2015.38
405.093	2061.38
405.317	2024.38
405.541	2110.38
405.765	2093.38
405.988	2039.38
406.212	2045.38
406.436	2093.38
406.66	2147.38
406.883	2163.38
407.107	2227.38
407.331	2307.38
407.555	2381.38
407.778	2385.38
408.002	2341.38
408.226	2304.38
408.449	2265.38
408.673	2152.38
408.896	2152.38
409.12	2111.38
409.344	2147.38
409.567	2091.38
409.791	2113.38
410.014	2104.38
410.238	2094.38
410.461	2114.38
410.685	2039.38
410.908	2058.38
411.132	2017.38
411.355	1971.38
411.578	1970.38
411.802	1920.38
412.025	1983.38
412.249	1961.38
412.472	2031.38
412.695	1936.38
412.919	1920.38
413.142	1916.38
413.365	1879.38
413.589	1902.38
413.812	1904.38
414.035	1893.38
414.258	1868.38
414.482	1903.38
414.705	1875.38
414.928	1861.38
415.151	1881.38
415.374	1882.38
415.597	1882.38
415.821	1819.38
416.044	1843.38
416.267	1810.38
416.49	1805.38
416.713	1836.38
416.936	1831.38
417.159	1827.38
417.382	1797.38
417.605	1826.38
417.828	1808.38
418.051	1841.38
418.274	1819.38
418.497	1805.38
418.72	1896.38
418.943	1841.38
419.166	1945.38
419.389	2109.38
419.611	2034.38
419.834	2003.38
420.057	1952.38
420.28	1858.38
420.503	1811.38
420.726	1839.38
420.948	1797.38
421.171	1797.38
421.394	1805.38
421.617	1829.38
421.839	1789.38
422.062	1833.38
422.285	1774.38
422.507	1866.38
422.73	1890.38
422.953	1897.38
423.175	1847.38
423.398	1878.38
423.621	1847.38
423.843	1908.38
424.066	1923.38
424.288	1909.38
424.511	1896.38
424.733	1870.38
424.956	1875.38
425.178	1853.38
425.401	1836.38
425.623	1816.38
425.846	1802.38
426.068	1812.38
426.291	1796.38
426.513	1798.38
426.735	1755.38
426.958	1745.38
427.18	1719.38
427.402	1746.38
427.625	1712.38
427.847	1666.38
428.069	1682.38
428.292	1690.38
428.514	1661.38
428.736	1663.38
428.958	1671.38
429.181	1697.38
429.403	1649.38
429.625	1635.38
429.847	1619.38
430.069	1600.38
430.292	1640.38
430.514	1630.38
430.736	1640.38
430.958	1654.38
431.18	1641.38
431.402	1670.38
431.624	1636.38
431.846	1677.38
432.068	1707.38
432.29	1720.38
432.512	1645.38
432.734	1671.38
432.956	1648.38
433.178	1697.38
433.4	1656.38
433.622	1700.38
433.844	1715.38
434.066	1733.38
434.287	1718.38
434.509	1744.38
434.731	1819.38
434.953	1842.38
435.175	1842.38
435.397	1836.38
435.618	1795.38
435.84	1707.38
436.062	1720.38
436.284	1664.38
436.505	1672.38
436.727	1620.38
436.949	1675.38
437.17	1664.38
437.392	1577.38
437.614	1643.38
437.835	1589.38
438.057	1648.38
438.278	1558.38
438.5	1591.38
438.721	1593.38
438.943	1622.38
439.165	1582.38
439.386	1561.38
439.608	1623.38
439.829	1656.38
440.05	1612.38
440.272	1653.38
440.493	1619.38
440.715	1671.38
440.936	1705.38
441.158	1715.38
441.379	1739.38
441.6	1781.38
441.822	1783.38
442.043	1794.38
442.264	1805.38
442.486	1785.38
442.707	1769.38
442.928	1755.38
443.149	1760.38
443.371	1742.38
443.592	1808.38
443.813	1851.38
444.034	1808.38
444.255	1899.38
444.476	1915.38
444.698	2018.38
444.919	2016.38
445.14	2117.38
445.361	1974.38
445.582	1902.38
445.803	1784.38
446.024	1718.38
446.245	1741.38
446.466	1669.38
446.687	1646.38
446.908	1661.38
447.129	1612.38
447.35	1583.38
447.571	1592.38
447.792	1535.38
448.013	1498.38
448.234	1527.38
448.455	1524.38
448.675	1518.38
448.896	1518.38
449.117	1478.38
449.338	1442.38
449.559	1455.38
449.779	1440.38
450	1463.38
450.221	1483.38
450.442	1523.38
450.662	1432.38
450.883	1504.38
451.104	1520.38
451.324	1519.38
451.545	1473.38
451.766	1470.38
451.986	1495.38
452.207	1488.38
452.428	1511.38
452.648	1456.38
452.869	1460.38
453.089	1423.38
453.31	1431.38
453.53	1411.38
453.751	1445.38
453.971	1453.38
454.192	1416.38
454.412	1391.38
454.633	1383.38
454.853	1395.38
455.073	1401.38
455.294	1414.38
455.514	1404.38
455.734	1409.38
455.955	1373.38
456.175	1374.38
456.395	1406.38
456.616	1393.38
456.836	1404.38
457.056	1401.38
457.276	1395.38
457.497	1400.38
457.717	1418.38
457.937	1425.38
458.157	1437.38
458.377	1481.38
458.598	1471.38
458.818	1548.38
459.038	1565.38
459.258	1562.38
459.478	1632.38
459.698	1673.38
459.918	1702.38
460.138	1832.38
460.358	1857.38
460.578	1844.38
460.798	1859.38
461.018	1889.38
461.238	1860.38
461.458	1902.38
461.678	1847.38
461.898	1889.38
462.118	1908.38
462.338	2000.38
462.558	2027.38
462.777	2113.38
462.997	2256.38
463.217	2329.38
463.437	2338.38
463.657	2260.38
463.876	2162.38
464.096	2208.38
464.316	2145.38
464.536	2119.38
464.755	2068.38
464.975	2034.38
465.195	1942.38
465.414	1844.38
465.634	1701.38
465.854	1699.38
466.073	1661.38
466.293	1648.38
466.512	1599.38
466.732	1590.38
466.951	1574.38
467.171	1570.38
467.391	1549.38
467.61	1600.38
467.829	1564.38
468.049	1531.38
468.268	1483.38
468.488	1499.38
468.707	1481.38
468.927	1531.38
469.146	1500.38
469.365	1507.38
469.585	1512.38
469.804	1593.38
470.023	1563.38
470.243	1575.38
470.462	1563.38
470.681	1559.38
470.901	1600.38
471.12	1592.38
471.339	1596.38
471.558	1548.38
471.777	1543.38
471.997	1548.38
472.216	1564.38
472.435	1489.38
472.654	1494.38
472.873	1487.38
473.092	1480.38
473.311	1461.38
473.53	1492.38
473.749	1476.38
473.968	1495.38
474.187	1493.38
474.406	1476.38
474.625	1496.38
474.844	1503.38
475.063	1503.38
475.282	1535.38
475.501	1511.38
475.72	1545.38
475.939	1564.38
476.158	1533.38
476.377	1569.38
476.596	1545.38
476.814	1579.38
477.033	1584.38
477.252	1615.38
477.471	1681.38
477.69	1695.38
477.908	1723.38
478.127	1715.38
478.346	1761.38
478.564	1797.38
478.783	1795.38
479.002	1870.38
479.22	1876.38
479.439	1904.38
479.658	1835.38
479.876	1889.38
480.095	1912.38
480.313	1987.38
480.532	1927.38
480.751	2003.38
480.969	1900.38
481.188	1870.38
481.406	1830.38
481.624	1847.38
481.843	1825.38
482.061	1787.38
482.28	1815.38
482.498	1800.38
482.717	1790.38
482.935	1800.38
483.153	1789.38
483.372	1820.38
483.59	1841.38
483.808	1801.38
484.027	1858.38
484.245	1862.38
484.463	1865.38
484.681	1924.38
484.9	1925.38
485.118	1864.38
485.336	1901.38
485.554	1881.38
485.772	1904.38
485.99	1889.38
486.209	1919.38
486.427	1875.38
486.645	1888.38
486.863	1913.38
487.081	1915.38
487.299	1906.38
487.517	1901.38
487.735	1842.38
487.953	1890.38
488.171	1884.38
488.389	1897.38
488.607	1862.38
488.825	1915.38
489.043	1845.38
489.261	1835.38
489.479	1839.38
489.696	1848.38
489.914	1875.38
