Data from NiCl2@0.125M.TitratingCurve.Agarose3%dH2O.NegLispCup.LampEnergy10.LIBS07252019_HRD10591_18-29-23-575.txt Node
Date: Thu Jul 25 18:29:23 EDT 2019
User: cochatt
Spectrometer: HR+D1059
Trigger mode: 1
Integration Time (sec): 1.000000E-1
Scans to average: 1
Electric dark correction enabled: true
Nonlinearity correction enabled: false
Boxcar width: 0
XAxis mode: Wavelengths
Number of Pixels in Spectrum: 2048
>>>>>Begin Spectral Data<<<<<
223.165	-23.06
223.4	-23.06
223.635	-23.06
223.869	-19.06
224.104	-4.06
224.338	-10.06
224.573	-11.06
224.808	-17.06
225.042	-8.06
225.277	-17.06
225.511	-1.06
225.746	5.94
225.98	1.94
226.215	13.94
226.449	11.94
226.683	10.94
226.918	24.94
227.152	40.94
227.387	27.94
227.621	47.94
227.856	40.94
228.09	48.94
228.324	46.94
228.559	61.94
228.793	76.94
229.027	107.94
229.262	104.94
229.496	114.94
229.73	127.94
229.964	119.94
230.199	110.94
230.433	119.94
230.667	136.94
230.901	146.94
231.136	148.94
231.37	136.94
231.604	129.94
231.838	134.94
232.072	139.94
232.306	132.94
232.541	156.94
232.775	141.94
233.009	133.94
233.243	161.94
233.477	146.94
233.711	148.94
233.945	147.94
234.179	150.94
234.413	141.94
234.647	141.94
234.881	155.94
235.115	139.94
235.349	145.94
235.583	156.94
235.817	133.94
236.051	158.94
236.285	156.94
236.519	145.94
236.753	148.94
236.987	156.94
237.221	142.94
237.455	159.94
237.689	180.94
237.922	170.94
238.156	164.94
238.39	165.94
238.624	167.94
238.858	155.94
239.091	173.94
239.325	171.94
239.559	173.94
239.793	175.94
240.027	188.94
240.26	173.94
240.494	178.94
240.728	182.94
240.961	193.94
241.195	187.94
241.429	188.94
241.662	183.94
241.896	197.94
242.13	207.94
242.363	218.94
242.597	208.94
242.83	201.94
243.064	190.94
243.298	211.94
243.531	200.94
243.765	197.94
243.998	210.94
244.232	198.94
244.465	204.94
244.699	224.94
244.932	224.94
245.166	211.94
245.399	212.94
245.633	216.94
245.866	217.94
246.099	231.94
246.333	217.94
246.566	233.94
246.8	212.94
247.033	235.94
247.266	233.94
247.5	227.94
247.733	229.94
247.966	225.94
248.2	231.94
248.433	236.94
248.666	240.94
248.899	229.94
249.133	246.94
249.366	244.94
249.599	237.94
249.832	245.94
250.066	256.94
250.299	248.94
250.532	236.94
250.765	241.94
250.998	245.94
251.231	256.94
251.465	277.94
251.698	243.94
251.931	254.94
252.164	271.94
252.397	260.94
252.63	240.94
252.863	264.94
253.096	280.94
253.329	279.94
253.562	278.94
253.795	268.94
254.028	264.94
254.261	269.94
254.494	273.94
254.727	272.94
254.96	273.94
255.193	276.94
255.426	265.94
255.659	298.94
255.892	282.94
256.124	294.94
256.357	306.94
256.59	272.94
256.823	290.94
257.056	295.94
257.289	294.94
257.521	285.94
257.754	319.94
257.987	294.94
258.22	315.94
258.452	304.94
258.685	304.94
258.918	307.94
259.151	309.94
259.383	299.94
259.616	293.94
259.849	315.94
260.081	321.94
260.314	324.94
260.547	314.94
260.779	318.94
261.012	324.94
261.244	331.94
261.477	307.94
261.71	324.94
261.942	321.94
262.175	313.94
262.407	319.94
262.64	297.94
262.872	341.94
263.105	330.94
263.337	335.94
263.57	322.94
263.802	322.94
264.035	330.94
264.267	341.94
264.499	361.94
264.732	336.94
264.964	362.94
265.197	344.94
265.429	342.94
265.661	349.94
265.894	360.94
266.126	368.94
266.358	354.94
266.591	362.94
266.823	374.94
267.055	354.94
267.287	370.94
267.52	355.94
267.752	365.94
267.984	376.94
268.216	350.94
268.448	355.94
268.681	350.94
268.913	368.94
269.145	368.94
269.377	360.94
269.609	361.94
269.841	366.94
270.073	374.94
270.306	374.94
270.538	365.94
270.77	364.94
271.002	360.94
271.234	367.94
271.466	369.94
271.698	372.94
271.93	380.94
272.162	394.94
272.394	403.94
272.626	398.94
272.858	384.94
273.09	374.94
273.322	380.94
273.553	402.94
273.785	376.94
274.017	397.94
274.249	389.94
274.481	412.94
274.713	381.94
274.945	410.94
275.176	409.94
275.408	407.94
275.64	418.94
275.872	414.94
276.104	395.94
276.335	417.94
276.567	404.94
276.799	398.94
277.031	421.94
277.262	415.94
277.494	417.94
277.726	428.94
277.957	426.94
278.189	423.94
278.421	432.94
278.652	416.94
278.884	430.94
279.115	439.94
279.347	420.94
279.579	442.94
279.81	424.94
280.042	424.94
280.273	455.94
280.505	414.94
280.736	436.94
280.968	430.94
281.199	461.94
281.431	460.94
281.662	450.94
281.894	442.94
282.125	450.94
282.356	470.94
282.588	464.94
282.819	434.94
283.051	466.94
283.282	443.94
283.513	440.94
283.745	451.94
283.976	474.94
284.207	470.94
284.439	466.94
284.67	466.94
284.901	465.94
285.132	475.94
285.364	467.94
285.595	469.94
285.826	481.94
286.057	497.94
286.288	467.94
286.52	467.94
286.751	481.94
286.982	481.94
287.213	486.94
287.444	510.94
287.675	509.94
287.906	492.94
288.138	485.94
288.369	479.94
288.6	485.94
288.831	471.94
289.062	499.94
289.293	506.94
289.524	503.94
289.755	490.94
289.986	504.94
290.217	518.94
290.448	524.94
290.679	510.94
290.91	521.94
291.141	541.94
291.371	531.94
291.602	492.94
291.833	517.94
292.064	532.94
292.295	513.94
292.526	533.94
292.757	502.94
292.987	498.94
293.218	493.94
293.449	518.94
293.68	506.94
293.91	503.94
294.141	541.94
294.372	502.94
294.603	533.94
294.833	534.94
295.064	513.94
295.295	558.94
295.525	520.94
295.756	523.94
295.987	518.94
296.217	520.94
296.448	542.94
296.679	543.94
296.909	550.94
297.14	543.94
297.37	548.94
297.601	542.94
297.831	564.94
298.062	554.94
298.292	552.94
298.523	589.94
298.753	596.94
298.984	556.94
299.214	595.94
299.445	566.94
299.675	568.94
299.905	574.94
300.136	573.94
300.366	545.94
300.597	560.94
300.827	582.94
301.057	594.94
301.288	590.94
301.518	577.94
301.748	601.94
301.979	596.94
302.209	598.94
302.439	577.94
302.669	590.94
302.9	569.94
303.13	565.94
303.36	606.94
303.59	568.94
303.82	579.94
304.051	588.94
304.281	588.94
304.511	561.94
304.741	583.94
304.971	591.94
305.201	588.94
305.431	577.94
305.661	576.94
305.891	575.94
306.121	578.94
306.352	580.94
306.582	547.94
306.812	540.94
307.042	558.94
307.272	568.94
307.502	547.94
307.731	558.94
307.961	569.94
308.191	548.94
308.421	541.94
308.651	539.94
308.881	538.94
309.111	554.94
309.341	549.94
309.571	568.94
309.8	564.94
310.03	565.94
310.26	557.94
310.49	533.94
310.72	562.94
310.949	568.94
311.179	554.94
311.409	562.94
311.639	581.94
311.868	584.94
312.098	600.94
312.328	576.94
312.557	590.94
312.787	593.94
313.017	584.94
313.246	581.94
313.476	578.94
313.706	596.94
313.935	598.94
314.165	599.94
314.394	593.94
314.624	586.94
314.853	595.94
315.083	588.94
315.312	605.94
315.542	576.94
315.771	596.94
316.001	599.94
316.23	589.94
316.46	600.94
316.689	598.94
316.919	588.94
317.148	595.94
317.377	557.94
317.607	572.94
317.836	580.94
318.065	586.94
318.295	580.94
318.524	584.94
318.753	566.94
318.983	584.94
319.212	573.94
319.441	569.94
319.67	612.94
319.9	594.94
320.129	570.94
320.358	593.94
320.587	596.94
320.816	577.94
321.046	604.94
321.275	588.94
321.504	596.94
321.733	598.94
321.962	569.94
322.191	594.94
322.42	590.94
322.649	579.94
322.878	588.94
323.108	582.94
323.337	593.94
323.566	588.94
323.795	602.94
324.024	601.94
324.253	606.94
324.482	606.94
324.71	618.94
324.939	611.94
325.168	608.94
325.397	618.94
325.626	618.94
325.855	617.94
326.084	654.94
326.313	655.94
326.542	611.94
326.77	663.94
326.999	665.94
327.228	633.94
327.457	609.94
327.686	626.94
327.914	638.94
328.143	624.94
328.372	651.94
328.6	636.94
328.829	632.94
329.058	642.94
329.287	626.94
329.515	654.94
329.744	640.94
329.972	622.94
330.201	644.94
330.43	632.94
330.658	640.94
330.887	650.94
331.115	646.94
331.344	674.94
331.572	663.94
331.801	664.94
332.03	704.94
332.258	724.94
332.486	740.94
332.715	756.94
332.943	792.94
333.172	825.94
333.4	893.94
333.629	896.94
333.857	874.94
334.085	894.94
334.314	856.94
334.542	844.94
334.771	807.94
334.999	800.94
335.227	801.94
335.455	793.94
335.684	797.94
335.912	790.94
336.14	760.94
336.369	773.94
336.597	777.94
336.825	754.94
337.053	747.94
337.281	777.94
337.51	727.94
337.738	734.94
337.966	721.94
338.194	703.94
338.422	694.94
338.65	690.94
338.878	677.94
339.106	683.94
339.334	668.94
339.562	716.94
339.79	680.94
340.018	685.94
340.246	660.94
340.474	653.94
340.702	660.94
340.93	653.94
341.158	672.94
341.386	658.94
341.614	657.94
341.842	666.94
342.07	663.94
342.298	667.94
342.526	658.94
342.754	649.94
342.981	682.94
343.209	673.94
343.437	698.94
343.665	748.94
343.893	827.94
344.12	883.94
344.348	795.94
344.576	742.94
344.804	717.94
345.031	685.94
345.259	681.94
345.487	665.94
345.714	667.94
345.942	654.94
346.17	651.94
346.397	665.94
346.625	636.94
346.853	650.94
347.08	636.94
347.308	668.94
347.535	683.94
347.763	675.94
347.99	659.94
348.218	674.94
348.445	666.94
348.673	666.94
348.9	642.94
349.128	642.94
349.355	637.94
349.583	642.94
349.81	638.94
350.037	628.94
350.265	620.94
350.492	606.94
350.72	615.94
350.947	601.94
351.174	616.94
351.402	642.94
351.629	602.94
351.856	638.94
352.083	629.94
352.311	616.94
352.538	636.94
352.765	584.94
352.992	596.94
353.22	598.94
353.447	605.94
353.674	610.94
353.901	589.94
354.128	618.94
354.355	626.94
354.583	624.94
354.81	620.94
355.037	620.94
355.264	616.94
355.491	628.94
355.718	610.94
355.945	634.94
356.172	595.94
356.399	627.94
356.626	609.94
356.853	617.94
357.08	614.94
357.307	620.94
357.534	608.94
357.761	601.94
357.988	623.94
358.215	620.94
358.441	612.94
358.668	608.94
358.895	598.94
359.122	628.94
359.349	611.94
359.576	604.94
359.802	629.94
360.029	621.94
360.256	644.94
360.483	633.94
360.709	613.94
360.936	623.94
361.163	620.94
361.39	617.94
361.616	635.94
361.843	638.94
362.07	644.94
362.296	626.94
362.523	604.94
362.749	632.94
362.976	610.94
363.203	618.94
363.429	611.94
363.656	609.94
363.882	606.94
364.109	624.94
364.335	611.94
364.562	612.94
364.788	610.94
365.015	613.94
365.241	607.94
365.468	594.94
365.694	637.94
365.92	602.94
366.147	608.94
366.373	617.94
366.599	588.94
366.826	600.94
367.052	590.94
367.278	619.94
367.505	639.94
367.731	610.94
367.957	600.94
368.184	615.94
368.41	625.94
368.636	605.94
368.862	622.94
369.089	617.94
369.315	616.94
369.541	617.94
369.767	638.94
369.993	635.94
370.219	642.94
370.445	624.94
370.672	634.94
370.898	661.94
371.124	645.94
371.35	669.94
371.576	685.94
371.802	651.94
372.028	656.94
372.254	676.94
372.48	664.94
372.706	685.94
372.932	727.94
373.158	706.94
373.384	690.94
373.61	680.94
373.835	653.94
374.061	659.94
374.287	676.94
374.513	691.94
374.739	715.94
374.965	730.94
375.191	764.94
375.416	748.94
375.642	717.94
375.868	714.94
376.094	701.94
376.319	700.94
376.545	687.94
376.771	675.94
376.997	673.94
377.222	711.94
377.448	680.94
377.674	670.94
377.899	658.94
378.125	672.94
378.35	667.94
378.576	670.94
378.802	650.94
379.027	677.94
379.253	644.94
379.478	658.94
379.704	691.94
379.929	652.94
380.155	683.94
380.38	667.94
380.606	673.94
380.831	665.94
381.057	676.94
381.282	648.94
381.507	668.94
381.733	682.94
381.958	666.94
382.184	683.94
382.409	696.94
382.634	699.94
382.86	692.94
383.085	750.94
383.31	715.94
383.535	727.94
383.761	741.94
383.986	768.94
384.211	786.94
384.436	781.94
384.662	794.94
384.887	804.94
385.112	816.94
385.337	804.94
385.562	780.94
385.787	820.94
386.013	822.94
386.238	821.94
386.463	819.94
386.688	819.94
386.913	806.94
387.138	802.94
387.363	805.94
387.588	770.94
387.813	779.94
388.038	778.94
388.263	798.94
388.488	784.94
388.713	764.94
388.938	795.94
389.163	761.94
389.387	791.94
389.612	793.94
389.837	782.94
390.062	791.94
390.287	804.94
390.512	784.94
390.736	808.94
390.961	787.94
391.186	821.94
391.411	827.94
391.636	862.94
391.86	891.94
392.085	914.94
392.31	907.94
392.534	895.94
392.759	881.94
392.984	881.94
393.208	851.94
393.433	843.94
393.658	869.94
393.882	863.94
394.107	848.94
394.331	867.94
394.556	872.94
394.78	889.94
395.005	862.94
395.229	880.94
395.454	918.94
395.678	921.94
395.903	900.94
396.127	892.94
396.352	840.94
396.576	852.94
396.801	861.94
397.025	843.94
397.249	863.94
397.474	920.94
397.698	890.94
397.922	910.94
398.147	897.94
398.371	916.94
398.595	929.94
398.82	971.94
399.044	1010.94
399.268	1173.94
399.492	1364.94
399.717	1554.94
399.941	1602.94
400.165	1387.94
400.389	1227.94
400.613	1120.94
400.837	1042.94
401.062	1033.94
401.286	1009.94
401.51	994.94
401.734	1003.94
401.958	1006.94
402.182	1032.94
402.406	1046.94
402.63	1061.94
402.854	1078.94
403.078	1090.94
403.302	1137.94
403.526	1181.94
403.75	1196.94
403.974	1217.94
404.198	1191.94
404.422	1221.94
404.645	1206.94
404.869	1188.94
405.093	1200.94
405.317	1150.94
405.541	1146.94
405.765	1095.94
405.988	1114.94
406.212	1127.94
406.436	1109.94
406.66	1152.94
406.883	1147.94
407.107	1224.94
407.331	1298.94
407.555	1352.94
407.778	1325.94
408.002	1282.94
408.226	1240.94
408.449	1241.94
408.673	1195.94
408.896	1154.94
409.12	1171.94
409.344	1156.94
409.567	1160.94
409.791	1215.94
410.014	1197.94
410.238	1193.94
410.461	1148.94
410.685	1140.94
410.908	1089.94
411.132	1078.94
411.355	1057.94
411.578	1076.94
411.802	1050.94
412.025	1064.94
412.249	1094.94
412.472	1044.94
412.695	1002.94
412.919	1001.94
413.142	990.94
413.365	1002.94
413.589	1041.94
413.812	1048.94
414.035	1005.94
414.258	1014.94
414.482	1008.94
414.705	1035.94
414.928	1070.94
415.151	1044.94
415.374	1063.94
415.597	1019.94
415.821	1010.94
416.044	1000.94
416.267	1013.94
416.49	1000.94
416.713	990.94
416.936	988.94
417.159	1005.94
417.382	985.94
417.605	998.94
417.828	1013.94
418.051	1022.94
418.274	1011.94
418.497	1032.94
418.72	1060.94
418.943	1050.94
419.166	1116.94
419.389	1170.94
419.611	1154.94
419.834	1134.94
420.057	1066.94
420.28	1024.94
420.503	1022.94
420.726	1006.94
420.948	1005.94
421.171	977.94
421.394	979.94
421.617	1010.94
421.839	1028.94
422.062	1003.94
422.285	1009.94
422.507	997.94
422.73	1046.94
422.953	1032.94
423.175	1104.94
423.398	1074.94
423.621	1058.94
423.843	1148.94
424.066	1113.94
424.288	1110.94
424.511	1095.94
424.733	1080.94
424.956	1062.94
425.178	1034.94
425.401	1052.94
425.623	1035.94
425.846	1028.94
426.068	1011.94
426.291	956.94
426.513	973.94
426.735	954.94
426.958	952.94
427.18	905.94
427.402	919.94
427.625	917.94
427.847	904.94
428.069	916.94
428.292	916.94
428.514	904.94
428.736	887.94
428.958	914.94
429.181	882.94
429.403	883.94
429.625	886.94
429.847	880.94
430.069	864.94
430.292	890.94
430.514	900.94
430.736	883.94
430.958	884.94
431.18	877.94
431.402	903.94
431.624	874.94
431.846	907.94
432.068	906.94
432.29	925.94
432.512	932.94
432.734	922.94
432.956	904.94
433.178	924.94
433.4	911.94
433.622	924.94
433.844	920.94
434.066	901.94
434.287	943.94
434.509	953.94
434.731	988.94
434.953	1011.94
435.175	1029.94
435.397	1029.94
435.618	959.94
435.84	915.94
436.062	910.94
436.284	884.94
436.505	919.94
436.727	931.94
436.949	919.94
437.17	954.94
437.392	887.94
437.614	885.94
437.835	877.94
438.057	890.94
438.278	851.94
438.5	876.94
438.721	880.94
438.943	888.94
439.165	862.94
439.386	914.94
439.608	914.94
439.829	920.94
440.05	935.94
440.272	932.94
440.493	939.94
440.715	945.94
440.936	939.94
441.158	968.94
441.379	1018.94
441.6	1060.94
441.822	1051.94
442.043	1028.94
442.264	1016.94
442.486	1037.94
442.707	1014.94
442.928	1000.94
443.149	1039.94
443.371	993.94
443.592	978.94
443.813	1040.94
444.034	1066.94
444.255	1089.94
444.476	1119.94
444.698	1203.94
444.919	1262.94
445.14	1330.94
445.361	1187.94
445.582	1084.94
445.803	1036.94
446.024	986.94
446.245	976.94
446.466	949.94
446.687	923.94
446.908	959.94
447.129	902.94
447.35	904.94
447.571	890.94
447.792	852.94
448.013	871.94
448.234	880.94
448.455	892.94
448.675	868.94
448.896	874.94
449.117	838.94
449.338	840.94
449.559	838.94
449.779	846.94
450	826.94
450.221	840.94
450.442	864.94
450.662	882.94
450.883	870.94
451.104	892.94
451.324	889.94
451.545	886.94
451.766	865.94
451.986	863.94
452.207	859.94
452.428	834.94
452.648	837.94
452.869	833.94
453.089	835.94
453.31	842.94
453.53	830.94
453.751	829.94
453.971	829.94
454.192	835.94
454.412	786.94
454.633	795.94
454.853	797.94
455.073	801.94
455.294	802.94
455.514	795.94
455.734	800.94
455.955	798.94
456.175	768.94
456.395	797.94
456.616	800.94
456.836	830.94
457.056	745.94
457.276	778.94
457.497	784.94
457.717	795.94
457.937	793.94
458.157	800.94
458.377	816.94
458.598	820.94
458.818	828.94
459.038	848.94
459.258	903.94
459.478	928.94
459.698	950.94
459.918	983.94
460.138	1011.94
460.358	1080.94
460.578	1062.94
460.798	1136.94
461.018	1124.94
461.238	1122.94
461.458	1063.94
461.678	1076.94
461.898	1106.94
462.118	1102.94
462.338	1148.94
462.558	1181.94
462.777	1245.94
462.997	1338.94
463.217	1433.94
463.437	1518.94
463.657	1400.94
463.876	1331.94
464.096	1310.94
464.316	1305.94
464.536	1283.94
464.755	1223.94
464.975	1187.94
465.195	1169.94
465.414	1070.94
465.634	992.94
465.854	963.94
466.073	954.94
466.293	905.94
466.512	915.94
466.732	906.94
466.951	867.94
467.171	860.94
467.391	884.94
467.61	875.94
467.829	849.94
468.049	880.94
468.268	858.94
468.488	858.94
468.707	831.94
468.927	843.94
469.146	820.94
469.365	869.94
469.585	857.94
469.804	860.94
470.023	900.94
470.243	888.94
470.462	914.94
470.681	926.94
470.901	933.94
471.12	909.94
471.339	913.94
471.558	862.94
471.777	855.94
471.997	848.94
472.216	845.94
472.435	834.94
472.654	802.94
472.873	802.94
473.092	803.94
473.311	820.94
473.53	829.94
473.749	807.94
473.968	809.94
474.187	805.94
474.406	819.94
474.625	859.94
474.844	824.94
475.063	800.94
475.282	840.94
475.501	833.94
475.72	818.94
475.939	808.94
476.158	821.94
476.377	834.94
476.596	847.94
476.814	846.94
477.033	865.94
477.252	892.94
477.471	892.94
477.69	928.94
477.908	914.94
478.127	969.94
478.346	980.94
478.564	989.94
478.783	986.94
479.002	1036.94
479.22	1037.94
479.439	1025.94
479.658	1002.94
479.876	1011.94
480.095	1013.94
480.313	1076.94
480.532	1103.94
480.751	1130.94
480.969	1060.94
481.188	1009.94
481.406	958.94
481.624	942.94
481.843	937.94
482.061	902.94
482.28	922.94
482.498	919.94
482.717	894.94
482.935	893.94
483.153	920.94
483.372	922.94
483.59	915.94
483.808	921.94
484.027	938.94
484.245	922.94
484.463	932.94
484.681	944.94
484.9	934.94
485.118	948.94
485.336	950.94
485.554	980.94
485.772	970.94
485.99	966.94
486.209	991.94
486.427	961.94
486.645	996.94
486.863	976.94
487.081	958.94
487.299	971.94
487.517	978.94
487.735	982.94
487.953	966.94
488.171	957.94
488.389	961.94
488.607	950.94
488.825	923.94
489.043	950.94
489.261	919.94
489.479	960.94
489.696	990.94
489.914	925.94
490.132	941.94
490.35	976.94
490.568	971.94
490.786	973.94
491.003	981.94
491.221	987.94
491.439	934.94
491.657	980.94
491.874	989.94
492.092	989.94
492.31	954.94
492.527	980.94
492.745	1015.94
492.963	1001.94
493.18	1014.94
493.398	1014.94
493.615	1019.94
493.833	999.94
494.05	995.94
494.268	1005.94
494.485	1016.94
494.703	1032.94
494.92	1018.94
495.138	1001.94
495.355	1022.94
495.573	1035.94
495.79	1044.94
496.008	1083.94
496.225	1052.94
496.442	1044.94
496.66	1056.94
496.877	1069.94
497.094	1082.94
497.312	1098.94
497.529	1129.94
497.746	1148.94
497.963	1174.94
498.181	1208.94
498.398	1310.94
498.615	1368.94
498.832	1478.94
