Data from NiCl2@0.25M.TitratingCurve.Agarose3%dH2O.NegLispCup.LampEnergy10.LIBS07252019_HRD10591_18-22-39-572.txt Node
Date: Thu Jul 25 18:22:39 EDT 2019
User: cochatt
Spectrometer: HR+D1059
Trigger mode: 1
Integration Time (sec): 1.000000E-1
Scans to average: 1
Electric dark correction enabled: true
Nonlinearity correction enabled: false
Boxcar width: 0
XAxis mode: Wavelengths
Number of Pixels in Spectrum: 2048
>>>>>Begin Spectral Data<<<<<
223.165	-21.75
223.4	-21.75
223.635	-21.75
223.869	-6.75
224.104	-15.75
224.338	-14.75
224.573	-14.75
224.808	-5.75
225.042	-4.75
225.277	6.25
225.511	-11.75
225.746	23.25
225.98	-9.75
226.215	12.25
226.449	-2.75
226.683	12.25
226.918	35.25
227.152	19.25
227.387	26.25
227.621	39.25
227.856	27.25
228.09	29.25
228.324	43.25
228.559	54.25
228.793	61.25
229.027	113.25
229.262	113.25
229.496	95.25
229.73	113.25
229.964	125.25
230.199	140.25
230.433	136.25
230.667	133.25
230.901	125.25
231.136	121.25
231.37	141.25
231.604	138.25
231.838	122.25
232.072	149.25
232.306	159.25
232.541	132.25
232.775	137.25
233.009	153.25
233.243	134.25
233.477	133.25
233.711	135.25
233.945	142.25
234.179	135.25
234.413	131.25
234.647	140.25
234.881	135.25
235.115	143.25
235.349	154.25
235.583	133.25
235.817	137.25
236.051	159.25
236.285	141.25
236.519	127.25
236.753	147.25
236.987	147.25
237.221	143.25
237.455	149.25
237.689	136.25
237.922	143.25
238.156	161.25
238.39	145.25
238.624	155.25
238.858	150.25
239.091	156.25
239.325	158.25
239.559	162.25
239.793	155.25
240.027	174.25
240.26	168.25
240.494	166.25
240.728	180.25
240.961	156.25
241.195	170.25
241.429	164.25
241.662	167.25
241.896	181.25
242.13	191.25
242.363	185.25
242.597	178.25
242.83	192.25
243.064	197.25
243.298	199.25
243.531	179.25
243.765	184.25
243.998	187.25
244.232	182.25
244.465	183.25
244.699	178.25
244.932	179.25
245.166	202.25
245.399	171.25
245.633	203.25
245.866	193.25
246.099	181.25
246.333	179.25
246.566	186.25
246.8	184.25
247.033	197.25
247.266	183.25
247.5	184.25
247.733	202.25
247.966	205.25
248.2	187.25
248.433	218.25
248.666	210.25
248.899	206.25
249.133	203.25
249.366	208.25
249.599	211.25
249.832	216.25
250.066	224.25
250.299	213.25
250.532	208.25
250.765	216.25
250.998	211.25
251.231	232.25
251.465	237.25
251.698	226.25
251.931	214.25
252.164	240.25
252.397	232.25
252.63	246.25
252.863	236.25
253.096	225.25
253.329	219.25
253.562	228.25
253.795	229.25
254.028	242.25
254.261	253.25
254.494	232.25
254.727	246.25
254.96	243.25
255.193	253.25
255.426	253.25
255.659	262.25
255.892	243.25
256.124	244.25
256.357	245.25
256.59	241.25
256.823	245.25
257.056	253.25
257.289	246.25
257.521	236.25
257.754	251.25
257.987	257.25
258.22	278.25
258.452	259.25
258.685	268.25
258.918	253.25
259.151	266.25
259.383	257.25
259.616	267.25
259.849	291.25
260.081	271.25
260.314	270.25
260.547	281.25
260.779	276.25
261.012	261.25
261.244	255.25
261.477	283.25
261.71	284.25
261.942	273.25
262.175	276.25
262.407	283.25
262.64	275.25
262.872	283.25
263.105	291.25
263.337	291.25
263.57	286.25
263.802	300.25
264.035	304.25
264.267	279.25
264.499	272.25
264.732	291.25
264.964	299.25
265.197	294.25
265.429	287.25
265.661	306.25
265.894	301.25
266.126	312.25
266.358	297.25
266.591	293.25
266.823	300.25
267.055	307.25
267.287	317.25
267.52	318.25
267.752	318.25
267.984	314.25
268.216	291.25
268.448	335.25
268.681	318.25
268.913	322.25
269.145	324.25
269.377	312.25
269.609	323.25
269.841	329.25
270.073	330.25
270.306	325.25
270.538	329.25
270.77	328.25
271.002	323.25
271.234	326.25
271.466	321.25
271.698	322.25
271.93	314.25
272.162	327.25
272.394	347.25
272.626	344.25
272.858	337.25
273.09	311.25
273.322	345.25
273.553	333.25
273.785	341.25
274.017	339.25
274.249	345.25
274.481	355.25
274.713	340.25
274.945	353.25
275.176	340.25
275.408	325.25
275.64	351.25
275.872	337.25
276.104	341.25
276.335	344.25
276.567	356.25
276.799	359.25
277.031	360.25
277.262	361.25
277.494	366.25
277.726	377.25
277.957	361.25
278.189	361.25
278.421	372.25
278.652	387.25
278.884	373.25
279.115	369.25
279.347	372.25
279.579	367.25
279.81	381.25
280.042	369.25
280.273	356.25
280.505	389.25
280.736	382.25
280.968	371.25
281.199	405.25
281.431	400.25
281.662	415.25
281.894	389.25
282.125	391.25
282.356	409.25
282.588	399.25
282.819	396.25
283.051	406.25
283.282	390.25
283.513	407.25
283.745	404.25
283.976	399.25
284.207	397.25
284.439	418.25
284.67	403.25
284.901	410.25
285.132	401.25
285.364	422.25
285.595	408.25
285.826	421.25
286.057	415.25
286.288	418.25
286.52	397.25
286.751	415.25
286.982	421.25
287.213	419.25
287.444	425.25
287.675	418.25
287.906	437.25
288.138	445.25
288.369	405.25
288.6	421.25
288.831	423.25
289.062	428.25
289.293	426.25
289.524	436.25
289.755	438.25
289.986	423.25
290.217	444.25
290.448	450.25
290.679	437.25
290.91	458.25
291.141	431.25
291.371	413.25
291.602	447.25
291.833	456.25
292.064	460.25
292.295	455.25
292.526	435.25
292.757	426.25
292.987	445.25
293.218	427.25
293.449	453.25
293.68	430.25
293.91	442.25
294.141	425.25
294.372	435.25
294.603	461.25
294.833	468.25
295.064	453.25
295.295	443.25
295.525	466.25
295.756	453.25
295.987	457.25
296.217	465.25
296.448	463.25
296.679	459.25
296.909	457.25
297.14	487.25
297.37	467.25
297.601	470.25
297.831	460.25
298.062	486.25
298.292	465.25
298.523	476.25
298.753	503.25
298.984	486.25
299.214	483.25
299.445	486.25
299.675	499.25
299.905	474.25
300.136	514.25
300.366	494.25
300.597	515.25
300.827	518.25
301.057	502.25
301.288	503.25
301.518	508.25
301.748	514.25
301.979	519.25
302.209	504.25
302.439	487.25
302.669	505.25
302.9	481.25
303.13	500.25
303.36	515.25
303.59	489.25
303.82	505.25
304.051	514.25
304.281	510.25
304.511	518.25
304.741	510.25
304.971	482.25
305.201	527.25
305.431	508.25
305.661	528.25
305.891	517.25
306.121	533.25
306.352	508.25
306.582	492.25
306.812	483.25
307.042	508.25
307.272	491.25
307.502	499.25
307.731	517.25
307.961	475.25
308.191	505.25
308.421	482.25
308.651	502.25
308.881	508.25
309.111	518.25
309.341	499.25
309.571	504.25
309.8	509.25
310.03	537.25
310.26	524.25
310.49	509.25
310.72	524.25
310.949	526.25
311.179	498.25
311.409	515.25
311.639	522.25
311.868	520.25
312.098	498.25
312.328	531.25
312.557	532.25
312.787	519.25
313.017	533.25
313.246	549.25
313.476	542.25
313.706	552.25
313.935	561.25
314.165	533.25
314.394	530.25
314.624	537.25
314.853	541.25
315.083	535.25
315.312	544.25
315.542	550.25
315.771	530.25
316.001	521.25
316.23	531.25
316.46	529.25
316.689	549.25
316.919	522.25
317.148	524.25
317.377	545.25
317.607	537.25
317.836	555.25
318.065	537.25
318.295	543.25
318.524	540.25
318.753	534.25
318.983	550.25
319.212	515.25
319.441	537.25
319.67	533.25
319.9	556.25
320.129	529.25
320.358	532.25
320.587	497.25
320.816	533.25
321.046	545.25
321.275	551.25
321.504	551.25
321.733	563.25
321.962	548.25
322.191	541.25
322.42	550.25
322.649	548.25
322.878	551.25
323.108	499.25
323.337	547.25
323.566	540.25
323.795	569.25
324.024	555.25
324.253	537.25
324.482	552.25
324.71	578.25
324.939	585.25
325.168	554.25
325.397	573.25
325.626	569.25
325.855	588.25
326.084	569.25
326.313	604.25
326.542	589.25
326.77	583.25
326.999	561.25
327.228	578.25
327.457	580.25
327.686	583.25
327.914	581.25
328.143	606.25
328.372	564.25
328.6	585.25
328.829	583.25
329.058	579.25
329.287	584.25
329.515	582.25
329.744	630.25
329.972	608.25
330.201	594.25
330.43	615.25
330.658	613.25
330.887	614.25
331.115	628.25
331.344	633.25
331.572	607.25
331.801	653.25
332.03	661.25
332.258	664.25
332.486	666.25
332.715	693.25
332.943	719.25
333.172	720.25
333.4	727.25
333.629	771.25
333.857	765.25
334.085	756.25
334.314	746.25
334.542	737.25
334.771	740.25
334.999	731.25
335.227	738.25
335.455	726.25
335.684	737.25
335.912	735.25
336.14	719.25
336.369	701.25
336.597	701.25
336.825	719.25
337.053	689.25
337.281	696.25
337.51	674.25
337.738	682.25
337.966	641.25
338.194	673.25
338.422	651.25
338.65	635.25
338.878	644.25
339.106	647.25
339.334	668.25
339.562	638.25
339.79	628.25
340.018	625.25
340.246	622.25
340.474	657.25
340.702	616.25
340.93	621.25
341.158	644.25
341.386	644.25
341.614	641.25
341.842	651.25
342.07	590.25
342.298	605.25
342.526	641.25
342.754	632.25
342.981	616.25
343.209	653.25
343.437	680.25
343.665	701.25
343.893	740.25
344.12	770.25
344.348	701.25
344.576	685.25
344.804	673.25
345.031	663.25
345.259	663.25
345.487	643.25
345.714	637.25
345.942	648.25
346.17	650.25
346.397	633.25
346.625	622.25
346.853	586.25
347.08	599.25
347.308	615.25
347.535	606.25
347.763	591.25
347.99	597.25
348.218	613.25
348.445	614.25
348.673	619.25
348.9	613.25
349.128	579.25
349.355	616.25
349.583	609.25
349.81	575.25
350.037	574.25
350.265	569.25
350.492	567.25
350.72	590.25
350.947	566.25
351.174	579.25
351.402	593.25
351.629	609.25
351.856	592.25
352.083	591.25
352.311	592.25
352.538	611.25
352.765	606.25
352.992	587.25
353.22	561.25
353.447	551.25
353.674	563.25
353.901	567.25
354.128	579.25
354.355	582.25
354.583	572.25
354.81	583.25
355.037	586.25
355.264	583.25
355.491	599.25
355.718	585.25
355.945	559.25
356.172	582.25
356.399	588.25
356.626	581.25
356.853	593.25
357.08	582.25
357.307	595.25
357.534	574.25
357.761	581.25
357.988	587.25
358.215	591.25
358.441	541.25
358.668	567.25
358.895	561.25
359.122	565.25
359.349	583.25
359.576	595.25
359.802	591.25
360.029	601.25
360.256	569.25
360.483	582.25
360.709	577.25
360.936	591.25
361.163	583.25
361.39	600.25
361.616	589.25
361.843	603.25
362.07	617.25
362.296	617.25
362.523	577.25
362.749	588.25
362.976	588.25
363.203	563.25
363.429	589.25
363.656	566.25
363.882	572.25
364.109	574.25
364.335	588.25
364.562	573.25
364.788	575.25
365.015	594.25
365.241	579.25
365.468	603.25
365.694	573.25
365.92	575.25
366.147	575.25
366.373	562.25
366.599	581.25
366.826	597.25
367.052	557.25
367.278	569.25
367.505	606.25
367.731	565.25
367.957	580.25
368.184	589.25
368.41	595.25
368.636	601.25
368.862	594.25
369.089	595.25
369.315	590.25
369.541	605.25
369.767	601.25
369.993	582.25
370.219	615.25
370.445	612.25
370.672	605.25
370.898	630.25
371.124	621.25
371.35	618.25
371.576	619.25
371.802	606.25
372.028	645.25
372.254	639.25
372.48	636.25
372.706	628.25
372.932	666.25
373.158	638.25
373.384	629.25
373.61	637.25
373.835	648.25
374.061	625.25
374.287	646.25
374.513	683.25
374.739	662.25
374.965	687.25
375.191	693.25
375.416	700.25
375.642	649.25
375.868	665.25
376.094	674.25
376.319	659.25
376.545	663.25
376.771	657.25
376.997	658.25
377.222	644.25
377.448	644.25
377.674	644.25
377.899	621.25
378.125	613.25
378.35	653.25
378.576	642.25
378.802	635.25
379.027	624.25
379.253	626.25
379.478	626.25
379.704	636.25
379.929	631.25
380.155	621.25
380.38	639.25
380.606	620.25
380.831	629.25
381.057	616.25
381.282	654.25
381.507	651.25
381.733	667.25
381.958	649.25
382.184	665.25
382.409	661.25
382.634	646.25
382.86	641.25
383.085	691.25
383.31	679.25
383.535	683.25
383.761	684.25
383.986	683.25
384.211	694.25
384.436	711.25
384.662	741.25
384.887	733.25
385.112	707.25
385.337	755.25
385.562	744.25
385.787	737.25
386.013	785.25
386.238	771.25
386.463	737.25
386.688	732.25
386.913	725.25
387.138	755.25
387.363	748.25
387.588	742.25
387.813	725.25
388.038	737.25
388.263	739.25
388.488	760.25
388.713	750.25
388.938	749.25
389.163	717.25
389.387	717.25
389.612	728.25
389.837	737.25
390.062	725.25
390.287	753.25
390.512	731.25
390.736	749.25
390.961	780.25
391.186	756.25
391.411	778.25
391.636	785.25
391.86	836.25
392.085	834.25
392.31	810.25
392.534	824.25
392.759	817.25
392.984	801.25
393.208	793.25
393.433	784.25
393.658	778.25
393.882	780.25
394.107	797.25
394.331	831.25
394.556	779.25
394.78	798.25
395.005	811.25
395.229	807.25
395.454	825.25
395.678	841.25
395.903	828.25
396.127	828.25
396.352	819.25
396.576	793.25
396.801	802.25
397.025	837.25
397.249	827.25
397.474	848.25
397.698	845.25
397.922	860.25
398.147	850.25
398.371	866.25
398.595	889.25
398.82	923.25
399.044	993.25
399.268	1075.25
399.492	1210.25
399.717	1342.25
399.941	1306.25
400.165	1201.25
400.389	1099.25
400.613	1011.25
400.837	965.25
401.062	940.25
401.286	953.25
401.51	949.25
401.734	935.25
401.958	956.25
402.182	959.25
402.406	955.25
402.63	968.25
402.854	972.25
403.078	986.25
403.302	997.25
403.526	1031.25
403.75	1048.25
403.974	1066.25
404.198	1046.25
404.422	1060.25
404.645	1045.25
404.869	1039.25
405.093	1010.25
405.317	1007.25
405.541	1031.25
405.765	989.25
405.988	1034.25
406.212	1034.25
406.436	1019.25
406.66	1035.25
406.883	1041.25
407.107	1123.25
407.331	1135.25
407.555	1197.25
407.778	1167.25
408.002	1181.25
408.226	1124.25
408.449	1099.25
408.673	1031.25
408.896	1049.25
409.12	1044.25
409.344	1053.25
409.567	1023.25
409.791	1042.25
410.014	1022.25
410.238	1042.25
410.461	998.25
410.685	1011.25
410.908	1006.25
411.132	1000.25
411.355	951.25
411.578	962.25
411.802	985.25
412.025	983.25
412.249	995.25
412.472	972.25
412.695	951.25
412.919	959.25
413.142	946.25
413.365	915.25
413.589	953.25
413.812	944.25
414.035	928.25
414.258	939.25
414.482	948.25
414.705	963.25
414.928	963.25
415.151	959.25
415.374	938.25
415.597	907.25
415.821	899.25
416.044	904.25
416.267	908.25
416.49	871.25
416.713	901.25
416.936	911.25
417.159	897.25
417.382	889.25
417.605	899.25
417.828	896.25
418.051	929.25
418.274	906.25
418.497	926.25
418.72	921.25
418.943	959.25
419.166	976.25
419.389	1026.25
419.611	1035.25
419.834	997.25
420.057	950.25
420.28	915.25
420.503	904.25
420.726	901.25
420.948	919.25
421.171	918.25
421.394	898.25
421.617	897.25
421.839	905.25
422.062	915.25
422.285	891.25
422.507	898.25
422.73	910.25
422.953	929.25
423.175	943.25
423.398	948.25
423.621	942.25
423.843	954.25
424.066	945.25
424.288	951.25
424.511	938.25
424.733	939.25
424.956	909.25
425.178	933.25
425.401	914.25
425.623	905.25
425.846	894.25
426.068	899.25
426.291	881.25
426.513	887.25
426.735	862.25
426.958	878.25
427.18	839.25
427.402	862.25
427.625	846.25
427.847	801.25
428.069	813.25
428.292	843.25
428.514	839.25
428.736	827.25
428.958	807.25
429.181	804.25
429.403	794.25
429.625	803.25
429.847	764.25
430.069	812.25
430.292	822.25
430.514	820.25
430.736	814.25
430.958	807.25
431.18	829.25
431.402	818.25
431.624	817.25
431.846	823.25
432.068	821.25
432.29	852.25
432.512	823.25
432.734	821.25
432.956	836.25
433.178	827.25
433.4	812.25
433.622	828.25
433.844	858.25
434.066	826.25
434.287	831.25
434.509	866.25
434.731	864.25
434.953	911.25
435.175	897.25
435.397	917.25
435.618	869.25
435.84	840.25
436.062	813.25
436.284	829.25
436.505	789.25
436.727	823.25
436.949	831.25
437.17	834.25
437.392	818.25
437.614	797.25
437.835	756.25
438.057	799.25
438.278	775.25
438.5	797.25
438.721	789.25
438.943	802.25
439.165	808.25
439.386	804.25
439.608	820.25
439.829	817.25
440.05	811.25
440.272	817.25
440.493	837.25
440.715	850.25
440.936	821.25
441.158	884.25
441.379	883.25
441.6	905.25
441.822	904.25
442.043	926.25
442.264	907.25
442.486	909.25
442.707	907.25
442.928	874.25
443.149	891.25
443.371	883.25
443.592	913.25
443.813	938.25
444.034	894.25
444.255	946.25
444.476	961.25
444.698	1045.25
444.919	1064.25
445.14	1168.25
445.361	1010.25
445.582	940.25
445.803	894.25
446.024	897.25
446.245	854.25
446.466	857.25
446.687	841.25
446.908	827.25
447.129	824.25
447.35	781.25
447.571	773.25
447.792	776.25
448.013	771.25
448.234	741.25
448.455	763.25
448.675	748.25
448.896	769.25
449.117	769.25
449.338	782.25
449.559	734.25
449.779	744.25
450	759.25
450.221	737.25
450.442	757.25
450.662	747.25
450.883	768.25
451.104	792.25
451.324	754.25
451.545	777.25
451.766	743.25
451.986	741.25
452.207	759.25
452.428	734.25
452.648	747.25
452.869	740.25
453.089	717.25
453.31	754.25
453.53	719.25
453.751	727.25
453.971	719.25
454.192	709.25
454.412	698.25
454.633	702.25
454.853	720.25
455.073	709.25
455.294	726.25
455.514	733.25
455.734	710.25
455.955	723.25
456.175	714.25
456.395	711.25
456.616	689.25
456.836	697.25
457.056	703.25
457.276	693.25
457.497	727.25
457.717	727.25
457.937	715.25
458.157	730.25
458.377	735.25
458.598	740.25
458.818	741.25
459.038	781.25
459.258	806.25
459.478	823.25
459.698	841.25
459.918	870.25
460.138	906.25
460.358	947.25
460.578	949.25
460.798	947.25
461.018	970.25
461.238	969.25
461.458	967.25
461.678	937.25
461.898	953.25
462.118	982.25
462.338	1034.25
462.558	1048.25
462.777	1084.25
462.997	1177.25
463.217	1221.25
463.437	1232.25
463.657	1128.25
463.876	1087.25
464.096	1096.25
464.316	1113.25
464.536	1095.25
464.755	1058.25
464.975	1014.25
465.195	978.25
465.414	953.25
465.634	857.25
465.854	825.25
466.073	847.25
466.293	835.25
466.512	820.25
466.732	766.25
466.951	778.25
467.171	811.25
467.391	801.25
467.61	813.25
467.829	799.25
468.049	802.25
468.268	756.25
468.488	752.25
468.707	758.25
468.927	745.25
469.146	776.25
469.365	793.25
469.585	773.25
469.804	787.25
470.023	808.25
470.243	790.25
470.462	817.25
470.681	827.25
470.901	798.25
471.12	801.25
471.339	784.25
471.558	765.25
471.777	780.25
471.997	779.25
472.216	771.25
472.435	746.25
472.654	743.25
472.873	726.25
473.092	759.25
473.311	746.25
473.53	767.25
473.749	733.25
473.968	765.25
474.187	734.25
474.406	750.25
474.625	748.25
474.844	751.25
475.063	748.25
475.282	748.25
475.501	769.25
475.72	773.25
475.939	755.25
476.158	748.25
476.377	763.25
476.596	784.25
476.814	795.25
477.033	779.25
477.252	826.25
477.471	817.25
477.69	845.25
477.908	840.25
478.127	870.25
478.346	917.25
478.564	901.25
478.783	886.25
479.002	931.25
479.22	939.25
479.439	921.25
479.658	921.25
479.876	953.25
480.095	949.25
480.313	958.25
480.532	999.25
480.751	963.25
480.969	948.25
481.188	908.25
481.406	919.25
481.624	891.25
481.843	865.25
482.061	877.25
482.28	874.25
482.498	846.25
482.717	845.25
482.935	867.25
483.153	857.25
483.372	885.25
483.59	875.25
483.808	866.25
484.027	878.25
484.245	892.25
484.463	859.25
484.681	881.25
484.9	905.25
485.118	916.25
485.336	896.25
485.554	896.25
485.772	892.25
485.99	906.25
486.209	888.25
486.427	908.25
486.645	877.25
486.863	900.25
487.081	903.25
487.299	890.25
487.517	913.25
487.735	903.25
487.953	921.25
488.171	901.25
488.389	877.25
488.607	858.25
488.825	868.25
489.043	868.25
489.261	866.25
489.479	914.25
489.696	909.25
489.914	895.25
490.132	897.25
490.35	874.25
490.568	895.25
490.786	907.25
491.003	910.25
491.221	930.25
491.439	903.25
491.657	911.25
491.874	920.25
492.092	909.25
492.31	929.25
492.527	923.25
492.745	918.25
492.963	943.25
493.18	959.25
493.398	950.25
493.615	950.25
493.833	939.25
494.05	932.25
494.268	973.25
494.485	937.25
494.703	946.25
494.92	973.25
495.138	948.25
495.355	966.25
495.573	990.25
495.79	962.25
496.008	966.25
496.225	980.25
496.442	1023.25
496.66	1030.25
496.877	1002.25
497.094	1019.25
497.312	1032.25
497.529	1079.25
497.746	1051.25
497.963	1099.25
498.181	1133.25
498.398	1232.25
498.615	1259.25
498.832	1342.25
499.049	1454.25
499.267	1539.25
499.484	1707.25
499.701	1855.25
499.918	2014.25
500.135	2284.25
500.352	2501.25
500.569	2545.25
