Data from NiCl2@0.25M.TitratingCurve.Agarose3%dH2O.NegLispCup.LampEnergy10.LIBS07252019_HRD10591_18-26-15-574.txt Node
Date: Thu Jul 25 18:26:15 EDT 2019
User: cochatt
Spectrometer: HR+D1059
Trigger mode: 1
Integration Time (sec): 1.000000E-1
Scans to average: 1
Electric dark correction enabled: true
Nonlinearity correction enabled: false
Boxcar width: 0
XAxis mode: Wavelengths
Number of Pixels in Spectrum: 2048
>>>>>Begin Spectral Data<<<<<
223.165	-18.44
223.4	-18.44
223.635	-18.44
223.869	-22.44
224.104	-15.44
224.338	-11.44
224.573	-27.44
224.808	-12.44
225.042	-1.44
225.277	-4.44
225.511	-6.44
225.746	7.56
225.98	13.56
226.215	7.56
226.449	23.56
226.683	27.56
226.918	12.56
227.152	27.56
227.387	35.56
227.621	34.56
227.856	38.56
228.09	44.56
228.324	43.56
228.559	58.56
228.793	77.56
229.027	114.56
229.262	132.56
229.496	126.56
229.73	121.56
229.964	141.56
230.199	151.56
230.433	133.56
230.667	138.56
230.901	155.56
231.136	151.56
231.37	148.56
231.604	152.56
231.838	166.56
232.072	150.56
232.306	157.56
232.541	164.56
232.775	166.56
233.009	153.56
233.243	156.56
233.477	162.56
233.711	165.56
233.945	164.56
234.179	169.56
234.413	185.56
234.647	167.56
234.881	162.56
235.115	180.56
235.349	167.56
235.583	166.56
235.817	185.56
236.051	173.56
236.285	162.56
236.519	164.56
236.753	169.56
236.987	166.56
237.221	168.56
237.455	190.56
237.689	171.56
237.922	189.56
238.156	193.56
238.39	193.56
238.624	176.56
238.858	204.56
239.091	188.56
239.325	199.56
239.559	195.56
239.793	188.56
240.027	197.56
240.26	204.56
240.494	198.56
240.728	212.56
240.961	208.56
241.195	197.56
241.429	216.56
241.662	202.56
241.896	223.56
242.13	220.56
242.363	227.56
242.597	213.56
242.83	232.56
243.064	237.56
243.298	219.56
243.531	231.56
243.765	224.56
243.998	224.56
244.232	227.56
244.465	246.56
244.699	236.56
244.932	233.56
245.166	223.56
245.399	260.56
245.633	248.56
245.866	264.56
246.099	258.56
246.333	249.56
246.566	253.56
246.8	256.56
247.033	261.56
247.266	269.56
247.5	254.56
247.733	259.56
247.966	250.56
248.2	284.56
248.433	286.56
248.666	262.56
248.899	261.56
249.133	270.56
249.366	289.56
249.599	277.56
249.832	253.56
250.066	290.56
250.299	290.56
250.532	296.56
250.765	276.56
250.998	286.56
251.231	300.56
251.465	308.56
251.698	300.56
251.931	285.56
252.164	297.56
252.397	309.56
252.63	315.56
252.863	316.56
253.096	308.56
253.329	326.56
253.562	325.56
253.795	322.56
254.028	300.56
254.261	326.56
254.494	309.56
254.727	324.56
254.96	335.56
255.193	315.56
255.426	328.56
255.659	344.56
255.892	337.56
256.124	328.56
256.357	322.56
256.59	337.56
256.823	328.56
257.056	327.56
257.289	332.56
257.521	349.56
257.754	338.56
257.987	347.56
258.22	333.56
258.452	336.56
258.685	340.56
258.918	353.56
259.151	346.56
259.383	348.56
259.616	344.56
259.849	354.56
260.081	363.56
260.314	378.56
260.547	374.56
260.779	384.56
261.012	384.56
261.244	384.56
261.477	376.56
261.71	372.56
261.942	368.56
262.175	373.56
262.407	386.56
262.64	364.56
262.872	387.56
263.105	393.56
263.337	392.56
263.57	379.56
263.802	397.56
264.035	404.56
264.267	406.56
264.499	409.56
264.732	416.56
264.964	395.56
265.197	389.56
265.429	395.56
265.661	390.56
265.894	401.56
266.126	399.56
266.358	411.56
266.591	402.56
266.823	429.56
267.055	426.56
267.287	418.56
267.52	425.56
267.752	406.56
267.984	433.56
268.216	402.56
268.448	419.56
268.681	423.56
268.913	423.56
269.145	416.56
269.377	397.56
269.609	420.56
269.841	425.56
270.073	408.56
270.306	425.56
270.538	444.56
270.77	433.56
271.002	440.56
271.234	437.56
271.466	442.56
271.698	434.56
271.93	456.56
272.162	456.56
272.394	458.56
272.626	444.56
272.858	446.56
273.09	440.56
273.322	459.56
273.553	454.56
273.785	453.56
274.017	456.56
274.249	469.56
274.481	457.56
274.713	457.56
274.945	453.56
275.176	478.56
275.408	487.56
275.64	444.56
275.872	467.56
276.104	496.56
276.335	474.56
276.567	469.56
276.799	484.56
277.031	488.56
277.262	525.56
277.494	493.56
277.726	484.56
277.957	500.56
278.189	492.56
278.421	482.56
278.652	510.56
278.884	510.56
279.115	514.56
279.347	512.56
279.579	518.56
279.81	517.56
280.042	519.56
280.273	530.56
280.505	513.56
280.736	517.56
280.968	520.56
281.199	508.56
281.431	542.56
281.662	519.56
281.894	546.56
282.125	536.56
282.356	564.56
282.588	514.56
282.819	529.56
283.051	526.56
283.282	531.56
283.513	542.56
283.745	557.56
283.976	552.56
284.207	546.56
284.439	582.56
284.67	559.56
284.901	576.56
285.132	566.56
285.364	554.56
285.595	547.56
285.826	577.56
286.057	568.56
286.288	562.56
286.52	571.56
286.751	572.56
286.982	572.56
287.213	576.56
287.444	565.56
287.675	581.56
287.906	565.56
288.138	594.56
288.369	584.56
288.6	580.56
288.831	580.56
289.062	590.56
289.293	595.56
289.524	610.56
289.755	584.56
289.986	584.56
290.217	610.56
290.448	609.56
290.679	609.56
290.91	626.56
291.141	617.56
291.371	597.56
291.602	624.56
291.833	611.56
292.064	620.56
292.295	614.56
292.526	604.56
292.757	612.56
292.987	583.56
293.218	600.56
293.449	598.56
293.68	628.56
293.91	632.56
294.141	621.56
294.372	605.56
294.603	632.56
294.833	602.56
295.064	628.56
295.295	602.56
295.525	614.56
295.756	630.56
295.987	611.56
296.217	613.56
296.448	628.56
296.679	620.56
296.909	633.56
297.14	632.56
297.37	626.56
297.601	626.56
297.831	666.56
298.062	660.56
298.292	673.56
298.523	675.56
298.753	676.56
298.984	659.56
299.214	652.56
299.445	644.56
299.675	658.56
299.905	681.56
300.136	666.56
300.366	664.56
300.597	664.56
300.827	680.56
301.057	691.56
301.288	728.56
301.518	709.56
301.748	680.56
301.979	706.56
302.209	708.56
302.439	710.56
302.669	693.56
302.9	685.56
303.13	694.56
303.36	700.56
303.59	698.56
303.82	689.56
304.051	677.56
304.281	678.56
304.511	683.56
304.741	658.56
304.971	683.56
305.201	684.56
305.431	692.56
305.661	682.56
305.891	672.56
306.121	678.56
306.352	689.56
306.582	664.56
306.812	654.56
307.042	680.56
307.272	645.56
307.502	654.56
307.731	675.56
307.961	671.56
308.191	670.56
308.421	662.56
308.651	666.56
308.881	649.56
309.111	660.56
309.341	681.56
309.571	669.56
309.8	689.56
310.03	673.56
310.26	672.56
310.49	681.56
310.72	688.56
310.949	676.56
311.179	676.56
311.409	683.56
311.639	685.56
311.868	681.56
312.098	691.56
312.328	692.56
312.557	707.56
312.787	709.56
313.017	715.56
313.246	707.56
313.476	729.56
313.706	718.56
313.935	713.56
314.165	744.56
314.394	717.56
314.624	735.56
314.853	701.56
315.083	712.56
315.312	715.56
315.542	713.56
315.771	721.56
316.001	698.56
316.23	726.56
316.46	718.56
316.689	702.56
316.919	701.56
317.148	695.56
317.377	700.56
317.607	699.56
317.836	714.56
318.065	705.56
318.295	714.56
318.524	716.56
318.753	705.56
318.983	712.56
319.212	691.56
319.441	693.56
319.67	698.56
319.9	712.56
320.129	693.56
320.358	698.56
320.587	716.56
320.816	738.56
321.046	704.56
321.275	726.56
321.504	698.56
321.733	690.56
321.962	716.56
322.191	727.56
322.42	702.56
322.649	717.56
322.878	712.56
323.108	711.56
323.337	725.56
323.566	734.56
323.795	732.56
324.024	727.56
324.253	734.56
324.482	736.56
324.71	739.56
324.939	737.56
325.168	730.56
325.397	737.56
325.626	735.56
325.855	760.56
326.084	786.56
326.313	753.56
326.542	791.56
326.77	805.56
326.999	752.56
327.228	744.56
327.457	750.56
327.686	747.56
327.914	780.56
328.143	781.56
328.372	776.56
328.6	794.56
328.829	766.56
329.058	789.56
329.287	753.56
329.515	782.56
329.744	767.56
329.972	786.56
330.201	799.56
330.43	794.56
330.658	772.56
330.887	791.56
331.115	822.56
331.344	790.56
331.572	809.56
331.801	849.56
332.03	839.56
332.258	868.56
332.486	890.56
332.715	902.56
332.943	954.56
333.172	984.56
333.4	997.56
333.629	1036.56
333.857	1020.56
334.085	1049.56
334.314	1059.56
334.542	1033.56
334.771	1021.56
334.999	1039.56
335.227	972.56
335.455	967.56
335.684	987.56
335.912	987.56
336.14	978.56
336.369	944.56
336.597	966.56
336.825	968.56
337.053	945.56
337.281	937.56
337.51	889.56
337.738	897.56
337.966	857.56
338.194	882.56
338.422	832.56
338.65	857.56
338.878	845.56
339.106	836.56
339.334	828.56
339.562	842.56
339.79	809.56
340.018	828.56
340.246	820.56
340.474	810.56
340.702	818.56
340.93	815.56
341.158	829.56
341.386	825.56
341.614	813.56
341.842	813.56
342.07	800.56
342.298	782.56
342.526	803.56
342.754	816.56
342.981	809.56
343.209	837.56
343.437	861.56
343.665	904.56
343.893	961.56
344.12	997.56
344.348	977.56
344.576	936.56
344.804	909.56
345.031	862.56
345.259	840.56
345.487	792.56
345.714	794.56
345.942	826.56
346.17	812.56
346.397	797.56
346.625	789.56
346.853	786.56
347.08	787.56
347.308	789.56
347.535	796.56
347.763	776.56
347.99	773.56
348.218	786.56
348.445	781.56
348.673	765.56
348.9	770.56
349.128	786.56
349.355	775.56
349.583	779.56
349.81	742.56
350.037	759.56
350.265	772.56
350.492	772.56
350.72	754.56
350.947	776.56
351.174	773.56
351.402	746.56
351.629	765.56
351.856	757.56
352.083	759.56
352.311	742.56
352.538	725.56
352.765	747.56
352.992	739.56
353.22	733.56
353.447	727.56
353.674	747.56
353.901	737.56
354.128	736.56
354.355	747.56
354.583	736.56
354.81	759.56
355.037	768.56
355.264	733.56
355.491	748.56
355.718	772.56
355.945	783.56
356.172	758.56
356.399	783.56
356.626	768.56
356.853	758.56
357.08	726.56
357.307	767.56
357.534	757.56
357.761	763.56
357.988	758.56
358.215	734.56
358.441	749.56
358.668	756.56
358.895	775.56
359.122	750.56
359.349	778.56
359.576	732.56
359.802	792.56
360.029	780.56
360.256	740.56
360.483	763.56
360.709	760.56
360.936	772.56
361.163	758.56
361.39	753.56
361.616	749.56
361.843	765.56
362.07	756.56
362.296	772.56
362.523	755.56
362.749	777.56
362.976	756.56
363.203	762.56
363.429	752.56
363.656	757.56
363.882	761.56
364.109	756.56
364.335	749.56
364.562	736.56
364.788	737.56
365.015	752.56
365.241	749.56
365.468	754.56
365.694	730.56
365.92	732.56
366.147	717.56
366.373	752.56
366.599	762.56
366.826	756.56
367.052	743.56
367.278	738.56
367.505	763.56
367.731	760.56
367.957	748.56
368.184	764.56
368.41	749.56
368.636	772.56
368.862	770.56
369.089	780.56
369.315	769.56
369.541	768.56
369.767	801.56
369.993	783.56
370.219	773.56
370.445	787.56
370.672	804.56
370.898	802.56
371.124	813.56
371.35	836.56
371.576	814.56
371.802	801.56
372.028	833.56
372.254	797.56
372.48	851.56
372.706	825.56
372.932	832.56
373.158	867.56
373.384	847.56
373.61	796.56
373.835	816.56
374.061	818.56
374.287	838.56
374.513	851.56
374.739	860.56
374.965	896.56
375.191	927.56
375.416	920.56
375.642	875.56
375.868	899.56
376.094	855.56
376.319	832.56
376.545	834.56
376.771	843.56
376.997	822.56
377.222	817.56
377.448	811.56
377.674	835.56
377.899	826.56
378.125	821.56
378.35	794.56
378.576	814.56
378.802	800.56
379.027	811.56
379.253	816.56
379.478	779.56
379.704	813.56
379.929	832.56
380.155	824.56
380.38	846.56
380.606	805.56
380.831	786.56
381.057	808.56
381.282	825.56
381.507	838.56
381.733	840.56
381.958	804.56
382.184	803.56
382.409	833.56
382.634	828.56
382.86	833.56
383.085	846.56
383.31	898.56
383.535	904.56
383.761	924.56
383.986	929.56
384.211	938.56
384.436	961.56
384.662	938.56
384.887	978.56
385.112	977.56
385.337	1006.56
385.562	1002.56
385.787	1013.56
386.013	1001.56
386.238	980.56
386.463	1003.56
386.688	1005.56
386.913	1000.56
387.138	994.56
387.363	977.56
387.588	986.56
387.813	997.56
388.038	993.56
388.263	1008.56
388.488	981.56
388.713	990.56
388.938	995.56
389.163	971.56
389.387	988.56
389.612	953.56
389.837	925.56
390.062	974.56
390.287	962.56
390.512	965.56
390.736	982.56
390.961	995.56
391.186	1014.56
391.411	1053.56
391.636	1061.56
391.86	1115.56
392.085	1133.56
392.31	1126.56
392.534	1085.56
392.759	1109.56
392.984	1067.56
393.208	1037.56
393.433	1033.56
393.658	1061.56
393.882	1046.56
394.107	1077.56
394.331	1061.56
394.556	1024.56
394.78	1061.56
395.005	1062.56
395.229	1083.56
395.454	1098.56
395.678	1152.56
395.903	1140.56
396.127	1118.56
396.352	1082.56
396.576	1069.56
396.801	1048.56
397.025	1059.56
397.249	1110.56
397.474	1120.56
397.698	1165.56
397.922	1108.56
398.147	1124.56
398.371	1138.56
398.595	1166.56
398.82	1212.56
399.044	1323.56
399.268	1453.56
399.492	1692.56
399.717	1858.56
399.941	1863.56
400.165	1685.56
400.389	1564.56
400.613	1432.56
400.837	1342.56
401.062	1340.56
401.286	1291.56
401.51	1273.56
401.734	1245.56
401.958	1288.56
402.182	1250.56
402.406	1280.56
402.63	1334.56
402.854	1367.56
403.078	1373.56
403.302	1374.56
403.526	1374.56
403.75	1400.56
403.974	1430.56
404.198	1436.56
404.422	1469.56
404.645	1405.56
404.869	1438.56
405.093	1455.56
405.317	1372.56
405.541	1382.56
405.765	1406.56
405.988	1377.56
406.212	1394.56
406.436	1376.56
406.66	1416.56
406.883	1432.56
407.107	1503.56
407.331	1620.56
407.555	1651.56
407.778	1625.56
408.002	1618.56
408.226	1567.56
408.449	1550.56
408.673	1450.56
408.896	1437.56
409.12	1416.56
409.344	1433.56
409.567	1423.56
409.791	1447.56
410.014	1445.56
410.238	1400.56
410.461	1402.56
410.685	1369.56
410.908	1344.56
411.132	1325.56
411.355	1276.56
411.578	1282.56
411.802	1286.56
412.025	1299.56
412.249	1352.56
412.472	1329.56
412.695	1256.56
412.919	1258.56
413.142	1267.56
413.365	1249.56
413.589	1231.56
413.812	1245.56
414.035	1235.56
414.258	1239.56
414.482	1286.56
414.705	1284.56
414.928	1250.56
415.151	1282.56
415.374	1257.56
415.597	1241.56
415.821	1233.56
416.044	1217.56
416.267	1200.56
416.49	1197.56
416.713	1210.56
416.936	1216.56
417.159	1226.56
417.382	1225.56
417.605	1227.56
417.828	1238.56
418.051	1246.56
418.274	1244.56
418.497	1245.56
418.72	1282.56
418.943	1253.56
419.166	1386.56
419.389	1458.56
419.611	1396.56
419.834	1323.56
420.057	1322.56
420.28	1254.56
420.503	1246.56
420.726	1216.56
420.948	1234.56
421.171	1211.56
421.394	1240.56
421.617	1208.56
421.839	1224.56
422.062	1267.56
422.285	1224.56
422.507	1237.56
422.73	1251.56
422.953	1294.56
423.175	1313.56
423.398	1266.56
423.621	1263.56
423.843	1240.56
424.066	1294.56
424.288	1303.56
424.511	1275.56
424.733	1264.56
424.956	1233.56
425.178	1259.56
425.401	1257.56
425.623	1259.56
425.846	1230.56
426.068	1198.56
426.291	1204.56
426.513	1165.56
426.735	1154.56
426.958	1125.56
427.18	1131.56
427.402	1126.56
427.625	1155.56
427.847	1084.56
428.069	1074.56
428.292	1099.56
428.514	1090.56
428.736	1076.56
428.958	1124.56
429.181	1066.56
429.403	1069.56
429.625	1067.56
429.847	1040.56
430.069	1024.56
430.292	1074.56
430.514	1060.56
430.736	1074.56
430.958	1067.56
431.18	1069.56
431.402	1085.56
431.624	1078.56
431.846	1094.56
432.068	1121.56
432.29	1095.56
432.512	1100.56
432.734	1127.56
432.956	1060.56
433.178	1086.56
433.4	1082.56
433.622	1109.56
433.844	1106.56
434.066	1107.56
434.287	1107.56
434.509	1177.56
434.731	1194.56
434.953	1219.56
435.175	1227.56
435.397	1221.56
435.618	1179.56
435.84	1146.56
436.062	1088.56
436.284	1094.56
436.505	1117.56
436.727	1085.56
436.949	1100.56
437.17	1091.56
437.392	1079.56
437.614	1058.56
437.835	1049.56
438.057	1050.56
438.278	1037.56
438.5	1025.56
438.721	1048.56
438.943	1042.56
439.165	1040.56
439.386	1063.56
439.608	1092.56
439.829	1106.56
440.05	1083.56
440.272	1093.56
440.493	1085.56
440.715	1132.56
440.936	1127.56
441.158	1118.56
441.379	1174.56
441.6	1230.56
441.822	1270.56
442.043	1254.56
442.264	1225.56
442.486	1202.56
442.707	1186.56
442.928	1184.56
443.149	1179.56
443.371	1193.56
443.592	1216.56
443.813	1209.56
444.034	1196.56
444.255	1252.56
444.476	1308.56
444.698	1402.56
444.919	1410.56
445.14	1483.56
445.361	1386.56
445.582	1283.56
445.803	1220.56
446.024	1167.56
446.245	1172.56
446.466	1128.56
446.687	1099.56
446.908	1108.56
447.129	1063.56
447.35	1060.56
447.571	1042.56
447.792	1013.56
448.013	1010.56
448.234	990.56
448.455	1027.56
448.675	996.56
448.896	997.56
449.117	978.56
449.338	990.56
449.559	960.56
449.779	981.56
450	972.56
450.221	979.56
450.442	1013.56
450.662	983.56
450.883	988.56
451.104	1065.56
451.324	979.56
451.545	1019.56
451.766	1020.56
451.986	983.56
452.207	995.56
452.428	1003.56
452.648	1002.56
452.869	998.56
453.089	1001.56
453.31	1000.56
453.53	944.56
453.751	962.56
453.971	973.56
454.192	963.56
454.412	932.56
454.633	966.56
454.853	967.56
455.073	947.56
455.294	934.56
455.514	920.56
455.734	954.56
455.955	902.56
456.175	923.56
456.395	911.56
456.616	921.56
456.836	935.56
457.056	960.56
457.276	880.56
457.497	937.56
457.717	919.56
457.937	936.56
458.157	948.56
458.377	969.56
458.598	976.56
458.818	992.56
459.038	1034.56
459.258	1074.56
459.478	1125.56
459.698	1137.56
459.918	1179.56
460.138	1195.56
460.358	1269.56
460.578	1302.56
460.798	1332.56
461.018	1341.56
461.238	1304.56
461.458	1292.56
461.678	1276.56
461.898	1332.56
462.118	1331.56
462.338	1390.56
462.558	1438.56
462.777	1500.56
462.997	1652.56
463.217	1732.56
463.437	1747.56
463.657	1597.56
463.876	1564.56
464.096	1573.56
464.316	1537.56
464.536	1515.56
464.755	1490.56
464.975	1410.56
465.195	1362.56
465.414	1277.56
465.634	1190.56
465.854	1163.56
466.073	1120.56
466.293	1084.56
466.512	1065.56
466.732	1076.56
466.951	1026.56
467.171	1019.56
467.391	1048.56
467.61	1012.56
467.829	1074.56
468.049	1022.56
468.268	1018.56
468.488	993.56
468.707	989.56
468.927	1024.56
469.146	998.56
469.365	1010.56
469.585	1064.56
469.804	1038.56
470.023	1097.56
470.243	1063.56
470.462	1097.56
470.681	1108.56
470.901	1082.56
471.12	1082.56
471.339	1054.56
471.558	1011.56
471.777	1012.56
471.997	1024.56
472.216	1011.56
472.435	990.56
472.654	1012.56
472.873	986.56
473.092	989.56
473.311	977.56
473.53	978.56
473.749	974.56
473.968	1012.56
474.187	976.56
474.406	952.56
474.625	972.56
474.844	999.56
475.063	978.56
475.282	1013.56
475.501	1018.56
475.72	993.56
475.939	996.56
476.158	1010.56
476.377	1032.56
476.596	992.56
476.814	1058.56
477.033	1035.56
477.252	1064.56
477.471	1080.56
477.69	1132.56
477.908	1137.56
478.127	1161.56
478.346	1154.56
478.564	1187.56
478.783	1171.56
479.002	1211.56
479.22	1236.56
479.439	1244.56
479.658	1235.56
479.876	1237.56
480.095	1250.56
480.313	1287.56
480.532	1312.56
480.751	1327.56
480.969	1265.56
481.188	1237.56
481.406	1182.56
481.624	1174.56
481.843	1150.56
482.061	1147.56
482.28	1102.56
482.498	1144.56
482.717	1109.56
482.935	1122.56
483.153	1106.56
483.372	1110.56
483.59	1113.56
483.808	1104.56
484.027	1115.56
484.245	1118.56
484.463	1090.56
484.681	1191.56
484.9	1171.56
485.118	1180.56
485.336	1167.56
485.554	1193.56
485.772	1212.56
485.99	1189.56
486.209	1207.56
486.427	1171.56
486.645	1171.56
486.863	1193.56
487.081	1194.56
487.299	1197.56
487.517	1176.56
487.735	1158.56
487.953	1143.56
488.171	1228.56
488.389	1181.56
488.607	1161.56
488.825	1117.56
489.043	1174.56
489.261	1154.56
489.479	1180.56
489.696	1191.56
489.914	1180.56
490.132	1192.56
490.35	1179.56
490.568	1184.56
490.786	1194.56
491.003	1176.56
491.221	1206.56
491.439	1196.56
491.657	1175.56
491.874	1195.56
492.092	1188.56
492.31	1214.56
492.527	1213.56
492.745	1245.56
492.963	1207.56
493.18	1213.56
493.398	1221.56
493.615	1205.56
493.833	1232.56
494.05	1259.56
494.268	1269.56
494.485	1218.56
494.703	1228.56
494.92	1257.56
495.138	1244.56
495.355	1282.56
495.573	1275.56
495.79	1277.56
