Data from NiCl2@0.5M.TitratingCurve.Agarose3%dH2O.NegLispCup.LampEnergy10.LIBS07252019_HRD10591_18-19-55-571.txt Node
Date: Thu Jul 25 18:19:55 EDT 2019
User: cochatt
Spectrometer: HR+D1059
Trigger mode: 1
Integration Time (sec): 1.000000E-1
Scans to average: 1
Electric dark correction enabled: true
Nonlinearity correction enabled: false
Boxcar width: 0
XAxis mode: Wavelengths
Number of Pixels in Spectrum: 2048
>>>>>Begin Spectral Data<<<<<
223.165	-23.44
223.4	-23.44
223.635	-23.44
223.869	-37.44
224.104	-20.44
224.338	-9.44
224.573	-8.44
224.808	-11.44
225.042	0.56
225.277	-9.44
225.511	3.56
225.746	1.56
225.98	3.56
226.215	9.56
226.449	10.56
226.683	29.56
226.918	16.56
227.152	44.56
227.387	45.56
227.621	33.56
227.856	46.56
228.09	38.56
228.324	57.56
228.559	57.56
228.793	65.56
229.027	97.56
229.262	108.56
229.496	109.56
229.73	103.56
229.964	110.56
230.199	132.56
230.433	120.56
230.667	132.56
230.901	116.56
231.136	127.56
231.37	120.56
231.604	130.56
231.838	134.56
232.072	128.56
232.306	139.56
232.541	126.56
232.775	122.56
233.009	127.56
233.243	130.56
233.477	120.56
233.711	134.56
233.945	152.56
234.179	118.56
234.413	136.56
234.647	122.56
234.881	136.56
235.115	119.56
235.349	117.56
235.583	134.56
235.817	121.56
236.051	134.56
236.285	130.56
236.519	136.56
236.753	136.56
236.987	133.56
237.221	130.56
237.455	145.56
237.689	139.56
237.922	122.56
238.156	142.56
238.39	128.56
238.624	118.56
238.858	132.56
239.091	143.56
239.325	143.56
239.559	131.56
239.793	135.56
240.027	132.56
240.26	138.56
240.494	149.56
240.728	149.56
240.961	140.56
241.195	144.56
241.429	161.56
241.662	166.56
241.896	169.56
242.13	155.56
242.363	168.56
242.597	152.56
242.83	151.56
243.064	172.56
243.298	168.56
243.531	158.56
243.765	176.56
243.998	166.56
244.232	168.56
244.465	148.56
244.699	155.56
244.932	153.56
245.166	175.56
245.399	150.56
245.633	162.56
245.866	153.56
246.099	176.56
246.333	167.56
246.566	157.56
246.8	171.56
247.033	164.56
247.266	182.56
247.5	192.56
247.733	184.56
247.966	177.56
248.2	185.56
248.433	188.56
248.666	185.56
248.899	198.56
249.133	178.56
249.366	197.56
249.599	176.56
249.832	193.56
250.066	195.56
250.299	196.56
250.532	185.56
250.765	213.56
250.998	194.56
251.231	188.56
251.465	213.56
251.698	199.56
251.931	191.56
252.164	193.56
252.397	209.56
252.63	200.56
252.863	205.56
253.096	218.56
253.329	214.56
253.562	206.56
253.795	217.56
254.028	207.56
254.261	202.56
254.494	206.56
254.727	208.56
254.96	217.56
255.193	200.56
255.426	216.56
255.659	211.56
255.892	223.56
256.124	234.56
256.357	229.56
256.59	226.56
256.823	226.56
257.056	214.56
257.289	214.56
257.521	242.56
257.754	231.56
257.987	234.56
258.22	219.56
258.452	221.56
258.685	226.56
258.918	253.56
259.151	224.56
259.383	232.56
259.616	238.56
259.849	229.56
260.081	234.56
260.314	242.56
260.547	232.56
260.779	226.56
261.012	243.56
261.244	240.56
261.477	246.56
261.71	234.56
261.942	245.56
262.175	244.56
262.407	266.56
262.64	243.56
262.872	264.56
263.105	245.56
263.337	254.56
263.57	258.56
263.802	265.56
264.035	253.56
264.267	246.56
264.499	244.56
264.732	270.56
264.964	252.56
265.197	281.56
265.429	241.56
265.661	275.56
265.894	254.56
266.126	282.56
266.358	273.56
266.591	243.56
266.823	268.56
267.055	256.56
267.287	271.56
267.52	273.56
267.752	261.56
267.984	267.56
268.216	283.56
268.448	282.56
268.681	263.56
268.913	255.56
269.145	292.56
269.377	272.56
269.609	286.56
269.841	283.56
270.073	302.56
270.306	282.56
270.538	302.56
270.77	289.56
271.002	289.56
271.234	287.56
271.466	293.56
271.698	290.56
271.93	290.56
272.162	299.56
272.394	284.56
272.626	291.56
272.858	294.56
273.09	281.56
273.322	294.56
273.553	279.56
273.785	298.56
274.017	299.56
274.249	298.56
274.481	307.56
274.713	292.56
274.945	315.56
275.176	312.56
275.408	301.56
275.64	316.56
275.872	314.56
276.104	305.56
276.335	320.56
276.567	301.56
276.799	310.56
277.031	335.56
277.262	321.56
277.494	316.56
277.726	315.56
277.957	323.56
278.189	322.56
278.421	333.56
278.652	328.56
278.884	316.56
279.115	314.56
279.347	340.56
279.579	324.56
279.81	325.56
280.042	314.56
280.273	334.56
280.505	327.56
280.736	332.56
280.968	342.56
281.199	345.56
281.431	356.56
281.662	340.56
281.894	362.56
282.125	356.56
282.356	359.56
282.588	358.56
282.819	351.56
283.051	376.56
283.282	347.56
283.513	350.56
283.745	334.56
283.976	348.56
284.207	363.56
284.439	374.56
284.67	368.56
284.901	370.56
285.132	363.56
285.364	381.56
285.595	372.56
285.826	366.56
286.057	370.56
286.288	365.56
286.52	374.56
286.751	394.56
286.982	388.56
287.213	358.56
287.444	373.56
287.675	371.56
287.906	377.56
288.138	380.56
288.369	398.56
288.6	372.56
288.831	396.56
289.062	368.56
289.293	396.56
289.524	391.56
289.755	402.56
289.986	384.56
290.217	398.56
290.448	418.56
290.679	399.56
290.91	398.56
291.141	392.56
291.371	391.56
291.602	394.56
291.833	396.56
292.064	390.56
292.295	416.56
292.526	412.56
292.757	391.56
292.987	403.56
293.218	378.56
293.449	414.56
293.68	394.56
293.91	391.56
294.141	388.56
294.372	390.56
294.603	393.56
294.833	409.56
295.064	409.56
295.295	385.56
295.525	398.56
295.756	395.56
295.987	402.56
296.217	393.56
296.448	419.56
296.679	413.56
296.909	413.56
297.14	407.56
297.37	411.56
297.601	429.56
297.831	439.56
298.062	428.56
298.292	415.56
298.523	434.56
298.753	447.56
298.984	438.56
299.214	440.56
299.445	432.56
299.675	424.56
299.905	447.56
300.136	424.56
300.366	434.56
300.597	442.56
300.827	472.56
301.057	452.56
301.288	476.56
301.518	465.56
301.748	455.56
301.979	457.56
302.209	482.56
302.439	462.56
302.669	457.56
302.9	454.56
303.13	455.56
303.36	466.56
303.59	448.56
303.82	450.56
304.051	467.56
304.281	470.56
304.511	446.56
304.741	454.56
304.971	470.56
305.201	468.56
305.431	449.56
305.661	448.56
305.891	468.56
306.121	464.56
306.352	462.56
306.582	461.56
306.812	455.56
307.042	459.56
307.272	451.56
307.502	464.56
307.731	451.56
307.961	471.56
308.191	459.56
308.421	462.56
308.651	480.56
308.881	462.56
309.111	492.56
309.341	440.56
309.571	452.56
309.8	472.56
310.03	472.56
310.26	459.56
310.49	483.56
310.72	462.56
310.949	457.56
311.179	466.56
311.409	435.56
311.639	475.56
311.868	474.56
312.098	470.56
312.328	484.56
312.557	487.56
312.787	472.56
313.017	484.56
313.246	487.56
313.476	485.56
313.706	484.56
313.935	500.56
314.165	474.56
314.394	482.56
314.624	491.56
314.853	494.56
315.083	500.56
315.312	503.56
315.542	478.56
315.771	476.56
316.001	482.56
316.23	482.56
316.46	463.56
316.689	492.56
316.919	487.56
317.148	486.56
317.377	468.56
317.607	484.56
317.836	479.56
318.065	473.56
318.295	465.56
318.524	479.56
318.753	473.56
318.983	500.56
319.212	494.56
319.441	480.56
319.67	508.56
319.9	490.56
320.129	502.56
320.358	488.56
320.587	495.56
320.816	490.56
321.046	506.56
321.275	502.56
321.504	475.56
321.733	492.56
321.962	487.56
322.191	509.56
322.42	477.56
322.649	498.56
322.878	490.56
323.108	496.56
323.337	530.56
323.566	517.56
323.795	515.56
324.024	505.56
324.253	502.56
324.482	501.56
324.71	513.56
324.939	529.56
325.168	503.56
325.397	487.56
325.626	530.56
325.855	528.56
326.084	552.56
326.313	552.56
326.542	545.56
326.77	529.56
326.999	541.56
327.228	555.56
327.457	532.56
327.686	545.56
327.914	524.56
328.143	546.56
328.372	534.56
328.6	539.56
328.829	551.56
329.058	522.56
329.287	535.56
329.515	554.56
329.744	529.56
329.972	566.56
330.201	523.56
330.43	531.56
330.658	554.56
330.887	546.56
331.115	541.56
331.344	550.56
331.572	588.56
331.801	572.56
332.03	597.56
332.258	589.56
332.486	591.56
332.715	612.56
332.943	624.56
333.172	635.56
333.4	674.56
333.629	672.56
333.857	659.56
334.085	666.56
334.314	664.56
334.542	638.56
334.771	652.56
334.999	639.56
335.227	661.56
335.455	644.56
335.684	636.56
335.912	633.56
336.14	653.56
336.369	640.56
336.597	649.56
336.825	651.56
337.053	670.56
337.281	641.56
337.51	616.56
337.738	612.56
337.966	612.56
338.194	633.56
338.422	598.56
338.65	600.56
338.878	603.56
339.106	606.56
339.334	590.56
339.562	591.56
339.79	572.56
340.018	577.56
340.246	592.56
340.474	547.56
340.702	579.56
340.93	581.56
341.158	581.56
341.386	560.56
341.614	597.56
341.842	593.56
342.07	568.56
342.298	567.56
342.526	582.56
342.754	577.56
342.981	598.56
343.209	580.56
343.437	606.56
343.665	637.56
343.893	656.56
344.12	650.56
344.348	644.56
344.576	626.56
344.804	602.56
345.031	606.56
345.259	608.56
345.487	604.56
345.714	582.56
345.942	616.56
346.17	598.56
346.397	581.56
346.625	549.56
346.853	565.56
347.08	546.56
347.308	555.56
347.535	571.56
347.763	542.56
347.99	533.56
348.218	552.56
348.445	550.56
348.673	537.56
348.9	538.56
349.128	545.56
349.355	545.56
349.583	542.56
349.81	536.56
350.037	524.56
350.265	530.56
350.492	530.56
350.72	532.56
350.947	514.56
351.174	550.56
351.402	548.56
351.629	549.56
351.856	556.56
352.083	535.56
352.311	544.56
352.538	552.56
352.765	551.56
352.992	523.56
353.22	536.56
353.447	536.56
353.674	500.56
353.901	528.56
354.128	504.56
354.355	512.56
354.583	516.56
354.81	532.56
355.037	522.56
355.264	530.56
355.491	516.56
355.718	537.56
355.945	516.56
356.172	512.56
356.399	545.56
356.626	550.56
356.853	543.56
357.08	511.56
357.307	529.56
357.534	538.56
357.761	526.56
357.988	536.56
358.215	510.56
358.441	518.56
358.668	499.56
358.895	528.56
359.122	535.56
359.349	521.56
359.576	521.56
359.802	527.56
360.029	523.56
360.256	519.56
360.483	513.56
360.709	504.56
360.936	523.56
361.163	539.56
361.39	531.56
361.616	513.56
361.843	546.56
362.07	548.56
362.296	579.56
362.523	516.56
362.749	542.56
362.976	497.56
363.203	502.56
363.429	497.56
363.656	518.56
363.882	510.56
364.109	509.56
364.335	499.56
364.562	516.56
364.788	534.56
365.015	513.56
365.241	513.56
365.468	521.56
365.694	514.56
365.92	519.56
366.147	503.56
366.373	535.56
366.599	516.56
366.826	499.56
367.052	509.56
367.278	502.56
367.505	530.56
367.731	506.56
367.957	547.56
368.184	526.56
368.41	523.56
368.636	501.56
368.862	549.56
369.089	525.56
369.315	525.56
369.541	519.56
369.767	514.56
369.993	526.56
370.219	556.56
370.445	533.56
370.672	527.56
370.898	556.56
371.124	540.56
371.35	547.56
371.576	554.56
371.802	548.56
372.028	544.56
372.254	556.56
372.48	551.56
372.706	550.56
372.932	560.56
373.158	553.56
373.384	568.56
373.61	531.56
373.835	553.56
374.061	545.56
374.287	547.56
374.513	541.56
374.739	593.56
374.965	578.56
375.191	580.56
375.416	591.56
375.642	546.56
375.868	580.56
376.094	567.56
376.319	566.56
376.545	543.56
376.771	548.56
376.997	529.56
377.222	549.56
377.448	518.56
377.674	538.56
377.899	552.56
378.125	545.56
378.35	545.56
378.576	524.56
378.802	544.56
379.027	538.56
379.253	552.56
379.478	537.56
379.704	517.56
379.929	526.56
380.155	530.56
380.38	548.56
380.606	544.56
380.831	556.56
381.057	558.56
381.282	540.56
381.507	551.56
381.733	546.56
381.958	547.56
382.184	544.56
382.409	557.56
382.634	565.56
382.86	546.56
383.085	569.56
383.31	557.56
383.535	573.56
383.761	583.56
383.986	600.56
384.211	597.56
384.436	621.56
384.662	614.56
384.887	587.56
385.112	599.56
385.337	638.56
385.562	631.56
385.787	620.56
386.013	634.56
386.238	640.56
386.463	617.56
386.688	632.56
386.913	617.56
387.138	604.56
387.363	624.56
387.588	616.56
387.813	643.56
388.038	625.56
388.263	621.56
388.488	625.56
388.713	617.56
388.938	624.56
389.163	598.56
389.387	628.56
389.612	598.56
389.837	620.56
390.062	606.56
390.287	618.56
390.512	615.56
390.736	632.56
390.961	624.56
391.186	670.56
391.411	677.56
391.636	650.56
391.86	705.56
392.085	668.56
392.31	687.56
392.534	690.56
392.759	692.56
392.984	666.56
393.208	672.56
393.433	638.56
393.658	627.56
393.882	649.56
394.107	665.56
394.331	689.56
394.556	662.56
394.78	672.56
395.005	685.56
395.229	676.56
395.454	696.56
395.678	709.56
395.903	699.56
396.127	700.56
396.352	690.56
396.576	673.56
396.801	675.56
397.025	675.56
397.249	691.56
397.474	712.56
397.698	704.56
397.922	690.56
398.147	727.56
398.371	737.56
398.595	737.56
398.82	795.56
399.044	847.56
399.268	884.56
399.492	997.56
399.717	1090.56
399.941	1045.56
400.165	968.56
400.389	904.56
400.613	879.56
400.837	818.56
401.062	796.56
401.286	802.56
401.51	778.56
401.734	781.56
401.958	793.56
402.182	776.56
402.406	786.56
402.63	805.56
402.854	836.56
403.078	818.56
403.302	833.56
403.526	838.56
403.75	855.56
403.974	850.56
404.198	856.56
404.422	851.56
404.645	853.56
404.869	839.56
405.093	850.56
405.317	835.56
405.541	832.56
405.765	819.56
405.988	827.56
406.212	850.56
406.436	837.56
406.66	841.56
406.883	874.56
407.107	943.56
407.331	931.56
407.555	971.56
407.778	967.56
408.002	915.56
408.226	906.56
408.449	936.56
408.673	903.56
408.896	875.56
409.12	885.56
409.344	863.56
409.567	881.56
409.791	874.56
410.014	861.56
410.238	843.56
410.461	849.56
410.685	839.56
410.908	862.56
411.132	805.56
411.355	816.56
411.578	850.56
411.802	822.56
412.025	818.56
412.249	830.56
412.472	823.56
412.695	804.56
412.919	781.56
413.142	822.56
413.365	778.56
413.589	790.56
413.812	818.56
414.035	780.56
414.258	796.56
414.482	811.56
414.705	811.56
414.928	801.56
415.151	788.56
415.374	796.56
415.597	805.56
415.821	788.56
416.044	800.56
416.267	780.56
416.49	738.56
416.713	788.56
416.936	799.56
417.159	775.56
417.382	765.56
417.605	758.56
417.828	769.56
418.051	764.56
418.274	808.56
418.497	782.56
418.72	812.56
418.943	781.56
419.166	824.56
419.389	907.56
419.611	866.56
419.834	833.56
420.057	802.56
420.28	797.56
420.503	760.56
420.726	758.56
420.948	781.56
421.171	800.56
421.394	791.56
421.617	770.56
421.839	805.56
422.062	805.56
422.285	764.56
422.507	816.56
422.73	798.56
422.953	804.56
423.175	810.56
423.398	813.56
423.621	828.56
423.843	818.56
424.066	836.56
424.288	836.56
424.511	829.56
424.733	812.56
424.956	778.56
425.178	806.56
425.401	793.56
425.623	821.56
425.846	784.56
426.068	771.56
426.291	785.56
426.513	757.56
426.735	760.56
426.958	754.56
427.18	762.56
427.402	727.56
427.625	748.56
427.847	707.56
428.069	731.56
428.292	724.56
428.514	738.56
428.736	743.56
428.958	705.56
429.181	697.56
429.403	712.56
429.625	740.56
429.847	734.56
430.069	730.56
430.292	726.56
430.514	733.56
430.736	718.56
430.958	740.56
431.18	724.56
431.402	716.56
431.624	724.56
431.846	718.56
432.068	755.56
432.29	743.56
432.512	725.56
432.734	722.56
432.956	716.56
433.178	741.56
433.4	786.56
433.622	754.56
433.844	790.56
434.066	742.56
434.287	770.56
434.509	758.56
434.731	790.56
434.953	789.56
435.175	810.56
435.397	811.56
435.618	768.56
435.84	764.56
436.062	756.56
436.284	758.56
436.505	726.56
436.727	736.56
436.949	754.56
437.17	750.56
437.392	737.56
437.614	700.56
437.835	740.56
438.057	718.56
438.278	729.56
438.5	732.56
438.721	734.56
438.943	708.56
439.165	726.56
439.386	745.56
439.608	708.56
439.829	750.56
440.05	747.56
440.272	760.56
440.493	734.56
440.715	760.56
440.936	770.56
441.158	776.56
441.379	801.56
441.6	828.56
441.822	820.56
442.043	834.56
442.264	839.56
442.486	794.56
442.707	789.56
442.928	812.56
443.149	786.56
443.371	800.56
443.592	830.56
443.813	845.56
444.034	800.56
444.255	829.56
444.476	867.56
444.698	932.56
444.919	944.56
445.14	1028.56
445.361	924.56
445.582	842.56
445.803	795.56
446.024	801.56
446.245	806.56
446.466	800.56
446.687	746.56
446.908	777.56
447.129	737.56
447.35	724.56
447.571	719.56
447.792	715.56
448.013	714.56
448.234	701.56
448.455	697.56
448.675	691.56
448.896	696.56
449.117	682.56
449.338	678.56
449.559	713.56
449.779	713.56
450	698.56
450.221	678.56
450.442	703.56
450.662	682.56
450.883	702.56
451.104	713.56
451.324	710.56
451.545	707.56
451.766	708.56
451.986	716.56
452.207	664.56
452.428	685.56
452.648	709.56
452.869	672.56
453.089	716.56
453.31	712.56
453.53	657.56
453.751	638.56
453.971	673.56
454.192	694.56
454.412	666.56
454.633	658.56
454.853	656.56
455.073	651.56
455.294	641.56
455.514	678.56
455.734	679.56
455.955	650.56
456.175	634.56
456.395	661.56
456.616	658.56
456.836	674.56
457.056	641.56
457.276	670.56
457.497	675.56
457.717	647.56
457.937	662.56
458.157	670.56
458.377	676.56
458.598	712.56
458.818	697.56
459.038	722.56
459.258	714.56
459.478	757.56
459.698	794.56
459.918	818.56
460.138	824.56
460.358	837.56
460.578	889.56
460.798	877.56
461.018	881.56
461.238	855.56
461.458	887.56
461.678	848.56
461.898	894.56
462.118	856.56
462.338	905.56
462.558	949.56
462.777	977.56
462.997	1033.56
463.217	1081.56
463.437	1102.56
463.657	1036.56
463.876	976.56
464.096	972.56
464.316	999.56
464.536	969.56
464.755	949.56
464.975	919.56
465.195	872.56
465.414	862.56
465.634	851.56
465.854	814.56
466.073	788.56
466.293	777.56
466.512	780.56
466.732	743.56
466.951	732.56
467.171	746.56
467.391	748.56
467.61	727.56
467.829	737.56
468.049	741.56
468.268	700.56
468.488	716.56
468.707	709.56
468.927	729.56
469.146	722.56
469.365	735.56
469.585	728.56
469.804	738.56
470.023	746.56
470.243	745.56
470.462	757.56
470.681	776.56
470.901	774.56
471.12	772.56
471.339	774.56
471.558	746.56
471.777	751.56
471.997	734.56
472.216	696.56
472.435	714.56
472.654	730.56
472.873	721.56
473.092	710.56
473.311	725.56
473.53	709.56
473.749	717.56
473.968	686.56
474.187	683.56
474.406	699.56
474.625	735.56
474.844	711.56
475.063	710.56
475.282	707.56
475.501	714.56
475.72	711.56
475.939	735.56
476.158	732.56
476.377	763.56
476.596	714.56
476.814	773.56
477.033	745.56
477.252	750.56
477.471	785.56
477.69	788.56
477.908	820.56
478.127	824.56
478.346	835.56
478.564	875.56
478.783	830.56
479.002	890.56
479.22	900.56
479.439	890.56
479.658	882.56
479.876	881.56
480.095	893.56
480.313	884.56
480.532	899.56
480.751	919.56
480.969	888.56
481.188	849.56
481.406	825.56
481.624	820.56
481.843	824.56
482.061	814.56
482.28	817.56
482.498	839.56
482.717	797.56
482.935	805.56
483.153	822.56
483.372	836.56
483.59	872.56
483.808	830.56
484.027	817.56
484.245	829.56
484.463	844.56
484.681	873.56
484.9	858.56
485.118	855.56
485.336	814.56
485.554	861.56
485.772	881.56
485.99	831.56
486.209	862.56
486.427	871.56
486.645	875.56
486.863	878.56
487.081	845.56
487.299	863.56
487.517	858.56
487.735	874.56
487.953	867.56
488.171	889.56
488.389	847.56
488.607	876.56
488.825	866.56
489.043	848.56
489.261	874.56
489.479	861.56
489.696	858.56
489.914	854.56
490.132	865.56
490.35	889.56
490.568	892.56
490.786	879.56
491.003	866.56
491.221	884.56
491.439	911.56
491.657	909.56
491.874	905.56
492.092	913.56
492.31	928.56
492.527	919.56
492.745	924.56
492.963	909.56
493.18	953.56
493.398	920.56
493.615	899.56
493.833	916.56
494.05	924.56
494.268	920.56
494.485	928.56
494.703	909.56
494.92	910.56
495.138	947.56
495.355	929.56
495.573	929.56
495.79	922.56
496.008	951.56
496.225	971.56
496.442	938.56
496.66	950.56
496.877	1008.56
497.094	986.56
497.312	1015.56
497.529	1034.56
497.746	1050.56
497.963	1070.56
498.181	1120.56
498.398	1140.56
498.615	1204.56
498.832	1230.56
499.049	1323.56
499.267	1425.56
499.484	1548.56
499.701	1635.56
499.918	1787.56
500.135	1960.56
500.352	2176.56
500.569	2232.56
500.786	2217.56
501.003	2063.56
501.22	1901.56
