Data from NiCl2@0.125M.TitratingCurve.Agarose3%dH2O.NegLispCup.LampEnergy10.LIBS07252019_HRD10591_18-30-44-575.txt Node
Date: Thu Jul 25 18:30:44 EDT 2019
User: cochatt
Spectrometer: HR+D1059
Trigger mode: 1
Integration Time (sec): 1.000000E-1
Scans to average: 1
Electric dark correction enabled: true
Nonlinearity correction enabled: false
Boxcar width: 0
XAxis mode: Wavelengths
Number of Pixels in Spectrum: 2048
>>>>>Begin Spectral Data<<<<<
223.165	-10.31
223.4	-10.31
223.635	-10.31
223.869	-22.31
224.104	-12.31
224.338	-27.31
224.573	-12.31
224.808	-10.31
225.042	-13.31
225.277	4.69
225.511	2.69
225.746	-3.31
225.98	0.69
226.215	2.69
226.449	11.69
226.683	30.69
226.918	29.69
227.152	28.69
227.387	40.69
227.621	39.69
227.856	54.69
228.09	55.69
228.324	61.69
228.559	52.69
228.793	67.69
229.027	63.69
229.262	68.69
229.496	69.69
229.73	74.69
229.964	67.69
230.199	63.69
230.433	101.69
230.667	83.69
230.901	68.69
231.136	76.69
231.37	77.69
231.604	79.69
231.838	85.69
232.072	88.69
232.306	84.69
232.541	70.69
232.775	87.69
233.009	72.69
233.243	77.69
233.477	89.69
233.711	98.69
233.945	85.69
234.179	87.69
234.413	80.69
234.647	82.69
234.881	88.69
235.115	81.69
235.349	88.69
235.583	66.69
235.817	84.69
236.051	84.69
236.285	81.69
236.519	72.69
236.753	74.69
236.987	85.69
237.221	87.69
237.455	85.69
237.689	92.69
237.922	77.69
238.156	84.69
238.39	80.69
238.624	83.69
238.858	78.69
239.091	74.69
239.325	74.69
239.559	80.69
239.793	66.69
240.027	72.69
240.26	91.69
240.494	76.69
240.728	72.69
240.961	76.69
241.195	77.69
241.429	82.69
241.662	70.69
241.896	87.69
242.13	82.69
242.363	69.69
242.597	70.69
242.83	83.69
243.064	75.69
243.298	74.69
243.531	83.69
243.765	80.69
243.998	74.69
244.232	85.69
244.465	64.69
244.699	80.69
244.932	80.69
245.166	79.69
245.399	79.69
245.633	96.69
245.866	79.69
246.099	74.69
246.333	71.69
246.566	75.69
246.8	78.69
247.033	79.69
247.266	76.69
247.5	98.69
247.733	80.69
247.966	74.69
248.2	80.69
248.433	75.69
248.666	94.69
248.899	78.69
249.133	73.69
249.366	69.69
249.599	87.69
249.832	75.69
250.066	84.69
250.299	94.69
250.532	100.69
250.765	94.69
250.998	88.69
251.231	79.69
251.465	88.69
251.698	83.69
251.931	82.69
252.164	81.69
252.397	82.69
252.63	72.69
252.863	79.69
253.096	76.69
253.329	82.69
253.562	77.69
253.795	94.69
254.028	75.69
254.261	89.69
254.494	82.69
254.727	85.69
254.96	84.69
255.193	79.69
255.426	76.69
255.659	79.69
255.892	79.69
256.124	94.69
256.357	75.69
256.59	93.69
256.823	84.69
257.056	91.69
257.289	87.69
257.521	75.69
257.754	93.69
257.987	82.69
258.22	78.69
258.452	71.69
258.685	91.69
258.918	67.69
259.151	85.69
259.383	84.69
259.616	76.69
259.849	89.69
260.081	78.69
260.314	82.69
260.547	91.69
260.779	77.69
261.012	91.69
261.244	90.69
261.477	88.69
261.71	92.69
261.942	86.69
262.175	71.69
262.407	81.69
262.64	82.69
262.872	85.69
263.105	88.69
263.337	93.69
263.57	85.69
263.802	79.69
264.035	72.69
264.267	96.69
264.499	89.69
264.732	78.69
264.964	72.69
265.197	83.69
265.429	80.69
265.661	75.69
265.894	84.69
266.126	82.69
266.358	79.69
266.591	91.69
266.823	89.69
267.055	95.69
267.287	83.69
267.52	79.69
267.752	102.69
267.984	93.69
268.216	82.69
268.448	84.69
268.681	98.69
268.913	96.69
269.145	75.69
269.377	88.69
269.609	78.69
269.841	87.69
270.073	75.69
270.306	87.69
270.538	79.69
270.77	95.69
271.002	76.69
271.234	96.69
271.466	93.69
271.698	86.69
271.93	85.69
272.162	87.69
272.394	67.69
272.626	81.69
272.858	86.69
273.09	95.69
273.322	83.69
273.553	86.69
273.785	86.69
274.017	85.69
274.249	77.69
274.481	94.69
274.713	100.69
274.945	89.69
275.176	81.69
275.408	75.69
275.64	78.69
275.872	84.69
276.104	94.69
276.335	77.69
276.567	82.69
276.799	79.69
277.031	79.69
277.262	94.69
277.494	98.69
277.726	78.69
277.957	84.69
278.189	93.69
278.421	102.69
278.652	76.69
278.884	98.69
279.115	85.69
279.347	68.69
279.579	85.69
279.81	79.69
280.042	84.69
280.273	95.69
280.505	78.69
280.736	75.69
280.968	86.69
281.199	79.69
281.431	82.69
281.662	86.69
281.894	92.69
282.125	96.69
282.356	79.69
282.588	91.69
282.819	82.69
283.051	79.69
283.282	84.69
283.513	91.69
283.745	94.69
283.976	81.69
284.207	86.69
284.439	84.69
284.67	102.69
284.901	86.69
285.132	83.69
285.364	79.69
285.595	83.69
285.826	85.69
286.057	93.69
286.288	91.69
286.52	92.69
286.751	71.69
286.982	77.69
287.213	84.69
287.444	90.69
287.675	98.69
287.906	82.69
288.138	74.69
288.369	82.69
288.6	87.69
288.831	87.69
289.062	86.69
289.293	90.69
289.524	102.69
289.755	87.69
289.986	79.69
290.217	72.69
290.448	102.69
290.679	68.69
290.91	86.69
291.141	91.69
291.371	89.69
291.602	80.69
291.833	88.69
292.064	89.69
292.295	87.69
292.526	75.69
292.757	85.69
292.987	84.69
293.218	97.69
293.449	91.69
293.68	91.69
293.91	82.69
294.141	84.69
294.372	92.69
294.603	94.69
294.833	100.69
295.064	86.69
295.295	86.69
295.525	110.69
295.756	93.69
295.987	86.69
296.217	92.69
296.448	81.69
296.679	76.69
296.909	77.69
297.14	91.69
297.37	76.69
297.601	79.69
297.831	91.69
298.062	97.69
298.292	85.69
298.523	88.69
298.753	77.69
298.984	88.69
299.214	98.69
299.445	83.69
299.675	96.69
299.905	102.69
300.136	96.69
300.366	77.69
300.597	87.69
300.827	90.69
301.057	90.69
301.288	97.69
301.518	88.69
301.748	77.69
301.979	93.69
302.209	85.69
302.439	71.69
302.669	95.69
302.9	87.69
303.13	95.69
303.36	71.69
303.59	86.69
303.82	85.69
304.051	90.69
304.281	88.69
304.511	93.69
304.741	87.69
304.971	88.69
305.201	85.69
305.431	88.69
305.661	88.69
305.891	90.69
306.121	86.69
306.352	86.69
306.582	75.69
306.812	74.69
307.042	90.69
307.272	71.69
307.502	91.69
307.731	90.69
307.961	67.69
308.191	93.69
308.421	88.69
308.651	87.69
308.881	89.69
309.111	86.69
309.341	95.69
309.571	83.69
309.8	92.69
310.03	83.69
310.26	87.69
310.49	89.69
310.72	76.69
310.949	94.69
311.179	85.69
311.409	102.69
311.639	91.69
311.868	101.69
312.098	96.69
312.328	81.69
312.557	81.69
312.787	71.69
313.017	64.69
313.246	89.69
313.476	74.69
313.706	85.69
313.935	82.69
314.165	91.69
314.394	92.69
314.624	84.69
314.853	80.69
315.083	92.69
315.312	84.69
315.542	73.69
315.771	74.69
316.001	89.69
316.23	85.69
316.46	72.69
316.689	89.69
316.919	85.69
317.148	92.69
317.377	98.69
317.607	85.69
317.836	82.69
318.065	94.69
318.295	82.69
318.524	73.69
318.753	79.69
318.983	72.69
319.212	95.69
319.441	71.69
319.67	83.69
319.9	103.69
320.129	74.69
320.358	96.69
320.587	108.69
320.816	83.69
321.046	91.69
321.275	83.69
321.504	84.69
321.733	104.69
321.962	79.69
322.191	90.69
322.42	86.69
322.649	87.69
322.878	92.69
323.108	95.69
323.337	90.69
323.566	77.69
323.795	80.69
324.024	86.69
324.253	87.69
324.482	90.69
324.71	86.69
324.939	99.69
325.168	91.69
325.397	83.69
325.626	82.69
325.855	78.69
326.084	88.69
326.313	93.69
326.542	82.69
326.77	96.69
326.999	78.69
327.228	88.69
327.457	100.69
327.686	87.69
327.914	79.69
328.143	88.69
328.372	87.69
328.6	92.69
328.829	76.69
329.058	86.69
329.287	82.69
329.515	83.69
329.744	81.69
329.972	77.69
330.201	94.69
330.43	94.69
330.658	89.69
330.887	88.69
331.115	93.69
331.344	87.69
331.572	98.69
331.801	83.69
332.03	81.69
332.258	90.69
332.486	98.69
332.715	98.69
332.943	87.69
333.172	94.69
333.4	84.69
333.629	82.69
333.857	90.69
334.085	89.69
334.314	70.69
334.542	90.69
334.771	72.69
334.999	70.69
335.227	80.69
335.455	75.69
335.684	74.69
335.912	81.69
336.14	89.69
336.369	88.69
336.597	76.69
336.825	91.69
337.053	81.69
337.281	94.69
337.51	99.69
337.738	71.69
337.966	83.69
338.194	95.69
338.422	86.69
338.65	82.69
338.878	94.69
339.106	88.69
339.334	83.69
339.562	86.69
339.79	96.69
340.018	91.69
340.246	82.69
340.474	90.69
340.702	90.69
340.93	91.69
341.158	80.69
341.386	82.69
341.614	76.69
341.842	63.69
342.07	84.69
342.298	90.69
342.526	89.69
342.754	102.69
342.981	87.69
343.209	87.69
343.437	86.69
343.665	91.69
343.893	86.69
344.12	86.69
344.348	77.69
344.576	88.69
344.804	78.69
345.031	81.69
345.259	90.69
345.487	92.69
345.714	85.69
345.942	62.69
346.17	80.69
346.397	98.69
346.625	90.69
346.853	91.69
347.08	94.69
347.308	83.69
347.535	89.69
347.763	95.69
347.99	79.69
348.218	86.69
348.445	88.69
348.673	88.69
348.9	76.69
349.128	95.69
349.355	71.69
349.583	99.69
349.81	82.69
350.037	85.69
350.265	102.69
350.492	92.69
350.72	76.69
350.947	79.69
351.174	91.69
351.402	80.69
351.629	70.69
351.856	74.69
352.083	74.69
352.311	77.69
352.538	80.69
352.765	85.69
352.992	64.69
353.22	97.69
353.447	79.69
353.674	90.69
353.901	86.69
354.128	77.69
354.355	84.69
354.583	84.69
354.81	100.69
355.037	90.69
355.264	75.69
355.491	87.69
355.718	85.69
355.945	86.69
356.172	71.69
356.399	77.69
356.626	91.69
356.853	83.69
357.08	88.69
357.307	92.69
357.534	75.69
357.761	79.69
357.988	95.69
358.215	94.69
358.441	89.69
358.668	84.69
358.895	102.69
359.122	81.69
359.349	96.69
359.576	91.69
359.802	92.69
360.029	85.69
360.256	80.69
360.483	88.69
360.709	84.69
360.936	81.69
361.163	74.69
361.39	93.69
361.616	83.69
361.843	77.69
362.07	76.69
362.296	82.69
362.523	92.69
362.749	89.69
362.976	77.69
363.203	81.69
363.429	96.69
363.656	85.69
363.882	77.69
364.109	75.69
364.335	84.69
364.562	87.69
364.788	96.69
365.015	80.69
365.241	90.69
365.468	87.69
365.694	84.69
365.92	101.69
366.147	93.69
366.373	78.69
366.599	81.69
366.826	95.69
367.052	88.69
367.278	89.69
367.505	90.69
367.731	70.69
367.957	85.69
368.184	83.69
368.41	82.69
368.636	84.69
368.862	85.69
369.089	71.69
369.315	72.69
369.541	86.69
369.767	77.69
369.993	101.69
370.219	85.69
370.445	85.69
370.672	88.69
370.898	96.69
371.124	99.69
371.35	82.69
371.576	70.69
371.802	79.69
372.028	79.69
372.254	83.69
372.48	79.69
372.706	80.69
372.932	88.69
373.158	90.69
373.384	81.69
373.61	52.69
373.835	83.69
374.061	77.69
374.287	84.69
374.513	93.69
374.739	88.69
374.965	82.69
375.191	82.69
375.416	74.69
375.642	95.69
375.868	100.69
376.094	83.69
376.319	72.69
376.545	69.69
376.771	83.69
376.997	80.69
377.222	72.69
377.448	78.69
377.674	77.69
377.899	83.69
378.125	81.69
378.35	72.69
378.576	85.69
378.802	83.69
379.027	80.69
379.253	85.69
379.478	94.69
379.704	73.69
379.929	85.69
380.155	58.69
380.38	80.69
380.606	91.69
380.831	93.69
381.057	92.69
381.282	96.69
381.507	87.69
381.733	84.69
381.958	99.69
382.184	76.69
382.409	69.69
382.634	86.69
382.86	85.69
383.085	80.69
383.31	90.69
383.535	102.69
383.761	86.69
383.986	76.69
384.211	80.69
384.436	85.69
384.662	90.69
384.887	87.69
385.112	94.69
385.337	101.69
385.562	90.69
385.787	68.69
386.013	87.69
386.238	75.69
386.463	103.69
386.688	86.69
386.913	73.69
387.138	80.69
387.363	79.69
387.588	100.69
387.813	78.69
388.038	84.69
388.263	77.69
388.488	79.69
388.713	95.69
388.938	73.69
389.163	101.69
389.387	98.69
389.612	62.69
389.837	87.69
390.062	70.69
390.287	79.69
390.512	84.69
390.736	85.69
390.961	91.69
391.186	95.69
391.411	93.69
391.636	101.69
391.86	89.69
392.085	89.69
392.31	79.69
392.534	78.69
392.759	80.69
392.984	94.69
393.208	80.69
393.433	97.69
393.658	80.69
393.882	85.69
394.107	91.69
394.331	70.69
394.556	97.69
394.78	97.69
395.005	82.69
395.229	81.69
395.454	94.69
395.678	87.69
395.903	79.69
396.127	105.69
396.352	99.69
396.576	90.69
396.801	74.69
397.025	78.69
397.249	79.69
397.474	93.69
397.698	89.69
397.922	105.69
398.147	93.69
398.371	64.69
398.595	98.69
398.82	76.69
399.044	83.69
399.268	91.69
399.492	80.69
399.717	82.69
399.941	89.69
400.165	80.69
400.389	91.69
400.613	82.69
400.837	88.69
401.062	83.69
401.286	93.69
401.51	84.69
401.734	92.69
401.958	91.69
402.182	92.69
402.406	94.69
402.63	79.69
402.854	98.69
403.078	89.69
403.302	72.69
403.526	102.69
403.75	91.69
403.974	80.69
404.198	85.69
404.422	79.69
404.645	85.69
404.869	82.69
405.093	85.69
405.317	90.69
405.541	75.69
405.765	84.69
405.988	72.69
406.212	87.69
406.436	88.69
406.66	84.69
406.883	89.69
407.107	85.69
407.331	98.69
407.555	100.69
407.778	93.69
408.002	94.69
408.226	96.69
408.449	78.69
408.673	97.69
408.896	91.69
409.12	89.69
409.344	92.69
409.567	86.69
409.791	89.69
410.014	84.69
410.238	94.69
410.461	103.69
410.685	94.69
410.908	94.69
411.132	90.69
411.355	88.69
411.578	95.69
411.802	85.69
412.025	91.69
412.249	85.69
412.472	78.69
412.695	98.69
412.919	106.69
413.142	98.69
413.365	91.69
413.589	96.69
413.812	95.69
414.035	92.69
414.258	82.69
414.482	93.69
414.705	98.69
414.928	89.69
415.151	96.69
415.374	90.69
415.597	103.69
415.821	83.69
416.044	93.69
416.267	94.69
416.49	83.69
416.713	84.69
416.936	84.69
417.159	92.69
417.382	96.69
417.605	83.69
417.828	99.69
418.051	71.69
418.274	84.69
418.497	94.69
418.72	93.69
418.943	103.69
419.166	84.69
419.389	87.69
419.611	96.69
419.834	103.69
420.057	102.69
420.28	104.69
420.503	92.69
420.726	87.69
420.948	96.69
421.171	99.69
421.394	96.69
421.617	86.69
421.839	101.69
422.062	88.69
422.285	92.69
422.507	88.69
422.73	93.69
422.953	91.69
423.175	88.69
423.398	95.69
423.621	101.69
423.843	96.69
424.066	73.69
424.288	106.69
424.511	112.69
424.733	89.69
424.956	98.69
425.178	98.69
425.401	105.69
425.623	76.69
425.846	91.69
426.068	101.69
426.291	89.69
426.513	85.69
426.735	105.69
426.958	96.69
427.18	86.69
427.402	104.69
427.625	86.69
427.847	94.69
428.069	88.69
428.292	83.69
428.514	97.69
428.736	93.69
428.958	80.69
429.181	82.69
429.403	91.69
429.625	98.69
429.847	88.69
430.069	102.69
430.292	95.69
430.514	89.69
430.736	93.69
430.958	92.69
431.18	84.69
431.402	87.69
431.624	91.69
431.846	83.69
432.068	93.69
432.29	86.69
432.512	80.69
432.734	85.69
432.956	100.69
433.178	104.69
433.4	103.69
433.622	94.69
433.844	82.69
434.066	76.69
434.287	90.69
434.509	84.69
434.731	84.69
434.953	91.69
435.175	98.69
435.397	99.69
435.618	81.69
435.84	85.69
436.062	88.69
436.284	92.69
436.505	99.69
436.727	100.69
436.949	109.69
437.17	93.69
437.392	88.69
437.614	85.69
437.835	97.69
438.057	75.69
438.278	99.69
438.5	90.69
438.721	86.69
438.943	107.69
439.165	104.69
439.386	98.69
439.608	93.69
439.829	101.69
440.05	92.69
440.272	101.69
440.493	104.69
440.715	104.69
440.936	101.69
441.158	99.69
441.379	103.69
441.6	92.69
441.822	109.69
442.043	109.69
442.264	87.69
442.486	101.69
442.707	103.69
442.928	92.69
443.149	96.69
443.371	106.69
443.592	88.69
443.813	83.69
444.034	88.69
444.255	105.69
444.476	102.69
444.698	100.69
444.919	90.69
445.14	222.69
445.361	165.69
445.582	87.69
445.803	98.69
446.024	100.69
446.245	95.69
446.466	112.69
446.687	101.69
446.908	104.69
447.129	107.69
447.35	93.69
447.571	91.69
447.792	108.69
448.013	103.69
448.234	125.69
448.455	112.69
448.675	96.69
448.896	93.69
449.117	97.69
449.338	96.69
449.559	102.69
449.779	118.69
450	96.69
450.221	97.69
450.442	92.69
450.662	105.69
450.883	96.69
451.104	108.69
451.324	107.69
451.545	105.69
451.766	108.69
451.986	73.69
452.207	93.69
452.428	98.69
452.648	95.69
452.869	90.69
453.089	93.69
453.31	76.69
453.53	86.69
453.751	84.69
453.971	98.69
454.192	95.69
454.412	96.69
454.633	101.69
454.853	99.69
455.073	110.69
455.294	95.69
455.514	107.69
455.734	79.69
455.955	100.69
456.175	93.69
456.395	99.69
456.616	89.69
456.836	93.69
457.056	85.69
457.276	81.69
457.497	78.69
457.717	97.69
457.937	89.69
458.157	93.69
458.377	90.69
458.598	95.69
458.818	82.69
459.038	93.69
459.258	94.69
459.478	83.69
459.698	80.69
459.918	104.69
460.138	93.69
460.358	87.69
460.578	82.69
460.798	95.69
461.018	106.69
461.238	99.69
461.458	96.69
461.678	89.69
461.898	95.69
462.118	94.69
462.338	78.69
462.558	90.69
462.777	91.69
462.997	90.69
463.217	98.69
463.437	83.69
463.657	86.69
463.876	92.69
464.096	74.69
464.316	94.69
464.536	81.69
464.755	75.69
464.975	87.69
465.195	107.69
465.414	91.69
465.634	98.69
465.854	103.69
466.073	91.69
466.293	86.69
466.512	96.69
466.732	94.69
466.951	91.69
467.171	99.69
467.391	101.69
467.61	106.69
467.829	88.69
468.049	86.69
468.268	96.69
468.488	107.69
468.707	88.69
468.927	91.69
469.146	73.69
469.365	96.69
469.585	103.69
469.804	91.69
470.023	93.69
470.243	104.69
470.462	109.69
470.681	101.69
470.901	99.69
471.12	86.69
471.339	87.69
471.558	95.69
471.777	102.69
471.997	95.69
472.216	84.69
472.435	86.69
472.654	87.69
472.873	98.69
473.092	99.69
473.311	83.69
473.53	99.69
473.749	86.69
473.968	107.69
474.187	104.69
474.406	89.69
474.625	96.69
474.844	98.69
475.063	78.69
475.282	92.69
475.501	80.69
475.72	92.69
475.939	99.69
476.158	102.69
476.377	84.69
476.596	106.69
476.814	77.69
477.033	79.69
477.252	90.69
477.471	81.69
477.69	94.69
477.908	108.69
478.127	105.69
478.346	84.69
478.564	87.69
478.783	88.69
479.002	111.69
479.22	86.69
479.439	97.69
479.658	92.69
479.876	97.69
480.095	92.69
480.313	88.69
480.532	111.69
480.751	90.69
480.969	77.69
481.188	85.69
481.406	86.69
481.624	112.69
481.843	103.69
482.061	104.69
482.28	94.69
482.498	95.69
482.717	90.69
482.935	100.69
483.153	110.69
483.372	101.69
483.59	98.69
483.808	98.69
484.027	100.69
484.245	106.69
484.463	92.69
484.681	92.69
484.9	101.69
485.118	97.69
485.336	75.69
485.554	87.69
485.772	96.69
485.99	90.69
486.209	93.69
486.427	90.69
486.645	78.69
486.863	94.69
487.081	101.69
487.299	100.69
487.517	103.69
487.735	91.69
487.953	106.69
488.171	119.69
488.389	96.69
488.607	94.69
488.825	91.69
489.043	83.69
489.261	91.69
489.479	96.69
489.696	99.69
489.914	95.69
490.132	88.69
490.35	95.69
490.568	94.69
490.786	122.69
491.003	98.69
491.221	108.69
491.439	113.69
491.657	102.69
491.874	115.69
492.092	126.69
492.31	103.69
492.527	110.69
492.745	108.69
492.963	112.69
493.18	112.69
493.398	115.69
493.615	94.69
493.833	99.69
494.05	103.69
494.268	105.69
494.485	109.69
494.703	107.69
494.92	94.69
495.138	89.69
495.355	104.69
495.573	111.69
495.79	98.69
496.008	111.69
496.225	107.69
496.442	104.69
496.66	111.69
496.877	92.69
497.094	99.69
497.312	96.69
497.529	110.69
497.746	110.69
497.963	85.69
498.181	101.69
498.398	102.69
498.615	100.69
498.832	103.69
499.049	108.69
499.267	102.69
499.484	106.69
499.701	91.69
499.918	93.69
500.135	105.69
500.352	109.69
500.569	109.69
500.786	110.69
501.003	90.69
501.22	98.69
501.437	100.69
501.654	89.69
501.871	86.69
502.088	89.69
502.305	103.69
502.522	92.69
502.739	104.69
502.956	106.69
503.172	91.69
503.389	84.69
503.606	94.69
503.823	93.69
504.04	91.69
504.256	92.69
504.473	98.69
504.69	95.69
504.907	89.69
505.123	94.69
505.34	88.69
505.557	91.69
505.773	108.69
505.99	95.69
506.207	92.69
506.423	97.69
506.64	100.69
506.856	97.69
507.073	84.69
507.289	107.69
507.506	101.69
507.722	88.69
507.939	96.69
508.155	108.69
508.372	92.69
508.588	101.69
508.805	95.69
509.021	93.69
509.238	88.69
509.454	94.69
509.67	75.69
509.887	94.69
510.103	84.69
510.319	86.69
510.536	95.69
510.752	73.69
510.968	76.69
511.184	82.69
511.401	89.69
511.617	98.69
511.833	93.69
512.049	98.69
512.265	85.69
512.481	86.69
512.698	87.69
512.914	88.69
513.13	90.69
513.346	90.69
513.562	77.69
513.778	76.69
513.994	81.69
514.21	98.69
514.426	90.69
514.642	96.69
514.858	102.69
515.074	94.69
515.29	101.69
515.506	83.69
515.721	97.69
515.937	98.69
516.153	106.69
516.369	80.69
516.585	79.69
