Data from NiCl2@0.5M.TitratingCurve.Agarose3%dH2O.NegLispCup.LampEnergy10.LIBS07252019_HRD10591_18-19-21-577.txt Node
Date: Thu Jul 25 18:19:21 EDT 2019
User: cochatt
Spectrometer: HR+D1059
Trigger mode: 1
Integration Time (sec): 1.000000E-1
Scans to average: 1
Electric dark correction enabled: true
Nonlinearity correction enabled: false
Boxcar width: 0
XAxis mode: Wavelengths
Number of Pixels in Spectrum: 2048
>>>>>Begin Spectral Data<<<<<
223.165	-10.69
223.4	-10.69
223.635	-10.69
223.869	-9.69
224.104	-8.69
224.338	-4.69
224.573	-20.69
224.808	-12.69
225.042	-16.69
225.277	1.31
225.511	-4.69
225.746	3.31
225.98	4.31
226.215	8.31
226.449	14.31
226.683	10.31
226.918	20.31
227.152	26.31
227.387	26.31
227.621	29.31
227.856	44.31
228.09	43.31
228.324	58.31
228.559	61.31
228.793	74.31
229.027	89.31
229.262	135.31
229.496	129.31
229.73	118.31
229.964	142.31
230.199	131.31
230.433	131.31
230.667	135.31
230.901	120.31
231.136	128.31
231.37	149.31
231.604	149.31
231.838	138.31
232.072	148.31
232.306	143.31
232.541	159.31
232.775	154.31
233.009	155.31
233.243	143.31
233.477	144.31
233.711	135.31
233.945	136.31
234.179	152.31
234.413	147.31
234.647	149.31
234.881	142.31
235.115	161.31
235.349	146.31
235.583	148.31
235.817	161.31
236.051	141.31
236.285	155.31
236.519	149.31
236.753	162.31
236.987	148.31
237.221	154.31
237.455	145.31
237.689	147.31
237.922	145.31
238.156	163.31
238.39	155.31
238.624	161.31
238.858	173.31
239.091	165.31
239.325	165.31
239.559	172.31
239.793	164.31
240.027	175.31
240.26	169.31
240.494	164.31
240.728	171.31
240.961	181.31
241.195	174.31
241.429	196.31
241.662	186.31
241.896	195.31
242.13	185.31
242.363	184.31
242.597	193.31
242.83	190.31
243.064	180.31
243.298	180.31
243.531	183.31
243.765	191.31
243.998	190.31
244.232	202.31
244.465	205.31
244.699	195.31
244.932	204.31
245.166	209.31
245.399	204.31
245.633	221.31
245.866	211.31
246.099	211.31
246.333	208.31
246.566	198.31
246.8	217.31
247.033	210.31
247.266	208.31
247.5	222.31
247.733	211.31
247.966	208.31
248.2	218.31
248.433	206.31
248.666	225.31
248.899	236.31
249.133	224.31
249.366	239.31
249.599	210.31
249.832	241.31
250.066	241.31
250.299	247.31
250.532	228.31
250.765	250.31
250.998	233.31
251.231	250.31
251.465	257.31
251.698	256.31
251.931	236.31
252.164	263.31
252.397	245.31
252.63	237.31
252.863	258.31
253.096	249.31
253.329	279.31
253.562	244.31
253.795	236.31
254.028	259.31
254.261	279.31
254.494	272.31
254.727	261.31
254.96	257.31
255.193	265.31
255.426	273.31
255.659	269.31
255.892	269.31
256.124	266.31
256.357	265.31
256.59	280.31
256.823	282.31
257.056	279.31
257.289	267.31
257.521	281.31
257.754	286.31
257.987	255.31
258.22	284.31
258.452	278.31
258.685	276.31
258.918	305.31
259.151	280.31
259.383	284.31
259.616	274.31
259.849	285.31
260.081	303.31
260.314	283.31
260.547	318.31
260.779	301.31
261.012	319.31
261.244	311.31
261.477	296.31
261.71	322.31
261.942	305.31
262.175	324.31
262.407	320.31
262.64	305.31
262.872	315.31
263.105	300.31
263.337	325.31
263.57	305.31
263.802	312.31
264.035	309.31
264.267	304.31
264.499	339.31
264.732	323.31
264.964	317.31
265.197	339.31
265.429	316.31
265.661	330.31
265.894	330.31
266.126	331.31
266.358	327.31
266.591	346.31
266.823	344.31
267.055	344.31
267.287	341.31
267.52	320.31
267.752	338.31
267.984	346.31
268.216	352.31
268.448	345.31
268.681	357.31
268.913	359.31
269.145	368.31
269.377	343.31
269.609	358.31
269.841	353.31
270.073	367.31
270.306	355.31
270.538	361.31
270.77	372.31
271.002	351.31
271.234	349.31
271.466	379.31
271.698	351.31
271.93	375.31
272.162	380.31
272.394	361.31
272.626	379.31
272.858	358.31
273.09	375.31
273.322	376.31
273.553	373.31
273.785	398.31
274.017	397.31
274.249	367.31
274.481	363.31
274.713	371.31
274.945	379.31
275.176	375.31
275.408	398.31
275.64	370.31
275.872	384.31
276.104	407.31
276.335	396.31
276.567	395.31
276.799	413.31
277.031	406.31
277.262	397.31
277.494	400.31
277.726	391.31
277.957	411.31
278.189	412.31
278.421	397.31
278.652	443.31
278.884	414.31
279.115	404.31
279.347	422.31
279.579	425.31
279.81	402.31
280.042	427.31
280.273	421.31
280.505	426.31
280.736	426.31
280.968	454.31
281.199	442.31
281.431	419.31
281.662	447.31
281.894	450.31
282.125	430.31
282.356	424.31
282.588	435.31
282.819	437.31
283.051	435.31
283.282	446.31
283.513	451.31
283.745	450.31
283.976	448.31
284.207	443.31
284.439	459.31
284.67	449.31
284.901	476.31
285.132	464.31
285.364	479.31
285.595	447.31
285.826	467.31
286.057	462.31
286.288	461.31
286.52	473.31
286.751	497.31
286.982	481.31
287.213	491.31
287.444	497.31
287.675	471.31
287.906	458.31
288.138	466.31
288.369	514.31
288.6	481.31
288.831	475.31
289.062	468.31
289.293	480.31
289.524	474.31
289.755	461.31
289.986	467.31
290.217	460.31
290.448	484.31
290.679	513.31
290.91	476.31
291.141	505.31
291.371	498.31
291.602	493.31
291.833	488.31
292.064	498.31
292.295	506.31
292.526	500.31
292.757	490.31
292.987	496.31
293.218	483.31
293.449	490.31
293.68	465.31
293.91	517.31
294.141	517.31
294.372	523.31
294.603	513.31
294.833	515.31
295.064	500.31
295.295	505.31
295.525	520.31
295.756	526.31
295.987	499.31
296.217	542.31
296.448	521.31
296.679	505.31
296.909	514.31
297.14	517.31
297.37	544.31
297.601	550.31
297.831	530.31
298.062	546.31
298.292	544.31
298.523	541.31
298.753	547.31
298.984	539.31
299.214	565.31
299.445	544.31
299.675	557.31
299.905	568.31
300.136	545.31
300.366	563.31
300.597	551.31
300.827	571.31
301.057	569.31
301.288	556.31
301.518	561.31
301.748	583.31
301.979	578.31
302.209	590.31
302.439	576.31
302.669	547.31
302.9	551.31
303.13	543.31
303.36	547.31
303.59	570.31
303.82	550.31
304.051	568.31
304.281	575.31
304.511	577.31
304.741	561.31
304.971	570.31
305.201	600.31
305.431	603.31
305.661	561.31
305.891	561.31
306.121	563.31
306.352	589.31
306.582	567.31
306.812	551.31
307.042	555.31
307.272	569.31
307.502	539.31
307.731	559.31
307.961	592.31
308.191	572.31
308.421	557.31
308.651	579.31
308.881	543.31
309.111	590.31
309.341	564.31
309.571	563.31
309.8	592.31
310.03	587.31
310.26	611.31
310.49	575.31
310.72	580.31
310.949	587.31
311.179	584.31
311.409	566.31
311.639	580.31
311.868	602.31
312.098	615.31
312.328	581.31
312.557	625.31
312.787	583.31
313.017	593.31
313.246	596.31
313.476	599.31
313.706	608.31
313.935	603.31
314.165	639.31
314.394	633.31
314.624	613.31
314.853	633.31
315.083	626.31
315.312	614.31
315.542	595.31
315.771	602.31
316.001	613.31
316.23	617.31
316.46	617.31
316.689	629.31
316.919	618.31
317.148	610.31
317.377	613.31
317.607	613.31
317.836	616.31
318.065	613.31
318.295	598.31
318.524	591.31
318.753	582.31
318.983	631.31
319.212	607.31
319.441	590.31
319.67	613.31
319.9	613.31
320.129	617.31
320.358	605.31
320.587	607.31
320.816	616.31
321.046	629.31
321.275	615.31
321.504	601.31
321.733	589.31
321.962	648.31
322.191	624.31
322.42	629.31
322.649	633.31
322.878	649.31
323.108	611.31
323.337	627.31
323.566	629.31
323.795	631.31
324.024	649.31
324.253	601.31
324.482	631.31
324.71	641.31
324.939	657.31
325.168	636.31
325.397	641.31
325.626	641.31
325.855	662.31
326.084	649.31
326.313	666.31
326.542	641.31
326.77	649.31
326.999	653.31
327.228	668.31
327.457	646.31
327.686	672.31
327.914	677.31
328.143	652.31
328.372	647.31
328.6	668.31
328.829	697.31
329.058	641.31
329.287	655.31
329.515	678.31
329.744	641.31
329.972	659.31
330.201	675.31
330.43	675.31
330.658	693.31
330.887	694.31
331.115	674.31
331.344	671.31
331.572	705.31
331.801	700.31
332.03	701.31
332.258	723.31
332.486	744.31
332.715	752.31
332.943	779.31
333.172	791.31
333.4	808.31
333.629	809.31
333.857	827.31
334.085	828.31
334.314	809.31
334.542	803.31
334.771	796.31
334.999	795.31
335.227	794.31
335.455	804.31
335.684	782.31
335.912	781.31
336.14	781.31
336.369	795.31
336.597	789.31
336.825	793.31
337.053	788.31
337.281	776.31
337.51	763.31
337.738	751.31
337.966	727.31
338.194	744.31
338.422	759.31
338.65	737.31
338.878	723.31
339.106	747.31
339.334	731.31
339.562	717.31
339.79	719.31
340.018	706.31
340.246	693.31
340.474	678.31
340.702	709.31
340.93	699.31
341.158	729.31
341.386	735.31
341.614	748.31
341.842	724.31
342.07	689.31
342.298	713.31
342.526	698.31
342.754	688.31
342.981	691.31
343.209	705.31
343.437	712.31
343.665	764.31
343.893	785.31
344.12	799.31
344.348	755.31
344.576	777.31
344.804	760.31
345.031	745.31
345.259	710.31
345.487	718.31
345.714	720.31
345.942	694.31
346.17	701.31
346.397	703.31
346.625	683.31
346.853	700.31
347.08	695.31
347.308	677.31
347.535	690.31
347.763	693.31
347.99	678.31
348.218	697.31
348.445	663.31
348.673	671.31
348.9	656.31
349.128	677.31
349.355	665.31
349.583	676.31
349.81	634.31
350.037	641.31
350.265	649.31
350.492	640.31
350.72	650.31
350.947	657.31
351.174	666.31
351.402	668.31
351.629	674.31
351.856	654.31
352.083	635.31
352.311	657.31
352.538	675.31
352.765	681.31
352.992	659.31
353.22	628.31
353.447	647.31
353.674	630.31
353.901	633.31
354.128	640.31
354.355	631.31
354.583	640.31
354.81	635.31
355.037	647.31
355.264	634.31
355.491	631.31
355.718	631.31
355.945	645.31
356.172	643.31
356.399	644.31
356.626	666.31
356.853	662.31
357.08	654.31
357.307	647.31
357.534	641.31
357.761	660.31
357.988	642.31
358.215	628.31
358.441	624.31
358.668	618.31
358.895	635.31
359.122	611.31
359.349	649.31
359.576	641.31
359.802	644.31
360.029	655.31
360.256	639.31
360.483	640.31
360.709	642.31
360.936	617.31
361.163	644.31
361.39	641.31
361.616	613.31
361.843	683.31
362.07	673.31
362.296	655.31
362.523	639.31
362.749	651.31
362.976	640.31
363.203	622.31
363.429	634.31
363.656	610.31
363.882	614.31
364.109	630.31
364.335	618.31
364.562	623.31
364.788	637.31
365.015	648.31
365.241	638.31
365.468	634.31
365.694	614.31
365.92	611.31
366.147	623.31
366.373	639.31
366.599	625.31
366.826	637.31
367.052	602.31
367.278	620.31
367.505	623.31
367.731	651.31
367.957	642.31
368.184	648.31
368.41	644.31
368.636	665.31
368.862	638.31
369.089	667.31
369.315	635.31
369.541	666.31
369.767	643.31
369.993	650.31
370.219	636.31
370.445	654.31
370.672	649.31
370.898	644.31
371.124	642.31
371.35	693.31
371.576	679.31
371.802	674.31
372.028	689.31
372.254	683.31
372.48	663.31
372.706	658.31
372.932	690.31
373.158	668.31
373.384	687.31
373.61	673.31
373.835	648.31
374.061	665.31
374.287	667.31
374.513	678.31
374.739	689.31
374.965	693.31
375.191	720.31
375.416	709.31
375.642	681.31
375.868	680.31
376.094	687.31
376.319	657.31
376.545	690.31
376.771	675.31
376.997	652.31
377.222	655.31
377.448	639.31
377.674	644.31
377.899	649.31
378.125	643.31
378.35	617.31
378.576	623.31
378.802	652.31
379.027	649.31
379.253	635.31
379.478	657.31
379.704	636.31
379.929	667.31
380.155	652.31
380.38	649.31
380.606	654.31
380.831	625.31
381.057	655.31
381.282	662.31
381.507	646.31
381.733	679.31
381.958	664.31
382.184	645.31
382.409	647.31
382.634	674.31
382.86	704.31
383.085	691.31
383.31	705.31
383.535	680.31
383.761	683.31
383.986	691.31
384.211	707.31
384.436	723.31
384.662	740.31
384.887	734.31
385.112	727.31
385.337	751.31
385.562	746.31
385.787	765.31
386.013	771.31
386.238	753.31
386.463	743.31
386.688	754.31
386.913	758.31
387.138	782.31
387.363	744.31
387.588	735.31
387.813	759.31
388.038	756.31
388.263	729.31
388.488	789.31
388.713	789.31
388.938	735.31
389.163	768.31
389.387	748.31
389.612	737.31
389.837	747.31
390.062	747.31
390.287	737.31
390.512	739.31
390.736	729.31
390.961	767.31
391.186	780.31
391.411	787.31
391.636	790.31
391.86	799.31
392.085	845.31
392.31	819.31
392.534	821.31
392.759	788.31
392.984	807.31
393.208	774.31
393.433	771.31
393.658	787.31
393.882	786.31
394.107	792.31
394.331	803.31
394.556	801.31
394.78	787.31
395.005	836.31
395.229	827.31
395.454	824.31
395.678	811.31
395.903	827.31
396.127	831.31
396.352	807.31
396.576	794.31
396.801	801.31
397.025	804.31
397.249	811.31
397.474	839.31
397.698	844.31
397.922	860.31
398.147	866.31
398.371	871.31
398.595	890.31
398.82	906.31
399.044	983.31
399.268	1026.31
399.492	1139.31
399.717	1205.31
399.941	1212.31
400.165	1149.31
400.389	1092.31
400.613	1002.31
400.837	986.31
401.062	963.31
401.286	954.31
401.51	940.31
401.734	905.31
401.958	938.31
402.182	924.31
402.406	929.31
402.63	951.31
402.854	931.31
403.078	961.31
403.302	979.31
403.526	1009.31
403.75	1007.31
403.974	1032.31
404.198	1015.31
404.422	1008.31
404.645	1008.31
404.869	992.31
405.093	1044.31
405.317	980.31
405.541	1025.31
405.765	1004.31
405.988	1001.31
406.212	984.31
406.436	979.31
406.66	1038.31
406.883	1039.31
407.107	1064.31
407.331	1117.31
407.555	1169.31
407.778	1117.31
408.002	1122.31
408.226	1100.31
408.449	1105.31
408.673	1076.31
408.896	1070.31
409.12	1030.31
409.344	1044.31
409.567	1063.31
409.791	1036.31
410.014	1035.31
410.238	1024.31
410.461	1016.31
410.685	1022.31
410.908	987.31
411.132	976.31
411.355	969.31
411.578	979.31
411.802	984.31
412.025	977.31
412.249	987.31
412.472	978.31
412.695	964.31
412.919	960.31
413.142	958.31
413.365	937.31
413.589	939.31
413.812	940.31
414.035	935.31
414.258	959.31
414.482	913.31
414.705	977.31
414.928	949.31
415.151	956.31
415.374	974.31
415.597	940.31
415.821	904.31
416.044	906.31
416.267	900.31
416.49	906.31
416.713	929.31
416.936	921.31
417.159	914.31
417.382	899.31
417.605	895.31
417.828	907.31
418.051	919.31
418.274	932.31
418.497	906.31
418.72	959.31
418.943	971.31
419.166	997.31
419.389	1023.31
419.611	1045.31
419.834	1004.31
420.057	983.31
420.28	936.31
420.503	927.31
420.726	924.31
420.948	935.31
421.171	917.31
421.394	924.31
421.617	909.31
421.839	909.31
422.062	966.31
422.285	927.31
422.507	931.31
422.73	953.31
422.953	973.31
423.175	950.31
423.398	955.31
423.621	929.31
423.843	954.31
424.066	953.31
424.288	963.31
424.511	959.31
424.733	970.31
424.956	951.31
425.178	929.31
425.401	921.31
425.623	947.31
425.846	940.31
426.068	917.31
426.291	918.31
426.513	909.31
426.735	915.31
426.958	911.31
427.18	874.31
427.402	900.31
427.625	896.31
427.847	893.31
428.069	883.31
428.292	892.31
428.514	869.31
428.736	858.31
428.958	883.31
429.181	857.31
429.403	849.31
429.625	874.31
429.847	854.31
430.069	867.31
430.292	879.31
430.514	860.31
430.736	860.31
430.958	865.31
431.18	859.31
431.402	855.31
431.624	869.31
431.846	883.31
432.068	860.31
432.29	908.31
432.512	869.31
432.734	886.31
432.956	901.31
433.178	890.31
433.4	894.31
433.622	895.31
433.844	905.31
434.066	915.31
434.287	896.31
434.509	941.31
434.731	961.31
434.953	933.31
435.175	951.31
435.397	967.31
435.618	903.31
435.84	901.31
436.062	890.31
436.284	913.31
436.505	898.31
436.727	885.31
436.949	917.31
437.17	894.31
437.392	879.31
437.614	884.31
437.835	848.31
438.057	849.31
438.278	840.31
438.5	852.31
438.721	867.31
438.943	879.31
439.165	873.31
439.386	864.31
439.608	887.31
439.829	883.31
440.05	898.31
440.272	903.31
440.493	889.31
440.715	883.31
440.936	910.31
441.158	925.31
441.379	933.31
441.6	974.31
441.822	975.31
442.043	987.31
442.264	979.31
442.486	965.31
442.707	951.31
442.928	962.31
443.149	980.31
443.371	962.31
443.592	938.31
443.813	966.31
444.034	977.31
444.255	1028.31
444.476	1035.31
444.698	1070.31
444.919	1095.31
445.14	1194.31
445.361	1106.31
445.582	1035.31
445.803	981.31
446.024	907.31
446.245	950.31
446.466	943.31
446.687	897.31
446.908	888.31
447.129	869.31
447.35	855.31
447.571	864.31
447.792	832.31
448.013	849.31
448.234	841.31
448.455	849.31
448.675	853.31
448.896	842.31
449.117	820.31
449.338	812.31
449.559	831.31
449.779	819.31
450	810.31
450.221	839.31
450.442	850.31
450.662	840.31
450.883	852.31
451.104	874.31
451.324	847.31
451.545	826.31
451.766	831.31
451.986	849.31
452.207	832.31
452.428	811.31
452.648	821.31
452.869	820.31
453.089	801.31
453.31	803.31
453.53	812.31
453.751	819.31
453.971	791.31
454.192	822.31
454.412	803.31
454.633	792.31
454.853	807.31
455.073	772.31
455.294	817.31
455.514	803.31
455.734	805.31
455.955	797.31
456.175	793.31
456.395	781.31
456.616	785.31
456.836	778.31
457.056	787.31
457.276	779.31
457.497	805.31
457.717	809.31
457.937	795.31
458.157	821.31
458.377	829.31
458.598	844.31
458.818	825.31
459.038	865.31
459.258	899.31
459.478	900.31
459.698	941.31
459.918	942.31
460.138	978.31
460.358	1004.31
460.578	1032.31
460.798	1022.31
461.018	1033.31
461.238	1035.31
461.458	1010.31
461.678	1031.31
461.898	1069.31
462.118	1065.31
462.338	1090.31
462.558	1103.31
462.777	1115.31
462.997	1225.31
463.217	1272.31
463.437	1267.31
463.657	1224.31
463.876	1165.31
464.096	1178.31
464.316	1192.31
464.536	1153.31
464.755	1127.31
464.975	1063.31
465.195	1075.31
465.414	1001.31
465.634	950.31
465.854	943.31
466.073	908.31
466.293	922.31
466.512	905.31
466.732	887.31
466.951	897.31
467.171	885.31
467.391	896.31
467.61	907.31
467.829	895.31
468.049	880.31
468.268	859.31
468.488	842.31
468.707	873.31
468.927	866.31
469.146	872.31
469.365	887.31
469.585	869.31
469.804	902.31
470.023	903.31
470.243	881.31
470.462	895.31
470.681	890.31
470.901	919.31
471.12	916.31
471.339	934.31
471.558	883.31
471.777	884.31
471.997	870.31
472.216	868.31
472.435	846.31
472.654	857.31
472.873	852.31
473.092	850.31
473.311	844.31
473.53	858.31
473.749	868.31
473.968	863.31
474.187	853.31
474.406	842.31
474.625	875.31
474.844	868.31
475.063	897.31
475.282	874.31
475.501	876.31
475.72	862.31
475.939	901.31
476.158	910.31
476.377	905.31
476.596	879.31
476.814	919.31
477.033	896.31
477.252	921.31
477.471	941.31
477.69	936.31
477.908	969.31
478.127	998.31
478.346	992.31
478.564	1024.31
478.783	1014.31
479.002	1048.31
479.22	1059.31
479.439	1039.31
479.658	1034.31
479.876	1018.31
480.095	1059.31
480.313	1099.31
480.532	1069.31
480.751	1096.31
480.969	1028.31
481.188	1044.31
481.406	1001.31
481.624	1008.31
481.843	994.31
482.061	969.31
482.28	983.31
482.498	975.31
482.717	1002.31
482.935	1001.31
483.153	989.31
483.372	1001.31
483.59	1036.31
483.808	987.31
484.027	986.31
484.245	984.31
484.463	992.31
484.681	994.31
484.9	1027.31
485.118	1003.31
485.336	1027.31
485.554	1001.31
485.772	1008.31
485.99	1004.31
486.209	1027.31
486.427	1017.31
486.645	1024.31
486.863	1049.31
487.081	1071.31
487.299	1017.31
487.517	1036.31
487.735	1040.31
487.953	1066.31
488.171	1052.31
488.389	1036.31
488.607	1027.31
488.825	1013.31
489.043	1042.31
489.261	1036.31
489.479	1040.31
489.696	1029.31
489.914	1032.31
490.132	1055.31
490.35	1033.31
490.568	1051.31
490.786	1029.31
491.003	1040.31
491.221	1042.31
491.439	1062.31
491.657	1049.31
491.874	1067.31
492.092	1101.31
492.31	1110.31
492.527	1070.31
492.745	1080.31
492.963	1100.31
493.18	1103.31
493.398	1072.31
493.615	1095.31
493.833	1114.31
494.05	1106.31
494.268	1102.31
494.485	1096.31
494.703	1071.31
494.92	1103.31
495.138	1128.31
495.355	1133.31
495.573	1106.31
495.79	1100.31
496.008	1114.31
496.225	1149.31
496.442	1137.31
496.66	1172.31
496.877	1180.31
497.094	1173.31
497.312	1191.31
497.529	1215.31
497.746	1249.31
497.963	1272.31
498.181	1315.31
498.398	1344.31
498.615	1409.31
498.832	1471.31
499.049	1565.31
499.267	1638.31
499.484	1792.31
