Data from NiCl2@0.5M.TitratingCurve.Agarose3%dH2O.NegLispCup.LampEnergy10.LIBS07252019_HRD10591_18-21-30-572.txt Node
Date: Thu Jul 25 18:21:30 EDT 2019
User: cochatt
Spectrometer: HR+D1059
Trigger mode: 1
Integration Time (sec): 1.000000E-1
Scans to average: 1
Electric dark correction enabled: true
Nonlinearity correction enabled: false
Boxcar width: 0
XAxis mode: Wavelengths
Number of Pixels in Spectrum: 2048
>>>>>Begin Spectral Data<<<<<
223.165	-11.38
223.4	-11.38
223.635	-11.38
223.869	-9.38
224.104	-23.38
224.338	-9.38
224.573	-9.38
224.808	-28.38
225.042	-8.38
225.277	-2.38
225.511	2.62
225.746	8.62
225.98	-0.38
226.215	7.62
226.449	4.62
226.683	35.62
226.918	17.62
227.152	25.62
227.387	30.62
227.621	34.62
227.856	29.62
228.09	48.62
228.324	55.62
228.559	68.62
228.793	71.62
229.027	101.62
229.262	111.62
229.496	122.62
229.73	130.62
229.964	127.62
230.199	108.62
230.433	124.62
230.667	136.62
230.901	132.62
231.136	137.62
231.37	133.62
231.604	144.62
231.838	142.62
232.072	135.62
232.306	144.62
232.541	144.62
232.775	146.62
233.009	140.62
233.243	143.62
233.477	142.62
233.711	150.62
233.945	128.62
234.179	147.62
234.413	144.62
234.647	149.62
234.881	147.62
235.115	152.62
235.349	141.62
235.583	144.62
235.817	152.62
236.051	152.62
236.285	153.62
236.519	138.62
236.753	138.62
236.987	150.62
237.221	153.62
237.455	163.62
237.689	157.62
237.922	155.62
238.156	148.62
238.39	165.62
238.624	170.62
238.858	161.62
239.091	160.62
239.325	162.62
239.559	177.62
239.793	176.62
240.027	176.62
240.26	171.62
240.494	186.62
240.728	193.62
240.961	176.62
241.195	174.62
241.429	165.62
241.662	191.62
241.896	182.62
242.13	194.62
242.363	183.62
242.597	178.62
242.83	191.62
243.064	195.62
243.298	197.62
243.531	180.62
243.765	184.62
243.998	199.62
244.232	202.62
244.465	199.62
244.699	205.62
244.932	203.62
245.166	212.62
245.399	207.62
245.633	204.62
245.866	207.62
246.099	203.62
246.333	202.62
246.566	208.62
246.8	219.62
247.033	223.62
247.266	223.62
247.5	210.62
247.733	223.62
247.966	234.62
248.2	238.62
248.433	230.62
248.666	224.62
248.899	211.62
249.133	220.62
249.366	240.62
249.599	247.62
249.832	223.62
250.066	225.62
250.299	235.62
250.532	243.62
250.765	261.62
250.998	267.62
251.231	262.62
251.465	254.62
251.698	251.62
251.931	258.62
252.164	247.62
252.397	259.62
252.63	264.62
252.863	258.62
253.096	265.62
253.329	261.62
253.562	250.62
253.795	284.62
254.028	276.62
254.261	291.62
254.494	264.62
254.727	271.62
254.96	281.62
255.193	274.62
255.426	271.62
255.659	275.62
255.892	268.62
256.124	268.62
256.357	287.62
256.59	275.62
256.823	286.62
257.056	288.62
257.289	283.62
257.521	286.62
257.754	287.62
257.987	289.62
258.22	280.62
258.452	296.62
258.685	306.62
258.918	282.62
259.151	299.62
259.383	304.62
259.616	299.62
259.849	305.62
260.081	306.62
260.314	304.62
260.547	304.62
260.779	292.62
261.012	307.62
261.244	292.62
261.477	298.62
261.71	316.62
261.942	310.62
262.175	322.62
262.407	318.62
262.64	312.62
262.872	317.62
263.105	293.62
263.337	326.62
263.57	344.62
263.802	321.62
264.035	314.62
264.267	323.62
264.499	322.62
264.732	346.62
264.964	328.62
265.197	342.62
265.429	324.62
265.661	348.62
265.894	331.62
266.126	324.62
266.358	347.62
266.591	331.62
266.823	370.62
267.055	350.62
267.287	340.62
267.52	355.62
267.752	360.62
267.984	358.62
268.216	366.62
268.448	364.62
268.681	364.62
268.913	368.62
269.145	353.62
269.377	348.62
269.609	342.62
269.841	378.62
270.073	373.62
270.306	367.62
270.538	367.62
270.77	370.62
271.002	387.62
271.234	358.62
271.466	354.62
271.698	369.62
271.93	354.62
272.162	356.62
272.394	374.62
272.626	374.62
272.858	381.62
273.09	376.62
273.322	386.62
273.553	369.62
273.785	383.62
274.017	381.62
274.249	383.62
274.481	380.62
274.713	384.62
274.945	394.62
275.176	377.62
275.408	389.62
275.64	420.62
275.872	397.62
276.104	409.62
276.335	393.62
276.567	394.62
276.799	415.62
277.031	411.62
277.262	404.62
277.494	415.62
277.726	426.62
277.957	397.62
278.189	406.62
278.421	424.62
278.652	437.62
278.884	424.62
279.115	421.62
279.347	431.62
279.579	436.62
279.81	448.62
280.042	439.62
280.273	443.62
280.505	452.62
280.736	437.62
280.968	420.62
281.199	430.62
281.431	449.62
281.662	459.62
281.894	458.62
282.125	455.62
282.356	472.62
282.588	442.62
282.819	448.62
283.051	449.62
283.282	458.62
283.513	455.62
283.745	463.62
283.976	481.62
284.207	464.62
284.439	465.62
284.67	464.62
284.901	466.62
285.132	448.62
285.364	484.62
285.595	468.62
285.826	475.62
286.057	458.62
286.288	480.62
286.52	480.62
286.751	469.62
286.982	528.62
287.213	490.62
287.444	488.62
287.675	500.62
287.906	485.62
288.138	488.62
288.369	525.62
288.6	514.62
288.831	510.62
289.062	489.62
289.293	499.62
289.524	498.62
289.755	504.62
289.986	507.62
290.217	511.62
290.448	497.62
290.679	518.62
290.91	523.62
291.141	507.62
291.371	510.62
291.602	536.62
291.833	508.62
292.064	521.62
292.295	528.62
292.526	514.62
292.757	521.62
292.987	500.62
293.218	503.62
293.449	513.62
293.68	508.62
293.91	520.62
294.141	531.62
294.372	508.62
294.603	506.62
294.833	516.62
295.064	517.62
295.295	529.62
295.525	539.62
295.756	526.62
295.987	485.62
296.217	512.62
296.448	536.62
296.679	535.62
296.909	528.62
297.14	551.62
297.37	545.62
297.601	540.62
297.831	555.62
298.062	562.62
298.292	555.62
298.523	572.62
298.753	550.62
298.984	546.62
299.214	535.62
299.445	540.62
299.675	583.62
299.905	583.62
300.136	575.62
300.366	574.62
300.597	594.62
300.827	593.62
301.057	590.62
301.288	599.62
301.518	613.62
301.748	610.62
301.979	594.62
302.209	579.62
302.439	563.62
302.669	606.62
302.9	583.62
303.13	582.62
303.36	580.62
303.59	606.62
303.82	585.62
304.051	597.62
304.281	610.62
304.511	577.62
304.741	577.62
304.971	570.62
305.201	570.62
305.431	601.62
305.661	597.62
305.891	594.62
306.121	598.62
306.352	589.62
306.582	566.62
306.812	604.62
307.042	567.62
307.272	552.62
307.502	579.62
307.731	570.62
307.961	577.62
308.191	573.62
308.421	566.62
308.651	573.62
308.881	593.62
309.111	592.62
309.341	563.62
309.571	592.62
309.8	587.62
310.03	574.62
310.26	622.62
310.49	593.62
310.72	614.62
310.949	605.62
311.179	602.62
311.409	590.62
311.639	620.62
311.868	599.62
312.098	602.62
312.328	612.62
312.557	621.62
312.787	632.62
313.017	635.62
313.246	622.62
313.476	640.62
313.706	630.62
313.935	651.62
314.165	636.62
314.394	608.62
314.624	616.62
314.853	642.62
315.083	631.62
315.312	619.62
315.542	606.62
315.771	604.62
316.001	627.62
316.23	606.62
316.46	632.62
316.689	617.62
316.919	614.62
317.148	611.62
317.377	634.62
317.607	602.62
317.836	607.62
318.065	612.62
318.295	622.62
318.524	634.62
318.753	630.62
318.983	629.62
319.212	583.62
319.441	603.62
319.67	607.62
319.9	601.62
320.129	617.62
320.358	627.62
320.587	602.62
320.816	628.62
321.046	630.62
321.275	631.62
321.504	628.62
321.733	610.62
321.962	611.62
322.191	614.62
322.42	600.62
322.649	614.62
322.878	641.62
323.108	623.62
323.337	651.62
323.566	631.62
323.795	633.62
324.024	631.62
324.253	650.62
324.482	642.62
324.71	638.62
324.939	634.62
325.168	654.62
325.397	647.62
325.626	624.62
325.855	635.62
326.084	687.62
326.313	677.62
326.542	682.62
326.77	678.62
326.999	675.62
327.228	674.62
327.457	687.62
327.686	684.62
327.914	676.62
328.143	658.62
328.372	679.62
328.6	679.62
328.829	680.62
329.058	711.62
329.287	657.62
329.515	677.62
329.744	699.62
329.972	696.62
330.201	679.62
330.43	689.62
330.658	698.62
330.887	703.62
331.115	688.62
331.344	729.62
331.572	724.62
331.801	748.62
332.03	751.62
332.258	758.62
332.486	791.62
332.715	796.62
332.943	826.62
333.172	882.62
333.4	903.62
333.629	930.62
333.857	920.62
334.085	891.62
334.314	882.62
334.542	904.62
334.771	867.62
334.999	850.62
335.227	866.62
335.455	828.62
335.684	861.62
335.912	822.62
336.14	804.62
336.369	799.62
336.597	832.62
336.825	833.62
337.053	828.62
337.281	825.62
337.51	778.62
337.738	789.62
337.966	786.62
338.194	772.62
338.422	771.62
338.65	734.62
338.878	760.62
339.106	756.62
339.334	773.62
339.562	744.62
339.79	722.62
340.018	712.62
340.246	710.62
340.474	703.62
340.702	715.62
340.93	721.62
341.158	705.62
341.386	747.62
341.614	745.62
341.842	717.62
342.07	698.62
342.298	674.62
342.526	740.62
342.754	677.62
342.981	683.62
343.209	731.62
343.437	762.62
343.665	833.62
343.893	851.62
344.12	893.62
344.348	857.62
344.576	786.62
344.804	784.62
345.031	740.62
345.259	727.62
345.487	731.62
345.714	747.62
345.942	735.62
346.17	735.62
346.397	724.62
346.625	711.62
346.853	682.62
347.08	696.62
347.308	687.62
347.535	697.62
347.763	698.62
347.99	677.62
348.218	671.62
348.445	708.62
348.673	670.62
348.9	681.62
349.128	702.62
349.355	688.62
349.583	698.62
349.81	667.62
350.037	669.62
350.265	669.62
350.492	640.62
350.72	662.62
350.947	666.62
351.174	672.62
351.402	686.62
351.629	697.62
351.856	687.62
352.083	659.62
352.311	680.62
352.538	686.62
352.765	702.62
352.992	642.62
353.22	645.62
353.447	667.62
353.674	640.62
353.901	662.62
354.128	645.62
354.355	652.62
354.583	630.62
354.81	641.62
355.037	658.62
355.264	662.62
355.491	667.62
355.718	657.62
355.945	655.62
356.172	648.62
356.399	668.62
356.626	642.62
356.853	674.62
357.08	679.62
357.307	670.62
357.534	660.62
357.761	638.62
357.988	666.62
358.215	656.62
358.441	656.62
358.668	644.62
358.895	650.62
359.122	645.62
359.349	640.62
359.576	630.62
359.802	679.62
360.029	658.62
360.256	656.62
360.483	624.62
360.709	658.62
360.936	667.62
361.163	680.62
361.39	688.62
361.616	650.62
361.843	676.62
362.07	698.62
362.296	678.62
362.523	656.62
362.749	674.62
362.976	638.62
363.203	627.62
363.429	617.62
363.656	620.62
363.882	624.62
364.109	644.62
364.335	622.62
364.562	652.62
364.788	640.62
365.015	643.62
365.241	640.62
365.468	636.62
365.694	650.62
365.92	656.62
366.147	642.62
366.373	640.62
366.599	635.62
366.826	652.62
367.052	627.62
367.278	639.62
367.505	641.62
367.731	658.62
367.957	646.62
368.184	666.62
368.41	642.62
368.636	647.62
368.862	673.62
369.089	650.62
369.315	646.62
369.541	660.62
369.767	660.62
369.993	647.62
370.219	655.62
370.445	664.62
370.672	650.62
370.898	663.62
371.124	711.62
371.35	692.62
371.576	703.62
371.802	692.62
372.028	694.62
372.254	703.62
372.48	714.62
372.706	727.62
372.932	738.62
373.158	709.62
373.384	712.62
373.61	703.62
373.835	712.62
374.061	702.62
374.287	720.62
374.513	709.62
374.739	746.62
374.965	761.62
375.191	758.62
375.416	746.62
375.642	734.62
375.868	730.62
376.094	706.62
376.319	689.62
376.545	670.62
376.771	716.62
376.997	706.62
377.222	689.62
377.448	690.62
377.674	683.62
377.899	695.62
378.125	651.62
378.35	681.62
378.576	687.62
378.802	702.62
379.027	706.62
379.253	688.62
379.478	695.62
379.704	705.62
379.929	684.62
380.155	661.62
380.38	693.62
380.606	678.62
380.831	683.62
381.057	690.62
381.282	698.62
381.507	681.62
381.733	696.62
381.958	726.62
382.184	715.62
382.409	692.62
382.634	716.62
382.86	737.62
383.085	714.62
383.31	760.62
383.535	754.62
383.761	786.62
383.986	785.62
384.211	742.62
384.436	784.62
384.662	801.62
384.887	815.62
385.112	816.62
385.337	836.62
385.562	848.62
385.787	855.62
386.013	857.62
386.238	847.62
386.463	815.62
386.688	834.62
386.913	833.62
387.138	844.62
387.363	815.62
387.588	819.62
387.813	803.62
388.038	797.62
388.263	827.62
388.488	829.62
388.713	851.62
388.938	816.62
389.163	788.62
389.387	787.62
389.612	779.62
389.837	806.62
390.062	807.62
390.287	809.62
390.512	833.62
390.736	800.62
390.961	828.62
391.186	859.62
391.411	867.62
391.636	895.62
391.86	908.62
392.085	928.62
392.31	935.62
392.534	904.62
392.759	860.62
392.984	891.62
393.208	866.62
393.433	860.62
393.658	918.62
393.882	865.62
394.107	877.62
394.331	872.62
394.556	880.62
394.78	888.62
395.005	894.62
395.229	885.62
395.454	912.62
395.678	938.62
395.903	903.62
396.127	909.62
396.352	852.62
396.576	863.62
396.801	869.62
397.025	875.62
397.249	916.62
397.474	911.62
397.698	931.62
397.922	924.62
398.147	927.62
398.371	954.62
398.595	1014.62
398.82	1034.62
399.044	1100.62
399.268	1220.62
399.492	1402.62
399.717	1565.62
399.941	1539.62
400.165	1363.62
400.389	1233.62
400.613	1144.62
400.837	1087.62
401.062	1054.62
401.286	1035.62
401.51	1037.62
401.734	1005.62
401.958	1010.62
402.182	1061.62
402.406	1056.62
402.63	1078.62
402.854	1118.62
403.078	1156.62
403.302	1145.62
403.526	1145.62
403.75	1183.62
403.974	1195.62
404.198	1203.62
404.422	1208.62
404.645	1182.62
404.869	1210.62
405.093	1165.62
405.317	1146.62
405.541	1143.62
405.765	1131.62
405.988	1131.62
406.212	1136.62
406.436	1139.62
406.66	1181.62
406.883	1176.62
407.107	1278.62
407.331	1326.62
407.555	1402.62
407.778	1317.62
408.002	1282.62
408.226	1247.62
408.449	1249.62
408.673	1183.62
408.896	1161.62
409.12	1165.62
409.344	1173.62
409.567	1172.62
409.791	1171.62
410.014	1165.62
410.238	1159.62
410.461	1143.62
410.685	1118.62
410.908	1107.62
411.132	1085.62
411.355	1098.62
411.578	1089.62
411.802	1090.62
412.025	1068.62
412.249	1096.62
412.472	1078.62
412.695	1059.62
412.919	1060.62
413.142	1022.62
413.365	1049.62
413.589	1041.62
413.812	1027.62
414.035	1017.62
414.258	1051.62
414.482	1036.62
414.705	1051.62
414.928	1059.62
415.151	1068.62
415.374	1064.62
415.597	1056.62
415.821	1025.62
416.044	1002.62
416.267	988.62
416.49	991.62
416.713	1004.62
416.936	1028.62
417.159	1019.62
417.382	1043.62
417.605	1046.62
417.828	1042.62
418.051	1031.62
418.274	1036.62
418.497	1031.62
418.72	1080.62
418.943	1044.62
419.166	1134.62
419.389	1198.62
419.611	1148.62
419.834	1099.62
420.057	1056.62
420.28	1048.62
420.503	1023.62
420.726	1023.62
420.948	1025.62
421.171	1035.62
421.394	1033.62
421.617	1006.62
421.839	1014.62
422.062	1048.62
422.285	995.62
422.507	1058.62
422.73	1053.62
422.953	1079.62
423.175	1087.62
423.398	1056.62
423.621	1086.62
423.843	1122.62
424.066	1100.62
424.288	1103.62
424.511	1070.62
424.733	1050.62
424.956	1059.62
425.178	1072.62
425.401	1065.62
425.623	1024.62
425.846	1030.62
426.068	973.62
426.291	980.62
426.513	987.62
426.735	979.62
426.958	965.62
427.18	929.62
427.402	955.62
427.625	942.62
427.847	924.62
428.069	946.62
428.292	915.62
428.514	931.62
428.736	897.62
428.958	940.62
429.181	904.62
429.403	909.62
429.625	910.62
429.847	901.62
430.069	892.62
430.292	895.62
430.514	853.62
430.736	910.62
430.958	904.62
431.18	885.62
431.402	929.62
431.624	908.62
431.846	939.62
432.068	912.62
432.29	956.62
432.512	928.62
432.734	934.62
432.956	952.62
433.178	942.62
433.4	952.62
433.622	935.62
433.844	940.62
434.066	960.62
434.287	939.62
434.509	971.62
434.731	1035.62
434.953	1058.62
435.175	1067.62
435.397	1046.62
435.618	980.62
435.84	946.62
436.062	939.62
436.284	928.62
436.505	944.62
436.727	956.62
436.949	942.62
437.17	950.62
437.392	913.62
437.614	875.62
437.835	866.62
438.057	906.62
438.278	898.62
438.5	899.62
438.721	888.62
438.943	893.62
439.165	906.62
439.386	933.62
439.608	929.62
439.829	928.62
440.05	937.62
440.272	960.62
440.493	929.62
440.715	946.62
440.936	969.62
441.158	964.62
441.379	1020.62
441.6	1057.62
441.822	1042.62
442.043	1044.62
442.264	1027.62
442.486	1053.62
442.707	1031.62
442.928	1055.62
443.149	1043.62
443.371	1038.62
443.592	1015.62
443.813	1040.62
444.034	1092.62
444.255	1105.62
444.476	1153.62
444.698	1216.62
444.919	1283.62
445.14	1319.62
445.361	1176.62
445.582	1096.62
445.803	1013.62
446.024	999.62
446.245	981.62
446.466	969.62
446.687	954.62
446.908	900.62
447.129	932.62
447.35	901.62
447.571	899.62
447.792	862.62
448.013	878.62
448.234	857.62
448.455	869.62
448.675	882.62
448.896	859.62
449.117	860.62
449.338	866.62
449.559	834.62
449.779	843.62
450	868.62
450.221	854.62
450.442	860.62
450.662	871.62
450.883	875.62
451.104	892.62
451.324	900.62
451.545	872.62
451.766	871.62
451.986	858.62
452.207	871.62
452.428	844.62
452.648	864.62
452.869	845.62
453.089	816.62
453.31	840.62
453.53	825.62
453.751	807.62
453.971	820.62
454.192	836.62
454.412	790.62
454.633	837.62
454.853	810.62
455.073	803.62
455.294	808.62
455.514	787.62
455.734	808.62
455.955	776.62
456.175	783.62
456.395	774.62
456.616	783.62
456.836	795.62
457.056	801.62
457.276	790.62
457.497	822.62
457.717	804.62
457.937	816.62
458.157	824.62
458.377	817.62
458.598	830.62
458.818	884.62
459.038	895.62
459.258	908.62
459.478	933.62
459.698	978.62
459.918	1008.62
460.138	1036.62
460.358	1109.62
460.578	1112.62
460.798	1114.62
461.018	1129.62
461.238	1114.62
461.458	1086.62
461.678	1118.62
461.898	1140.62
462.118	1115.62
462.338	1197.62
462.558	1195.62
462.777	1271.62
462.997	1393.62
463.217	1488.62
463.437	1509.62
463.657	1355.62
463.876	1310.62
464.096	1283.62
464.316	1297.62
464.536	1314.62
464.755	1260.62
464.975	1185.62
465.195	1105.62
465.414	1076.62
465.634	1023.62
465.854	977.62
466.073	968.62
466.293	970.62
466.512	920.62
466.732	922.62
466.951	934.62
467.171	889.62
467.391	914.62
467.61	901.62
467.829	896.62
468.049	876.62
468.268	856.62
468.488	867.62
468.707	863.62
468.927	866.62
469.146	870.62
469.365	885.62
469.585	904.62
469.804	924.62
470.023	935.62
470.243	916.62
470.462	933.62
470.681	924.62
470.901	948.62
471.12	939.62
471.339	892.62
471.558	895.62
471.777	905.62
471.997	874.62
472.216	888.62
472.435	831.62
472.654	859.62
472.873	854.62
473.092	849.62
473.311	818.62
473.53	848.62
473.749	860.62
473.968	838.62
474.187	849.62
474.406	854.62
474.625	847.62
474.844	848.62
475.063	823.62
475.282	843.62
475.501	860.62
475.72	867.62
475.939	891.62
476.158	877.62
476.377	875.62
476.596	888.62
476.814	889.62
477.033	897.62
477.252	878.62
477.471	944.62
477.69	976.62
477.908	985.62
478.127	1025.62
478.346	1023.62
478.564	1034.62
478.783	1037.62
479.002	1082.62
479.22	1073.62
479.439	1046.62
479.658	1034.62
479.876	1030.62
480.095	1090.62
480.313	1112.62
480.532	1148.62
480.751	1110.62
480.969	1099.62
481.188	1071.62
481.406	998.62
481.624	971.62
481.843	991.62
482.061	976.62
482.28	964.62
482.498	979.62
482.717	937.62
482.935	954.62
483.153	974.62
483.372	983.62
483.59	984.62
483.808	996.62
484.027	982.62
484.245	981.62
484.463	999.62
484.681	1025.62
484.9	1011.62
485.118	1026.62
485.336	1001.62
485.554	1001.62
485.772	1042.62
485.99	1001.62
486.209	1010.62
486.427	1027.62
486.645	1017.62
486.863	1061.62
487.081	1049.62
487.299	1018.62
487.517	987.62
487.735	1014.62
487.953	1020.62
488.171	1029.62
488.389	1011.62
488.607	1006.62
488.825	982.62
489.043	986.62
489.261	1020.62
489.479	1003.62
489.696	1012.62
489.914	1020.62
490.132	993.62
490.35	980.62
490.568	996.62
490.786	1012.62
491.003	1027.62
491.221	1043.62
491.439	1031.62
491.657	1022.62
491.874	1040.62
492.092	1040.62
492.31	1049.62
492.527	1054.62
492.745	1057.62
492.963	1046.62
493.18	1041.62
493.398	1071.62
493.615	1078.62
493.833	1075.62
494.05	1088.62
494.268	1074.62
494.485	1086.62
494.703	1099.62
494.92	1078.62
495.138	1084.62
495.355	1050.62
495.573	1074.62
495.79	1075.62
496.008	1086.62
496.225	1095.62
496.442	1113.62
496.66	1118.62
496.877	1122.62
497.094	1135.62
497.312	1142.62
497.529	1212.62
497.746	1235.62
497.963	1244.62
498.181	1307.62
498.398	1361.62
