Data from NiCl2@0.0625M.TitratingCurve.Agarose3%dH2O.NegLispCup.LampEnergy10.LIBS07252019_HRD10591_18-33-08-576.txt Node
Date: Thu Jul 25 18:33:08 EDT 2019
User: cochatt
Spectrometer: HR+D1059
Trigger mode: 1
Integration Time (sec): 1.000000E-1
Scans to average: 1
Electric dark correction enabled: true
Nonlinearity correction enabled: false
Boxcar width: 0
XAxis mode: Wavelengths
Number of Pixels in Spectrum: 2048
>>>>>Begin Spectral Data<<<<<
223.165	0.19
223.4	0.19
223.635	0.19
223.869	-16.81
224.104	-25.81
224.338	-28.81
224.573	-9.81
224.808	-24.81
225.042	-16.81
225.277	-1.81
225.511	1.19
225.746	6.19
225.98	19.19
226.215	18.19
226.449	12.19
226.683	14.19
226.918	33.19
227.152	20.19
227.387	38.19
227.621	31.19
227.856	47.19
228.09	45.19
228.324	51.19
228.559	51.19
228.793	78.19
229.027	155.19
229.262	149.19
229.496	156.19
229.73	172.19
229.964	171.19
230.199	195.19
230.433	195.19
230.667	189.19
230.901	167.19
231.136	190.19
231.37	169.19
231.604	190.19
231.838	209.19
232.072	207.19
232.306	213.19
232.541	210.19
232.775	201.19
233.009	195.19
233.243	212.19
233.477	202.19
233.711	215.19
233.945	215.19
234.179	206.19
234.413	225.19
234.647	215.19
234.881	226.19
235.115	224.19
235.349	222.19
235.583	217.19
235.817	229.19
236.051	205.19
236.285	235.19
236.519	249.19
236.753	241.19
236.987	236.19
237.221	251.19
237.455	255.19
237.689	241.19
237.922	262.19
238.156	259.19
238.39	272.19
238.624	252.19
238.858	275.19
239.091	267.19
239.325	266.19
239.559	281.19
239.793	276.19
240.027	273.19
240.26	264.19
240.494	271.19
240.728	271.19
240.961	282.19
241.195	284.19
241.429	287.19
241.662	266.19
241.896	283.19
242.13	307.19
242.363	308.19
242.597	319.19
242.83	315.19
243.064	310.19
243.298	325.19
243.531	327.19
243.765	333.19
243.998	346.19
244.232	347.19
244.465	336.19
244.699	337.19
244.932	352.19
245.166	344.19
245.399	367.19
245.633	353.19
245.866	352.19
246.099	352.19
246.333	349.19
246.566	363.19
246.8	379.19
247.033	371.19
247.266	373.19
247.5	357.19
247.733	377.19
247.966	383.19
248.2	395.19
248.433	386.19
248.666	398.19
248.899	391.19
249.133	394.19
249.366	402.19
249.599	403.19
249.832	412.19
250.066	391.19
250.299	417.19
250.532	413.19
250.765	424.19
250.998	409.19
251.231	430.19
251.465	442.19
251.698	443.19
251.931	443.19
252.164	442.19
252.397	465.19
252.63	442.19
252.863	440.19
253.096	458.19
253.329	441.19
253.562	456.19
253.795	449.19
254.028	489.19
254.261	441.19
254.494	475.19
254.727	485.19
254.96	500.19
255.193	455.19
255.426	471.19
255.659	474.19
255.892	482.19
256.124	472.19
256.357	479.19
256.59	485.19
256.823	480.19
257.056	494.19
257.289	501.19
257.521	530.19
257.754	486.19
257.987	497.19
258.22	481.19
258.452	501.19
258.685	514.19
258.918	526.19
259.151	506.19
259.383	538.19
259.616	536.19
259.849	530.19
260.081	525.19
260.314	543.19
260.547	538.19
260.779	550.19
261.012	541.19
261.244	556.19
261.477	556.19
261.71	572.19
261.942	572.19
262.175	546.19
262.407	569.19
262.64	572.19
262.872	594.19
263.105	572.19
263.337	594.19
263.57	585.19
263.802	582.19
264.035	564.19
264.267	628.19
264.499	601.19
264.732	586.19
264.964	596.19
265.197	612.19
265.429	586.19
265.661	612.19
265.894	586.19
266.126	597.19
266.358	625.19
266.591	613.19
266.823	630.19
267.055	598.19
267.287	621.19
267.52	628.19
267.752	610.19
267.984	623.19
268.216	628.19
268.448	643.19
268.681	631.19
268.913	617.19
269.145	645.19
269.377	641.19
269.609	651.19
269.841	669.19
270.073	648.19
270.306	643.19
270.538	665.19
270.77	669.19
271.002	673.19
271.234	673.19
271.466	688.19
271.698	681.19
271.93	681.19
272.162	679.19
272.394	670.19
272.626	673.19
272.858	691.19
273.09	689.19
273.322	724.19
273.553	695.19
273.785	709.19
274.017	718.19
274.249	717.19
274.481	722.19
274.713	721.19
274.945	736.19
275.176	740.19
275.408	721.19
275.64	722.19
275.872	762.19
276.104	752.19
276.335	749.19
276.567	743.19
276.799	751.19
277.031	778.19
277.262	745.19
277.494	773.19
277.726	772.19
277.957	777.19
278.189	762.19
278.421	767.19
278.652	749.19
278.884	768.19
279.115	776.19
279.347	808.19
279.579	802.19
279.81	791.19
280.042	797.19
280.273	787.19
280.505	792.19
280.736	814.19
280.968	827.19
281.199	798.19
281.431	819.19
281.662	829.19
281.894	826.19
282.125	792.19
282.356	837.19
282.588	847.19
282.819	834.19
283.051	836.19
283.282	831.19
283.513	842.19
283.745	850.19
283.976	868.19
284.207	856.19
284.439	833.19
284.67	869.19
284.901	859.19
285.132	858.19
285.364	871.19
285.595	879.19
285.826	879.19
286.057	873.19
286.288	847.19
286.52	879.19
286.751	889.19
286.982	897.19
287.213	890.19
287.444	925.19
287.675	904.19
287.906	904.19
288.138	895.19
288.369	915.19
288.6	907.19
288.831	904.19
289.062	925.19
289.293	905.19
289.524	938.19
289.755	896.19
289.986	907.19
290.217	903.19
290.448	928.19
290.679	923.19
290.91	918.19
291.141	928.19
291.371	918.19
291.602	931.19
291.833	922.19
292.064	943.19
292.295	915.19
292.526	923.19
292.757	908.19
292.987	930.19
293.218	939.19
293.449	940.19
293.68	912.19
293.91	933.19
294.141	933.19
294.372	929.19
294.603	924.19
294.833	963.19
295.064	939.19
295.295	940.19
295.525	945.19
295.756	965.19
295.987	960.19
296.217	942.19
296.448	962.19
296.679	989.19
296.909	982.19
297.14	983.19
297.37	1004.19
297.601	1009.19
297.831	994.19
298.062	999.19
298.292	1023.19
298.523	1045.19
298.753	1020.19
298.984	1013.19
299.214	1007.19
299.445	983.19
299.675	1009.19
299.905	1006.19
300.136	1008.19
300.366	1028.19
300.597	1065.19
300.827	1047.19
301.057	1012.19
301.288	1064.19
301.518	1075.19
301.748	1077.19
301.979	1097.19
302.209	1074.19
302.439	1104.19
302.669	1079.19
302.9	1094.19
303.13	1054.19
303.36	1067.19
303.59	1067.19
303.82	1084.19
304.051	1064.19
304.281	1078.19
304.511	1038.19
304.741	1052.19
304.971	1061.19
305.201	1067.19
305.431	1047.19
305.661	1064.19
305.891	1063.19
306.121	1057.19
306.352	1055.19
306.582	1049.19
306.812	1035.19
307.042	1077.19
307.272	1067.19
307.502	1023.19
307.731	1021.19
307.961	1052.19
308.191	1063.19
308.421	1059.19
308.651	1059.19
308.881	1043.19
309.111	1031.19
309.341	1043.19
309.571	1090.19
309.8	1080.19
310.03	1066.19
310.26	1064.19
310.49	1069.19
310.72	1097.19
310.949	1048.19
311.179	1063.19
311.409	1080.19
311.639	1059.19
311.868	1100.19
312.098	1100.19
312.328	1114.19
312.557	1122.19
312.787	1092.19
313.017	1094.19
313.246	1131.19
313.476	1099.19
313.706	1117.19
313.935	1145.19
314.165	1143.19
314.394	1117.19
314.624	1146.19
314.853	1156.19
315.083	1103.19
315.312	1153.19
315.542	1151.19
315.771	1110.19
316.001	1141.19
316.23	1123.19
316.46	1120.19
316.689	1149.19
316.919	1151.19
317.148	1107.19
317.377	1137.19
317.607	1128.19
317.836	1110.19
318.065	1129.19
318.295	1149.19
318.524	1143.19
318.753	1151.19
318.983	1156.19
319.212	1116.19
319.441	1109.19
319.67	1143.19
319.9	1110.19
320.129	1121.19
320.358	1131.19
320.587	1140.19
320.816	1143.19
321.046	1121.19
321.275	1150.19
321.504	1144.19
321.733	1138.19
321.962	1148.19
322.191	1161.19
322.42	1133.19
322.649	1124.19
322.878	1176.19
323.108	1162.19
323.337	1151.19
323.566	1139.19
323.795	1177.19
324.024	1164.19
324.253	1189.19
324.482	1203.19
324.71	1207.19
324.939	1194.19
325.168	1199.19
325.397	1180.19
325.626	1212.19
325.855	1230.19
326.084	1227.19
326.313	1225.19
326.542	1228.19
326.77	1239.19
326.999	1217.19
327.228	1213.19
327.457	1240.19
327.686	1220.19
327.914	1225.19
328.143	1220.19
328.372	1211.19
328.6	1237.19
328.829	1233.19
329.058	1246.19
329.287	1237.19
329.515	1231.19
329.744	1255.19
329.972	1269.19
330.201	1279.19
330.43	1290.19
330.658	1266.19
330.887	1293.19
331.115	1318.19
331.344	1285.19
331.572	1318.19
331.801	1346.19
332.03	1361.19
332.258	1385.19
332.486	1398.19
332.715	1399.19
332.943	1445.19
333.172	1524.19
333.4	1535.19
333.629	1579.19
333.857	1592.19
334.085	1548.19
334.314	1584.19
334.542	1547.19
334.771	1549.19
334.999	1533.19
335.227	1543.19
335.455	1511.19
335.684	1518.19
335.912	1537.19
336.14	1520.19
336.369	1532.19
336.597	1477.19
336.825	1533.19
337.053	1439.19
337.281	1473.19
337.51	1433.19
337.738	1408.19
337.966	1394.19
338.194	1376.19
338.422	1409.19
338.65	1349.19
338.878	1339.19
339.106	1344.19
339.334	1339.19
339.562	1335.19
339.79	1329.19
340.018	1317.19
340.246	1307.19
340.474	1333.19
340.702	1315.19
340.93	1313.19
341.158	1302.19
341.386	1289.19
341.614	1280.19
341.842	1286.19
342.07	1313.19
342.298	1275.19
342.526	1293.19
342.754	1300.19
342.981	1316.19
343.209	1304.19
343.437	1371.19
343.665	1391.19
343.893	1491.19
344.12	1552.19
344.348	1474.19
344.576	1449.19
344.804	1402.19
345.031	1374.19
345.259	1320.19
345.487	1291.19
345.714	1308.19
345.942	1284.19
346.17	1294.19
346.397	1239.19
346.625	1253.19
346.853	1261.19
347.08	1225.19
347.308	1264.19
347.535	1245.19
347.763	1241.19
347.99	1230.19
348.218	1216.19
348.445	1203.19
348.673	1245.19
348.9	1240.19
349.128	1219.19
349.355	1224.19
349.583	1204.19
349.81	1233.19
350.037	1229.19
350.265	1232.19
350.492	1226.19
350.72	1237.19
350.947	1201.19
351.174	1176.19
351.402	1202.19
351.629	1201.19
351.856	1227.19
352.083	1194.19
352.311	1237.19
352.538	1183.19
352.765	1228.19
352.992	1204.19
353.22	1176.19
353.447	1178.19
353.674	1180.19
353.901	1216.19
354.128	1204.19
354.355	1160.19
354.583	1167.19
354.81	1182.19
355.037	1224.19
355.264	1187.19
355.491	1216.19
355.718	1226.19
355.945	1213.19
356.172	1221.19
356.399	1181.19
356.626	1187.19
356.853	1229.19
357.08	1204.19
357.307	1199.19
357.534	1229.19
357.761	1224.19
357.988	1193.19
358.215	1188.19
358.441	1189.19
358.668	1216.19
358.895	1209.19
359.122	1208.19
359.349	1232.19
359.576	1201.19
359.802	1199.19
360.029	1229.19
360.256	1227.19
360.483	1232.19
360.709	1194.19
360.936	1184.19
361.163	1172.19
361.39	1220.19
361.616	1202.19
361.843	1208.19
362.07	1197.19
362.296	1212.19
362.523	1209.19
362.749	1217.19
362.976	1196.19
363.203	1230.19
363.429	1214.19
363.656	1209.19
363.882	1196.19
364.109	1220.19
364.335	1193.19
364.562	1203.19
364.788	1196.19
365.015	1199.19
365.241	1185.19
365.468	1188.19
365.694	1203.19
365.92	1227.19
366.147	1213.19
366.373	1216.19
366.599	1202.19
366.826	1216.19
367.052	1195.19
367.278	1210.19
367.505	1215.19
367.731	1224.19
367.957	1194.19
368.184	1207.19
368.41	1259.19
368.636	1252.19
368.862	1231.19
369.089	1241.19
369.315	1230.19
369.541	1278.19
369.767	1225.19
369.993	1256.19
370.219	1232.19
370.445	1266.19
370.672	1284.19
370.898	1300.19
371.124	1301.19
371.35	1314.19
371.576	1290.19
371.802	1305.19
372.028	1274.19
372.254	1267.19
372.48	1285.19
372.706	1336.19
372.932	1353.19
373.158	1367.19
373.384	1320.19
373.61	1327.19
373.835	1346.19
374.061	1302.19
374.287	1330.19
374.513	1309.19
374.739	1362.19
374.965	1428.19
375.191	1445.19
375.416	1421.19
375.642	1397.19
375.868	1372.19
376.094	1350.19
376.319	1333.19
376.545	1343.19
376.771	1315.19
376.997	1331.19
377.222	1310.19
377.448	1260.19
377.674	1295.19
377.899	1287.19
378.125	1311.19
378.35	1299.19
378.576	1289.19
378.802	1257.19
379.027	1299.19
379.253	1275.19
379.478	1308.19
379.704	1278.19
379.929	1311.19
380.155	1307.19
380.38	1292.19
380.606	1284.19
380.831	1324.19
381.057	1296.19
381.282	1271.19
381.507	1297.19
381.733	1288.19
381.958	1335.19
382.184	1353.19
382.409	1322.19
382.634	1344.19
382.86	1378.19
383.085	1380.19
383.31	1395.19
383.535	1425.19
383.761	1421.19
383.986	1426.19
384.211	1431.19
384.436	1484.19
384.662	1502.19
384.887	1479.19
385.112	1505.19
385.337	1563.19
385.562	1525.19
385.787	1513.19
386.013	1551.19
386.238	1579.19
386.463	1549.19
386.688	1616.19
386.913	1558.19
387.138	1529.19
387.363	1548.19
387.588	1532.19
387.813	1492.19
388.038	1544.19
388.263	1546.19
388.488	1563.19
388.713	1532.19
388.938	1577.19
389.163	1541.19
389.387	1545.19
389.612	1503.19
389.837	1558.19
390.062	1528.19
390.287	1557.19
390.512	1537.19
390.736	1553.19
390.961	1580.19
391.186	1604.19
391.411	1578.19
391.636	1644.19
391.86	1700.19
392.085	1693.19
392.31	1724.19
392.534	1679.19
392.759	1644.19
392.984	1637.19
393.208	1637.19
393.433	1673.19
393.658	1711.19
393.882	1627.19
394.107	1664.19
394.331	1661.19
394.556	1623.19
394.78	1663.19
395.005	1685.19
395.229	1647.19
395.454	1695.19
395.678	1730.19
395.903	1733.19
396.127	1713.19
396.352	1692.19
396.576	1659.19
396.801	1674.19
397.025	1727.19
397.249	1734.19
397.474	1767.19
397.698	1753.19
397.922	1771.19
398.147	1756.19
398.371	1839.19
398.595	1838.19
398.82	1909.19
399.044	1990.19
399.268	2199.19
399.492	2412.19
399.717	2647.19
399.941	2671.19
400.165	2454.19
400.389	2315.19
400.613	2163.19
400.837	2083.19
401.062	2016.19
401.286	1983.19
401.51	1890.19
401.734	1918.19
401.958	1939.19
402.182	1908.19
402.406	1944.19
402.63	1931.19
402.854	1994.19
403.078	2007.19
403.302	1976.19
403.526	2048.19
403.75	2014.19
403.974	2081.19
404.198	2101.19
404.422	2075.19
404.645	2079.19
404.869	2051.19
405.093	2088.19
405.317	2047.19
405.541	2078.19
405.765	2032.19
405.988	2086.19
406.212	2051.19
406.436	2127.19
406.66	2114.19
406.883	2176.19
407.107	2263.19
407.331	2339.19
407.555	2425.19
407.778	2367.19
408.002	2339.19
408.226	2322.19
408.449	2335.19
408.673	2192.19
408.896	2161.19
409.12	2125.19
409.344	2146.19
409.567	2126.19
409.791	2132.19
410.014	2081.19
410.238	2109.19
410.461	2089.19
410.685	2023.19
410.908	2085.19
411.132	2061.19
411.355	1988.19
411.578	2019.19
411.802	2036.19
412.025	2009.19
412.249	2039.19
412.472	2031.19
412.695	1960.19
412.919	1969.19
413.142	1948.19
413.365	1926.19
413.589	1959.19
413.812	1891.19
414.035	1879.19
414.258	1901.19
414.482	1924.19
414.705	1913.19
414.928	1929.19
415.151	1959.19
415.374	1911.19
415.597	1905.19
415.821	1864.19
416.044	1847.19
416.267	1856.19
416.49	1869.19
416.713	1857.19
416.936	1839.19
417.159	1817.19
417.382	1791.19
417.605	1815.19
417.828	1843.19
418.051	1859.19
418.274	1845.19
418.497	1831.19
418.72	1880.19
418.943	1866.19
419.166	2001.19
419.389	2125.19
419.611	2065.19
419.834	2001.19
420.057	1935.19
420.28	1853.19
420.503	1851.19
420.726	1851.19
420.948	1855.19
421.171	1845.19
421.394	1863.19
421.617	1826.19
421.839	1885.19
422.062	1836.19
422.285	1805.19
422.507	1857.19
422.73	1888.19
422.953	1896.19
423.175	1873.19
423.398	1852.19
423.621	1877.19
423.843	1880.19
424.066	1894.19
424.288	1880.19
424.511	1909.19
424.733	1891.19
424.956	1899.19
425.178	1872.19
425.401	1833.19
425.623	1824.19
425.846	1803.19
426.068	1837.19
426.291	1825.19
426.513	1752.19
426.735	1733.19
426.958	1777.19
427.18	1721.19
427.402	1756.19
427.625	1740.19
427.847	1678.19
428.069	1693.19
428.292	1701.19
428.514	1663.19
428.736	1684.19
428.958	1700.19
429.181	1678.19
429.403	1647.19
429.625	1650.19
429.847	1665.19
430.069	1651.19
430.292	1644.19
430.514	1638.19
430.736	1658.19
430.958	1702.19
431.18	1681.19
431.402	1693.19
431.624	1659.19
431.846	1722.19
432.068	1746.19
432.29	1765.19
432.512	1716.19
432.734	1707.19
432.956	1724.19
433.178	1738.19
433.4	1730.19
433.622	1716.19
433.844	1745.19
434.066	1752.19
434.287	1781.19
434.509	1845.19
434.731	1811.19
434.953	1848.19
435.175	1861.19
435.397	1876.19
435.618	1809.19
435.84	1765.19
436.062	1705.19
436.284	1717.19
436.505	1719.19
436.727	1708.19
436.949	1708.19
437.17	1698.19
437.392	1643.19
437.614	1655.19
437.835	1609.19
438.057	1629.19
438.278	1600.19
438.5	1631.19
438.721	1629.19
438.943	1623.19
439.165	1622.19
439.386	1619.19
439.608	1676.19
439.829	1667.19
440.05	1647.19
440.272	1646.19
440.493	1668.19
440.715	1663.19
440.936	1713.19
441.158	1766.19
441.379	1762.19
441.6	1856.19
441.822	1844.19
442.043	1872.19
442.264	1801.19
442.486	1750.19
442.707	1802.19
442.928	1770.19
443.149	1803.19
443.371	1774.19
443.592	1824.19
443.813	1826.19
444.034	1882.19
444.255	1869.19
444.476	1914.19
444.698	2031.19
444.919	2051.19
445.14	2117.19
445.361	1986.19
445.582	1897.19
445.803	1788.19
446.024	1739.19
446.245	1772.19
446.466	1712.19
446.687	1698.19
446.908	1646.19
447.129	1661.19
447.35	1596.19
447.571	1590.19
447.792	1560.19
448.013	1588.19
448.234	1537.19
448.455	1540.19
448.675	1516.19
448.896	1509.19
449.117	1472.19
449.338	1510.19
449.559	1496.19
449.779	1500.19
450	1471.19
450.221	1497.19
450.442	1470.19
450.662	1489.19
450.883	1497.19
451.104	1512.19
451.324	1501.19
451.545	1505.19
451.766	1455.19
451.986	1487.19
452.207	1507.19
452.428	1473.19
452.648	1499.19
452.869	1453.19
453.089	1470.19
453.31	1435.19
453.53	1426.19
453.751	1436.19
453.971	1489.19
454.192	1467.19
454.412	1433.19
454.633	1416.19
454.853	1428.19
455.073	1413.19
455.294	1455.19
455.514	1411.19
455.734	1420.19
455.955	1412.19
456.175	1373.19
456.395	1419.19
456.616	1388.19
456.836	1399.19
457.056	1429.19
457.276	1410.19
457.497	1448.19
457.717	1423.19
457.937	1438.19
458.157	1462.19
458.377	1444.19
458.598	1479.19
458.818	1529.19
459.038	1556.19
459.258	1610.19
459.478	1643.19
459.698	1697.19
459.918	1747.19
460.138	1784.19
460.358	1839.19
460.578	1885.19
460.798	1911.19
461.018	1888.19
461.238	1827.19
461.458	1905.19
461.678	1870.19
461.898	1887.19
462.118	1898.19
462.338	2004.19
462.558	2074.19
462.777	2154.19
462.997	2277.19
463.217	2388.19
463.437	2399.19
463.657	2258.19
463.876	2167.19
464.096	2217.19
464.316	2144.19
464.536	2152.19
464.755	2082.19
464.975	2031.19
465.195	1965.19
465.414	1906.19
465.634	1789.19
465.854	1711.19
466.073	1706.19
466.293	1655.19
466.512	1658.19
466.732	1570.19
466.951	1607.19
467.171	1608.19
467.391	1572.19
467.61	1554.19
467.829	1583.19
468.049	1591.19
468.268	1526.19
468.488	1493.19
468.707	1506.19
468.927	1519.19
469.146	1521.19
469.365	1520.19
469.585	1572.19
469.804	1595.19
470.023	1618.19
470.243	1612.19
470.462	1623.19
470.681	1634.19
470.901	1615.19
471.12	1615.19
471.339	1585.19
471.558	1540.19
471.777	1597.19
471.997	1558.19
472.216	1505.19
472.435	1499.19
472.654	1486.19
472.873	1519.19
473.092	1513.19
473.311	1525.19
473.53	1529.19
473.749	1515.19
473.968	1519.19
474.187	1537.19
474.406	1500.19
474.625	1549.19
474.844	1555.19
475.063	1538.19
475.282	1531.19
475.501	1538.19
475.72	1565.19
475.939	1591.19
476.158	1588.19
476.377	1593.19
476.596	1602.19
476.814	1634.19
477.033	1643.19
477.252	1667.19
477.471	1653.19
477.69	1723.19
477.908	1758.19
478.127	1797.19
478.346	1776.19
478.564	1845.19
478.783	1871.19
479.002	1907.19
479.22	1897.19
479.439	1850.19
479.658	1894.19
479.876	1921.19
480.095	1887.19
480.313	1972.19
480.532	2005.19
480.751	2008.19
480.969	2025.19
481.188	1904.19
481.406	1868.19
481.624	1862.19
481.843	1847.19
482.061	1849.19
482.28	1842.19
482.498	1857.19
482.717	1847.19
482.935	1827.19
483.153	1839.19
483.372	1843.19
483.59	1855.19
483.808	1924.19
484.027	1873.19
484.245	1947.19
484.463	1935.19
484.681	1950.19
484.9	1979.19
485.118	1983.19
485.336	1996.19
485.554	1983.19
485.772	2047.19
485.99	2000.19
486.209	2024.19
486.427	2009.19
486.645	1992.19
486.863	2016.19
487.081	2026.19
487.299	1987.19
487.517	1987.19
487.735	1957.19
487.953	1981.19
488.171	1975.19
488.389	1965.19
488.607	1971.19
488.825	1927.19
489.043	1945.19
489.261	1928.19
489.479	1921.19
489.696	1957.19
489.914	1953.19
