Data from NiCl2@0.5M.TitratingCurve.Agarose3%dH2O.NegLispCup.LampEnergy10.LIBS07252019_HRD10591_18-20-36-571.txt Node
Date: Thu Jul 25 18:20:36 EDT 2019
User: cochatt
Spectrometer: HR+D1059
Trigger mode: 1
Integration Time (sec): 1.000000E-1
Scans to average: 1
Electric dark correction enabled: true
Nonlinearity correction enabled: false
Boxcar width: 0
XAxis mode: Wavelengths
Number of Pixels in Spectrum: 2048
>>>>>Begin Spectral Data<<<<<
223.165	-16.5
223.4	-16.5
223.635	-16.5
223.869	-18.5
224.104	-14.5
224.338	-6.5
224.573	-17.5
224.808	-14.5
225.042	-2.5
225.277	-2.5
225.511	-13.5
225.746	-0.5
225.98	7.5
226.215	14.5
226.449	8.5
226.683	13.5
226.918	32.5
227.152	30.5
227.387	22.5
227.621	24.5
227.856	46.5
228.09	32.5
228.324	46.5
228.559	45.5
228.793	65.5
229.027	107.5
229.262	114.5
229.496	112.5
229.73	128.5
229.964	121.5
230.199	122.5
230.433	135.5
230.667	135.5
230.901	138.5
231.136	130.5
231.37	133.5
231.604	146.5
231.838	143.5
232.072	129.5
232.306	136.5
232.541	134.5
232.775	136.5
233.009	143.5
233.243	151.5
233.477	146.5
233.711	146.5
233.945	146.5
234.179	142.5
234.413	148.5
234.647	161.5
234.881	150.5
235.115	145.5
235.349	154.5
235.583	136.5
235.817	154.5
236.051	163.5
236.285	160.5
236.519	154.5
236.753	159.5
236.987	139.5
237.221	158.5
237.455	145.5
237.689	152.5
237.922	171.5
238.156	161.5
238.39	166.5
238.624	164.5
238.858	164.5
239.091	157.5
239.325	174.5
239.559	162.5
239.793	185.5
240.027	174.5
240.26	178.5
240.494	169.5
240.728	165.5
240.961	175.5
241.195	193.5
241.429	165.5
241.662	189.5
241.896	179.5
242.13	185.5
242.363	179.5
242.597	193.5
242.83	200.5
243.064	177.5
243.298	186.5
243.531	206.5
243.765	212.5
243.998	208.5
244.232	211.5
244.465	206.5
244.699	204.5
244.932	201.5
245.166	225.5
245.399	217.5
245.633	215.5
245.866	220.5
246.099	233.5
246.333	217.5
246.566	224.5
246.8	209.5
247.033	220.5
247.266	223.5
247.5	219.5
247.733	220.5
247.966	251.5
248.2	221.5
248.433	238.5
248.666	241.5
248.899	238.5
249.133	233.5
249.366	269.5
249.599	250.5
249.832	251.5
250.066	243.5
250.299	254.5
250.532	253.5
250.765	238.5
250.998	271.5
251.231	257.5
251.465	254.5
251.698	240.5
251.931	270.5
252.164	262.5
252.397	286.5
252.63	263.5
252.863	260.5
253.096	284.5
253.329	268.5
253.562	270.5
253.795	275.5
254.028	283.5
254.261	281.5
254.494	275.5
254.727	278.5
254.96	285.5
255.193	294.5
255.426	280.5
255.659	274.5
255.892	277.5
256.124	277.5
256.357	285.5
256.59	298.5
256.823	283.5
257.056	288.5
257.289	278.5
257.521	320.5
257.754	311.5
257.987	287.5
258.22	297.5
258.452	319.5
258.685	302.5
258.918	317.5
259.151	319.5
259.383	309.5
259.616	320.5
259.849	326.5
260.081	314.5
260.314	317.5
260.547	323.5
260.779	324.5
261.012	332.5
261.244	329.5
261.477	324.5
261.71	347.5
261.942	314.5
262.175	327.5
262.407	325.5
262.64	326.5
262.872	333.5
263.105	340.5
263.337	330.5
263.57	352.5
263.802	351.5
264.035	344.5
264.267	333.5
264.499	343.5
264.732	343.5
264.964	344.5
265.197	358.5
265.429	366.5
265.661	358.5
265.894	349.5
266.126	353.5
266.358	361.5
266.591	357.5
266.823	353.5
267.055	353.5
267.287	371.5
267.52	373.5
267.752	355.5
267.984	373.5
268.216	384.5
268.448	381.5
268.681	377.5
268.913	381.5
269.145	384.5
269.377	391.5
269.609	379.5
269.841	355.5
270.073	371.5
270.306	376.5
270.538	361.5
270.77	369.5
271.002	377.5
271.234	386.5
271.466	382.5
271.698	381.5
271.93	397.5
272.162	377.5
272.394	413.5
272.626	401.5
272.858	405.5
273.09	411.5
273.322	402.5
273.553	394.5
273.785	425.5
274.017	420.5
274.249	438.5
274.481	434.5
274.713	402.5
274.945	418.5
275.176	425.5
275.408	413.5
275.64	425.5
275.872	436.5
276.104	410.5
276.335	423.5
276.567	419.5
276.799	429.5
277.031	418.5
277.262	407.5
277.494	466.5
277.726	440.5
277.957	463.5
278.189	447.5
278.421	437.5
278.652	428.5
278.884	445.5
279.115	452.5
279.347	444.5
279.579	447.5
279.81	449.5
280.042	457.5
280.273	459.5
280.505	452.5
280.736	454.5
280.968	458.5
281.199	475.5
281.431	466.5
281.662	452.5
281.894	456.5
282.125	456.5
282.356	484.5
282.588	471.5
282.819	475.5
283.051	476.5
283.282	486.5
283.513	481.5
283.745	503.5
283.976	479.5
284.207	493.5
284.439	509.5
284.67	493.5
284.901	477.5
285.132	501.5
285.364	515.5
285.595	505.5
285.826	483.5
286.057	505.5
286.288	495.5
286.52	523.5
286.751	509.5
286.982	511.5
287.213	485.5
287.444	490.5
287.675	501.5
287.906	517.5
288.138	538.5
288.369	527.5
288.6	515.5
288.831	522.5
289.062	538.5
289.293	530.5
289.524	514.5
289.755	537.5
289.986	529.5
290.217	535.5
290.448	546.5
290.679	563.5
290.91	533.5
291.141	559.5
291.371	527.5
291.602	541.5
291.833	518.5
292.064	524.5
292.295	523.5
292.526	533.5
292.757	541.5
292.987	530.5
293.218	496.5
293.449	534.5
293.68	559.5
293.91	530.5
294.141	557.5
294.372	547.5
294.603	545.5
294.833	529.5
295.064	550.5
295.295	542.5
295.525	542.5
295.756	556.5
295.987	571.5
296.217	557.5
296.448	576.5
296.679	559.5
296.909	559.5
297.14	582.5
297.37	585.5
297.601	571.5
297.831	552.5
298.062	591.5
298.292	581.5
298.523	587.5
298.753	583.5
298.984	584.5
299.214	555.5
299.445	559.5
299.675	587.5
299.905	575.5
300.136	615.5
300.366	588.5
300.597	617.5
300.827	585.5
301.057	607.5
301.288	613.5
301.518	637.5
301.748	628.5
301.979	627.5
302.209	629.5
302.439	622.5
302.669	607.5
302.9	613.5
303.13	614.5
303.36	619.5
303.59	631.5
303.82	629.5
304.051	629.5
304.281	619.5
304.511	618.5
304.741	635.5
304.971	635.5
305.201	634.5
305.431	626.5
305.661	637.5
305.891	607.5
306.121	629.5
306.352	613.5
306.582	607.5
306.812	625.5
307.042	601.5
307.272	627.5
307.502	601.5
307.731	604.5
307.961	602.5
308.191	609.5
308.421	604.5
308.651	615.5
308.881	628.5
309.111	632.5
309.341	625.5
309.571	592.5
309.8	604.5
310.03	617.5
310.26	633.5
310.49	618.5
310.72	643.5
310.949	646.5
311.179	611.5
311.409	627.5
311.639	641.5
311.868	623.5
312.098	633.5
312.328	647.5
312.557	621.5
312.787	649.5
313.017	630.5
313.246	648.5
313.476	647.5
313.706	680.5
313.935	667.5
314.165	672.5
314.394	640.5
314.624	650.5
314.853	655.5
315.083	659.5
315.312	674.5
315.542	653.5
315.771	659.5
316.001	650.5
316.23	647.5
316.46	637.5
316.689	651.5
316.919	647.5
317.148	658.5
317.377	657.5
317.607	659.5
317.836	624.5
318.065	633.5
318.295	661.5
318.524	666.5
318.753	669.5
318.983	651.5
319.212	641.5
319.441	643.5
319.67	657.5
319.9	662.5
320.129	680.5
320.358	659.5
320.587	643.5
320.816	651.5
321.046	654.5
321.275	643.5
321.504	654.5
321.733	649.5
321.962	648.5
322.191	657.5
322.42	669.5
322.649	677.5
322.878	688.5
323.108	697.5
323.337	713.5
323.566	689.5
323.795	664.5
324.024	681.5
324.253	675.5
324.482	659.5
324.71	682.5
324.939	690.5
325.168	690.5
325.397	697.5
325.626	698.5
325.855	671.5
326.084	722.5
326.313	734.5
326.542	733.5
326.77	753.5
326.999	730.5
327.228	736.5
327.457	697.5
327.686	709.5
327.914	716.5
328.143	700.5
328.372	691.5
328.6	713.5
328.829	717.5
329.058	714.5
329.287	737.5
329.515	714.5
329.744	706.5
329.972	725.5
330.201	745.5
330.43	725.5
330.658	733.5
330.887	737.5
331.115	738.5
331.344	746.5
331.572	766.5
331.801	794.5
332.03	783.5
332.258	801.5
332.486	825.5
332.715	807.5
332.943	854.5
333.172	871.5
333.4	922.5
333.629	936.5
333.857	925.5
334.085	907.5
334.314	888.5
334.542	905.5
334.771	927.5
334.999	891.5
335.227	882.5
335.455	917.5
335.684	901.5
335.912	859.5
336.14	889.5
336.369	862.5
336.597	879.5
336.825	875.5
337.053	870.5
337.281	854.5
337.51	843.5
337.738	805.5
337.966	819.5
338.194	837.5
338.422	816.5
338.65	786.5
338.878	769.5
339.106	799.5
339.334	791.5
339.562	777.5
339.79	754.5
340.018	774.5
340.246	756.5
340.474	767.5
340.702	767.5
340.93	745.5
341.158	757.5
341.386	771.5
341.614	801.5
341.842	760.5
342.07	772.5
342.298	747.5
342.526	744.5
342.754	723.5
342.981	769.5
343.209	752.5
343.437	797.5
343.665	863.5
343.893	893.5
344.12	882.5
344.348	846.5
344.576	861.5
344.804	822.5
345.031	778.5
345.259	794.5
345.487	763.5
345.714	794.5
345.942	732.5
346.17	765.5
346.397	738.5
346.625	733.5
346.853	710.5
347.08	737.5
347.308	706.5
347.535	725.5
347.763	706.5
347.99	743.5
348.218	727.5
348.445	708.5
348.673	712.5
348.9	696.5
349.128	713.5
349.355	722.5
349.583	734.5
349.81	722.5
350.037	713.5
350.265	696.5
350.492	709.5
350.72	705.5
350.947	706.5
351.174	718.5
351.402	702.5
351.629	718.5
351.856	711.5
352.083	693.5
352.311	702.5
352.538	685.5
352.765	714.5
352.992	677.5
353.22	699.5
353.447	676.5
353.674	681.5
353.901	675.5
354.128	689.5
354.355	678.5
354.583	653.5
354.81	696.5
355.037	691.5
355.264	673.5
355.491	695.5
355.718	682.5
355.945	695.5
356.172	699.5
356.399	691.5
356.626	696.5
356.853	698.5
357.08	714.5
357.307	717.5
357.534	715.5
357.761	703.5
357.988	702.5
358.215	689.5
358.441	676.5
358.668	679.5
358.895	689.5
359.122	699.5
359.349	702.5
359.576	674.5
359.802	696.5
360.029	687.5
360.256	675.5
360.483	661.5
360.709	687.5
360.936	693.5
361.163	697.5
361.39	681.5
361.616	707.5
361.843	697.5
362.07	733.5
362.296	724.5
362.523	682.5
362.749	697.5
362.976	663.5
363.203	680.5
363.429	687.5
363.656	683.5
363.882	682.5
364.109	679.5
364.335	687.5
364.562	674.5
364.788	671.5
365.015	701.5
365.241	670.5
365.468	667.5
365.694	687.5
365.92	686.5
366.147	689.5
366.373	671.5
366.599	669.5
366.826	652.5
367.052	674.5
367.278	704.5
367.505	706.5
367.731	700.5
367.957	706.5
368.184	673.5
368.41	687.5
368.636	672.5
368.862	694.5
369.089	691.5
369.315	681.5
369.541	693.5
369.767	710.5
369.993	684.5
370.219	720.5
370.445	699.5
370.672	734.5
370.898	714.5
371.124	706.5
371.35	704.5
371.576	737.5
371.802	746.5
372.028	723.5
372.254	726.5
372.48	725.5
372.706	769.5
372.932	762.5
373.158	747.5
373.384	729.5
373.61	727.5
373.835	744.5
374.061	725.5
374.287	751.5
374.513	741.5
374.739	765.5
374.965	800.5
375.191	802.5
375.416	813.5
375.642	776.5
375.868	785.5
376.094	769.5
376.319	727.5
376.545	750.5
376.771	716.5
376.997	721.5
377.222	736.5
377.448	750.5
377.674	719.5
377.899	726.5
378.125	722.5
378.35	728.5
378.576	714.5
378.802	714.5
379.027	723.5
379.253	710.5
379.478	735.5
379.704	728.5
379.929	718.5
380.155	735.5
380.38	714.5
380.606	743.5
380.831	730.5
381.057	732.5
381.282	724.5
381.507	689.5
381.733	763.5
381.958	724.5
382.184	746.5
382.409	750.5
382.634	741.5
382.86	759.5
383.085	748.5
383.31	783.5
383.535	798.5
383.761	766.5
383.986	796.5
384.211	826.5
384.436	818.5
384.662	807.5
384.887	834.5
385.112	835.5
385.337	883.5
385.562	861.5
385.787	861.5
386.013	888.5
386.238	854.5
386.463	859.5
386.688	870.5
386.913	854.5
387.138	863.5
387.363	867.5
387.588	851.5
387.813	848.5
388.038	864.5
388.263	886.5
388.488	858.5
388.713	857.5
388.938	861.5
389.163	841.5
389.387	859.5
389.612	856.5
389.837	885.5
390.062	848.5
390.287	873.5
390.512	887.5
390.736	880.5
390.961	903.5
391.186	893.5
391.411	939.5
391.636	947.5
391.86	953.5
392.085	970.5
392.31	973.5
392.534	954.5
392.759	934.5
392.984	922.5
393.208	900.5
393.433	930.5
393.658	930.5
393.882	906.5
394.107	932.5
394.331	934.5
394.556	916.5
394.78	972.5
395.005	945.5
395.229	950.5
395.454	934.5
395.678	949.5
395.903	991.5
396.127	961.5
396.352	944.5
396.576	925.5
396.801	909.5
397.025	929.5
397.249	972.5
397.474	995.5
397.698	991.5
397.922	982.5
398.147	965.5
398.371	1019.5
398.595	1053.5
398.82	1103.5
399.044	1163.5
399.268	1231.5
399.492	1391.5
399.717	1533.5
399.941	1493.5
400.165	1397.5
400.389	1315.5
400.613	1229.5
400.837	1141.5
401.062	1146.5
401.286	1136.5
401.51	1104.5
401.734	1108.5
401.958	1080.5
402.182	1111.5
402.406	1153.5
402.63	1125.5
402.854	1131.5
403.078	1135.5
403.302	1162.5
403.526	1193.5
403.75	1197.5
403.974	1211.5
404.198	1203.5
404.422	1210.5
404.645	1219.5
404.869	1215.5
405.093	1187.5
405.317	1149.5
405.541	1201.5
405.765	1178.5
405.988	1193.5
406.212	1213.5
406.436	1183.5
406.66	1217.5
406.883	1263.5
407.107	1287.5
407.331	1317.5
407.555	1357.5
407.778	1367.5
408.002	1367.5
408.226	1319.5
408.449	1316.5
408.673	1270.5
408.896	1248.5
409.12	1257.5
409.344	1241.5
409.567	1216.5
409.791	1228.5
410.014	1234.5
410.238	1213.5
410.461	1212.5
410.685	1205.5
410.908	1183.5
411.132	1163.5
411.355	1144.5
411.578	1142.5
411.802	1127.5
412.025	1166.5
412.249	1167.5
412.472	1149.5
412.695	1126.5
412.919	1109.5
413.142	1113.5
413.365	1092.5
413.589	1110.5
413.812	1084.5
414.035	1063.5
414.258	1097.5
414.482	1104.5
414.705	1121.5
414.928	1121.5
415.151	1112.5
415.374	1104.5
415.597	1091.5
415.821	1097.5
416.044	1127.5
416.267	1057.5
416.49	1052.5
416.713	1074.5
416.936	1057.5
417.159	1063.5
417.382	1060.5
417.605	1067.5
417.828	1063.5
418.051	1066.5
418.274	1093.5
418.497	1053.5
418.72	1091.5
418.943	1097.5
419.166	1185.5
419.389	1243.5
419.611	1207.5
419.834	1174.5
420.057	1137.5
420.28	1105.5
420.503	1049.5
420.726	1061.5
420.948	1099.5
421.171	1070.5
421.394	1102.5
421.617	1075.5
421.839	1084.5
422.062	1099.5
422.285	1066.5
422.507	1118.5
422.73	1074.5
422.953	1097.5
423.175	1096.5
423.398	1132.5
423.621	1120.5
423.843	1157.5
424.066	1137.5
424.288	1111.5
424.511	1096.5
424.733	1077.5
424.956	1074.5
425.178	1086.5
425.401	1102.5
425.623	1095.5
425.846	1072.5
426.068	1039.5
426.291	1058.5
426.513	1020.5
426.735	1014.5
426.958	1001.5
427.18	1006.5
427.402	1009.5
427.625	991.5
427.847	982.5
428.069	1001.5
428.292	992.5
428.514	977.5
428.736	998.5
428.958	1017.5
429.181	972.5
429.403	971.5
429.625	965.5
429.847	959.5
430.069	960.5
430.292	975.5
430.514	973.5
430.736	973.5
430.958	982.5
431.18	979.5
431.402	992.5
431.624	995.5
431.846	985.5
432.068	1000.5
432.29	1009.5
432.512	1002.5
432.734	989.5
432.956	962.5
433.178	1030.5
433.4	1007.5
433.622	999.5
433.844	1025.5
434.066	1014.5
434.287	1029.5
434.509	1047.5
434.731	1086.5
434.953	1074.5
435.175	1088.5
435.397	1072.5
435.618	1051.5
435.84	1029.5
436.062	1023.5
436.284	1002.5
436.505	993.5
436.727	1029.5
436.949	1026.5
437.17	989.5
437.392	963.5
437.614	978.5
437.835	947.5
438.057	954.5
438.278	951.5
438.5	963.5
438.721	931.5
438.943	994.5
439.165	959.5
439.386	965.5
439.608	982.5
439.829	989.5
440.05	996.5
440.272	993.5
440.493	1008.5
440.715	1031.5
440.936	1009.5
441.158	1058.5
441.379	1080.5
441.6	1098.5
441.822	1121.5
442.043	1101.5
442.264	1094.5
442.486	1094.5
442.707	1095.5
442.928	1076.5
443.149	1105.5
443.371	1057.5
443.592	1084.5
443.813	1095.5
444.034	1137.5
444.255	1150.5
444.476	1207.5
444.698	1255.5
444.919	1303.5
445.14	1334.5
445.361	1224.5
445.582	1131.5
445.803	1103.5
446.024	1095.5
446.245	1058.5
446.466	1045.5
446.687	1001.5
446.908	987.5
447.129	984.5
447.35	960.5
447.571	962.5
447.792	967.5
448.013	955.5
448.234	945.5
448.455	947.5
448.675	930.5
448.896	954.5
449.117	924.5
449.338	895.5
449.559	929.5
449.779	914.5
450	903.5
450.221	924.5
450.442	911.5
450.662	952.5
450.883	925.5
451.104	949.5
451.324	930.5
451.545	918.5
451.766	915.5
451.986	907.5
452.207	899.5
452.428	884.5
452.648	911.5
452.869	899.5
453.089	869.5
453.31	923.5
453.53	901.5
453.751	880.5
453.971	866.5
454.192	888.5
454.412	869.5
454.633	862.5
454.853	877.5
455.073	862.5
455.294	863.5
455.514	854.5
455.734	879.5
455.955	872.5
456.175	883.5
456.395	879.5
456.616	838.5
456.836	855.5
457.056	856.5
457.276	861.5
457.497	861.5
457.717	863.5
457.937	913.5
458.157	905.5
458.377	895.5
458.598	920.5
458.818	948.5
459.038	951.5
459.258	979.5
459.478	1013.5
459.698	1035.5
459.918	1043.5
460.138	1122.5
460.358	1127.5
460.578	1157.5
460.798	1144.5
461.018	1187.5
461.238	1167.5
461.458	1160.5
461.678	1135.5
461.898	1185.5
462.118	1163.5
462.338	1251.5
462.558	1264.5
462.777	1331.5
462.997	1404.5
463.217	1501.5
463.437	1495.5
463.657	1397.5
463.876	1355.5
464.096	1339.5
464.316	1350.5
464.536	1334.5
464.755	1303.5
464.975	1266.5
465.195	1225.5
465.414	1149.5
465.634	1084.5
465.854	1063.5
466.073	1049.5
466.293	1023.5
466.512	1014.5
466.732	971.5
466.951	971.5
467.171	981.5
467.391	1010.5
467.61	968.5
467.829	934.5
468.049	982.5
468.268	921.5
468.488	929.5
468.707	950.5
468.927	961.5
469.146	937.5
469.365	943.5
469.585	927.5
469.804	978.5
470.023	974.5
470.243	975.5
470.462	1003.5
470.681	1003.5
470.901	1012.5
471.12	985.5
471.339	989.5
471.558	964.5
471.777	955.5
471.997	955.5
472.216	971.5
472.435	929.5
472.654	935.5
472.873	915.5
473.092	915.5
473.311	900.5
473.53	917.5
473.749	919.5
473.968	891.5
474.187	906.5
474.406	896.5
474.625	914.5
474.844	930.5
475.063	921.5
475.282	920.5
475.501	932.5
475.72	941.5
475.939	936.5
476.158	944.5
476.377	954.5
476.596	948.5
476.814	962.5
477.033	968.5
477.252	989.5
477.471	1018.5
477.69	1035.5
477.908	1050.5
478.127	1073.5
478.346	1105.5
478.564	1077.5
478.783	1094.5
479.002	1138.5
479.22	1146.5
479.439	1140.5
479.658	1131.5
479.876	1145.5
480.095	1154.5
480.313	1192.5
480.532	1237.5
480.751	1173.5
480.969	1178.5
481.188	1118.5
481.406	1129.5
481.624	1107.5
481.843	1070.5
482.061	1043.5
482.28	1063.5
482.498	1041.5
482.717	1047.5
482.935	1081.5
483.153	1057.5
483.372	1079.5
483.59	1121.5
483.808	1056.5
484.027	1047.5
484.245	1093.5
484.463	1066.5
484.681	1093.5
484.9	1103.5
485.118	1118.5
485.336	1116.5
485.554	1109.5
485.772	1121.5
485.99	1087.5
486.209	1112.5
486.427	1101.5
486.645	1095.5
486.863	1120.5
487.081	1113.5
487.299	1093.5
487.517	1104.5
487.735	1119.5
487.953	1153.5
488.171	1131.5
488.389	1099.5
488.607	1085.5
488.825	1108.5
489.043	1091.5
489.261	1126.5
489.479	1085.5
489.696	1070.5
489.914	1096.5
490.132	1095.5
490.35	1128.5
490.568	1069.5
490.786	1097.5
491.003	1107.5
491.221	1111.5
491.439	1158.5
491.657	1153.5
491.874	1156.5
492.092	1115.5
492.31	1153.5
492.527	1127.5
492.745	1170.5
492.963	1159.5
493.18	1122.5
493.398	1175.5
493.615	1188.5
493.833	1173.5
494.05	1173.5
494.268	1172.5
494.485	1210.5
494.703	1174.5
494.92	1152.5
495.138	1168.5
495.355	1217.5
495.573	1202.5
495.79	1211.5
496.008	1235.5
496.225	1212.5
496.442	1232.5
496.66	1234.5
496.877	1260.5
497.094	1253.5
497.312	1302.5
497.529	1309.5
497.746	1365.5
497.963	1368.5
498.181	1444.5
498.398	1500.5
498.615	1586.5
498.832	1694.5
499.049	1801.5
499.267	1940.5
499.484	2089.5
499.701	2248.5
499.918	2503.5
500.135	2740.5
500.352	3032.5
500.569	3183.5
500.786	3084.5
501.003	2949.5
501.22	2720.5
501.437	2453.5
501.654	2216.5
501.871	2048.5
502.088	1893.5
502.305	1819.5
502.522	1687.5
502.739	1582.5
502.956	1531.5
503.172	1471.5
503.389	1389.5
503.606	1372.5
503.823	1354.5
504.04	1358.5
504.256	1349.5
504.473	1365.5
504.69	1363.5
504.907	1369.5
505.123	1285.5
505.34	1218.5
505.557	1184.5
505.773	1132.5
505.99	1147.5
506.207	1130.5
506.423	1099.5
506.64	1060.5
506.856	1088.5
507.073	1028.5
507.289	1030.5
507.506	1033.5
507.722	1030.5
507.939	1027.5
508.155	1016.5
508.372	1014.5
508.588	997.5
508.805	995.5
509.021	983.5
509.238	979.5
509.454	974.5
509.67	967.5
509.887	955.5
510.103	952.5
510.319	925.5
510.536	926.5
510.752	923.5
510.968	934.5
511.184	937.5
511.401	933.5
511.617	917.5
511.833	921.5
512.049	911.5
512.265	921.5
512.481	934.5
512.698	936.5
512.914	943.5
513.13	945.5
513.346	923.5
513.562	933.5
513.778	951.5
513.994	941.5
514.21	947.5
