Data from NiCl2@0.25M.TitratingCurve.Agarose3%dH2O.NegLispCup.LampEnergy10.LIBS07252019_HRD10591_18-24-07-573.txt Node
Date: Thu Jul 25 18:24:07 EDT 2019
User: cochatt
Spectrometer: HR+D1059
Trigger mode: 1
Integration Time (sec): 1.000000E-1
Scans to average: 1
Electric dark correction enabled: true
Nonlinearity correction enabled: false
Boxcar width: 0
XAxis mode: Wavelengths
Number of Pixels in Spectrum: 2048
>>>>>Begin Spectral Data<<<<<
223.165	-2.25
223.4	-2.25
223.635	-2.25
223.869	-13.25
224.104	-20.25
224.338	-8.25
224.573	-16.25
224.808	-17.25
225.042	-5.25
225.277	-11.25
225.511	-15.25
225.746	0.75
225.98	19.75
226.215	21.75
226.449	11.75
226.683	10.75
226.918	19.75
227.152	24.75
227.387	36.75
227.621	43.75
227.856	40.75
228.09	44.75
228.324	41.75
228.559	66.75
228.793	78.75
229.027	112.75
229.262	94.75
229.496	117.75
229.73	112.75
229.964	123.75
230.199	122.75
230.433	126.75
230.667	111.75
230.901	109.75
231.136	112.75
231.37	115.75
231.604	132.75
231.838	134.75
232.072	135.75
232.306	146.75
232.541	135.75
232.775	144.75
233.009	134.75
233.243	146.75
233.477	138.75
233.711	136.75
233.945	144.75
234.179	136.75
234.413	140.75
234.647	133.75
234.881	145.75
235.115	132.75
235.349	146.75
235.583	146.75
235.817	140.75
236.051	135.75
236.285	146.75
236.519	156.75
236.753	150.75
236.987	151.75
237.221	145.75
237.455	141.75
237.689	148.75
237.922	144.75
238.156	156.75
238.39	146.75
238.624	161.75
238.858	158.75
239.091	156.75
239.325	137.75
239.559	157.75
239.793	144.75
240.027	153.75
240.26	146.75
240.494	165.75
240.728	159.75
240.961	164.75
241.195	181.75
241.429	160.75
241.662	154.75
241.896	161.75
242.13	169.75
242.363	164.75
242.597	174.75
242.83	189.75
243.064	182.75
243.298	180.75
243.531	182.75
243.765	190.75
243.998	179.75
244.232	184.75
244.465	165.75
244.699	192.75
244.932	187.75
245.166	193.75
245.399	180.75
245.633	205.75
245.866	213.75
246.099	207.75
246.333	206.75
246.566	180.75
246.8	206.75
247.033	222.75
247.266	226.75
247.5	199.75
247.733	201.75
247.966	206.75
248.2	197.75
248.433	209.75
248.666	238.75
248.899	219.75
249.133	223.75
249.366	223.75
249.599	234.75
249.832	220.75
250.066	232.75
250.299	240.75
250.532	230.75
250.765	202.75
250.998	217.75
251.231	229.75
251.465	227.75
251.698	249.75
251.931	242.75
252.164	254.75
252.397	242.75
252.63	230.75
252.863	242.75
253.096	242.75
253.329	252.75
253.562	243.75
253.795	234.75
254.028	239.75
254.261	252.75
254.494	256.75
254.727	253.75
254.96	277.75
255.193	242.75
255.426	252.75
255.659	238.75
255.892	258.75
256.124	265.75
256.357	260.75
256.59	262.75
256.823	251.75
257.056	268.75
257.289	260.75
257.521	254.75
257.754	264.75
257.987	258.75
258.22	275.75
258.452	274.75
258.685	286.75
258.918	275.75
259.151	270.75
259.383	268.75
259.616	274.75
259.849	277.75
260.081	274.75
260.314	268.75
260.547	283.75
260.779	279.75
261.012	291.75
261.244	276.75
261.477	281.75
261.71	304.75
261.942	279.75
262.175	286.75
262.407	313.75
262.64	298.75
262.872	290.75
263.105	277.75
263.337	279.75
263.57	293.75
263.802	294.75
264.035	302.75
264.267	306.75
264.499	306.75
264.732	300.75
264.964	307.75
265.197	311.75
265.429	318.75
265.661	302.75
265.894	318.75
266.126	330.75
266.358	314.75
266.591	319.75
266.823	324.75
267.055	305.75
267.287	340.75
267.52	296.75
267.752	316.75
267.984	313.75
268.216	316.75
268.448	315.75
268.681	333.75
268.913	313.75
269.145	338.75
269.377	332.75
269.609	307.75
269.841	331.75
270.073	325.75
270.306	334.75
270.538	331.75
270.77	329.75
271.002	334.75
271.234	348.75
271.466	345.75
271.698	335.75
271.93	332.75
272.162	329.75
272.394	331.75
272.626	338.75
272.858	333.75
273.09	350.75
273.322	340.75
273.553	343.75
273.785	356.75
274.017	362.75
274.249	348.75
274.481	355.75
274.713	357.75
274.945	367.75
275.176	354.75
275.408	356.75
275.64	380.75
275.872	355.75
276.104	357.75
276.335	360.75
276.567	372.75
276.799	344.75
277.031	388.75
277.262	364.75
277.494	377.75
277.726	375.75
277.957	376.75
278.189	384.75
278.421	365.75
278.652	388.75
278.884	368.75
279.115	409.75
279.347	386.75
279.579	388.75
279.81	376.75
280.042	382.75
280.273	402.75
280.505	403.75
280.736	392.75
280.968	408.75
281.199	406.75
281.431	412.75
281.662	412.75
281.894	409.75
282.125	402.75
282.356	404.75
282.588	423.75
282.819	406.75
283.051	412.75
283.282	406.75
283.513	402.75
283.745	403.75
283.976	402.75
284.207	409.75
284.439	428.75
284.67	429.75
284.901	421.75
285.132	412.75
285.364	437.75
285.595	420.75
285.826	451.75
286.057	428.75
286.288	413.75
286.52	420.75
286.751	442.75
286.982	413.75
287.213	449.75
287.444	434.75
287.675	444.75
287.906	444.75
288.138	442.75
288.369	441.75
288.6	456.75
288.831	434.75
289.062	447.75
289.293	460.75
289.524	459.75
289.755	429.75
289.986	446.75
290.217	468.75
290.448	449.75
290.679	449.75
290.91	467.75
291.141	451.75
291.371	464.75
291.602	444.75
291.833	442.75
292.064	462.75
292.295	453.75
292.526	476.75
292.757	474.75
292.987	465.75
293.218	458.75
293.449	451.75
293.68	459.75
293.91	442.75
294.141	475.75
294.372	444.75
294.603	461.75
294.833	467.75
295.064	470.75
295.295	469.75
295.525	456.75
295.756	476.75
295.987	458.75
296.217	464.75
296.448	489.75
296.679	504.75
296.909	478.75
297.14	485.75
297.37	481.75
297.601	485.75
297.831	476.75
298.062	499.75
298.292	508.75
298.523	532.75
298.753	503.75
298.984	489.75
299.214	485.75
299.445	479.75
299.675	495.75
299.905	501.75
300.136	491.75
300.366	502.75
300.597	512.75
300.827	532.75
301.057	525.75
301.288	533.75
301.518	501.75
301.748	519.75
301.979	532.75
302.209	518.75
302.439	515.75
302.669	533.75
302.9	536.75
303.13	522.75
303.36	536.75
303.59	535.75
303.82	535.75
304.051	518.75
304.281	519.75
304.511	517.75
304.741	523.75
304.971	541.75
305.201	514.75
305.431	500.75
305.661	529.75
305.891	519.75
306.121	502.75
306.352	541.75
306.582	503.75
306.812	521.75
307.042	517.75
307.272	519.75
307.502	510.75
307.731	532.75
307.961	523.75
308.191	512.75
308.421	506.75
308.651	503.75
308.881	527.75
309.111	498.75
309.341	496.75
309.571	510.75
309.8	532.75
310.03	517.75
310.26	503.75
310.49	519.75
310.72	502.75
310.949	501.75
311.179	523.75
311.409	517.75
311.639	536.75
311.868	538.75
312.098	531.75
312.328	525.75
312.557	534.75
312.787	540.75
313.017	530.75
313.246	522.75
313.476	551.75
313.706	569.75
313.935	550.75
314.165	538.75
314.394	532.75
314.624	556.75
314.853	538.75
315.083	548.75
315.312	565.75
315.542	542.75
315.771	555.75
316.001	549.75
316.23	555.75
316.46	540.75
316.689	547.75
316.919	536.75
317.148	528.75
317.377	530.75
317.607	537.75
317.836	540.75
318.065	542.75
318.295	546.75
318.524	534.75
318.753	526.75
318.983	534.75
319.212	519.75
319.441	528.75
319.67	535.75
319.9	543.75
320.129	544.75
320.358	546.75
320.587	560.75
320.816	546.75
321.046	538.75
321.275	544.75
321.504	524.75
321.733	562.75
321.962	544.75
322.191	549.75
322.42	553.75
322.649	533.75
322.878	549.75
323.108	552.75
323.337	527.75
323.566	540.75
323.795	566.75
324.024	550.75
324.253	543.75
324.482	561.75
324.71	540.75
324.939	557.75
325.168	563.75
325.397	568.75
325.626	574.75
325.855	566.75
326.084	577.75
326.313	608.75
326.542	633.75
326.77	616.75
326.999	600.75
327.228	575.75
327.457	592.75
327.686	572.75
327.914	570.75
328.143	605.75
328.372	598.75
328.6	578.75
328.829	590.75
329.058	606.75
329.287	603.75
329.515	595.75
329.744	581.75
329.972	596.75
330.201	589.75
330.43	610.75
330.658	598.75
330.887	596.75
331.115	617.75
331.344	617.75
331.572	644.75
331.801	637.75
332.03	656.75
332.258	662.75
332.486	681.75
332.715	708.75
332.943	741.75
333.172	754.75
333.4	782.75
333.629	808.75
333.857	804.75
334.085	776.75
334.314	774.75
334.542	779.75
334.771	783.75
334.999	768.75
335.227	761.75
335.455	753.75
335.684	734.75
335.912	731.75
336.14	729.75
336.369	735.75
336.597	718.75
336.825	751.75
337.053	718.75
337.281	694.75
337.51	696.75
337.738	674.75
337.966	669.75
338.194	671.75
338.422	632.75
338.65	647.75
338.878	649.75
339.106	637.75
339.334	657.75
339.562	645.75
339.79	622.75
340.018	628.75
340.246	615.75
340.474	618.75
340.702	622.75
340.93	611.75
341.158	614.75
341.386	620.75
341.614	611.75
341.842	608.75
342.07	619.75
342.298	618.75
342.526	608.75
342.754	608.75
342.981	626.75
343.209	644.75
343.437	679.75
343.665	711.75
343.893	725.75
344.12	774.75
344.348	733.75
344.576	680.75
344.804	689.75
345.031	667.75
345.259	621.75
345.487	628.75
345.714	606.75
345.942	601.75
346.17	612.75
346.397	622.75
346.625	611.75
346.853	598.75
347.08	596.75
347.308	587.75
347.535	599.75
347.763	615.75
347.99	603.75
348.218	590.75
348.445	631.75
348.673	605.75
348.9	603.75
349.128	598.75
349.355	595.75
349.583	587.75
349.81	603.75
350.037	588.75
350.265	582.75
350.492	602.75
350.72	589.75
350.947	558.75
351.174	590.75
351.402	580.75
351.629	590.75
351.856	587.75
352.083	582.75
352.311	590.75
352.538	586.75
352.765	585.75
352.992	567.75
353.22	567.75
353.447	566.75
353.674	553.75
353.901	589.75
354.128	588.75
354.355	587.75
354.583	580.75
354.81	592.75
355.037	564.75
355.264	573.75
355.491	578.75
355.718	582.75
355.945	571.75
356.172	580.75
356.399	574.75
356.626	606.75
356.853	590.75
357.08	593.75
357.307	611.75
357.534	581.75
357.761	573.75
357.988	607.75
358.215	588.75
358.441	580.75
358.668	566.75
358.895	582.75
359.122	588.75
359.349	569.75
359.576	570.75
359.802	587.75
360.029	585.75
360.256	581.75
360.483	589.75
360.709	576.75
360.936	592.75
361.163	587.75
361.39	604.75
361.616	567.75
361.843	573.75
362.07	595.75
362.296	576.75
362.523	583.75
362.749	572.75
362.976	579.75
363.203	556.75
363.429	588.75
363.656	574.75
363.882	578.75
364.109	565.75
364.335	601.75
364.562	581.75
364.788	572.75
365.015	572.75
365.241	582.75
365.468	569.75
365.694	582.75
365.92	576.75
366.147	576.75
366.373	587.75
366.599	556.75
366.826	586.75
367.052	580.75
367.278	572.75
367.505	585.75
367.731	598.75
367.957	554.75
368.184	592.75
368.41	576.75
368.636	587.75
368.862	611.75
369.089	598.75
369.315	598.75
369.541	625.75
369.767	639.75
369.993	609.75
370.219	601.75
370.445	628.75
370.672	608.75
370.898	594.75
371.124	620.75
371.35	625.75
371.576	605.75
371.802	628.75
372.028	624.75
372.254	631.75
372.48	631.75
372.706	642.75
372.932	669.75
373.158	656.75
373.384	664.75
373.61	621.75
373.835	618.75
374.061	633.75
374.287	669.75
374.513	663.75
374.739	661.75
374.965	701.75
375.191	713.75
375.416	715.75
375.642	701.75
375.868	683.75
376.094	663.75
376.319	664.75
376.545	645.75
376.771	648.75
376.997	652.75
377.222	644.75
377.448	630.75
377.674	635.75
377.899	619.75
378.125	594.75
378.35	656.75
378.576	620.75
378.802	645.75
379.027	636.75
379.253	642.75
379.478	626.75
379.704	633.75
379.929	660.75
380.155	643.75
380.38	622.75
380.606	632.75
380.831	636.75
381.057	631.75
381.282	645.75
381.507	640.75
381.733	642.75
381.958	629.75
382.184	631.75
382.409	629.75
382.634	681.75
382.86	669.75
383.085	635.75
383.31	672.75
383.535	690.75
383.761	702.75
383.986	707.75
384.211	710.75
384.436	718.75
384.662	754.75
384.887	736.75
385.112	755.75
385.337	744.75
385.562	743.75
385.787	770.75
386.013	764.75
386.238	788.75
386.463	760.75
386.688	796.75
386.913	731.75
387.138	752.75
387.363	744.75
387.588	746.75
387.813	754.75
388.038	733.75
388.263	745.75
388.488	745.75
388.713	771.75
388.938	759.75
389.163	730.75
389.387	716.75
389.612	720.75
389.837	732.75
390.062	729.75
390.287	716.75
390.512	735.75
390.736	743.75
390.961	754.75
391.186	754.75
391.411	785.75
391.636	807.75
391.86	840.75
392.085	856.75
392.31	854.75
392.534	841.75
392.759	823.75
392.984	819.75
393.208	802.75
393.433	792.75
393.658	826.75
393.882	820.75
394.107	791.75
394.331	826.75
394.556	796.75
394.78	816.75
395.005	828.75
395.229	818.75
395.454	829.75
395.678	817.75
395.903	834.75
396.127	813.75
396.352	820.75
396.576	820.75
396.801	782.75
397.025	792.75
397.249	825.75
397.474	818.75
397.698	862.75
397.922	849.75
398.147	848.75
398.371	858.75
398.595	898.75
398.82	908.75
399.044	992.75
399.268	1101.75
399.492	1255.75
399.717	1408.75
399.941	1410.75
400.165	1269.75
400.389	1136.75
400.613	1036.75
400.837	997.75
401.062	988.75
401.286	957.75
401.51	935.75
401.734	935.75
401.958	961.75
402.182	971.75
402.406	1011.75
402.63	984.75
402.854	1011.75
403.078	1003.75
403.302	1068.75
403.526	1068.75
403.75	1073.75
403.974	1100.75
404.198	1098.75
404.422	1091.75
404.645	1062.75
404.869	1042.75
405.093	1095.75
405.317	1018.75
405.541	1048.75
405.765	1060.75
405.988	1026.75
406.212	1038.75
406.436	1037.75
406.66	1050.75
406.883	1091.75
407.107	1131.75
407.331	1183.75
407.555	1240.75
407.778	1226.75
408.002	1185.75
408.226	1181.75
408.449	1134.75
408.673	1099.75
408.896	1072.75
409.12	1069.75
409.344	1119.75
409.567	1084.75
409.791	1086.75
410.014	1082.75
410.238	1048.75
410.461	1032.75
410.685	1044.75
410.908	1052.75
411.132	997.75
411.355	990.75
411.578	998.75
411.802	977.75
412.025	976.75
412.249	995.75
412.472	1002.75
412.695	936.75
412.919	972.75
413.142	951.75
413.365	940.75
413.589	979.75
413.812	936.75
414.035	945.75
414.258	950.75
414.482	931.75
414.705	938.75
414.928	933.75
415.151	947.75
415.374	957.75
415.597	953.75
415.821	939.75
416.044	937.75
416.267	907.75
416.49	908.75
416.713	912.75
416.936	939.75
417.159	917.75
417.382	913.75
417.605	924.75
417.828	935.75
418.051	930.75
418.274	928.75
418.497	946.75
418.72	964.75
418.943	940.75
419.166	1029.75
419.389	1082.75
419.611	1026.75
419.834	992.75
420.057	984.75
420.28	937.75
420.503	937.75
420.726	936.75
420.948	923.75
421.171	952.75
421.394	927.75
421.617	906.75
421.839	946.75
422.062	955.75
422.285	934.75
422.507	969.75
422.73	950.75
422.953	957.75
423.175	965.75
423.398	986.75
423.621	983.75
423.843	990.75
424.066	981.75
424.288	998.75
424.511	972.75
424.733	956.75
424.956	971.75
425.178	935.75
425.401	920.75
425.623	937.75
425.846	910.75
426.068	906.75
426.291	893.75
426.513	872.75
426.735	861.75
426.958	864.75
427.18	858.75
427.402	862.75
427.625	841.75
427.847	828.75
428.069	862.75
428.292	854.75
428.514	805.75
428.736	827.75
428.958	844.75
429.181	793.75
429.403	802.75
429.625	794.75
429.847	796.75
430.069	807.75
430.292	816.75
430.514	811.75
430.736	816.75
430.958	812.75
431.18	791.75
431.402	818.75
431.624	794.75
431.846	837.75
432.068	841.75
432.29	840.75
432.512	846.75
432.734	824.75
432.956	811.75
433.178	828.75
433.4	824.75
433.622	851.75
433.844	840.75
434.066	856.75
434.287	859.75
434.509	876.75
434.731	902.75
434.953	906.75
435.175	939.75
435.397	922.75
435.618	887.75
435.84	870.75
436.062	869.75
436.284	829.75
436.505	811.75
436.727	840.75
436.949	834.75
437.17	833.75
437.392	822.75
437.614	794.75
437.835	774.75
438.057	796.75
438.278	788.75
438.5	789.75
438.721	798.75
438.943	806.75
439.165	794.75
439.386	829.75
439.608	822.75
439.829	811.75
440.05	832.75
440.272	824.75
440.493	846.75
440.715	867.75
440.936	847.75
441.158	844.75
441.379	906.75
441.6	894.75
441.822	930.75
442.043	951.75
442.264	906.75
442.486	906.75
442.707	894.75
442.928	919.75
443.149	904.75
443.371	922.75
443.592	911.75
443.813	933.75
444.034	937.75
444.255	971.75
444.476	1010.75
444.698	1058.75
444.919	1086.75
445.14	1200.75
445.361	1045.75
445.582	940.75
445.803	916.75
446.024	896.75
446.245	877.75
446.466	864.75
446.687	847.75
446.908	861.75
447.129	834.75
447.35	793.75
447.571	834.75
447.792	794.75
448.013	744.75
448.234	782.75
448.455	773.75
448.675	758.75
448.896	754.75
449.117	752.75
449.338	732.75
449.559	736.75
449.779	741.75
450	780.75
450.221	756.75
450.442	783.75
450.662	774.75
450.883	748.75
451.104	786.75
451.324	778.75
451.545	754.75
451.766	770.75
451.986	758.75
452.207	778.75
452.428	772.75
452.648	766.75
452.869	741.75
453.089	754.75
453.31	779.75
453.53	733.75
453.751	747.75
453.971	740.75
454.192	740.75
454.412	730.75
454.633	729.75
454.853	713.75
455.073	696.75
455.294	705.75
455.514	730.75
455.734	713.75
455.955	678.75
456.175	693.75
456.395	719.75
456.616	700.75
456.836	725.75
457.056	731.75
457.276	698.75
457.497	712.75
457.717	682.75
457.937	715.75
458.157	737.75
458.377	724.75
458.598	760.75
458.818	782.75
459.038	765.75
459.258	820.75
459.478	808.75
459.698	850.75
459.918	886.75
460.138	932.75
460.358	964.75
460.578	976.75
460.798	986.75
461.018	993.75
461.238	984.75
461.458	988.75
461.678	952.75
461.898	995.75
462.118	978.75
462.338	1074.75
462.558	1058.75
462.777	1130.75
462.997	1195.75
463.217	1294.75
463.437	1300.75
463.657	1185.75
463.876	1146.75
464.096	1145.75
464.316	1134.75
464.536	1129.75
464.755	1095.75
464.975	1072.75
465.195	1030.75
465.414	971.75
465.634	892.75
465.854	857.75
466.073	842.75
466.293	836.75
466.512	809.75
466.732	796.75
466.951	816.75
467.171	795.75
467.391	794.75
467.61	773.75
467.829	759.75
468.049	792.75
468.268	780.75
468.488	758.75
468.707	752.75
468.927	772.75
469.146	762.75
469.365	757.75
469.585	740.75
469.804	790.75
470.023	825.75
470.243	804.75
470.462	850.75
470.681	836.75
470.901	825.75
471.12	809.75
471.339	807.75
471.558	800.75
471.777	778.75
471.997	775.75
472.216	754.75
472.435	747.75
472.654	746.75
472.873	722.75
473.092	752.75
473.311	745.75
473.53	765.75
473.749	744.75
473.968	752.75
474.187	718.75
474.406	749.75
474.625	762.75
474.844	758.75
475.063	758.75
475.282	743.75
475.501	752.75
475.72	771.75
475.939	778.75
476.158	784.75
476.377	760.75
476.596	761.75
476.814	773.75
477.033	779.75
477.252	794.75
477.471	813.75
477.69	837.75
477.908	840.75
478.127	897.75
478.346	890.75
478.564	916.75
478.783	910.75
479.002	929.75
479.22	904.75
479.439	931.75
479.658	912.75
479.876	938.75
480.095	939.75
480.313	955.75
480.532	996.75
480.751	990.75
480.969	939.75
481.188	939.75
481.406	906.75
481.624	884.75
481.843	884.75
482.061	845.75
482.28	851.75
482.498	865.75
482.717	824.75
482.935	866.75
483.153	854.75
483.372	849.75
483.59	852.75
483.808	884.75
484.027	849.75
484.245	854.75
484.463	870.75
484.681	862.75
484.9	866.75
485.118	876.75
485.336	878.75
485.554	886.75
485.772	920.75
485.99	893.75
486.209	923.75
486.427	918.75
486.645	927.75
486.863	892.75
487.081	904.75
487.299	893.75
487.517	888.75
487.735	895.75
487.953	912.75
488.171	914.75
488.389	893.75
488.607	902.75
488.825	875.75
489.043	865.75
489.261	905.75
489.479	876.75
489.696	870.75
489.914	898.75
490.132	885.75
490.35	902.75
490.568	905.75
490.786	900.75
491.003	883.75
491.221	886.75
491.439	881.75
491.657	916.75
491.874	928.75
492.092	914.75
492.31	940.75
492.527	914.75
492.745	939.75
492.963	944.75
493.18	937.75
493.398	927.75
493.615	936.75
493.833	929.75
494.05	937.75
494.268	973.75
494.485	917.75
494.703	956.75
494.92	976.75
495.138	962.75
495.355	968.75
495.573	974.75
495.79	962.75
496.008	983.75
496.225	983.75
496.442	956.75
496.66	1006.75
496.877	976.75
497.094	1052.75
497.312	1037.75
497.529	1088.75
497.746	1106.75
497.963	1115.75
498.181	1139.75
498.398	1210.75
498.615	1265.75
498.832	1361.75
499.049	1452.75
499.267	1594.75
499.484	1741.75
499.701	1924.75
499.918	2121.75
500.135	2418.75
500.352	2777.75
