Data from NiCl2@0.0625M.TitratingCurve.Agarose3%dH2O.NegLispCup.LampEnergy10.LIBS07252019_HRD10591_18-33-39-577.txt Node
Date: Thu Jul 25 18:33:39 EDT 2019
User: cochatt
Spectrometer: HR+D1059
Trigger mode: 1
Integration Time (sec): 1.000000E-1
Scans to average: 1
Electric dark correction enabled: true
Nonlinearity correction enabled: false
Boxcar width: 0
XAxis mode: Wavelengths
Number of Pixels in Spectrum: 2048
>>>>>Begin Spectral Data<<<<<
223.165	-12.88
223.4	-12.88
223.635	-12.88
223.869	-24.88
224.104	-15.88
224.338	1.12
224.573	-10.88
224.808	-31.88
225.042	-18.88
225.277	-5.88
225.511	7.12
225.746	2.12
225.98	14.12
226.215	15.12
226.449	8.12
226.683	23.12
226.918	30.12
227.152	20.12
227.387	23.12
227.621	40.12
227.856	43.12
228.09	50.12
228.324	43.12
228.559	49.12
228.793	87.12
229.027	153.12
229.262	161.12
229.496	159.12
229.73	171.12
229.964	178.12
230.199	184.12
230.433	177.12
230.667	181.12
230.901	184.12
231.136	175.12
231.37	199.12
231.604	188.12
231.838	193.12
232.072	208.12
232.306	190.12
232.541	211.12
232.775	203.12
233.009	199.12
233.243	210.12
233.477	197.12
233.711	195.12
233.945	231.12
234.179	212.12
234.413	216.12
234.647	221.12
234.881	222.12
235.115	218.12
235.349	208.12
235.583	195.12
235.817	229.12
236.051	222.12
236.285	216.12
236.519	233.12
236.753	223.12
236.987	231.12
237.221	229.12
237.455	231.12
237.689	233.12
237.922	239.12
238.156	240.12
238.39	227.12
238.624	253.12
238.858	253.12
239.091	268.12
239.325	274.12
239.559	257.12
239.793	265.12
240.027	289.12
240.26	279.12
240.494	258.12
240.728	258.12
240.961	275.12
241.195	290.12
241.429	282.12
241.662	287.12
241.896	282.12
242.13	285.12
242.363	299.12
242.597	312.12
242.83	299.12
243.064	315.12
243.298	318.12
243.531	324.12
243.765	320.12
243.998	314.12
244.232	322.12
244.465	323.12
244.699	343.12
244.932	330.12
245.166	337.12
245.399	340.12
245.633	329.12
245.866	345.12
246.099	329.12
246.333	346.12
246.566	351.12
246.8	339.12
247.033	327.12
247.266	369.12
247.5	360.12
247.733	360.12
247.966	357.12
248.2	387.12
248.433	388.12
248.666	372.12
248.899	377.12
249.133	385.12
249.366	399.12
249.599	390.12
249.832	392.12
250.066	373.12
250.299	388.12
250.532	394.12
250.765	394.12
250.998	409.12
251.231	425.12
251.465	408.12
251.698	410.12
251.931	420.12
252.164	431.12
252.397	417.12
252.63	428.12
252.863	438.12
253.096	430.12
253.329	426.12
253.562	426.12
253.795	444.12
254.028	447.12
254.261	458.12
254.494	461.12
254.727	449.12
254.96	463.12
255.193	470.12
255.426	461.12
255.659	449.12
255.892	460.12
256.124	453.12
256.357	469.12
256.59	467.12
256.823	475.12
257.056	471.12
257.289	494.12
257.521	481.12
257.754	485.12
257.987	481.12
258.22	505.12
258.452	524.12
258.685	510.12
258.918	497.12
259.151	506.12
259.383	524.12
259.616	507.12
259.849	524.12
260.081	507.12
260.314	524.12
260.547	515.12
260.779	523.12
261.012	549.12
261.244	534.12
261.477	542.12
261.71	549.12
261.942	532.12
262.175	547.12
262.407	527.12
262.64	546.12
262.872	551.12
263.105	565.12
263.337	547.12
263.57	576.12
263.802	585.12
264.035	587.12
264.267	554.12
264.499	559.12
264.732	581.12
264.964	573.12
265.197	572.12
265.429	582.12
265.661	600.12
265.894	577.12
266.126	571.12
266.358	606.12
266.591	593.12
266.823	601.12
267.055	582.12
267.287	604.12
267.52	591.12
267.752	591.12
267.984	615.12
268.216	609.12
268.448	624.12
268.681	617.12
268.913	621.12
269.145	630.12
269.377	642.12
269.609	637.12
269.841	618.12
270.073	615.12
270.306	641.12
270.538	609.12
270.77	618.12
271.002	643.12
271.234	633.12
271.466	643.12
271.698	657.12
271.93	656.12
272.162	673.12
272.394	662.12
272.626	669.12
272.858	641.12
273.09	668.12
273.322	675.12
273.553	680.12
273.785	656.12
274.017	675.12
274.249	705.12
274.481	704.12
274.713	694.12
274.945	705.12
275.176	714.12
275.408	690.12
275.64	714.12
275.872	721.12
276.104	733.12
276.335	700.12
276.567	705.12
276.799	715.12
277.031	739.12
277.262	730.12
277.494	710.12
277.726	714.12
277.957	744.12
278.189	739.12
278.421	728.12
278.652	737.12
278.884	737.12
279.115	729.12
279.347	744.12
279.579	744.12
279.81	770.12
280.042	765.12
280.273	786.12
280.505	778.12
280.736	778.12
280.968	786.12
281.199	752.12
281.431	802.12
281.662	764.12
281.894	770.12
282.125	792.12
282.356	809.12
282.588	800.12
282.819	806.12
283.051	830.12
283.282	807.12
283.513	835.12
283.745	819.12
283.976	841.12
284.207	843.12
284.439	807.12
284.67	838.12
284.901	844.12
285.132	831.12
285.364	834.12
285.595	829.12
285.826	824.12
286.057	831.12
286.288	864.12
286.52	874.12
286.751	855.12
286.982	869.12
287.213	875.12
287.444	849.12
287.675	853.12
287.906	889.12
288.138	874.12
288.369	888.12
288.6	891.12
288.831	893.12
289.062	874.12
289.293	880.12
289.524	872.12
289.755	901.12
289.986	883.12
290.217	895.12
290.448	877.12
290.679	890.12
290.91	893.12
291.141	903.12
291.371	922.12
291.602	877.12
291.833	881.12
292.064	897.12
292.295	893.12
292.526	898.12
292.757	893.12
292.987	911.12
293.218	893.12
293.449	892.12
293.68	903.12
293.91	917.12
294.141	899.12
294.372	893.12
294.603	907.12
294.833	905.12
295.064	925.12
295.295	923.12
295.525	919.12
295.756	939.12
295.987	925.12
296.217	945.12
296.448	907.12
296.679	926.12
296.909	918.12
297.14	944.12
297.37	936.12
297.601	962.12
297.831	943.12
298.062	947.12
298.292	963.12
298.523	995.12
298.753	997.12
298.984	987.12
299.214	993.12
299.445	985.12
299.675	959.12
299.905	971.12
300.136	971.12
300.366	979.12
300.597	1004.12
300.827	986.12
301.057	997.12
301.288	1001.12
301.518	1034.12
301.748	997.12
301.979	1048.12
302.209	1039.12
302.439	1020.12
302.669	1051.12
302.9	1051.12
303.13	1008.12
303.36	1055.12
303.59	1013.12
303.82	1025.12
304.051	1047.12
304.281	1030.12
304.511	1000.12
304.741	1028.12
304.971	1025.12
305.201	1030.12
305.431	1031.12
305.661	1046.12
305.891	1023.12
306.121	1008.12
306.352	1030.12
306.582	1009.12
306.812	1010.12
307.042	1007.12
307.272	1008.12
307.502	1010.12
307.731	1015.12
307.961	1010.12
308.191	1006.12
308.421	1007.12
308.651	1009.12
308.881	1001.12
309.111	995.12
309.341	1000.12
309.571	1030.12
309.8	1041.12
310.03	1021.12
310.26	1047.12
310.49	1026.12
310.72	1002.12
310.949	1014.12
311.179	1031.12
311.409	1041.12
311.639	1063.12
311.868	1049.12
312.098	1021.12
312.328	1065.12
312.557	1058.12
312.787	1062.12
313.017	1111.12
313.246	1104.12
313.476	1082.12
313.706	1096.12
313.935	1128.12
314.165	1080.12
314.394	1120.12
314.624	1117.12
314.853	1106.12
315.083	1085.12
315.312	1091.12
315.542	1100.12
315.771	1101.12
316.001	1064.12
316.23	1071.12
316.46	1092.12
316.689	1117.12
316.919	1061.12
317.148	1112.12
317.377	1077.12
317.607	1067.12
317.836	1047.12
318.065	1085.12
318.295	1080.12
318.524	1113.12
318.753	1068.12
318.983	1075.12
319.212	1068.12
319.441	1055.12
319.67	1074.12
319.9	1085.12
320.129	1080.12
320.358	1077.12
320.587	1084.12
320.816	1101.12
321.046	1094.12
321.275	1093.12
321.504	1076.12
321.733	1122.12
321.962	1109.12
322.191	1104.12
322.42	1089.12
322.649	1115.12
322.878	1098.12
323.108	1083.12
323.337	1113.12
323.566	1136.12
323.795	1104.12
324.024	1110.12
324.253	1145.12
324.482	1121.12
324.71	1126.12
324.939	1153.12
325.168	1142.12
325.397	1151.12
325.626	1152.12
325.855	1173.12
326.084	1153.12
326.313	1181.12
326.542	1192.12
326.77	1190.12
326.999	1158.12
327.228	1195.12
327.457	1198.12
327.686	1161.12
327.914	1177.12
328.143	1178.12
328.372	1214.12
328.6	1189.12
328.829	1197.12
329.058	1176.12
329.287	1220.12
329.515	1194.12
329.744	1213.12
329.972	1238.12
330.201	1182.12
330.43	1198.12
330.658	1188.12
330.887	1250.12
331.115	1236.12
331.344	1269.12
331.572	1281.12
331.801	1256.12
332.03	1295.12
332.258	1298.12
332.486	1378.12
332.715	1334.12
332.943	1379.12
333.172	1463.12
333.4	1513.12
333.629	1508.12
333.857	1554.12
334.085	1531.12
334.314	1501.12
334.542	1506.12
334.771	1508.12
334.999	1486.12
335.227	1468.12
335.455	1510.12
335.684	1517.12
335.912	1486.12
336.14	1437.12
336.369	1448.12
336.597	1461.12
336.825	1468.12
337.053	1422.12
337.281	1370.12
337.51	1408.12
337.738	1401.12
337.966	1333.12
338.194	1335.12
338.422	1311.12
338.65	1285.12
338.878	1305.12
339.106	1318.12
339.334	1304.12
339.562	1288.12
339.79	1280.12
340.018	1259.12
340.246	1255.12
340.474	1238.12
340.702	1240.12
340.93	1248.12
341.158	1247.12
341.386	1257.12
341.614	1232.12
341.842	1275.12
342.07	1218.12
342.298	1240.12
342.526	1263.12
342.754	1242.12
342.981	1224.12
343.209	1254.12
343.437	1341.12
343.665	1347.12
343.893	1439.12
344.12	1463.12
344.348	1461.12
344.576	1406.12
344.804	1363.12
345.031	1291.12
345.259	1281.12
345.487	1271.12
345.714	1227.12
345.942	1242.12
346.17	1220.12
346.397	1207.12
346.625	1214.12
346.853	1186.12
347.08	1167.12
347.308	1174.12
347.535	1214.12
347.763	1199.12
347.99	1205.12
348.218	1197.12
348.445	1177.12
348.673	1185.12
348.9	1190.12
349.128	1194.12
349.355	1185.12
349.583	1170.12
349.81	1174.12
350.037	1174.12
350.265	1201.12
350.492	1167.12
350.72	1165.12
350.947	1136.12
351.174	1185.12
351.402	1169.12
351.629	1159.12
351.856	1161.12
352.083	1175.12
352.311	1161.12
352.538	1177.12
352.765	1158.12
352.992	1126.12
353.22	1123.12
353.447	1137.12
353.674	1129.12
353.901	1171.12
354.128	1145.12
354.355	1135.12
354.583	1138.12
354.81	1131.12
355.037	1167.12
355.264	1139.12
355.491	1147.12
355.718	1178.12
355.945	1154.12
356.172	1169.12
356.399	1188.12
356.626	1146.12
356.853	1157.12
357.08	1140.12
357.307	1163.12
357.534	1140.12
357.761	1163.12
357.988	1161.12
358.215	1127.12
358.441	1140.12
358.668	1148.12
358.895	1181.12
359.122	1163.12
359.349	1163.12
359.576	1136.12
359.802	1155.12
360.029	1164.12
360.256	1159.12
360.483	1151.12
360.709	1169.12
360.936	1175.12
361.163	1156.12
361.39	1160.12
361.616	1146.12
361.843	1152.12
362.07	1165.12
362.296	1163.12
362.523	1147.12
362.749	1173.12
362.976	1179.12
363.203	1173.12
363.429	1170.12
363.656	1137.12
363.882	1163.12
364.109	1161.12
364.335	1128.12
364.562	1153.12
364.788	1143.12
365.015	1154.12
365.241	1162.12
365.468	1200.12
365.694	1148.12
365.92	1147.12
366.147	1138.12
366.373	1146.12
366.599	1171.12
366.826	1150.12
367.052	1155.12
367.278	1147.12
367.505	1154.12
367.731	1153.12
367.957	1158.12
368.184	1185.12
368.41	1197.12
368.636	1160.12
368.862	1205.12
369.089	1176.12
369.315	1187.12
369.541	1207.12
369.767	1194.12
369.993	1189.12
370.219	1217.12
370.445	1240.12
370.672	1244.12
370.898	1219.12
371.124	1234.12
371.35	1248.12
371.576	1266.12
371.802	1249.12
372.028	1235.12
372.254	1265.12
372.48	1256.12
372.706	1277.12
372.932	1358.12
373.158	1293.12
373.384	1295.12
373.61	1283.12
373.835	1261.12
374.061	1294.12
374.287	1297.12
374.513	1327.12
374.739	1334.12
374.965	1340.12
375.191	1381.12
375.416	1403.12
375.642	1345.12
375.868	1349.12
376.094	1316.12
376.319	1304.12
376.545	1263.12
376.771	1261.12
376.997	1231.12
377.222	1267.12
377.448	1265.12
377.674	1229.12
377.899	1279.12
378.125	1208.12
378.35	1226.12
378.576	1255.12
378.802	1190.12
379.027	1243.12
379.253	1259.12
379.478	1253.12
379.704	1248.12
379.929	1256.12
380.155	1253.12
380.38	1250.12
380.606	1231.12
380.831	1254.12
381.057	1296.12
381.282	1254.12
381.507	1249.12
381.733	1247.12
381.958	1291.12
382.184	1285.12
382.409	1306.12
382.634	1293.12
382.86	1347.12
383.085	1329.12
383.31	1330.12
383.535	1406.12
383.761	1376.12
383.986	1376.12
384.211	1416.12
384.436	1444.12
384.662	1418.12
384.887	1459.12
385.112	1455.12
385.337	1519.12
385.562	1482.12
385.787	1522.12
386.013	1530.12
386.238	1482.12
386.463	1470.12
386.688	1515.12
386.913	1482.12
387.138	1495.12
387.363	1501.12
387.588	1459.12
387.813	1504.12
388.038	1488.12
388.263	1460.12
388.488	1519.12
388.713	1486.12
388.938	1512.12
389.163	1483.12
389.387	1503.12
389.612	1489.12
389.837	1476.12
390.062	1483.12
390.287	1502.12
390.512	1481.12
390.736	1512.12
390.961	1553.12
391.186	1546.12
391.411	1577.12
391.636	1603.12
391.86	1669.12
392.085	1661.12
392.31	1685.12
392.534	1678.12
392.759	1654.12
392.984	1622.12
393.208	1587.12
393.433	1578.12
393.658	1599.12
393.882	1589.12
394.107	1546.12
394.331	1607.12
394.556	1602.12
394.78	1607.12
395.005	1621.12
395.229	1602.12
395.454	1650.12
395.678	1662.12
395.903	1661.12
396.127	1706.12
396.352	1641.12
396.576	1651.12
396.801	1617.12
397.025	1656.12
397.249	1690.12
397.474	1716.12
397.698	1688.12
397.922	1741.12
398.147	1695.12
398.371	1748.12
398.595	1793.12
398.82	1876.12
399.044	1967.12
399.268	2157.12
399.492	2384.12
399.717	2509.12
399.941	2583.12
400.165	2405.12
400.389	2285.12
400.613	2083.12
400.837	2016.12
401.062	1955.12
401.286	1891.12
401.51	1863.12
401.734	1914.12
401.958	1905.12
402.182	1901.12
402.406	1921.12
402.63	1919.12
402.854	1957.12
403.078	1973.12
403.302	2013.12
403.526	2035.12
403.75	1997.12
403.974	2086.12
404.198	2029.12
404.422	2043.12
404.645	2051.12
404.869	2041.12
405.093	2036.12
405.317	2018.12
405.541	2031.12
405.765	2014.12
405.988	1982.12
406.212	2017.12
406.436	2020.12
406.66	2058.12
406.883	2131.12
407.107	2245.12
407.331	2241.12
407.555	2366.12
407.778	2314.12
408.002	2306.12
408.226	2251.12
408.449	2224.12
408.673	2152.12
408.896	2090.12
409.12	2103.12
409.344	2108.12
409.567	2093.12
409.791	2093.12
410.014	2083.12
410.238	2059.12
410.461	2060.12
410.685	2034.12
410.908	2010.12
411.132	2005.12
411.355	1920.12
411.578	1974.12
411.802	1934.12
412.025	1970.12
412.249	1926.12
412.472	1966.12
412.695	1958.12
412.919	1889.12
413.142	1905.12
413.365	1850.12
413.589	1913.12
413.812	1831.12
414.035	1849.12
414.258	1848.12
414.482	1921.12
414.705	1869.12
414.928	1866.12
415.151	1851.12
415.374	1859.12
415.597	1857.12
415.821	1840.12
416.044	1797.12
416.267	1791.12
416.49	1810.12
416.713	1803.12
416.936	1815.12
417.159	1783.12
417.382	1765.12
417.605	1765.12
417.828	1753.12
418.051	1809.12
418.274	1819.12
418.497	1785.12
418.72	1840.12
418.943	1829.12
419.166	1943.12
419.389	2067.12
419.611	2024.12
419.834	1965.12
420.057	1870.12
420.28	1837.12
420.503	1761.12
420.726	1758.12
420.948	1761.12
421.171	1841.12
421.394	1777.12
421.617	1801.12
421.839	1767.12
422.062	1818.12
422.285	1823.12
422.507	1856.12
422.73	1863.12
422.953	1846.12
423.175	1858.12
423.398	1865.12
423.621	1835.12
423.843	1867.12
424.066	1870.12
424.288	1829.12
424.511	1862.12
424.733	1870.12
424.956	1790.12
425.178	1782.12
425.401	1811.12
425.623	1813.12
425.846	1747.12
426.068	1733.12
426.291	1740.12
426.513	1729.12
426.735	1683.12
426.958	1723.12
427.18	1678.12
427.402	1711.12
427.625	1699.12
427.847	1632.12
428.069	1639.12
428.292	1654.12
428.514	1619.12
428.736	1619.12
428.958	1647.12
429.181	1608.12
429.403	1589.12
429.625	1666.12
429.847	1633.12
430.069	1610.12
430.292	1618.12
430.514	1588.12
430.736	1603.12
430.958	1622.12
431.18	1656.12
431.402	1664.12
431.624	1617.12
431.846	1657.12
432.068	1661.12
432.29	1657.12
432.512	1657.12
432.734	1689.12
432.956	1694.12
433.178	1678.12
433.4	1647.12
433.622	1703.12
433.844	1673.12
434.066	1687.12
434.287	1719.12
434.509	1737.12
434.731	1770.12
434.953	1812.12
435.175	1841.12
435.397	1825.12
435.618	1705.12
435.84	1714.12
436.062	1672.12
436.284	1673.12
436.505	1633.12
436.727	1675.12
436.949	1634.12
437.17	1639.12
437.392	1611.12
437.614	1601.12
437.835	1587.12
438.057	1565.12
438.278	1548.12
438.5	1565.12
438.721	1575.12
438.943	1586.12
439.165	1546.12
439.386	1553.12
439.608	1624.12
439.829	1613.12
440.05	1599.12
440.272	1623.12
440.493	1609.12
440.715	1619.12
440.936	1656.12
441.158	1694.12
441.379	1751.12
441.6	1787.12
441.822	1767.12
442.043	1813.12
442.264	1758.12
442.486	1707.12
442.707	1749.12
442.928	1745.12
443.149	1757.12
443.371	1715.12
443.592	1730.12
443.813	1787.12
444.034	1781.12
444.255	1826.12
444.476	1903.12
444.698	1944.12
444.919	2004.12
445.14	2079.12
445.361	1921.12
445.582	1864.12
445.803	1737.12
446.024	1714.12
446.245	1690.12
446.466	1656.12
446.687	1600.12
446.908	1609.12
447.129	1607.12
447.35	1609.12
447.571	1542.12
447.792	1491.12
448.013	1509.12
448.234	1498.12
448.455	1473.12
448.675	1446.12
448.896	1464.12
449.117	1445.12
449.338	1411.12
449.559	1454.12
449.779	1469.12
450	1482.12
450.221	1465.12
450.442	1441.12
450.662	1455.12
450.883	1469.12
451.104	1492.12
451.324	1461.12
451.545	1483.12
451.766	1434.12
451.986	1427.12
452.207	1427.12
452.428	1443.12
452.648	1424.12
452.869	1412.12
453.089	1403.12
453.31	1432.12
453.53	1395.12
453.751	1425.12
453.971	1413.12
454.192	1386.12
454.412	1370.12
454.633	1401.12
454.853	1386.12
455.073	1387.12
455.294	1415.12
455.514	1377.12
455.734	1347.12
455.955	1311.12
456.175	1336.12
456.395	1368.12
456.616	1350.12
456.836	1386.12
457.056	1385.12
457.276	1318.12
457.497	1411.12
457.717	1372.12
457.937	1378.12
458.157	1437.12
458.377	1423.12
458.598	1467.12
458.818	1457.12
459.038	1491.12
459.258	1541.12
459.478	1605.12
459.698	1675.12
459.918	1677.12
460.138	1715.12
460.358	1798.12
460.578	1833.12
460.798	1853.12
461.018	1882.12
461.238	1824.12
461.458	1858.12
461.678	1828.12
461.898	1892.12
462.118	1871.12
462.338	1965.12
462.558	1960.12
462.777	2066.12
462.997	2229.12
463.217	2303.12
463.437	2350.12
463.657	2197.12
463.876	2162.12
464.096	2171.12
464.316	2136.12
464.536	2116.12
464.755	2075.12
464.975	1971.12
465.195	1882.12
465.414	1829.12
465.634	1704.12
465.854	1699.12
466.073	1661.12
466.293	1605.12
466.512	1578.12
466.732	1558.12
466.951	1492.12
467.171	1557.12
467.391	1534.12
467.61	1509.12
467.829	1509.12
468.049	1527.12
468.268	1501.12
468.488	1457.12
468.707	1451.12
468.927	1481.12
469.146	1478.12
469.365	1510.12
469.585	1496.12
469.804	1511.12
470.023	1550.12
470.243	1565.12
470.462	1592.12
470.681	1574.12
470.901	1586.12
471.12	1545.12
471.339	1540.12
471.558	1530.12
471.777	1498.12
471.997	1515.12
472.216	1501.12
472.435	1501.12
472.654	1439.12
472.873	1477.12
473.092	1443.12
473.311	1442.12
473.53	1473.12
473.749	1476.12
473.968	1462.12
474.187	1445.12
474.406	1463.12
474.625	1482.12
474.844	1468.12
475.063	1471.12
475.282	1465.12
475.501	1454.12
475.72	1504.12
475.939	1534.12
476.158	1533.12
476.377	1531.12
476.596	1545.12
476.814	1559.12
477.033	1543.12
477.252	1577.12
477.471	1647.12
477.69	1672.12
477.908	1703.12
478.127	1734.12
478.346	1707.12
478.564	1799.12
478.783	1806.12
479.002	1852.12
479.22	1826.12
479.439	1845.12
479.658	1847.12
479.876	1814.12
480.095	1877.12
480.313	1961.12
480.532	1982.12
480.751	1950.12
480.969	1915.12
481.188	1878.12
481.406	1813.12
481.624	1823.12
481.843	1788.12
482.061	1742.12
482.28	1808.12
482.498	1802.12
482.717	1800.12
482.935	1819.12
483.153	1794.12
483.372	1814.12
483.59	1842.12
483.808	1777.12
484.027	1809.12
484.245	1895.12
484.463	1874.12
484.681	1911.12
484.9	1901.12
485.118	1939.12
485.336	1941.12
485.554	1952.12
485.772	1966.12
485.99	1958.12
486.209	1974.12
486.427	1960.12
486.645	1963.12
486.863	1954.12
487.081	1943.12
487.299	1916.12
487.517	1931.12
487.735	1906.12
487.953	1945.12
488.171	1938.12
488.389	1895.12
488.607	1847.12
488.825	1846.12
489.043	1843.12
489.261	1827.12
489.479	1826.12
489.696	1844.12
489.914	1818.12
490.132	1840.12
