Data from NiCl2@0.125M.TitratingCurve.Agarose3%dH2O.NegLispCup.LampEnergy10.LIBS07252019_HRD10591_18-28-35-575.txt Node
Date: Thu Jul 25 18:28:35 EDT 2019
User: cochatt
Spectrometer: HR+D1059
Trigger mode: 1
Integration Time (sec): 1.000000E-1
Scans to average: 1
Electric dark correction enabled: true
Nonlinearity correction enabled: false
Boxcar width: 0
XAxis mode: Wavelengths
Number of Pixels in Spectrum: 2048
>>>>>Begin Spectral Data<<<<<
223.165	-27.31
223.4	-27.31
223.635	-27.31
223.869	-19.31
224.104	-21.31
224.338	-22.31
224.573	-9.31
224.808	-5.31
225.042	-7.31
225.277	-8.31
225.511	-1.31
225.746	0.69
225.98	-2.31
226.215	14.69
226.449	10.69
226.683	25.69
226.918	31.69
227.152	40.69
227.387	30.69
227.621	31.69
227.856	45.69
228.09	52.69
228.324	42.69
228.559	60.69
228.793	75.69
229.027	109.69
229.262	119.69
229.496	113.69
229.73	132.69
229.964	130.69
230.199	144.69
230.433	118.69
230.667	151.69
230.901	139.69
231.136	152.69
231.37	147.69
231.604	141.69
231.838	166.69
232.072	140.69
232.306	146.69
232.541	169.69
232.775	153.69
233.009	163.69
233.243	143.69
233.477	153.69
233.711	160.69
233.945	138.69
234.179	154.69
234.413	171.69
234.647	161.69
234.881	158.69
235.115	161.69
235.349	138.69
235.583	159.69
235.817	165.69
236.051	152.69
236.285	166.69
236.519	166.69
236.753	174.69
236.987	169.69
237.221	163.69
237.455	168.69
237.689	169.69
237.922	152.69
238.156	165.69
238.39	182.69
238.624	171.69
238.858	172.69
239.091	165.69
239.325	170.69
239.559	178.69
239.793	187.69
240.027	188.69
240.26	184.69
240.494	177.69
240.728	206.69
240.961	188.69
241.195	206.69
241.429	213.69
241.662	193.69
241.896	191.69
242.13	206.69
242.363	197.69
242.597	213.69
242.83	196.69
243.064	200.69
243.298	219.69
243.531	204.69
243.765	199.69
243.998	214.69
244.232	222.69
244.465	222.69
244.699	240.69
244.932	217.69
245.166	219.69
245.399	232.69
245.633	239.69
245.866	217.69
246.099	231.69
246.333	246.69
246.566	227.69
246.8	249.69
247.033	231.69
247.266	225.69
247.5	223.69
247.733	263.69
247.966	261.69
248.2	255.69
248.433	254.69
248.666	258.69
248.899	262.69
249.133	270.69
249.366	256.69
249.599	247.69
249.832	278.69
250.066	263.69
250.299	266.69
250.532	268.69
250.765	270.69
250.998	274.69
251.231	268.69
251.465	289.69
251.698	277.69
251.931	294.69
252.164	295.69
252.397	309.69
252.63	301.69
252.863	272.69
253.096	297.69
253.329	295.69
253.562	293.69
253.795	287.69
254.028	299.69
254.261	340.69
254.494	307.69
254.727	307.69
254.96	320.69
255.193	298.69
255.426	299.69
255.659	324.69
255.892	302.69
256.124	299.69
256.357	317.69
256.59	306.69
256.823	294.69
257.056	301.69
257.289	322.69
257.521	322.69
257.754	336.69
257.987	326.69
258.22	330.69
258.452	313.69
258.685	333.69
258.918	327.69
259.151	319.69
259.383	331.69
259.616	338.69
259.849	343.69
260.081	342.69
260.314	330.69
260.547	331.69
260.779	351.69
261.012	336.69
261.244	348.69
261.477	351.69
261.71	335.69
261.942	350.69
262.175	346.69
262.407	349.69
262.64	324.69
262.872	349.69
263.105	359.69
263.337	355.69
263.57	369.69
263.802	373.69
264.035	367.69
264.267	357.69
264.499	367.69
264.732	359.69
264.964	383.69
265.197	359.69
265.429	378.69
265.661	398.69
265.894	394.69
266.126	380.69
266.358	382.69
266.591	390.69
266.823	394.69
267.055	379.69
267.287	391.69
267.52	378.69
267.752	398.69
267.984	382.69
268.216	395.69
268.448	391.69
268.681	399.69
268.913	389.69
269.145	401.69
269.377	414.69
269.609	389.69
269.841	402.69
270.073	411.69
270.306	390.69
270.538	410.69
270.77	400.69
271.002	384.69
271.234	403.69
271.466	401.69
271.698	420.69
271.93	409.69
272.162	410.69
272.394	429.69
272.626	430.69
272.858	423.69
273.09	419.69
273.322	437.69
273.553	420.69
273.785	428.69
274.017	410.69
274.249	425.69
274.481	426.69
274.713	449.69
274.945	426.69
275.176	459.69
275.408	420.69
275.64	443.69
275.872	439.69
276.104	444.69
276.335	436.69
276.567	453.69
276.799	437.69
277.031	469.69
277.262	445.69
277.494	456.69
277.726	438.69
277.957	474.69
278.189	455.69
278.421	465.69
278.652	459.69
278.884	464.69
279.115	465.69
279.347	478.69
279.579	466.69
279.81	449.69
280.042	486.69
280.273	467.69
280.505	485.69
280.736	472.69
280.968	493.69
281.199	485.69
281.431	473.69
281.662	489.69
281.894	497.69
282.125	478.69
282.356	489.69
282.588	497.69
282.819	503.69
283.051	484.69
283.282	533.69
283.513	517.69
283.745	515.69
283.976	525.69
284.207	508.69
284.439	506.69
284.67	520.69
284.901	514.69
285.132	506.69
285.364	550.69
285.595	507.69
285.826	531.69
286.057	531.69
286.288	552.69
286.52	555.69
286.751	539.69
286.982	536.69
287.213	556.69
287.444	527.69
287.675	552.69
287.906	554.69
288.138	537.69
288.369	571.69
288.6	548.69
288.831	542.69
289.062	544.69
289.293	560.69
289.524	535.69
289.755	531.69
289.986	541.69
290.217	537.69
290.448	556.69
290.679	560.69
290.91	569.69
291.141	577.69
291.371	555.69
291.602	555.69
291.833	555.69
292.064	573.69
292.295	589.69
292.526	591.69
292.757	566.69
292.987	555.69
293.218	564.69
293.449	575.69
293.68	594.69
293.91	542.69
294.141	581.69
294.372	580.69
294.603	565.69
294.833	590.69
295.064	554.69
295.295	563.69
295.525	573.69
295.756	574.69
295.987	578.69
296.217	569.69
296.448	583.69
296.679	589.69
296.909	600.69
297.14	619.69
297.37	614.69
297.601	609.69
297.831	621.69
298.062	617.69
298.292	630.69
298.523	635.69
298.753	621.69
298.984	599.69
299.214	618.69
299.445	618.69
299.675	626.69
299.905	628.69
300.136	623.69
300.366	609.69
300.597	600.69
300.827	654.69
301.057	641.69
301.288	653.69
301.518	626.69
301.748	630.69
301.979	650.69
302.209	651.69
302.439	645.69
302.669	664.69
302.9	639.69
303.13	634.69
303.36	623.69
303.59	641.69
303.82	629.69
304.051	639.69
304.281	657.69
304.511	633.69
304.741	643.69
304.971	656.69
305.201	645.69
305.431	628.69
305.661	626.69
305.891	621.69
306.121	619.69
306.352	629.69
306.582	618.69
306.812	602.69
307.042	643.69
307.272	618.69
307.502	629.69
307.731	621.69
307.961	618.69
308.191	621.69
308.421	618.69
308.651	615.69
308.881	611.69
309.111	640.69
309.341	612.69
309.571	626.69
309.8	634.69
310.03	622.69
310.26	638.69
310.49	626.69
310.72	609.69
310.949	621.69
311.179	622.69
311.409	606.69
311.639	642.69
311.868	635.69
312.098	635.69
312.328	641.69
312.557	626.69
312.787	621.69
313.017	667.69
313.246	642.69
313.476	675.69
313.706	683.69
313.935	675.69
314.165	687.69
314.394	652.69
314.624	676.69
314.853	666.69
315.083	670.69
315.312	678.69
315.542	640.69
315.771	641.69
316.001	659.69
316.23	646.69
316.46	651.69
316.689	654.69
316.919	647.69
317.148	645.69
317.377	650.69
317.607	661.69
317.836	651.69
318.065	649.69
318.295	621.69
318.524	649.69
318.753	646.69
318.983	635.69
319.212	622.69
319.441	627.69
319.67	651.69
319.9	646.69
320.129	653.69
320.358	654.69
320.587	675.69
320.816	657.69
321.046	649.69
321.275	656.69
321.504	660.69
321.733	668.69
321.962	639.69
322.191	636.69
322.42	653.69
322.649	652.69
322.878	669.69
323.108	664.69
323.337	670.69
323.566	679.69
323.795	637.69
324.024	657.69
324.253	654.69
324.482	677.69
324.71	663.69
324.939	682.69
325.168	703.69
325.397	694.69
325.626	684.69
325.855	696.69
326.084	713.69
326.313	731.69
326.542	724.69
326.77	725.69
326.999	686.69
327.228	706.69
327.457	685.69
327.686	694.69
327.914	714.69
328.143	718.69
328.372	712.69
328.6	717.69
328.829	700.69
329.058	730.69
329.287	715.69
329.515	710.69
329.744	705.69
329.972	724.69
330.201	722.69
330.43	741.69
330.658	740.69
330.887	761.69
331.115	735.69
331.344	755.69
331.572	748.69
331.801	784.69
332.03	787.69
332.258	795.69
332.486	800.69
332.715	834.69
332.943	873.69
333.172	886.69
333.4	951.69
333.629	984.69
333.857	973.69
334.085	954.69
334.314	965.69
334.542	933.69
334.771	910.69
334.999	921.69
335.227	895.69
335.455	885.69
335.684	913.69
335.912	865.69
336.14	858.69
336.369	863.69
336.597	882.69
336.825	831.69
337.053	834.69
337.281	845.69
337.51	827.69
337.738	806.69
337.966	805.69
338.194	796.69
338.422	796.69
338.65	793.69
338.878	765.69
339.106	779.69
339.334	785.69
339.562	768.69
339.79	746.69
340.018	746.69
340.246	745.69
340.474	749.69
340.702	754.69
340.93	744.69
341.158	772.69
341.386	757.69
341.614	753.69
341.842	739.69
342.07	746.69
342.298	752.69
342.526	708.69
342.754	750.69
342.981	750.69
343.209	773.69
343.437	799.69
343.665	827.69
343.893	897.69
344.12	967.69
344.348	920.69
344.576	866.69
344.804	806.69
345.031	823.69
345.259	792.69
345.487	777.69
345.714	761.69
345.942	739.69
346.17	761.69
346.397	757.69
346.625	728.69
346.853	737.69
347.08	737.69
347.308	730.69
347.535	726.69
347.763	777.69
347.99	731.69
348.218	753.69
348.445	749.69
348.673	715.69
348.9	715.69
349.128	728.69
349.355	718.69
349.583	719.69
349.81	702.69
350.037	698.69
350.265	673.69
350.492	705.69
350.72	691.69
350.947	710.69
351.174	677.69
351.402	699.69
351.629	714.69
351.856	684.69
352.083	706.69
352.311	705.69
352.538	697.69
352.765	721.69
352.992	700.69
353.22	689.69
353.447	677.69
353.674	670.69
353.901	687.69
354.128	702.69
354.355	670.69
354.583	696.69
354.81	700.69
355.037	678.69
355.264	699.69
355.491	710.69
355.718	680.69
355.945	698.69
356.172	682.69
356.399	693.69
356.626	709.69
356.853	721.69
357.08	707.69
357.307	719.69
357.534	696.69
357.761	713.69
357.988	703.69
358.215	705.69
358.441	700.69
358.668	689.69
358.895	701.69
359.122	676.69
359.349	698.69
359.576	698.69
359.802	701.69
360.029	689.69
360.256	674.69
360.483	721.69
360.709	718.69
360.936	683.69
361.163	710.69
361.39	713.69
361.616	697.69
361.843	683.69
362.07	710.69
362.296	691.69
362.523	685.69
362.749	679.69
362.976	689.69
363.203	688.69
363.429	676.69
363.656	670.69
363.882	713.69
364.109	726.69
364.335	693.69
364.562	675.69
364.788	690.69
365.015	678.69
365.241	673.69
365.468	695.69
365.694	697.69
365.92	713.69
366.147	686.69
366.373	703.69
366.599	704.69
366.826	693.69
367.052	706.69
367.278	692.69
367.505	724.69
367.731	708.69
367.957	691.69
368.184	729.69
368.41	678.69
368.636	695.69
368.862	689.69
369.089	726.69
369.315	718.69
369.541	708.69
369.767	728.69
369.993	708.69
370.219	723.69
370.445	725.69
370.672	721.69
370.898	740.69
371.124	773.69
371.35	769.69
371.576	787.69
371.802	771.69
372.028	766.69
372.254	773.69
372.48	761.69
372.706	795.69
372.932	806.69
373.158	771.69
373.384	779.69
373.61	741.69
373.835	785.69
374.061	748.69
374.287	798.69
374.513	771.69
374.739	809.69
374.965	818.69
375.191	861.69
375.416	853.69
375.642	841.69
375.868	804.69
376.094	779.69
376.319	796.69
376.545	792.69
376.771	773.69
376.997	761.69
377.222	806.69
377.448	773.69
377.674	762.69
377.899	774.69
378.125	746.69
378.35	741.69
378.576	770.69
378.802	738.69
379.027	745.69
379.253	753.69
379.478	773.69
379.704	762.69
379.929	773.69
380.155	739.69
380.38	755.69
380.606	755.69
380.831	741.69
381.057	736.69
381.282	762.69
381.507	767.69
381.733	763.69
381.958	779.69
382.184	778.69
382.409	790.69
382.634	806.69
382.86	783.69
383.085	824.69
383.31	842.69
383.535	832.69
383.761	857.69
383.986	883.69
384.211	873.69
384.436	886.69
384.662	925.69
384.887	929.69
385.112	902.69
385.337	937.69
385.562	928.69
385.787	925.69
386.013	934.69
386.238	924.69
386.463	899.69
386.688	934.69
386.913	932.69
387.138	920.69
387.363	903.69
387.588	914.69
387.813	919.69
388.038	907.69
388.263	909.69
388.488	918.69
388.713	935.69
388.938	917.69
389.163	878.69
389.387	894.69
389.612	911.69
389.837	893.69
390.062	883.69
390.287	898.69
390.512	895.69
390.736	902.69
390.961	934.69
391.186	945.69
391.411	972.69
391.636	998.69
391.86	1049.69
392.085	1057.69
392.31	1035.69
392.534	1011.69
392.759	984.69
392.984	991.69
393.208	939.69
393.433	972.69
393.658	977.69
393.882	977.69
394.107	966.69
394.331	995.69
394.556	976.69
394.78	1013.69
395.005	974.69
395.229	968.69
395.454	997.69
395.678	1041.69
395.903	1058.69
396.127	1022.69
396.352	991.69
396.576	979.69
396.801	988.69
397.025	978.69
397.249	992.69
397.474	1013.69
397.698	1040.69
397.922	1036.69
398.147	1049.69
398.371	1060.69
398.595	1078.69
398.82	1149.69
399.044	1186.69
399.268	1335.69
399.492	1561.69
399.717	1729.69
399.941	1732.69
400.165	1581.69
400.389	1422.69
400.613	1321.69
400.837	1251.69
401.062	1171.69
401.286	1168.69
401.51	1181.69
401.734	1132.69
401.958	1175.69
402.182	1193.69
402.406	1200.69
402.63	1179.69
402.854	1236.69
403.078	1246.69
403.302	1239.69
403.526	1308.69
403.75	1309.69
403.974	1324.69
404.198	1341.69
404.422	1319.69
404.645	1289.69
404.869	1339.69
405.093	1319.69
405.317	1304.69
405.541	1322.69
405.765	1289.69
405.988	1295.69
406.212	1276.69
406.436	1270.69
406.66	1271.69
406.883	1314.69
407.107	1399.69
407.331	1468.69
407.555	1511.69
407.778	1471.69
408.002	1451.69
408.226	1407.69
408.449	1395.69
408.673	1325.69
408.896	1331.69
409.12	1273.69
409.344	1336.69
409.567	1287.69
409.791	1305.69
410.014	1341.69
410.238	1287.69
410.461	1275.69
410.685	1240.69
410.908	1254.69
411.132	1217.69
411.355	1189.69
411.578	1197.69
411.802	1197.69
412.025	1171.69
412.249	1229.69
412.472	1227.69
412.695	1175.69
412.919	1139.69
413.142	1201.69
413.365	1143.69
413.589	1173.69
413.812	1179.69
414.035	1179.69
414.258	1132.69
414.482	1132.69
414.705	1163.69
414.928	1193.69
415.151	1148.69
415.374	1164.69
415.597	1153.69
415.821	1138.69
416.044	1155.69
416.267	1112.69
416.49	1118.69
416.713	1126.69
416.936	1138.69
417.159	1115.69
417.382	1141.69
417.605	1106.69
417.828	1147.69
418.051	1157.69
418.274	1155.69
418.497	1142.69
418.72	1173.69
418.943	1137.69
419.166	1250.69
419.389	1308.69
419.611	1298.69
419.834	1198.69
420.057	1204.69
420.28	1201.69
420.503	1125.69
420.726	1110.69
420.948	1115.69
421.171	1171.69
421.394	1147.69
421.617	1141.69
421.839	1157.69
422.062	1137.69
422.285	1151.69
422.507	1163.69
422.73	1135.69
422.953	1143.69
423.175	1194.69
423.398	1214.69
423.621	1226.69
423.843	1224.69
424.066	1252.69
424.288	1203.69
424.511	1190.69
424.733	1203.69
424.956	1202.69
425.178	1189.69
425.401	1195.69
425.623	1183.69
425.846	1129.69
426.068	1117.69
426.291	1111.69
426.513	1127.69
426.735	1096.69
426.958	1071.69
427.18	1060.69
427.402	1086.69
427.625	1071.69
427.847	1009.69
428.069	1027.69
428.292	1036.69
428.514	1034.69
428.736	1027.69
428.958	1022.69
429.181	1037.69
429.403	1003.69
429.625	1043.69
429.847	992.69
430.069	997.69
430.292	985.69
430.514	1006.69
430.736	1038.69
430.958	1017.69
431.18	989.69
431.402	1015.69
431.624	1020.69
431.846	1033.69
432.068	1046.69
432.29	1035.69
432.512	1039.69
432.734	1041.69
432.956	990.69
433.178	1033.69
433.4	1037.69
433.622	1049.69
433.844	1063.69
434.066	1065.69
434.287	1062.69
434.509	1089.69
434.731	1073.69
434.953	1155.69
435.175	1177.69
435.397	1173.69
435.618	1114.69
435.84	1112.69
436.062	1077.69
436.284	1041.69
436.505	1029.69
436.727	1049.69
436.949	1076.69
437.17	1018.69
437.392	1012.69
437.614	1013.69
437.835	1015.69
438.057	985.69
438.278	1009.69
438.5	998.69
438.721	996.69
438.943	998.69
439.165	1016.69
439.386	1028.69
439.608	1045.69
439.829	1037.69
440.05	1026.69
440.272	1050.69
440.493	1064.69
440.715	1023.69
440.936	1072.69
441.158	1096.69
441.379	1154.69
441.6	1177.69
441.822	1188.69
442.043	1179.69
442.264	1123.69
442.486	1129.69
442.707	1151.69
442.928	1139.69
443.149	1146.69
443.371	1132.69
443.592	1153.69
443.813	1156.69
444.034	1208.69
444.255	1205.69
444.476	1282.69
444.698	1349.69
444.919	1401.69
445.14	1508.69
445.361	1337.69
445.582	1219.69
445.803	1154.69
446.024	1121.69
446.245	1080.69
446.466	1067.69
446.687	1075.69
446.908	1053.69
447.129	1009.69
447.35	988.69
447.571	1018.69
447.792	960.69
448.013	991.69
448.234	952.69
448.455	990.69
448.675	946.69
448.896	968.69
449.117	931.69
449.338	960.69
449.559	947.69
449.779	957.69
450	926.69
450.221	959.69
450.442	956.69
450.662	960.69
450.883	985.69
451.104	982.69
451.324	980.69
451.545	964.69
451.766	994.69
451.986	952.69
452.207	974.69
452.428	950.69
452.648	948.69
452.869	942.69
453.089	943.69
453.31	952.69
453.53	938.69
453.751	923.69
453.971	923.69
454.192	930.69
454.412	912.69
454.633	923.69
454.853	909.69
455.073	912.69
455.294	905.69
455.514	907.69
455.734	902.69
455.955	889.69
456.175	891.69
456.395	878.69
456.616	879.69
456.836	885.69
457.056	902.69
457.276	869.69
457.497	878.69
457.717	903.69
457.937	919.69
458.157	901.69
458.377	920.69
458.598	921.69
458.818	943.69
459.038	981.69
459.258	1021.69
459.478	1063.69
459.698	1093.69
459.918	1144.69
460.138	1134.69
460.358	1243.69
460.578	1257.69
460.798	1244.69
461.018	1254.69
461.238	1267.69
461.458	1237.69
461.678	1225.69
461.898	1269.69
462.118	1240.69
462.338	1329.69
462.558	1373.69
462.777	1435.69
462.997	1520.69
463.217	1660.69
463.437	1678.69
463.657	1585.69
463.876	1486.69
464.096	1445.69
464.316	1442.69
464.536	1457.69
464.755	1404.69
464.975	1325.69
465.195	1298.69
465.414	1209.69
465.634	1141.69
465.854	1065.69
466.073	1081.69
466.293	1073.69
466.512	1023.69
466.732	1020.69
466.951	1036.69
467.171	1038.69
467.391	1029.69
467.61	1012.69
467.829	1001.69
468.049	1010.69
468.268	963.69
468.488	973.69
468.707	965.69
468.927	979.69
469.146	962.69
469.365	1010.69
469.585	966.69
469.804	979.69
470.023	1031.69
470.243	1041.69
470.462	1019.69
470.681	1021.69
470.901	1026.69
471.12	1053.69
471.339	1010.69
471.558	985.69
471.777	1001.69
471.997	978.69
472.216	978.69
472.435	929.69
472.654	962.69
472.873	944.69
473.092	943.69
473.311	927.69
473.53	942.69
473.749	941.69
473.968	945.69
474.187	937.69
474.406	921.69
474.625	961.69
474.844	927.69
475.063	947.69
475.282	954.69
475.501	941.69
475.72	966.69
475.939	975.69
476.158	958.69
476.377	987.69
476.596	989.69
476.814	1005.69
477.033	1005.69
477.252	1016.69
477.471	1061.69
477.69	1071.69
477.908	1065.69
478.127	1132.69
478.346	1101.69
478.564	1169.69
478.783	1149.69
479.002	1181.69
479.22	1189.69
479.439	1176.69
479.658	1187.69
479.876	1162.69
480.095	1170.69
480.313	1271.69
480.532	1277.69
480.751	1277.69
480.969	1241.69
481.188	1193.69
481.406	1139.69
481.624	1154.69
481.843	1107.69
482.061	1107.69
482.28	1088.69
482.498	1047.69
482.717	1063.69
482.935	1084.69
483.153	1083.69
483.372	1059.69
483.59	1078.69
483.808	1070.69
484.027	1082.69
484.245	1069.69
484.463	1080.69
484.681	1125.69
484.9	1118.69
485.118	1116.69
485.336	1132.69
485.554	1140.69
485.772	1131.69
485.99	1142.69
486.209	1146.69
486.427	1148.69
486.645	1168.69
486.863	1120.69
487.081	1152.69
487.299	1145.69
487.517	1117.69
487.735	1108.69
487.953	1148.69
488.171	1099.69
488.389	1110.69
488.607	1113.69
488.825	1110.69
489.043	1102.69
489.261	1106.69
489.479	1127.69
489.696	1117.69
489.914	1129.69
490.132	1104.69
490.35	1125.69
490.568	1152.69
490.786	1132.69
491.003	1148.69
491.221	1113.69
491.439	1102.69
491.657	1139.69
491.874	1161.69
492.092	1150.69
492.31	1157.69
492.527	1156.69
492.745	1148.69
492.963	1157.69
493.18	1173.69
493.398	1143.69
493.615	1179.69
493.833	1177.69
494.05	1179.69
494.268	1190.69
494.485	1188.69
494.703	1217.69
494.92	1211.69
495.138	1184.69
495.355	1141.69
495.573	1212.69
495.79	1218.69
496.008	1225.69
496.225	1240.69
496.442	1225.69
496.66	1268.69
