Data from NiCl2@0.0625M.TitratingCurve.Agarose3%dH2O.NegLispCup.LampEnergy10.LIBS07252019_HRD10591_18-32-32-576.txt Node
Date: Thu Jul 25 18:32:32 EDT 2019
User: cochatt
Spectrometer: HR+D1059
Trigger mode: 1
Integration Time (sec): 1.000000E-1
Scans to average: 1
Electric dark correction enabled: true
Nonlinearity correction enabled: false
Boxcar width: 0
XAxis mode: Wavelengths
Number of Pixels in Spectrum: 2048
>>>>>Begin Spectral Data<<<<<
223.165	-12.31
223.4	-12.31
223.635	-12.31
223.869	-27.31
224.104	-12.31
224.338	-8.31
224.573	6.69
224.808	-2.31
225.042	-21.31
225.277	-5.31
225.511	-24.31
225.746	3.69
225.98	1.69
226.215	5.69
226.449	15.69
226.683	29.69
226.918	24.69
227.152	25.69
227.387	29.69
227.621	41.69
227.856	37.69
228.09	50.69
228.324	39.69
228.559	47.69
228.793	92.69
229.027	149.69
229.262	167.69
229.496	179.69
229.73	168.69
229.964	190.69
230.199	185.69
230.433	186.69
230.667	202.69
230.901	220.69
231.136	208.69
231.37	189.69
231.604	204.69
231.838	215.69
232.072	227.69
232.306	208.69
232.541	228.69
232.775	245.69
233.009	208.69
233.243	232.69
233.477	224.69
233.711	232.69
233.945	236.69
234.179	247.69
234.413	236.69
234.647	248.69
234.881	236.69
235.115	241.69
235.349	245.69
235.583	225.69
235.817	262.69
236.051	261.69
236.285	254.69
236.519	249.69
236.753	258.69
236.987	247.69
237.221	271.69
237.455	283.69
237.689	269.69
237.922	262.69
238.156	279.69
238.39	275.69
238.624	278.69
238.858	304.69
239.091	298.69
239.325	292.69
239.559	296.69
239.793	316.69
240.027	311.69
240.26	322.69
240.494	305.69
240.728	322.69
240.961	319.69
241.195	329.69
241.429	323.69
241.662	331.69
241.896	325.69
242.13	337.69
242.363	336.69
242.597	344.69
242.83	337.69
243.064	330.69
243.298	339.69
243.531	349.69
243.765	343.69
243.998	346.69
244.232	355.69
244.465	356.69
244.699	363.69
244.932	390.69
245.166	375.69
245.399	387.69
245.633	373.69
245.866	391.69
246.099	388.69
246.333	388.69
246.566	397.69
246.8	400.69
247.033	417.69
247.266	410.69
247.5	395.69
247.733	405.69
247.966	411.69
248.2	455.69
248.433	464.69
248.666	445.69
248.899	411.69
249.133	441.69
249.366	447.69
249.599	455.69
249.832	448.69
250.066	429.69
250.299	449.69
250.532	445.69
250.765	444.69
250.998	460.69
251.231	460.69
251.465	489.69
251.698	482.69
251.931	480.69
252.164	483.69
252.397	480.69
252.63	477.69
252.863	485.69
253.096	509.69
253.329	487.69
253.562	487.69
253.795	515.69
254.028	529.69
254.261	499.69
254.494	512.69
254.727	517.69
254.96	519.69
255.193	507.69
255.426	525.69
255.659	525.69
255.892	525.69
256.124	521.69
256.357	520.69
256.59	537.69
256.823	552.69
257.056	568.69
257.289	545.69
257.521	530.69
257.754	547.69
257.987	564.69
258.22	575.69
258.452	539.69
258.685	558.69
258.918	596.69
259.151	587.69
259.383	579.69
259.616	578.69
259.849	600.69
260.081	591.69
260.314	609.69
260.547	603.69
260.779	600.69
261.012	585.69
261.244	587.69
261.477	627.69
261.71	607.69
261.942	601.69
262.175	632.69
262.407	616.69
262.64	622.69
262.872	615.69
263.105	628.69
263.337	643.69
263.57	620.69
263.802	641.69
264.035	621.69
264.267	627.69
264.499	633.69
264.732	647.69
264.964	634.69
265.197	663.69
265.429	647.69
265.661	668.69
265.894	662.69
266.126	647.69
266.358	664.69
266.591	653.69
266.823	685.69
267.055	682.69
267.287	656.69
267.52	682.69
267.752	695.69
267.984	686.69
268.216	694.69
268.448	694.69
268.681	700.69
268.913	680.69
269.145	703.69
269.377	712.69
269.609	709.69
269.841	700.69
270.073	701.69
270.306	726.69
270.538	707.69
270.77	688.69
271.002	699.69
271.234	741.69
271.466	705.69
271.698	720.69
271.93	748.69
272.162	774.69
272.394	747.69
272.626	755.69
272.858	761.69
273.09	759.69
273.322	772.69
273.553	757.69
273.785	785.69
274.017	781.69
274.249	809.69
274.481	795.69
274.713	827.69
274.945	794.69
275.176	811.69
275.408	803.69
275.64	788.69
275.872	808.69
276.104	835.69
276.335	789.69
276.567	798.69
276.799	812.69
277.031	811.69
277.262	832.69
277.494	816.69
277.726	819.69
277.957	833.69
278.189	852.69
278.421	835.69
278.652	853.69
278.884	849.69
279.115	836.69
279.347	854.69
279.579	862.69
279.81	908.69
280.042	865.69
280.273	870.69
280.505	867.69
280.736	878.69
280.968	861.69
281.199	885.69
281.431	912.69
281.662	879.69
281.894	880.69
282.125	906.69
282.356	897.69
282.588	886.69
282.819	900.69
283.051	910.69
283.282	890.69
283.513	930.69
283.745	905.69
283.976	928.69
284.207	935.69
284.439	907.69
284.67	924.69
284.901	950.69
285.132	919.69
285.364	970.69
285.595	951.69
285.826	928.69
286.057	941.69
286.288	941.69
286.52	977.69
286.751	951.69
286.982	974.69
287.213	976.69
287.444	981.69
287.675	988.69
287.906	983.69
288.138	977.69
288.369	970.69
288.6	1008.69
288.831	981.69
289.062	981.69
289.293	991.69
289.524	988.69
289.755	960.69
289.986	987.69
290.217	980.69
290.448	1002.69
290.679	1014.69
290.91	997.69
291.141	1013.69
291.371	974.69
291.602	986.69
291.833	1016.69
292.064	1013.69
292.295	992.69
292.526	1004.69
292.757	966.69
292.987	1009.69
293.218	992.69
293.449	1057.69
293.68	1012.69
293.91	1023.69
294.141	1020.69
294.372	1061.69
294.603	993.69
294.833	1028.69
295.064	1011.69
295.295	1039.69
295.525	1006.69
295.756	1008.69
295.987	1013.69
296.217	1035.69
296.448	1057.69
296.679	1061.69
296.909	1049.69
297.14	1055.69
297.37	1101.69
297.601	1115.69
297.831	1074.69
298.062	1069.69
298.292	1113.69
298.523	1098.69
298.753	1104.69
298.984	1096.69
299.214	1089.69
299.445	1070.69
299.675	1085.69
299.905	1101.69
300.136	1101.69
300.366	1110.69
300.597	1129.69
300.827	1108.69
301.057	1143.69
301.288	1107.69
301.518	1109.69
301.748	1144.69
301.979	1171.69
302.209	1191.69
302.439	1152.69
302.669	1162.69
302.9	1142.69
303.13	1161.69
303.36	1173.69
303.59	1127.69
303.82	1153.69
304.051	1163.69
304.281	1169.69
304.511	1133.69
304.741	1132.69
304.971	1153.69
305.201	1129.69
305.431	1163.69
305.661	1167.69
305.891	1133.69
306.121	1175.69
306.352	1128.69
306.582	1153.69
306.812	1143.69
307.042	1127.69
307.272	1125.69
307.502	1084.69
307.731	1150.69
307.961	1134.69
308.191	1133.69
308.421	1136.69
308.651	1120.69
308.881	1117.69
309.111	1167.69
309.341	1138.69
309.571	1135.69
309.8	1128.69
310.03	1121.69
310.26	1143.69
310.49	1146.69
310.72	1158.69
310.949	1161.69
311.179	1147.69
311.409	1163.69
311.639	1180.69
311.868	1179.69
312.098	1187.69
312.328	1177.69
312.557	1209.69
312.787	1232.69
313.017	1205.69
313.246	1230.69
313.476	1219.69
313.706	1247.69
313.935	1234.69
314.165	1232.69
314.394	1241.69
314.624	1233.69
314.853	1198.69
315.083	1248.69
315.312	1239.69
315.542	1220.69
315.771	1220.69
316.001	1218.69
316.23	1214.69
316.46	1207.69
316.689	1233.69
316.919	1206.69
317.148	1241.69
317.377	1241.69
317.607	1225.69
317.836	1215.69
318.065	1197.69
318.295	1260.69
318.524	1235.69
318.753	1193.69
318.983	1221.69
319.212	1198.69
319.441	1208.69
319.67	1221.69
319.9	1196.69
320.129	1224.69
320.358	1247.69
320.587	1225.69
320.816	1210.69
321.046	1233.69
321.275	1248.69
321.504	1241.69
321.733	1260.69
321.962	1230.69
322.191	1205.69
322.42	1254.69
322.649	1265.69
322.878	1269.69
323.108	1273.69
323.337	1275.69
323.566	1271.69
323.795	1283.69
324.024	1257.69
324.253	1271.69
324.482	1291.69
324.71	1267.69
324.939	1294.69
325.168	1274.69
325.397	1317.69
325.626	1309.69
325.855	1281.69
326.084	1320.69
326.313	1310.69
326.542	1304.69
326.77	1357.69
326.999	1336.69
327.228	1319.69
327.457	1339.69
327.686	1344.69
327.914	1368.69
328.143	1307.69
328.372	1324.69
328.6	1328.69
328.829	1328.69
329.058	1352.69
329.287	1336.69
329.515	1358.69
329.744	1334.69
329.972	1359.69
330.201	1382.69
330.43	1337.69
330.658	1365.69
330.887	1379.69
331.115	1403.69
331.344	1407.69
331.572	1414.69
331.801	1402.69
332.03	1472.69
332.258	1501.69
332.486	1518.69
332.715	1530.69
332.943	1573.69
333.172	1598.69
333.4	1650.69
333.629	1700.69
333.857	1745.69
334.085	1704.69
334.314	1695.69
334.542	1698.69
334.771	1666.69
334.999	1671.69
335.227	1696.69
335.455	1647.69
335.684	1610.69
335.912	1641.69
336.14	1623.69
336.369	1630.69
336.597	1624.69
336.825	1587.69
337.053	1583.69
337.281	1529.69
337.51	1549.69
337.738	1535.69
337.966	1535.69
338.194	1513.69
338.422	1483.69
338.65	1469.69
338.878	1476.69
339.106	1468.69
339.334	1442.69
339.562	1469.69
339.79	1423.69
340.018	1436.69
340.246	1429.69
340.474	1406.69
340.702	1402.69
340.93	1411.69
341.158	1403.69
341.386	1408.69
341.614	1427.69
341.842	1417.69
342.07	1403.69
342.298	1390.69
342.526	1425.69
342.754	1381.69
342.981	1378.69
343.209	1411.69
343.437	1481.69
343.665	1552.69
343.893	1605.69
344.12	1644.69
344.348	1651.69
344.576	1565.69
344.804	1560.69
345.031	1463.69
345.259	1435.69
345.487	1399.69
345.714	1394.69
345.942	1412.69
346.17	1406.69
346.397	1389.69
346.625	1357.69
346.853	1348.69
347.08	1343.69
347.308	1335.69
347.535	1365.69
347.763	1350.69
347.99	1325.69
348.218	1317.69
348.445	1335.69
348.673	1328.69
348.9	1336.69
349.128	1341.69
349.355	1353.69
349.583	1339.69
349.81	1335.69
350.037	1343.69
350.265	1307.69
350.492	1315.69
350.72	1301.69
350.947	1293.69
351.174	1319.69
351.402	1319.69
351.629	1322.69
351.856	1303.69
352.083	1292.69
352.311	1294.69
352.538	1283.69
352.765	1287.69
352.992	1316.69
353.22	1258.69
353.447	1287.69
353.674	1272.69
353.901	1313.69
354.128	1242.69
354.355	1273.69
354.583	1249.69
354.81	1307.69
355.037	1285.69
355.264	1281.69
355.491	1289.69
355.718	1279.69
355.945	1289.69
356.172	1294.69
356.399	1312.69
356.626	1339.69
356.853	1328.69
357.08	1305.69
357.307	1334.69
357.534	1296.69
357.761	1286.69
357.988	1331.69
358.215	1304.69
358.441	1327.69
358.668	1317.69
358.895	1291.69
359.122	1280.69
359.349	1286.69
359.576	1297.69
359.802	1295.69
360.029	1293.69
360.256	1316.69
360.483	1281.69
360.709	1292.69
360.936	1311.69
361.163	1334.69
361.39	1295.69
361.616	1328.69
361.843	1300.69
362.07	1308.69
362.296	1270.69
362.523	1279.69
362.749	1305.69
362.976	1288.69
363.203	1315.69
363.429	1298.69
363.656	1298.69
363.882	1308.69
364.109	1280.69
364.335	1303.69
364.562	1300.69
364.788	1283.69
365.015	1283.69
365.241	1301.69
365.468	1324.69
365.694	1286.69
365.92	1311.69
366.147	1311.69
366.373	1320.69
366.599	1310.69
366.826	1282.69
367.052	1331.69
367.278	1323.69
367.505	1325.69
367.731	1333.69
367.957	1328.69
368.184	1339.69
368.41	1326.69
368.636	1322.69
368.862	1315.69
369.089	1339.69
369.315	1358.69
369.541	1347.69
369.767	1327.69
369.993	1375.69
370.219	1349.69
370.445	1347.69
370.672	1374.69
370.898	1362.69
371.124	1376.69
371.35	1424.69
371.576	1379.69
371.802	1413.69
372.028	1403.69
372.254	1443.69
372.48	1386.69
372.706	1433.69
372.932	1435.69
373.158	1451.69
373.384	1448.69
373.61	1424.69
373.835	1439.69
374.061	1444.69
374.287	1436.69
374.513	1434.69
374.739	1481.69
374.965	1523.69
375.191	1559.69
375.416	1538.69
375.642	1514.69
375.868	1492.69
376.094	1431.69
376.319	1449.69
376.545	1437.69
376.771	1390.69
376.997	1413.69
377.222	1405.69
377.448	1413.69
377.674	1375.69
377.899	1386.69
378.125	1396.69
378.35	1411.69
378.576	1383.69
378.802	1376.69
379.027	1400.69
379.253	1399.69
379.478	1402.69
379.704	1380.69
379.929	1365.69
380.155	1395.69
380.38	1382.69
380.606	1403.69
380.831	1383.69
381.057	1411.69
381.282	1383.69
381.507	1438.69
381.733	1389.69
381.958	1387.69
382.184	1457.69
382.409	1452.69
382.634	1432.69
382.86	1469.69
383.085	1473.69
383.31	1511.69
383.535	1494.69
383.761	1529.69
383.986	1541.69
384.211	1576.69
384.436	1556.69
384.662	1603.69
384.887	1617.69
385.112	1616.69
385.337	1675.69
385.562	1667.69
385.787	1672.69
386.013	1743.69
386.238	1692.69
386.463	1696.69
386.688	1693.69
386.913	1658.69
387.138	1711.69
387.363	1683.69
387.588	1685.69
387.813	1666.69
388.038	1669.69
388.263	1678.69
388.488	1680.69
388.713	1726.69
388.938	1657.69
389.163	1653.69
389.387	1675.69
389.612	1669.69
389.837	1651.69
390.062	1635.69
390.287	1665.69
390.512	1669.69
390.736	1698.69
390.961	1737.69
391.186	1731.69
391.411	1730.69
391.636	1764.69
391.86	1870.69
392.085	1850.69
392.31	1825.69
392.534	1799.69
392.759	1829.69
392.984	1786.69
393.208	1787.69
393.433	1885.69
393.658	1909.69
393.882	1774.69
394.107	1743.69
394.331	1756.69
394.556	1782.69
394.78	1823.69
395.005	1794.69
395.229	1811.69
395.454	1856.69
395.678	1839.69
395.903	1836.69
396.127	1863.69
396.352	1855.69
396.576	1833.69
396.801	1835.69
397.025	1874.69
397.249	1912.69
397.474	1863.69
397.698	1882.69
397.922	1909.69
398.147	1897.69
398.371	1913.69
398.595	1994.69
398.82	2123.69
399.044	2183.69
399.268	2394.69
399.492	2651.69
399.717	2861.69
399.941	2895.69
400.165	2679.69
400.389	2475.69
400.613	2345.69
400.837	2220.69
401.062	2185.69
401.286	2164.69
401.51	2096.69
401.734	2091.69
401.958	2125.69
402.182	2105.69
402.406	2108.69
402.63	2133.69
402.854	2115.69
403.078	2172.69
403.302	2223.69
403.526	2271.69
403.75	2305.69
403.974	2260.69
404.198	2260.69
404.422	2291.69
404.645	2286.69
404.869	2238.69
405.093	2276.69
405.317	2231.69
405.541	2271.69
405.765	2251.69
405.988	2222.69
406.212	2257.69
406.436	2300.69
406.66	2288.69
406.883	2335.69
407.107	2423.69
407.331	2475.69
407.555	2571.69
407.778	2589.69
408.002	2536.69
408.226	2529.69
408.449	2431.69
408.673	2398.69
408.896	2341.69
409.12	2318.69
409.344	2343.69
409.567	2269.69
409.791	2271.69
410.014	2283.69
410.238	2253.69
410.461	2230.69
410.685	2285.69
410.908	2242.69
411.132	2201.69
411.355	2123.69
411.578	2173.69
411.802	2164.69
412.025	2186.69
412.249	2177.69
412.472	2179.69
412.695	2117.69
412.919	2097.69
413.142	2076.69
413.365	2092.69
413.589	2107.69
413.812	2085.69
414.035	2056.69
414.258	2054.69
414.482	2123.69
414.705	2093.69
414.928	2087.69
415.151	2078.69
415.374	2062.69
415.597	2039.69
415.821	1988.69
416.044	2013.69
416.267	1988.69
416.49	2005.69
416.713	2001.69
416.936	2026.69
417.159	1974.69
417.382	1968.69
417.605	1966.69
417.828	1993.69
418.051	1996.69
418.274	1959.69
418.497	2007.69
418.72	2024.69
418.943	2053.69
419.166	2154.69
419.389	2288.69
419.611	2236.69
419.834	2191.69
420.057	2060.69
420.28	2043.69
420.503	2001.69
420.726	1953.69
420.948	1935.69
421.171	1982.69
421.394	1971.69
421.617	1980.69
421.839	2031.69
422.062	1989.69
422.285	1983.69
422.507	2050.69
422.73	1998.69
422.953	2046.69
423.175	2015.69
423.398	2076.69
423.621	2010.69
423.843	2066.69
424.066	2081.69
424.288	2055.69
424.511	2035.69
424.733	2000.69
424.956	1976.69
425.178	2000.69
425.401	2020.69
425.623	1988.69
425.846	1950.69
426.068	1957.69
426.291	1925.69
426.513	1916.69
426.735	1918.69
426.958	1883.69
427.18	1889.69
427.402	1886.69
427.625	1896.69
427.847	1828.69
428.069	1820.69
428.292	1813.69
428.514	1768.69
428.736	1828.69
428.958	1825.69
429.181	1793.69
429.403	1818.69
429.625	1793.69
429.847	1772.69
430.069	1742.69
430.292	1814.69
430.514	1759.69
430.736	1789.69
430.958	1809.69
431.18	1796.69
431.402	1846.69
431.624	1797.69
431.846	1813.69
432.068	1863.69
432.29	1867.69
432.512	1830.69
432.734	1831.69
432.956	1836.69
433.178	1852.69
433.4	1805.69
433.622	1843.69
433.844	1877.69
434.066	1820.69
434.287	1906.69
434.509	1920.69
434.731	1959.69
434.953	2025.69
435.175	1993.69
435.397	2009.69
435.618	1896.69
435.84	1876.69
436.062	1837.69
436.284	1798.69
436.505	1795.69
436.727	1855.69
436.949	1864.69
437.17	1817.69
437.392	1822.69
437.614	1804.69
437.835	1715.69
438.057	1759.69
438.278	1719.69
438.5	1681.69
438.721	1733.69
438.943	1739.69
439.165	1736.69
439.386	1765.69
439.608	1800.69
439.829	1789.69
440.05	1793.69
440.272	1762.69
440.493	1815.69
440.715	1815.69
440.936	1864.69
441.158	1869.69
441.379	1882.69
441.6	1909.69
441.822	1988.69
442.043	2013.69
442.264	1947.69
442.486	1916.69
442.707	1931.69
442.928	1923.69
443.149	1937.69
443.371	1914.69
443.592	1945.69
443.813	1989.69
444.034	1990.69
444.255	2030.69
444.476	2125.69
444.698	2219.69
444.919	2237.69
445.14	2309.69
445.361	2111.69
445.582	2042.69
445.803	1947.69
446.024	1893.69
446.245	1891.69
446.466	1839.69
446.687	1819.69
446.908	1797.69
447.129	1801.69
447.35	1712.69
447.571	1749.69
447.792	1726.69
448.013	1650.69
448.234	1632.69
448.455	1655.69
448.675	1636.69
448.896	1633.69
449.117	1624.69
449.338	1595.69
449.559	1613.69
449.779	1627.69
450	1579.69
450.221	1666.69
450.442	1625.69
450.662	1615.69
450.883	1607.69
451.104	1604.69
451.324	1635.69
451.545	1641.69
451.766	1641.69
451.986	1562.69
452.207	1615.69
452.428	1596.69
452.648	1582.69
452.869	1560.69
453.089	1552.69
453.31	1603.69
453.53	1549.69
453.751	1614.69
453.971	1560.69
454.192	1563.69
454.412	1515.69
454.633	1533.69
454.853	1535.69
455.073	1508.69
455.294	1557.69
455.514	1541.69
455.734	1547.69
455.955	1501.69
456.175	1516.69
456.395	1496.69
456.616	1501.69
456.836	1544.69
457.056	1514.69
457.276	1503.69
457.497	1576.69
457.717	1536.69
457.937	1577.69
458.157	1582.69
458.377	1555.69
458.598	1599.69
458.818	1671.69
459.038	1705.69
459.258	1719.69
459.478	1803.69
459.698	1854.69
459.918	1881.69
460.138	1902.69
460.358	1980.69
460.578	2036.69
460.798	2032.69
461.018	2083.69
461.238	2047.69
461.458	2035.69
461.678	2041.69
461.898	2075.69
462.118	2119.69
462.338	2163.69
462.558	2235.69
462.777	2324.69
462.997	2455.69
463.217	2545.69
463.437	2578.69
463.657	2456.69
463.876	2384.69
464.096	2395.69
464.316	2325.69
464.536	2311.69
464.755	2279.69
464.975	2185.69
465.195	2128.69
465.414	2006.69
465.634	1933.69
465.854	1890.69
466.073	1838.69
466.293	1788.69
466.512	1732.69
466.732	1716.69
466.951	1720.69
467.171	1721.69
467.391	1744.69
467.61	1706.69
467.829	1667.69
468.049	1701.69
468.268	1643.69
468.488	1640.69
468.707	1633.69
468.927	1624.69
469.146	1643.69
469.365	1673.69
469.585	1665.69
469.804	1704.69
470.023	1703.69
470.243	1742.69
470.462	1757.69
470.681	1706.69
470.901	1750.69
471.12	1733.69
471.339	1730.69
471.558	1654.69
471.777	1718.69
471.997	1690.69
472.216	1643.69
472.435	1660.69
472.654	1605.69
472.873	1634.69
473.092	1632.69
473.311	1626.69
473.53	1622.69
473.749	1628.69
473.968	1648.69
474.187	1642.69
474.406	1615.69
474.625	1628.69
474.844	1627.69
475.063	1633.69
475.282	1688.69
475.501	1646.69
475.72	1695.69
475.939	1697.69
476.158	1687.69
476.377	1734.69
476.596	1717.69
476.814	1771.69
477.033	1702.69
477.252	1771.69
477.471	1805.69
477.69	1825.69
477.908	1891.69
478.127	1912.69
478.346	1908.69
478.564	1982.69
478.783	1984.69
479.002	1983.69
479.22	2012.69
479.439	2038.69
479.658	2084.69
479.876	2059.69
480.095	2121.69
480.313	2123.69
480.532	2167.69
480.751	2169.69
480.969	2093.69
481.188	2071.69
481.406	2041.69
481.624	1992.69
481.843	1938.69
482.061	1971.69
482.28	1991.69
482.498	1989.69
482.717	1959.69
482.935	1986.69
483.153	1967.69
483.372	1992.69
483.59	1966.69
483.808	1990.69
484.027	1966.69
484.245	1982.69
484.463	2002.69
484.681	2078.69
484.9	2076.69
485.118	2054.69
485.336	2097.69
485.554	2104.69
485.772	2062.69
485.99	2068.69
486.209	2096.69
486.427	2148.69
486.645	2099.69
486.863	2109.69
487.081	2089.69
487.299	2114.69
487.517	2075.69
487.735	2103.69
487.953	2051.69
488.171	2074.69
488.389	2073.69
488.607	2060.69
488.825	2071.69
489.043	2047.69
489.261	2051.69
489.479	2040.69
