Data from NiCl2@0.25M.TitratingCurve.Agarose3%dH2O.NegLispCup.LampEnergy10.LIBS07252019_HRD10591_18-23-35-572.txt Node
Date: Thu Jul 25 18:23:35 EDT 2019
User: cochatt
Spectrometer: HR+D1059
Trigger mode: 1
Integration Time (sec): 1.000000E-1
Scans to average: 1
Electric dark correction enabled: true
Nonlinearity correction enabled: false
Boxcar width: 0
XAxis mode: Wavelengths
Number of Pixels in Spectrum: 2048
>>>>>Begin Spectral Data<<<<<
223.165	-13.69
223.4	-13.69
223.635	-13.69
223.869	-12.69
224.104	-8.69
224.338	-17.69
224.573	-10.69
224.808	-14.69
225.042	-3.69
225.277	2.31
225.511	0.31
225.746	-10.69
225.98	8.31
226.215	11.31
226.449	4.31
226.683	18.31
226.918	29.31
227.152	18.31
227.387	29.31
227.621	44.31
227.856	51.31
228.09	32.31
228.324	38.31
228.559	50.31
228.793	82.31
229.027	139.31
229.262	141.31
229.496	147.31
229.73	142.31
229.964	141.31
230.199	158.31
230.433	158.31
230.667	161.31
230.901	163.31
231.136	162.31
231.37	176.31
231.604	160.31
231.838	192.31
232.072	185.31
232.306	189.31
232.541	177.31
232.775	181.31
233.009	164.31
233.243	184.31
233.477	192.31
233.711	186.31
233.945	182.31
234.179	188.31
234.413	195.31
234.647	192.31
234.881	189.31
235.115	193.31
235.349	205.31
235.583	174.31
235.817	174.31
236.051	201.31
236.285	190.31
236.519	195.31
236.753	187.31
236.987	187.31
237.221	207.31
237.455	203.31
237.689	202.31
237.922	204.31
238.156	204.31
238.39	212.31
238.624	205.31
238.858	212.31
239.091	236.31
239.325	228.31
239.559	228.31
239.793	221.31
240.027	233.31
240.26	225.31
240.494	224.31
240.728	222.31
240.961	235.31
241.195	226.31
241.429	233.31
241.662	235.31
241.896	238.31
242.13	247.31
242.363	272.31
242.597	244.31
242.83	257.31
243.064	240.31
243.298	257.31
243.531	254.31
243.765	269.31
243.998	279.31
244.232	272.31
244.465	284.31
244.699	284.31
244.932	270.31
245.166	288.31
245.399	266.31
245.633	280.31
245.866	294.31
246.099	280.31
246.333	283.31
246.566	284.31
246.8	292.31
247.033	286.31
247.266	290.31
247.5	281.31
247.733	308.31
247.966	310.31
248.2	299.31
248.433	296.31
248.666	314.31
248.899	320.31
249.133	315.31
249.366	309.31
249.599	310.31
249.832	336.31
250.066	338.31
250.299	326.31
250.532	331.31
250.765	324.31
250.998	327.31
251.231	336.31
251.465	337.31
251.698	324.31
251.931	344.31
252.164	349.31
252.397	358.31
252.63	340.31
252.863	352.31
253.096	348.31
253.329	379.31
253.562	349.31
253.795	376.31
254.028	376.31
254.261	363.31
254.494	374.31
254.727	363.31
254.96	380.31
255.193	376.31
255.426	377.31
255.659	371.31
255.892	365.31
256.124	380.31
256.357	394.31
256.59	380.31
256.823	375.31
257.056	393.31
257.289	385.31
257.521	381.31
257.754	397.31
257.987	380.31
258.22	411.31
258.452	426.31
258.685	418.31
258.918	402.31
259.151	403.31
259.383	411.31
259.616	409.31
259.849	415.31
260.081	407.31
260.314	435.31
260.547	423.31
260.779	422.31
261.012	414.31
261.244	430.31
261.477	442.31
261.71	427.31
261.942	431.31
262.175	434.31
262.407	440.31
262.64	429.31
262.872	454.31
263.105	443.31
263.337	437.31
263.57	453.31
263.802	454.31
264.035	464.31
264.267	461.31
264.499	446.31
264.732	466.31
264.964	473.31
265.197	461.31
265.429	469.31
265.661	465.31
265.894	480.31
266.126	491.31
266.358	463.31
266.591	483.31
266.823	483.31
267.055	482.31
267.287	477.31
267.52	477.31
267.752	490.31
267.984	493.31
268.216	502.31
268.448	509.31
268.681	491.31
268.913	506.31
269.145	497.31
269.377	510.31
269.609	522.31
269.841	498.31
270.073	506.31
270.306	514.31
270.538	510.31
270.77	492.31
271.002	493.31
271.234	515.31
271.466	536.31
271.698	514.31
271.93	532.31
272.162	532.31
272.394	519.31
272.626	537.31
272.858	534.31
273.09	518.31
273.322	537.31
273.553	542.31
273.785	541.31
274.017	555.31
274.249	548.31
274.481	557.31
274.713	540.31
274.945	551.31
275.176	563.31
275.408	557.31
275.64	562.31
275.872	557.31
276.104	569.31
276.335	578.31
276.567	586.31
276.799	578.31
277.031	594.31
277.262	569.31
277.494	584.31
277.726	577.31
277.957	595.31
278.189	587.31
278.421	600.31
278.652	585.31
278.884	570.31
279.115	602.31
279.347	595.31
279.579	598.31
279.81	585.31
280.042	595.31
280.273	601.31
280.505	634.31
280.736	615.31
280.968	609.31
281.199	593.31
281.431	655.31
281.662	637.31
281.894	638.31
282.125	608.31
282.356	652.31
282.588	644.31
282.819	632.31
283.051	637.31
283.282	634.31
283.513	637.31
283.745	656.31
283.976	652.31
284.207	644.31
284.439	681.31
284.67	672.31
284.901	667.31
285.132	673.31
285.364	655.31
285.595	666.31
285.826	650.31
286.057	673.31
286.288	682.31
286.52	679.31
286.751	689.31
286.982	701.31
287.213	698.31
287.444	684.31
287.675	678.31
287.906	694.31
288.138	686.31
288.369	698.31
288.6	700.31
288.831	706.31
289.062	704.31
289.293	701.31
289.524	710.31
289.755	718.31
289.986	681.31
290.217	709.31
290.448	704.31
290.679	715.31
290.91	706.31
291.141	708.31
291.371	700.31
291.602	703.31
291.833	709.31
292.064	734.31
292.295	705.31
292.526	704.31
292.757	728.31
292.987	708.31
293.218	708.31
293.449	717.31
293.68	745.31
293.91	713.31
294.141	730.31
294.372	734.31
294.603	721.31
294.833	758.31
295.064	742.31
295.295	720.31
295.525	724.31
295.756	734.31
295.987	747.31
296.217	736.31
296.448	734.31
296.679	752.31
296.909	746.31
297.14	750.31
297.37	764.31
297.601	781.31
297.831	741.31
298.062	794.31
298.292	800.31
298.523	788.31
298.753	764.31
298.984	798.31
299.214	792.31
299.445	798.31
299.675	750.31
299.905	770.31
300.136	781.31
300.366	797.31
300.597	789.31
300.827	852.31
301.057	817.31
301.288	836.31
301.518	834.31
301.748	829.31
301.979	850.31
302.209	849.31
302.439	840.31
302.669	833.31
302.9	841.31
303.13	838.31
303.36	804.31
303.59	808.31
303.82	841.31
304.051	819.31
304.281	838.31
304.511	778.31
304.741	833.31
304.971	819.31
305.201	824.31
305.431	813.31
305.661	809.31
305.891	804.31
306.121	822.31
306.352	813.31
306.582	797.31
306.812	787.31
307.042	792.31
307.272	815.31
307.502	801.31
307.731	790.31
307.961	816.31
308.191	782.31
308.421	790.31
308.651	816.31
308.881	789.31
309.111	811.31
309.341	789.31
309.571	798.31
309.8	802.31
310.03	820.31
310.26	808.31
310.49	805.31
310.72	803.31
310.949	805.31
311.179	834.31
311.409	824.31
311.639	825.31
311.868	822.31
312.098	843.31
312.328	808.31
312.557	842.31
312.787	829.31
313.017	833.31
313.246	868.31
313.476	874.31
313.706	874.31
313.935	897.31
314.165	875.31
314.394	874.31
314.624	878.31
314.853	865.31
315.083	845.31
315.312	890.31
315.542	880.31
315.771	861.31
316.001	836.31
316.23	851.31
316.46	838.31
316.689	833.31
316.919	836.31
317.148	862.31
317.377	852.31
317.607	868.31
317.836	849.31
318.065	842.31
318.295	870.31
318.524	842.31
318.753	862.31
318.983	829.31
319.212	858.31
319.441	821.31
319.67	845.31
319.9	850.31
320.129	868.31
320.358	846.31
320.587	837.31
320.816	845.31
321.046	857.31
321.275	859.31
321.504	868.31
321.733	864.31
321.962	853.31
322.191	873.31
322.42	852.31
322.649	861.31
322.878	878.31
323.108	843.31
323.337	840.31
323.566	897.31
323.795	898.31
324.024	896.31
324.253	891.31
324.482	888.31
324.71	897.31
324.939	885.31
325.168	886.31
325.397	908.31
325.626	908.31
325.855	926.31
326.084	919.31
326.313	954.31
326.542	958.31
326.77	976.31
326.999	925.31
327.228	898.31
327.457	933.31
327.686	921.31
327.914	889.31
328.143	931.31
328.372	939.31
328.6	946.31
328.829	940.31
329.058	918.31
329.287	926.31
329.515	942.31
329.744	937.31
329.972	981.31
330.201	971.31
330.43	960.31
330.658	948.31
330.887	933.31
331.115	987.31
331.344	999.31
331.572	1027.31
331.801	1015.31
332.03	1052.31
332.258	1058.31
332.486	1063.31
332.715	1111.31
332.943	1146.31
333.172	1212.31
333.4	1261.31
333.629	1291.31
333.857	1279.31
334.085	1245.31
334.314	1262.31
334.542	1232.31
334.771	1245.31
334.999	1205.31
335.227	1217.31
335.455	1152.31
335.684	1168.31
335.912	1160.31
336.14	1162.31
336.369	1144.31
336.597	1164.31
336.825	1133.31
337.053	1114.31
337.281	1154.31
337.51	1102.31
337.738	1065.31
337.966	1078.31
338.194	1059.31
338.422	1052.31
338.65	1039.31
338.878	1027.31
339.106	1042.31
339.334	1026.31
339.562	1050.31
339.79	994.31
340.018	997.31
340.246	986.31
340.474	964.31
340.702	1000.31
340.93	970.31
341.158	1007.31
341.386	1002.31
341.614	1020.31
341.842	990.31
342.07	978.31
342.298	978.31
342.526	1014.31
342.754	998.31
342.981	996.31
343.209	1000.31
343.437	1061.31
343.665	1117.31
343.893	1183.31
344.12	1224.31
344.348	1179.31
344.576	1136.31
344.804	1102.31
345.031	1036.31
345.259	1048.31
345.487	1016.31
345.714	997.31
345.942	951.31
346.17	1000.31
346.397	982.31
346.625	948.31
346.853	930.31
347.08	929.31
347.308	988.31
347.535	951.31
347.763	954.31
347.99	917.31
348.218	942.31
348.445	938.31
348.673	925.31
348.9	941.31
349.128	924.31
349.355	952.31
349.583	955.31
349.81	928.31
350.037	922.31
350.265	920.31
350.492	914.31
350.72	943.31
350.947	911.31
351.174	943.31
351.402	932.31
351.629	934.31
351.856	917.31
352.083	903.31
352.311	883.31
352.538	960.31
352.765	967.31
352.992	902.31
353.22	897.31
353.447	902.31
353.674	888.31
353.901	869.31
354.128	872.31
354.355	890.31
354.583	888.31
354.81	876.31
355.037	892.31
355.264	887.31
355.491	905.31
355.718	932.31
355.945	918.31
356.172	911.31
356.399	893.31
356.626	959.31
356.853	948.31
357.08	905.31
357.307	915.31
357.534	906.31
357.761	928.31
357.988	914.31
358.215	914.31
358.441	911.31
358.668	897.31
358.895	900.31
359.122	901.31
359.349	930.31
359.576	875.31
359.802	906.31
360.029	892.31
360.256	907.31
360.483	923.31
360.709	904.31
360.936	911.31
361.163	923.31
361.39	905.31
361.616	910.31
361.843	908.31
362.07	953.31
362.296	932.31
362.523	912.31
362.749	926.31
362.976	917.31
363.203	878.31
363.429	899.31
363.656	923.31
363.882	906.31
364.109	907.31
364.335	901.31
364.562	891.31
364.788	894.31
365.015	905.31
365.241	908.31
365.468	908.31
365.694	897.31
365.92	864.31
366.147	892.31
366.373	889.31
366.599	899.31
366.826	892.31
367.052	894.31
367.278	899.31
367.505	909.31
367.731	912.31
367.957	938.31
368.184	896.31
368.41	916.31
368.636	902.31
368.862	921.31
369.089	928.31
369.315	924.31
369.541	955.31
369.767	928.31
369.993	952.31
370.219	940.31
370.445	937.31
370.672	946.31
370.898	952.31
371.124	970.31
371.35	1010.31
371.576	959.31
371.802	979.31
372.028	970.31
372.254	984.31
372.48	1012.31
372.706	1018.31
372.932	1047.31
373.158	1003.31
373.384	999.31
373.61	987.31
373.835	1002.31
374.061	948.31
374.287	1011.31
374.513	1009.31
374.739	1051.31
374.965	1077.31
375.191	1092.31
375.416	1075.31
375.642	1029.31
375.868	1036.31
376.094	1025.31
376.319	990.31
376.545	968.31
376.771	976.31
376.997	972.31
377.222	981.31
377.448	997.31
377.674	974.31
377.899	968.31
378.125	956.31
378.35	955.31
378.576	981.31
378.802	944.31
379.027	987.31
379.253	960.31
379.478	972.31
379.704	964.31
379.929	955.31
380.155	960.31
380.38	978.31
380.606	965.31
380.831	972.31
381.057	967.31
381.282	993.31
381.507	973.31
381.733	960.31
381.958	1004.31
382.184	990.31
382.409	1010.31
382.634	1033.31
382.86	1014.31
383.085	1035.31
383.31	1044.31
383.535	1042.31
383.761	1092.31
383.986	1121.31
384.211	1129.31
384.436	1155.31
384.662	1156.31
384.887	1167.31
385.112	1161.31
385.337	1174.31
385.562	1182.31
385.787	1195.31
386.013	1235.31
386.238	1183.31
386.463	1246.31
386.688	1200.31
386.913	1194.31
387.138	1186.31
387.363	1196.31
387.588	1170.31
387.813	1190.31
388.038	1193.31
388.263	1180.31
388.488	1194.31
388.713	1185.31
388.938	1165.31
389.163	1158.31
389.387	1185.31
389.612	1149.31
389.837	1131.31
390.062	1153.31
390.287	1160.31
390.512	1189.31
390.736	1169.31
390.961	1205.31
391.186	1209.31
391.411	1257.31
391.636	1283.31
391.86	1339.31
392.085	1356.31
392.31	1359.31
392.534	1318.31
392.759	1280.31
392.984	1257.31
393.208	1233.31
393.433	1306.31
393.658	1251.31
393.882	1229.31
394.107	1281.31
394.331	1284.31
394.556	1291.31
394.78	1304.31
395.005	1278.31
395.229	1252.31
395.454	1315.31
395.678	1349.31
395.903	1338.31
396.127	1339.31
396.352	1306.31
396.576	1269.31
396.801	1249.31
397.025	1270.31
397.249	1302.31
397.474	1362.31
397.698	1356.31
397.922	1339.31
398.147	1340.31
398.371	1361.31
398.595	1415.31
398.82	1510.31
399.044	1613.31
399.268	1761.31
399.492	1992.31
399.717	2246.31
399.941	2256.31
400.165	2077.31
400.389	1852.31
400.613	1691.31
400.837	1604.31
401.062	1554.31
401.286	1557.31
401.51	1522.31
401.734	1516.31
401.958	1509.31
402.182	1557.31
402.406	1554.31
402.63	1554.31
402.854	1586.31
403.078	1633.31
403.302	1633.31
403.526	1675.31
403.75	1704.31
403.974	1703.31
404.198	1709.31
404.422	1715.31
404.645	1724.31
404.869	1693.31
405.093	1710.31
405.317	1686.31
405.541	1629.31
405.765	1675.31
405.988	1659.31
406.212	1694.31
406.436	1670.31
406.66	1674.31
406.883	1714.31
407.107	1838.31
407.331	1908.31
407.555	1974.31
407.778	1954.31
408.002	1906.31
408.226	1861.31
408.449	1786.31
408.673	1726.31
408.896	1714.31
409.12	1697.31
409.344	1692.31
409.567	1690.31
409.791	1665.31
410.014	1680.31
410.238	1661.31
410.461	1669.31
410.685	1627.31
410.908	1592.31
411.132	1513.31
411.355	1547.31
411.578	1577.31
411.802	1579.31
412.025	1522.31
412.249	1584.31
412.472	1594.31
412.695	1546.31
412.919	1526.31
413.142	1510.31
413.365	1476.31
413.589	1508.31
413.812	1470.31
414.035	1418.31
414.258	1465.31
414.482	1474.31
414.705	1504.31
414.928	1537.31
415.151	1492.31
415.374	1503.31
415.597	1469.31
415.821	1465.31
416.044	1464.31
416.267	1470.31
416.49	1432.31
416.713	1460.31
416.936	1478.31
417.159	1443.31
417.382	1453.31
417.605	1432.31
417.828	1509.31
418.051	1489.31
418.274	1506.31
418.497	1489.31
418.72	1497.31
418.943	1509.31
419.166	1608.31
419.389	1730.31
419.611	1677.31
419.834	1555.31
420.057	1588.31
420.28	1476.31
420.503	1449.31
420.726	1438.31
420.948	1494.31
421.171	1460.31
421.394	1466.31
421.617	1412.31
421.839	1479.31
422.062	1482.31
422.285	1428.31
422.507	1476.31
422.73	1512.31
422.953	1507.31
423.175	1550.31
423.398	1542.31
423.621	1516.31
423.843	1534.31
424.066	1552.31
424.288	1516.31
424.511	1480.31
424.733	1530.31
424.956	1516.31
425.178	1441.31
425.401	1510.31
425.623	1469.31
425.846	1394.31
426.068	1388.31
426.291	1388.31
426.513	1385.31
426.735	1360.31
426.958	1360.31
427.18	1324.31
427.402	1371.31
427.625	1344.31
427.847	1284.31
428.069	1313.31
428.292	1327.31
428.514	1294.31
428.736	1306.31
428.958	1345.31
429.181	1261.31
429.403	1249.31
429.625	1232.31
429.847	1276.31
430.069	1259.31
430.292	1264.31
430.514	1236.31
430.736	1257.31
430.958	1262.31
431.18	1252.31
431.402	1273.31
431.624	1271.31
431.846	1324.31
432.068	1346.31
432.29	1354.31
432.512	1281.31
432.734	1294.31
432.956	1296.31
433.178	1292.31
433.4	1276.31
433.622	1304.31
433.844	1333.31
434.066	1312.31
434.287	1336.31
434.509	1373.31
434.731	1453.31
434.953	1464.31
435.175	1452.31
435.397	1427.31
435.618	1367.31
435.84	1348.31
436.062	1304.31
436.284	1294.31
436.505	1287.31
436.727	1324.31
436.949	1297.31
437.17	1286.31
437.392	1280.31
437.614	1265.31
437.835	1235.31
438.057	1234.31
438.278	1216.31
438.5	1244.31
438.721	1225.31
438.943	1240.31
439.165	1214.31
439.386	1251.31
439.608	1256.31
439.829	1279.31
440.05	1296.31
440.272	1291.31
440.493	1297.31
440.715	1319.31
440.936	1337.31
441.158	1349.31
441.379	1356.31
441.6	1478.31
441.822	1456.31
442.043	1458.31
442.264	1443.31
442.486	1421.31
442.707	1426.31
442.928	1428.31
443.149	1423.31
443.371	1431.31
443.592	1444.31
443.813	1458.31
444.034	1464.31
444.255	1518.31
444.476	1574.31
444.698	1689.31
444.919	1717.31
445.14	1804.31
445.361	1648.31
445.582	1504.31
445.803	1416.31
446.024	1362.31
446.245	1352.31
446.466	1333.31
446.687	1272.31
446.908	1302.31
447.129	1268.31
447.35	1230.31
447.571	1261.31
447.792	1212.31
448.013	1207.31
448.234	1194.31
448.455	1167.31
448.675	1200.31
448.896	1142.31
449.117	1168.31
449.338	1162.31
449.559	1126.31
449.779	1190.31
450	1165.31
450.221	1189.31
450.442	1161.31
450.662	1149.31
450.883	1185.31
451.104	1228.31
451.324	1209.31
451.545	1181.31
451.766	1223.31
451.986	1180.31
452.207	1182.31
452.428	1147.31
452.648	1176.31
452.869	1146.31
453.089	1149.31
453.31	1138.31
453.53	1146.31
453.751	1148.31
453.971	1133.31
454.192	1150.31
454.412	1133.31
454.633	1114.31
454.853	1095.31
455.073	1128.31
455.294	1105.31
455.514	1066.31
455.734	1104.31
455.955	1064.31
456.175	1102.31
456.395	1078.31
456.616	1065.31
456.836	1100.31
457.056	1102.31
457.276	1098.31
457.497	1125.31
457.717	1100.31
457.937	1130.31
458.157	1109.31
458.377	1134.31
458.598	1154.31
458.818	1184.31
459.038	1244.31
459.258	1291.31
459.478	1308.31
459.698	1371.31
459.918	1404.31
460.138	1444.31
460.358	1518.31
460.578	1527.31
460.798	1525.31
461.018	1571.31
461.238	1522.31
461.458	1517.31
461.678	1523.31
461.898	1531.31
462.118	1569.31
462.338	1645.31
462.558	1692.31
462.777	1765.31
462.997	1896.31
463.217	2043.31
463.437	2045.31
463.657	1900.31
463.876	1806.31
464.096	1804.31
464.316	1785.31
464.536	1809.31
464.755	1773.31
464.975	1699.31
465.195	1612.31
465.414	1507.31
465.634	1394.31
465.854	1366.31
466.073	1324.31
466.293	1264.31
466.512	1252.31
466.732	1253.31
466.951	1219.31
467.171	1244.31
467.391	1237.31
467.61	1207.31
467.829	1223.31
468.049	1200.31
468.268	1181.31
468.488	1192.31
468.707	1178.31
468.927	1205.31
469.146	1202.31
469.365	1204.31
469.585	1235.31
469.804	1225.31
470.023	1225.31
470.243	1252.31
470.462	1284.31
470.681	1270.31
470.901	1283.31
471.12	1251.31
471.339	1275.31
471.558	1230.31
471.777	1238.31
471.997	1213.31
472.216	1222.31
472.435	1193.31
472.654	1164.31
472.873	1162.31
473.092	1158.31
473.311	1140.31
473.53	1177.31
473.749	1154.31
473.968	1165.31
474.187	1145.31
474.406	1145.31
474.625	1117.31
474.844	1171.31
475.063	1138.31
475.282	1163.31
475.501	1162.31
475.72	1180.31
475.939	1169.31
476.158	1184.31
476.377	1197.31
476.596	1208.31
476.814	1232.31
477.033	1242.31
477.252	1227.31
477.471	1280.31
477.69	1364.31
477.908	1309.31
478.127	1345.31
478.346	1392.31
478.564	1456.31
478.783	1427.31
479.002	1464.31
479.22	1477.31
479.439	1462.31
479.658	1427.31
479.876	1449.31
480.095	1488.31
480.313	1572.31
480.532	1565.31
480.751	1603.31
480.969	1522.31
481.188	1443.31
481.406	1430.31
481.624	1392.31
481.843	1361.31
482.061	1326.31
482.28	1346.31
482.498	1314.31
482.717	1338.31
482.935	1336.31
483.153	1324.31
483.372	1345.31
483.59	1354.31
483.808	1345.31
484.027	1311.31
484.245	1336.31
484.463	1339.31
484.681	1379.31
484.9	1361.31
485.118	1361.31
485.336	1389.31
485.554	1387.31
485.772	1398.31
485.99	1364.31
486.209	1381.31
486.427	1395.31
486.645	1412.31
486.863	1389.31
487.081	1378.31
487.299	1383.31
487.517	1397.31
487.735	1406.31
487.953	1391.31
488.171	1381.31
488.389	1397.31
488.607	1352.31
488.825	1387.31
489.043	1352.31
489.261	1363.31
489.479	1392.31
489.696	1391.31
489.914	1381.31
490.132	1426.31
490.35	1428.31
490.568	1400.31
490.786	1403.31
491.003	1416.31
491.221	1402.31
491.439	1413.31
491.657	1394.31
491.874	1368.31
492.092	1401.31
492.31	1410.31
492.527	1415.31
492.745	1466.31
492.963	1429.31
493.18	1456.31
493.398	1436.31
493.615	1459.31
493.833	1465.31
