Data from NiCl2@0.125M.TitratingCurve.Agarose3%dH2O.NegLispCup.LampEnergy10.LIBS07252019_HRD10591_18-28-47-591.txt Node
Date: Thu Jul 25 18:28:47 EDT 2019
User: cochatt
Spectrometer: HR+D1059
Trigger mode: 1
Integration Time (sec): 1.000000E-1
Scans to average: 1
Electric dark correction enabled: true
Nonlinearity correction enabled: false
Boxcar width: 0
XAxis mode: Wavelengths
Number of Pixels in Spectrum: 2048
>>>>>Begin Spectral Data<<<<<
223.165	-23.44
223.4	-23.44
223.635	-23.44
223.869	-16.44
224.104	-17.44
224.338	-10.44
224.573	-14.44
224.808	-5.44
225.042	-5.44
225.277	-6.44
225.511	-12.44
225.746	11.56
225.98	-13.44
226.215	15.56
226.449	15.56
226.683	13.56
226.918	32.56
227.152	36.56
227.387	28.56
227.621	34.56
227.856	36.56
228.09	51.56
228.324	55.56
228.559	71.56
228.793	69.56
229.027	115.56
229.262	116.56
229.496	108.56
229.73	101.56
229.964	141.56
230.199	141.56
230.433	137.56
230.667	130.56
230.901	134.56
231.136	125.56
231.37	140.56
231.604	146.56
231.838	155.56
232.072	134.56
232.306	152.56
232.541	139.56
232.775	161.56
233.009	144.56
233.243	145.56
233.477	144.56
233.711	155.56
233.945	142.56
234.179	155.56
234.413	165.56
234.647	145.56
234.881	169.56
235.115	170.56
235.349	157.56
235.583	165.56
235.817	146.56
236.051	165.56
236.285	157.56
236.519	170.56
236.753	172.56
236.987	171.56
237.221	166.56
237.455	154.56
237.689	161.56
237.922	159.56
238.156	173.56
238.39	178.56
238.624	162.56
238.858	171.56
239.091	173.56
239.325	161.56
239.559	179.56
239.793	190.56
240.027	185.56
240.26	185.56
240.494	176.56
240.728	173.56
240.961	186.56
241.195	182.56
241.429	193.56
241.662	192.56
241.896	196.56
242.13	195.56
242.363	199.56
242.597	203.56
242.83	197.56
243.064	189.56
243.298	209.56
243.531	214.56
243.765	201.56
243.998	211.56
244.232	218.56
244.465	217.56
244.699	204.56
244.932	221.56
245.166	237.56
245.399	218.56
245.633	223.56
245.866	219.56
246.099	238.56
246.333	220.56
246.566	222.56
246.8	231.56
247.033	241.56
247.266	237.56
247.5	231.56
247.733	237.56
247.966	239.56
248.2	237.56
248.433	257.56
248.666	257.56
248.899	257.56
249.133	246.56
249.366	244.56
249.599	244.56
249.832	267.56
250.066	266.56
250.299	250.56
250.532	250.56
250.765	259.56
250.998	266.56
251.231	282.56
251.465	275.56
251.698	288.56
251.931	263.56
252.164	284.56
252.397	294.56
252.63	279.56
252.863	295.56
253.096	292.56
253.329	294.56
253.562	286.56
253.795	270.56
254.028	291.56
254.261	282.56
254.494	277.56
254.727	268.56
254.96	293.56
255.193	273.56
255.426	298.56
255.659	294.56
255.892	309.56
256.124	303.56
256.357	301.56
256.59	309.56
256.823	283.56
257.056	315.56
257.289	302.56
257.521	313.56
257.754	307.56
257.987	307.56
258.22	304.56
258.452	309.56
258.685	321.56
258.918	319.56
259.151	336.56
259.383	321.56
259.616	325.56
259.849	315.56
260.081	311.56
260.314	338.56
260.547	333.56
260.779	329.56
261.012	313.56
261.244	344.56
261.477	337.56
261.71	338.56
261.942	324.56
262.175	345.56
262.407	358.56
262.64	352.56
262.872	353.56
263.105	347.56
263.337	346.56
263.57	362.56
263.802	371.56
264.035	358.56
264.267	348.56
264.499	348.56
264.732	392.56
264.964	356.56
265.197	357.56
265.429	342.56
265.661	357.56
265.894	344.56
266.126	370.56
266.358	370.56
266.591	373.56
266.823	371.56
267.055	387.56
267.287	380.56
267.52	374.56
267.752	382.56
267.984	389.56
268.216	377.56
268.448	373.56
268.681	381.56
268.913	389.56
269.145	376.56
269.377	377.56
269.609	379.56
269.841	375.56
270.073	376.56
270.306	405.56
270.538	386.56
270.77	393.56
271.002	398.56
271.234	389.56
271.466	407.56
271.698	400.56
271.93	419.56
272.162	409.56
272.394	392.56
272.626	380.56
272.858	413.56
273.09	423.56
273.322	434.56
273.553	430.56
273.785	373.56
274.017	402.56
274.249	429.56
274.481	405.56
274.713	430.56
274.945	430.56
275.176	450.56
275.408	428.56
275.64	445.56
275.872	403.56
276.104	443.56
276.335	432.56
276.567	430.56
276.799	422.56
277.031	433.56
277.262	459.56
277.494	427.56
277.726	438.56
277.957	431.56
278.189	443.56
278.421	451.56
278.652	442.56
278.884	449.56
279.115	461.56
279.347	462.56
279.579	453.56
279.81	455.56
280.042	478.56
280.273	469.56
280.505	465.56
280.736	482.56
280.968	457.56
281.199	469.56
281.431	455.56
281.662	483.56
281.894	486.56
282.125	488.56
282.356	465.56
282.588	494.56
282.819	497.56
283.051	487.56
283.282	510.56
283.513	497.56
283.745	494.56
283.976	492.56
284.207	507.56
284.439	487.56
284.67	481.56
284.901	480.56
285.132	490.56
285.364	512.56
285.595	505.56
285.826	513.56
286.057	503.56
286.288	521.56
286.52	531.56
286.751	528.56
286.982	539.56
287.213	540.56
287.444	519.56
287.675	510.56
287.906	526.56
288.138	554.56
288.369	561.56
288.6	521.56
288.831	544.56
289.062	548.56
289.293	531.56
289.524	542.56
289.755	544.56
289.986	549.56
290.217	527.56
290.448	541.56
290.679	528.56
290.91	536.56
291.141	545.56
291.371	531.56
291.602	533.56
291.833	560.56
292.064	524.56
292.295	545.56
292.526	532.56
292.757	537.56
292.987	535.56
293.218	553.56
293.449	554.56
293.68	546.56
293.91	552.56
294.141	548.56
294.372	536.56
294.603	554.56
294.833	561.56
295.064	525.56
295.295	557.56
295.525	553.56
295.756	562.56
295.987	542.56
296.217	582.56
296.448	577.56
296.679	569.56
296.909	563.56
297.14	576.56
297.37	597.56
297.601	584.56
297.831	592.56
298.062	613.56
298.292	604.56
298.523	622.56
298.753	597.56
298.984	591.56
299.214	614.56
299.445	589.56
299.675	582.56
299.905	612.56
300.136	585.56
300.366	614.56
300.597	593.56
300.827	601.56
301.057	621.56
301.288	635.56
301.518	618.56
301.748	637.56
301.979	627.56
302.209	635.56
302.439	615.56
302.669	620.56
302.9	621.56
303.13	594.56
303.36	608.56
303.59	629.56
303.82	611.56
304.051	609.56
304.281	593.56
304.511	626.56
304.741	621.56
304.971	623.56
305.201	640.56
305.431	616.56
305.661	611.56
305.891	628.56
306.121	596.56
306.352	594.56
306.582	569.56
306.812	620.56
307.042	606.56
307.272	602.56
307.502	579.56
307.731	603.56
307.961	588.56
308.191	595.56
308.421	605.56
308.651	599.56
308.881	589.56
309.111	590.56
309.341	596.56
309.571	606.56
309.8	601.56
310.03	603.56
310.26	616.56
310.49	598.56
310.72	601.56
310.949	590.56
311.179	615.56
311.409	616.56
311.639	615.56
311.868	628.56
312.098	636.56
312.328	617.56
312.557	620.56
312.787	658.56
313.017	649.56
313.246	665.56
313.476	643.56
313.706	650.56
313.935	645.56
314.165	650.56
314.394	651.56
314.624	663.56
314.853	655.56
315.083	649.56
315.312	612.56
315.542	663.56
315.771	638.56
316.001	644.56
316.23	628.56
316.46	651.56
316.689	619.56
316.919	631.56
317.148	620.56
317.377	628.56
317.607	638.56
317.836	618.56
318.065	610.56
318.295	615.56
318.524	629.56
318.753	623.56
318.983	655.56
319.212	629.56
319.441	633.56
319.67	618.56
319.9	614.56
320.129	627.56
320.358	638.56
320.587	651.56
320.816	627.56
321.046	654.56
321.275	633.56
321.504	635.56
321.733	630.56
321.962	620.56
322.191	639.56
322.42	641.56
322.649	627.56
322.878	643.56
323.108	655.56
323.337	656.56
323.566	625.56
323.795	639.56
324.024	647.56
324.253	645.56
324.482	642.56
324.71	654.56
324.939	653.56
325.168	675.56
325.397	642.56
325.626	653.56
325.855	658.56
326.084	709.56
326.313	702.56
326.542	668.56
326.77	703.56
326.999	670.56
327.228	662.56
327.457	694.56
327.686	689.56
327.914	680.56
328.143	673.56
328.372	670.56
328.6	697.56
328.829	713.56
329.058	703.56
329.287	684.56
329.515	717.56
329.744	665.56
329.972	681.56
330.201	701.56
330.43	699.56
330.658	721.56
330.887	689.56
331.115	702.56
331.344	697.56
331.572	713.56
331.801	748.56
332.03	754.56
332.258	789.56
332.486	806.56
332.715	820.56
332.943	849.56
333.172	853.56
333.4	925.56
333.629	923.56
333.857	951.56
334.085	930.56
334.314	908.56
334.542	895.56
334.771	891.56
334.999	884.56
335.227	851.56
335.455	872.56
335.684	830.56
335.912	831.56
336.14	820.56
336.369	809.56
336.597	824.56
336.825	829.56
337.053	827.56
337.281	815.56
337.51	787.56
337.738	796.56
337.966	769.56
338.194	758.56
338.422	767.56
338.65	746.56
338.878	746.56
339.106	743.56
339.334	757.56
339.562	747.56
339.79	735.56
340.018	707.56
340.246	719.56
340.474	716.56
340.702	735.56
340.93	742.56
341.158	742.56
341.386	758.56
341.614	740.56
341.842	717.56
342.07	720.56
342.298	696.56
342.526	733.56
342.754	717.56
342.981	734.56
343.209	748.56
343.437	769.56
343.665	805.56
343.893	870.56
344.12	904.56
344.348	881.56
344.576	810.56
344.804	791.56
345.031	775.56
345.259	766.56
345.487	735.56
345.714	738.56
345.942	727.56
346.17	730.56
346.397	721.56
346.625	730.56
346.853	691.56
347.08	716.56
347.308	717.56
347.535	675.56
347.763	710.56
347.99	719.56
348.218	705.56
348.445	722.56
348.673	711.56
348.9	697.56
349.128	701.56
349.355	689.56
349.583	693.56
349.81	677.56
350.037	712.56
350.265	682.56
350.492	682.56
350.72	690.56
350.947	681.56
351.174	678.56
351.402	684.56
351.629	688.56
351.856	677.56
352.083	679.56
352.311	678.56
352.538	672.56
352.765	680.56
352.992	685.56
353.22	661.56
353.447	667.56
353.674	662.56
353.901	658.56
354.128	665.56
354.355	661.56
354.583	664.56
354.81	702.56
355.037	705.56
355.264	695.56
355.491	714.56
355.718	679.56
355.945	701.56
356.172	685.56
356.399	684.56
356.626	694.56
356.853	691.56
357.08	675.56
357.307	683.56
357.534	683.56
357.761	671.56
357.988	692.56
358.215	661.56
358.441	668.56
358.668	663.56
358.895	644.56
359.122	679.56
359.349	674.56
359.576	674.56
359.802	692.56
360.029	663.56
360.256	679.56
360.483	672.56
360.709	673.56
360.936	681.56
361.163	680.56
361.39	670.56
361.616	685.56
361.843	700.56
362.07	655.56
362.296	677.56
362.523	700.56
362.749	679.56
362.976	689.56
363.203	681.56
363.429	651.56
363.656	684.56
363.882	664.56
364.109	645.56
364.335	684.56
364.562	664.56
364.788	651.56
365.015	675.56
365.241	669.56
365.468	674.56
365.694	690.56
365.92	672.56
366.147	683.56
366.373	656.56
366.599	693.56
366.826	678.56
367.052	665.56
367.278	677.56
367.505	661.56
367.731	689.56
367.957	667.56
368.184	708.56
368.41	697.56
368.636	667.56
368.862	682.56
369.089	669.56
369.315	702.56
369.541	691.56
369.767	708.56
369.993	686.56
370.219	719.56
370.445	710.56
370.672	691.56
370.898	718.56
371.124	733.56
371.35	726.56
371.576	745.56
371.802	733.56
372.028	723.56
372.254	744.56
372.48	744.56
372.706	745.56
372.932	761.56
373.158	777.56
373.384	750.56
373.61	747.56
373.835	742.56
374.061	742.56
374.287	762.56
374.513	763.56
374.739	759.56
374.965	811.56
375.191	841.56
375.416	818.56
375.642	802.56
375.868	765.56
376.094	788.56
376.319	749.56
376.545	724.56
376.771	754.56
376.997	748.56
377.222	751.56
377.448	729.56
377.674	719.56
377.899	729.56
378.125	724.56
378.35	742.56
378.576	719.56
378.802	728.56
379.027	725.56
379.253	733.56
379.478	718.56
379.704	741.56
379.929	755.56
380.155	742.56
380.38	740.56
380.606	737.56
380.831	737.56
381.057	741.56
381.282	710.56
381.507	726.56
381.733	739.56
381.958	757.56
382.184	762.56
382.409	759.56
382.634	771.56
382.86	781.56
383.085	779.56
383.31	814.56
383.535	809.56
383.761	818.56
383.986	840.56
384.211	848.56
384.436	860.56
384.662	850.56
384.887	871.56
385.112	877.56
385.337	904.56
385.562	910.56
385.787	885.56
386.013	901.56
386.238	897.56
386.463	931.56
386.688	885.56
386.913	889.56
387.138	892.56
387.363	869.56
387.588	899.56
387.813	883.56
388.038	867.56
388.263	861.56
388.488	899.56
388.713	855.56
388.938	874.56
389.163	866.56
389.387	847.56
389.612	876.56
389.837	894.56
390.062	861.56
390.287	877.56
390.512	861.56
390.736	875.56
390.961	877.56
391.186	916.56
391.411	930.56
391.636	947.56
391.86	995.56
392.085	1021.56
392.31	1009.56
392.534	982.56
392.759	979.56
392.984	937.56
393.208	931.56
393.433	931.56
393.658	939.56
393.882	924.56
394.107	963.56
394.331	926.56
394.556	949.56
394.78	949.56
395.005	943.56
395.229	940.56
395.454	992.56
395.678	1015.56
395.903	1047.56
396.127	974.56
396.352	953.56
396.576	923.56
396.801	921.56
397.025	937.56
397.249	936.56
397.474	993.56
397.698	985.56
397.922	1014.56
398.147	996.56
398.371	1012.56
398.595	1033.56
398.82	1105.56
399.044	1171.56
399.268	1287.56
399.492	1494.56
399.717	1724.56
399.941	1694.56
400.165	1517.56
400.389	1386.56
400.613	1245.56
400.837	1204.56
401.062	1155.56
401.286	1105.56
401.51	1085.56
401.734	1103.56
401.958	1117.56
402.182	1120.56
402.406	1152.56
402.63	1163.56
402.854	1188.56
403.078	1195.56
403.302	1233.56
403.526	1258.56
403.75	1276.56
403.974	1279.56
404.198	1293.56
404.422	1334.56
404.645	1315.56
404.869	1255.56
405.093	1265.56
405.317	1241.56
405.541	1241.56
405.765	1240.56
405.988	1228.56
406.212	1207.56
406.436	1216.56
406.66	1261.56
406.883	1253.56
407.107	1360.56
407.331	1381.56
407.555	1466.56
407.778	1459.56
408.002	1398.56
408.226	1394.56
408.449	1349.56
408.673	1285.56
408.896	1246.56
409.12	1265.56
409.344	1249.56
409.567	1266.56
409.791	1253.56
410.014	1233.56
410.238	1235.56
410.461	1241.56
410.685	1230.56
410.908	1196.56
411.132	1201.56
411.355	1125.56
411.578	1141.56
411.802	1138.56
412.025	1177.56
412.249	1183.56
412.472	1175.56
412.695	1176.56
412.919	1119.56
413.142	1091.56
413.365	1088.56
413.589	1156.56
413.812	1111.56
414.035	1096.56
414.258	1104.56
414.482	1107.56
414.705	1124.56
414.928	1116.56
415.151	1152.56
415.374	1105.56
415.597	1082.56
415.821	1082.56
416.044	1070.56
416.267	1082.56
416.49	1078.56
416.713	1089.56
416.936	1113.56
417.159	1092.56
417.382	1091.56
417.605	1105.56
417.828	1093.56
418.051	1107.56
418.274	1121.56
418.497	1120.56
418.72	1130.56
418.943	1105.56
419.166	1220.56
419.389	1317.56
419.611	1278.56
419.834	1211.56
420.057	1155.56
420.28	1139.56
420.503	1118.56
420.726	1077.56
420.948	1081.56
421.171	1099.56
421.394	1089.56
421.617	1093.56
421.839	1102.56
422.062	1107.56
422.285	1121.56
422.507	1134.56
422.73	1142.56
422.953	1124.56
423.175	1145.56
423.398	1147.56
423.621	1160.56
423.843	1171.56
424.066	1187.56
424.288	1154.56
424.511	1185.56
424.733	1158.56
424.956	1118.56
425.178	1147.56
425.401	1137.56
425.623	1109.56
425.846	1069.56
426.068	1068.56
426.291	1062.56
426.513	1052.56
426.735	1006.56
426.958	1062.56
427.18	998.56
427.402	1028.56
427.625	978.56
427.847	989.56
428.069	1021.56
428.292	982.56
428.514	966.56
428.736	981.56
428.958	967.56
429.181	953.56
429.403	958.56
429.625	983.56
429.847	977.56
430.069	947.56
430.292	977.56
430.514	963.56
430.736	976.56
430.958	973.56
431.18	973.56
431.402	974.56
431.624	973.56
431.846	997.56
432.068	975.56
432.29	1007.56
432.512	967.56
432.734	1004.56
432.956	990.56
433.178	991.56
433.4	941.56
433.622	993.56
433.844	1038.56
434.066	1016.56
434.287	1017.56
434.509	1018.56
434.731	1125.56
434.953	1144.56
435.175	1123.56
435.397	1104.56
435.618	1036.56
435.84	1013.56
436.062	995.56
436.284	989.56
436.505	979.56
436.727	993.56
436.949	1012.56
437.17	1051.56
437.392	978.56
437.614	965.56
437.835	943.56
438.057	959.56
438.278	962.56
438.5	949.56
438.721	958.56
438.943	968.56
439.165	964.56
439.386	974.56
439.608	978.56
439.829	981.56
440.05	1012.56
440.272	1002.56
440.493	974.56
440.715	1029.56
440.936	1021.56
441.158	1050.56
441.379	1091.56
441.6	1099.56
441.822	1138.56
442.043	1145.56
442.264	1103.56
442.486	1078.56
442.707	1091.56
442.928	1089.56
443.149	1104.56
443.371	1102.56
443.592	1107.56
443.813	1121.56
444.034	1140.56
444.255	1177.56
444.476	1234.56
444.698	1276.56
444.919	1367.56
445.14	1450.56
445.361	1313.56
445.582	1185.56
445.803	1143.56
446.024	1061.56
446.245	1041.56
446.466	1031.56
446.687	1001.56
446.908	991.56
447.129	995.56
447.35	972.56
447.571	971.56
447.792	937.56
448.013	967.56
448.234	941.56
448.455	950.56
448.675	912.56
448.896	905.56
449.117	926.56
449.338	925.56
449.559	917.56
449.779	917.56
450	899.56
450.221	935.56
450.442	902.56
450.662	921.56
450.883	894.56
451.104	992.56
451.324	953.56
451.545	931.56
451.766	935.56
451.986	933.56
452.207	894.56
452.428	918.56
452.648	922.56
452.869	898.56
453.089	906.56
453.31	901.56
453.53	858.56
453.751	891.56
453.971	895.56
454.192	882.56
454.412	876.56
454.633	873.56
454.853	874.56
455.073	856.56
455.294	859.56
455.514	855.56
455.734	894.56
455.955	856.56
456.175	842.56
456.395	858.56
456.616	851.56
456.836	855.56
457.056	875.56
457.276	877.56
457.497	823.56
457.717	840.56
457.937	866.56
458.157	870.56
458.377	884.56
458.598	924.56
458.818	944.56
459.038	952.56
459.258	987.56
459.478	990.56
459.698	1044.56
459.918	1054.56
460.138	1086.56
460.358	1168.56
460.578	1190.56
460.798	1184.56
461.018	1189.56
461.238	1180.56
461.458	1170.56
461.678	1174.56
461.898	1193.56
462.118	1190.56
462.338	1267.56
462.558	1293.56
462.777	1335.56
462.997	1431.56
463.217	1603.56
463.437	1601.56
463.657	1498.56
463.876	1401.56
464.096	1426.56
464.316	1419.56
464.536	1411.56
464.755	1370.56
464.975	1307.56
465.195	1241.56
465.414	1177.56
465.634	1090.56
465.854	1065.56
466.073	1030.56
466.293	1011.56
466.512	985.56
466.732	957.56
466.951	981.56
467.171	958.56
467.391	949.56
467.61	957.56
467.829	971.56
468.049	930.56
468.268	906.56
468.488	918.56
468.707	922.56
468.927	924.56
469.146	919.56
469.365	949.56
469.585	930.56
469.804	949.56
470.023	965.56
470.243	963.56
470.462	1005.56
470.681	970.56
470.901	1030.56
471.12	1007.56
471.339	960.56
471.558	943.56
471.777	949.56
471.997	935.56
472.216	922.56
472.435	916.56
472.654	901.56
472.873	910.56
473.092	887.56
473.311	891.56
473.53	930.56
473.749	869.56
473.968	896.56
474.187	883.56
474.406	864.56
474.625	873.56
474.844	877.56
475.063	886.56
475.282	887.56
475.501	892.56
475.72	921.56
475.939	911.56
476.158	927.56
476.377	946.56
476.596	925.56
476.814	942.56
477.033	961.56
477.252	979.56
477.471	1011.56
477.69	1019.56
477.908	1028.56
478.127	1058.56
478.346	1080.56
478.564	1059.56
478.783	1121.56
479.002	1128.56
479.22	1122.56
479.439	1134.56
479.658	1105.56
479.876	1107.56
480.095	1144.56
480.313	1189.56
480.532	1211.56
480.751	1222.56
480.969	1169.56
481.188	1092.56
481.406	1079.56
481.624	1028.56
481.843	1047.56
482.061	1052.56
482.28	991.56
482.498	1001.56
482.717	1015.56
482.935	1033.56
483.153	1000.56
483.372	1015.56
483.59	1022.56
483.808	1007.56
484.027	1012.56
484.245	1005.56
484.463	1037.56
484.681	1032.56
484.9	1080.56
485.118	1065.56
485.336	1078.56
485.554	1068.56
485.772	1089.56
485.99	1083.56
486.209	1086.56
486.427	1118.56
486.645	1099.56
486.863	1099.56
487.081	1096.56
487.299	1075.56
487.517	1078.56
487.735	1103.56
487.953	1097.56
488.171	1078.56
488.389	1091.56
488.607	1068.56
488.825	1080.56
489.043	1038.56
489.261	1029.56
489.479	1042.56
489.696	1063.56
489.914	1078.56
490.132	1079.56
490.35	1057.56
490.568	1085.56
490.786	1071.56
491.003	1102.56
491.221	1099.56
491.439	1058.56
491.657	1066.56
491.874	1107.56
492.092	1073.56
492.31	1106.56
492.527	1097.56
492.745	1110.56
492.963	1099.56
493.18	1103.56
493.398	1116.56
493.615	1144.56
493.833	1100.56
494.05	1124.56
494.268	1142.56
494.485	1158.56
494.703	1147.56
494.92	1132.56
495.138	1153.56
495.355	1161.56
495.573	1132.56
495.79	1130.56
496.008	1154.56
496.225	1186.56
496.442	1178.56
496.66	1210.56
496.877	1177.56
497.094	1221.56
497.312	1246.56
