Data from NiCl2@0.125M.TitratingCurve.Agarose3%dH2O.NegLispCup.LampEnergy10.LIBS07252019_HRD10591_18-28-22-601.txt Node
Date: Thu Jul 25 18:28:22 EDT 2019
User: cochatt
Spectrometer: HR+D1059
Trigger mode: 1
Integration Time (sec): 1.000000E-1
Scans to average: 1
Electric dark correction enabled: true
Nonlinearity correction enabled: false
Boxcar width: 0
XAxis mode: Wavelengths
Number of Pixels in Spectrum: 2048
>>>>>Begin Spectral Data<<<<<
223.165	-13.69
223.4	-13.69
223.635	-13.69
223.869	-36.69
224.104	-20.69
224.338	-3.69
224.573	-2.69
224.808	0.31
225.042	-1.69
225.277	-10.69
225.511	12.31
225.746	-9.69
225.98	3.31
226.215	8.31
226.449	17.31
226.683	18.31
226.918	25.31
227.152	14.31
227.387	33.31
227.621	31.31
227.856	29.31
228.09	50.31
228.324	40.31
228.559	38.31
228.793	57.31
229.027	114.31
229.262	118.31
229.496	125.31
229.73	123.31
229.964	139.31
230.199	122.31
230.433	123.31
230.667	140.31
230.901	140.31
231.136	132.31
231.37	134.31
231.604	160.31
231.838	146.31
232.072	154.31
232.306	144.31
232.541	158.31
232.775	155.31
233.009	172.31
233.243	159.31
233.477	158.31
233.711	158.31
233.945	147.31
234.179	161.31
234.413	164.31
234.647	172.31
234.881	158.31
235.115	189.31
235.349	161.31
235.583	174.31
235.817	183.31
236.051	169.31
236.285	182.31
236.519	157.31
236.753	182.31
236.987	171.31
237.221	159.31
237.455	185.31
237.689	185.31
237.922	179.31
238.156	198.31
238.39	190.31
238.624	183.31
238.858	175.31
239.091	175.31
239.325	181.31
239.559	212.31
239.793	202.31
240.027	188.31
240.26	204.31
240.494	195.31
240.728	217.31
240.961	211.31
241.195	208.31
241.429	222.31
241.662	216.31
241.896	226.31
242.13	220.31
242.363	216.31
242.597	230.31
242.83	227.31
243.064	210.31
243.298	227.31
243.531	223.31
243.765	221.31
243.998	242.31
244.232	246.31
244.465	238.31
244.699	254.31
244.932	253.31
245.166	255.31
245.399	238.31
245.633	254.31
245.866	273.31
246.099	245.31
246.333	245.31
246.566	257.31
246.8	251.31
247.033	259.31
247.266	250.31
247.5	255.31
247.733	266.31
247.966	272.31
248.2	267.31
248.433	279.31
248.666	292.31
248.899	270.31
249.133	280.31
249.366	297.31
249.599	301.31
249.832	285.31
250.066	291.31
250.299	282.31
250.532	287.31
250.765	292.31
250.998	302.31
251.231	299.31
251.465	310.31
251.698	287.31
251.931	314.31
252.164	311.31
252.397	310.31
252.63	318.31
252.863	330.31
253.096	317.31
253.329	323.31
253.562	303.31
253.795	327.31
254.028	303.31
254.261	319.31
254.494	307.31
254.727	335.31
254.96	319.31
255.193	324.31
255.426	349.31
255.659	350.31
255.892	318.31
256.124	337.31
256.357	334.31
256.59	350.31
256.823	332.31
257.056	339.31
257.289	365.31
257.521	350.31
257.754	364.31
257.987	355.31
258.22	354.31
258.452	353.31
258.685	351.31
258.918	371.31
259.151	342.31
259.383	354.31
259.616	352.31
259.849	364.31
260.081	370.31
260.314	369.31
260.547	373.31
260.779	365.31
261.012	374.31
261.244	396.31
261.477	387.31
261.71	382.31
261.942	392.31
262.175	391.31
262.407	378.31
262.64	391.31
262.872	385.31
263.105	390.31
263.337	408.31
263.57	421.31
263.802	372.31
264.035	412.31
264.267	427.31
264.499	418.31
264.732	407.31
264.964	422.31
265.197	419.31
265.429	401.31
265.661	422.31
265.894	411.31
266.126	421.31
266.358	427.31
266.591	423.31
266.823	415.31
267.055	421.31
267.287	431.31
267.52	421.31
267.752	427.31
267.984	455.31
268.216	447.31
268.448	446.31
268.681	462.31
268.913	457.31
269.145	453.31
269.377	448.31
269.609	443.31
269.841	443.31
270.073	443.31
270.306	451.31
270.538	456.31
270.77	443.31
271.002	462.31
271.234	470.31
271.466	451.31
271.698	424.31
271.93	477.31
272.162	471.31
272.394	481.31
272.626	491.31
272.858	456.31
273.09	471.31
273.322	498.31
273.553	465.31
273.785	465.31
274.017	475.31
274.249	474.31
274.481	484.31
274.713	484.31
274.945	479.31
275.176	494.31
275.408	495.31
275.64	497.31
275.872	485.31
276.104	505.31
276.335	495.31
276.567	529.31
276.799	509.31
277.031	494.31
277.262	493.31
277.494	483.31
277.726	500.31
277.957	499.31
278.189	480.31
278.421	512.31
278.652	512.31
278.884	511.31
279.115	542.31
279.347	517.31
279.579	523.31
279.81	552.31
280.042	536.31
280.273	549.31
280.505	521.31
280.736	543.31
280.968	548.31
281.199	564.31
281.431	554.31
281.662	543.31
281.894	544.31
282.125	524.31
282.356	566.31
282.588	570.31
282.819	578.31
283.051	571.31
283.282	550.31
283.513	580.31
283.745	574.31
283.976	565.31
284.207	574.31
284.439	577.31
284.67	556.31
284.901	593.31
285.132	573.31
285.364	600.31
285.595	584.31
285.826	585.31
286.057	594.31
286.288	588.31
286.52	596.31
286.751	585.31
286.982	620.31
287.213	613.31
287.444	594.31
287.675	625.31
287.906	618.31
288.138	631.31
288.369	608.31
288.6	614.31
288.831	616.31
289.062	623.31
289.293	630.31
289.524	600.31
289.755	603.31
289.986	622.31
290.217	617.31
290.448	623.31
290.679	622.31
290.91	629.31
291.141	624.31
291.371	637.31
291.602	642.31
291.833	623.31
292.064	646.31
292.295	648.31
292.526	624.31
292.757	651.31
292.987	667.31
293.218	636.31
293.449	638.31
293.68	615.31
293.91	631.31
294.141	666.31
294.372	638.31
294.603	656.31
294.833	637.31
295.064	643.31
295.295	647.31
295.525	651.31
295.756	659.31
295.987	635.31
296.217	663.31
296.448	649.31
296.679	661.31
296.909	640.31
297.14	647.31
297.37	672.31
297.601	682.31
297.831	666.31
298.062	700.31
298.292	715.31
298.523	709.31
298.753	709.31
298.984	697.31
299.214	663.31
299.445	674.31
299.675	684.31
299.905	706.31
300.136	682.31
300.366	683.31
300.597	706.31
300.827	725.31
301.057	694.31
301.288	721.31
301.518	720.31
301.748	741.31
301.979	735.31
302.209	709.31
302.439	738.31
302.669	702.31
302.9	709.31
303.13	690.31
303.36	700.31
303.59	698.31
303.82	711.31
304.051	737.31
304.281	741.31
304.511	706.31
304.741	700.31
304.971	723.31
305.201	703.31
305.431	731.31
305.661	728.31
305.891	694.31
306.121	706.31
306.352	671.31
306.582	685.31
306.812	682.31
307.042	701.31
307.272	707.31
307.502	710.31
307.731	690.31
307.961	704.31
308.191	682.31
308.421	708.31
308.651	684.31
308.881	687.31
309.111	721.31
309.341	686.31
309.571	693.31
309.8	692.31
310.03	701.31
310.26	717.31
310.49	716.31
310.72	694.31
310.949	687.31
311.179	707.31
311.409	723.31
311.639	711.31
311.868	710.31
312.098	710.31
312.328	700.31
312.557	735.31
312.787	708.31
313.017	729.31
313.246	727.31
313.476	731.31
313.706	769.31
313.935	772.31
314.165	758.31
314.394	767.31
314.624	743.31
314.853	726.31
315.083	756.31
315.312	773.31
315.542	743.31
315.771	760.31
316.001	725.31
316.23	719.31
316.46	740.31
316.689	716.31
316.919	750.31
317.148	751.31
317.377	739.31
317.607	726.31
317.836	748.31
318.065	724.31
318.295	744.31
318.524	759.31
318.753	739.31
318.983	761.31
319.212	727.31
319.441	741.31
319.67	724.31
319.9	740.31
320.129	728.31
320.358	746.31
320.587	739.31
320.816	764.31
321.046	744.31
321.275	724.31
321.504	743.31
321.733	721.31
321.962	770.31
322.191	770.31
322.42	739.31
322.649	746.31
322.878	742.31
323.108	731.31
323.337	772.31
323.566	740.31
323.795	768.31
324.024	746.31
324.253	740.31
324.482	770.31
324.71	783.31
324.939	748.31
325.168	762.31
325.397	771.31
325.626	764.31
325.855	780.31
326.084	810.31
326.313	814.31
326.542	803.31
326.77	846.31
326.999	815.31
327.228	769.31
327.457	801.31
327.686	799.31
327.914	785.31
328.143	795.31
328.372	782.31
328.6	800.31
328.829	800.31
329.058	800.31
329.287	804.31
329.515	790.31
329.744	820.31
329.972	820.31
330.201	816.31
330.43	835.31
330.658	840.31
330.887	835.31
331.115	826.31
331.344	849.31
331.572	838.31
331.801	862.31
332.03	895.31
332.258	893.31
332.486	938.31
332.715	959.31
332.943	979.31
333.172	1046.31
333.4	1096.31
333.629	1110.31
333.857	1144.31
334.085	1095.31
334.314	1101.31
334.542	1050.31
334.771	1043.31
334.999	1003.31
335.227	997.31
335.455	999.31
335.684	1011.31
335.912	999.31
336.14	995.31
336.369	965.31
336.597	981.31
336.825	981.31
337.053	947.31
337.281	967.31
337.51	945.31
337.738	933.31
337.966	922.31
338.194	852.31
338.422	916.31
338.65	872.31
338.878	885.31
339.106	874.31
339.334	884.31
339.562	847.31
339.79	853.31
340.018	840.31
340.246	848.31
340.474	856.31
340.702	847.31
340.93	864.31
341.158	843.31
341.386	839.31
341.614	832.31
341.842	832.31
342.07	870.31
342.298	841.31
342.526	838.31
342.754	828.31
342.981	851.31
343.209	843.31
343.437	917.31
343.665	938.31
343.893	1027.31
344.12	1068.31
344.348	1012.31
344.576	942.31
344.804	902.31
345.031	881.31
345.259	872.31
345.487	876.31
345.714	860.31
345.942	834.31
346.17	800.31
346.397	810.31
346.625	835.31
346.853	790.31
347.08	803.31
347.308	806.31
347.535	830.31
347.763	849.31
347.99	812.31
348.218	831.31
348.445	792.31
348.673	799.31
348.9	819.31
349.128	805.31
349.355	832.31
349.583	827.31
349.81	806.31
350.037	812.31
350.265	800.31
350.492	773.31
350.72	762.31
350.947	811.31
351.174	786.31
351.402	777.31
351.629	768.31
351.856	815.31
352.083	806.31
352.311	796.31
352.538	768.31
352.765	765.31
352.992	787.31
353.22	778.31
353.447	806.31
353.674	796.31
353.901	770.31
354.128	766.31
354.355	774.31
354.583	780.31
354.81	778.31
355.037	793.31
355.264	801.31
355.491	789.31
355.718	782.31
355.945	798.31
356.172	800.31
356.399	813.31
356.626	807.31
356.853	797.31
357.08	812.31
357.307	770.31
357.534	779.31
357.761	755.31
357.988	830.31
358.215	796.31
358.441	767.31
358.668	794.31
358.895	784.31
359.122	782.31
359.349	779.31
359.576	787.31
359.802	810.31
360.029	760.31
360.256	791.31
360.483	748.31
360.709	792.31
360.936	810.31
361.163	782.31
361.39	798.31
361.616	787.31
361.843	789.31
362.07	786.31
362.296	798.31
362.523	792.31
362.749	788.31
362.976	764.31
363.203	765.31
363.429	768.31
363.656	800.31
363.882	790.31
364.109	776.31
364.335	786.31
364.562	766.31
364.788	767.31
365.015	782.31
365.241	779.31
365.468	776.31
365.694	792.31
365.92	778.31
366.147	772.31
366.373	796.31
366.599	782.31
366.826	774.31
367.052	770.31
367.278	797.31
367.505	772.31
367.731	795.31
367.957	799.31
368.184	789.31
368.41	798.31
368.636	773.31
368.862	798.31
369.089	791.31
369.315	807.31
369.541	807.31
369.767	808.31
369.993	819.31
370.219	799.31
370.445	818.31
370.672	836.31
370.898	839.31
371.124	838.31
371.35	859.31
371.576	865.31
371.802	854.31
372.028	859.31
372.254	843.31
372.48	844.31
372.706	878.31
372.932	894.31
373.158	884.31
373.384	862.31
373.61	855.31
373.835	885.31
374.061	837.31
374.287	871.31
374.513	873.31
374.739	908.31
374.965	936.31
375.191	983.31
375.416	965.31
375.642	918.31
375.868	888.31
376.094	901.31
376.319	860.31
376.545	849.31
376.771	833.31
376.997	862.31
377.222	863.31
377.448	863.31
377.674	853.31
377.899	823.31
378.125	810.31
378.35	830.31
378.576	851.31
378.802	808.31
379.027	840.31
379.253	838.31
379.478	837.31
379.704	844.31
379.929	835.31
380.155	828.31
380.38	846.31
380.606	857.31
380.831	854.31
381.057	844.31
381.282	848.31
381.507	851.31
381.733	858.31
381.958	867.31
382.184	869.31
382.409	861.31
382.634	886.31
382.86	874.31
383.085	902.31
383.31	941.31
383.535	922.31
383.761	917.31
383.986	970.31
384.211	997.31
384.436	1017.31
384.662	1022.31
384.887	1008.31
385.112	1036.31
385.337	1046.31
385.562	1045.31
385.787	1041.31
386.013	1082.31
386.238	1074.31
386.463	1034.31
386.688	1054.31
386.913	1022.31
387.138	1014.31
387.363	1053.31
387.588	1001.31
387.813	994.31
388.038	1009.31
388.263	1027.31
388.488	1024.31
388.713	1010.31
388.938	998.31
389.163	1024.31
389.387	1031.31
389.612	990.31
389.837	996.31
390.062	983.31
390.287	1008.31
390.512	1036.31
390.736	988.31
390.961	1038.31
391.186	1050.31
391.411	1104.31
391.636	1080.31
391.86	1142.31
392.085	1194.31
392.31	1176.31
392.534	1123.31
392.759	1118.31
392.984	1107.31
393.208	1102.31
393.433	1092.31
393.658	1107.31
393.882	1097.31
394.107	1093.31
394.331	1089.31
394.556	1099.31
394.78	1124.31
395.005	1118.31
395.229	1089.31
395.454	1135.31
395.678	1142.31
395.903	1168.31
396.127	1153.31
396.352	1126.31
396.576	1100.31
396.801	1080.31
397.025	1103.31
397.249	1139.31
397.474	1134.31
397.698	1130.31
397.922	1164.31
398.147	1150.31
398.371	1160.31
398.595	1183.31
398.82	1258.31
399.044	1360.31
399.268	1495.31
399.492	1776.31
399.717	2041.31
399.941	2084.31
400.165	1778.31
400.389	1602.31
400.613	1438.31
400.837	1375.31
401.062	1292.31
401.286	1304.31
401.51	1306.31
401.734	1301.31
401.958	1312.31
402.182	1342.31
402.406	1334.31
402.63	1356.31
402.854	1395.31
403.078	1396.31
403.302	1434.31
403.526	1496.31
403.75	1526.31
403.974	1565.31
404.198	1492.31
404.422	1555.31
404.645	1536.31
404.869	1494.31
405.093	1510.31
405.317	1454.31
405.541	1442.31
405.765	1442.31
405.988	1415.31
406.212	1438.31
406.436	1430.31
406.66	1472.31
406.883	1485.31
407.107	1536.31
407.331	1660.31
407.555	1746.31
407.778	1693.31
408.002	1680.31
408.226	1595.31
408.449	1574.31
408.673	1526.31
408.896	1491.31
409.12	1475.31
409.344	1477.31
409.567	1474.31
409.791	1511.31
410.014	1477.31
410.238	1493.31
410.461	1483.31
410.685	1469.31
410.908	1427.31
411.132	1402.31
411.355	1359.31
411.578	1328.31
411.802	1357.31
412.025	1375.31
412.249	1391.31
412.472	1362.31
412.695	1335.31
412.919	1264.31
413.142	1289.31
413.365	1314.31
413.589	1330.31
413.812	1287.31
414.035	1243.31
414.258	1282.31
414.482	1310.31
414.705	1311.31
414.928	1343.31
415.151	1300.31
415.374	1291.31
415.597	1273.31
415.821	1263.31
416.044	1254.31
416.267	1278.31
416.49	1246.31
416.713	1259.31
416.936	1282.31
417.159	1244.31
417.382	1256.31
417.605	1261.31
417.828	1267.31
418.051	1315.31
418.274	1270.31
418.497	1281.31
418.72	1349.31
418.943	1318.31
419.166	1424.31
419.389	1486.31
419.611	1485.31
419.834	1393.31
420.057	1365.31
420.28	1298.31
420.503	1284.31
420.726	1306.31
420.948	1276.31
421.171	1238.31
421.394	1300.31
421.617	1282.31
421.839	1307.31
422.062	1309.31
422.285	1284.31
422.507	1298.31
422.73	1328.31
422.953	1334.31
423.175	1343.31
423.398	1387.31
423.621	1399.31
423.843	1397.31
424.066	1402.31
424.288	1386.31
424.511	1391.31
424.733	1366.31
424.956	1326.31
425.178	1329.31
425.401	1292.31
425.623	1316.31
425.846	1259.31
426.068	1233.31
426.291	1258.31
426.513	1250.31
426.735	1211.31
426.958	1213.31
427.18	1172.31
427.402	1184.31
427.625	1158.31
427.847	1125.31
428.069	1166.31
428.292	1184.31
428.514	1125.31
428.736	1142.31
428.958	1152.31
429.181	1125.31
429.403	1090.31
429.625	1124.31
429.847	1132.31
430.069	1114.31
430.292	1125.31
430.514	1070.31
430.736	1112.31
430.958	1126.31
431.18	1112.31
431.402	1130.31
431.624	1100.31
431.846	1139.31
432.068	1140.31
432.29	1168.31
432.512	1142.31
432.734	1158.31
432.956	1115.31
433.178	1150.31
433.4	1139.31
433.622	1154.31
433.844	1126.31
434.066	1157.31
434.287	1185.31
434.509	1204.31
434.731	1217.31
434.953	1298.31
435.175	1294.31
435.397	1307.31
435.618	1230.31
435.84	1180.31
436.062	1150.31
436.284	1158.31
436.505	1148.31
436.727	1166.31
436.949	1126.31
437.17	1138.31
437.392	1101.31
437.614	1113.31
437.835	1114.31
438.057	1134.31
438.278	1112.31
438.5	1141.31
438.721	1092.31
438.943	1111.31
439.165	1134.31
439.386	1128.31
439.608	1150.31
439.829	1140.31
440.05	1153.31
440.272	1167.31
440.493	1177.31
440.715	1147.31
440.936	1171.31
441.158	1203.31
441.379	1221.31
441.6	1302.31
441.822	1317.31
442.043	1351.31
442.264	1293.31
442.486	1273.31
442.707	1254.31
442.928	1298.31
443.149	1286.31
443.371	1263.31
443.592	1267.31
443.813	1296.31
444.034	1302.31
444.255	1352.31
444.476	1420.31
444.698	1488.31
444.919	1573.31
445.14	1674.31
445.361	1471.31
445.582	1350.31
445.803	1262.31
446.024	1195.31
446.245	1223.31
446.466	1210.31
446.687	1170.31
446.908	1168.31
447.129	1151.31
447.35	1119.31
447.571	1122.31
447.792	1101.31
448.013	1102.31
448.234	1075.31
448.455	1046.31
448.675	1068.31
448.896	1053.31
449.117	1047.31
449.338	1051.31
449.559	1055.31
449.779	1045.31
450	1016.31
450.221	1047.31
450.442	1054.31
450.662	1058.31
450.883	1031.31
451.104	1089.31
451.324	1084.31
451.545	1052.31
451.766	1074.31
451.986	1080.31
452.207	1059.31
452.428	1049.31
452.648	1057.31
452.869	1033.31
453.089	1020.31
453.31	1016.31
453.53	1015.31
453.751	1058.31
453.971	1006.31
454.192	1022.31
454.412	998.31
454.633	1001.31
454.853	974.31
455.073	971.31
455.294	978.31
455.514	965.31
455.734	991.31
455.955	961.31
456.175	935.31
456.395	979.31
456.616	1001.31
456.836	962.31
457.056	969.31
457.276	946.31
457.497	955.31
457.717	972.31
457.937	967.31
458.157	1003.31
458.377	1014.31
458.598	1026.31
458.818	1053.31
459.038	1084.31
459.258	1100.31
459.478	1146.31
459.698	1180.31
459.918	1207.31
460.138	1246.31
460.358	1351.31
460.578	1386.31
460.798	1376.31
461.018	1392.31
461.238	1389.31
461.458	1374.31
461.678	1354.31
461.898	1382.31
462.118	1371.31
462.338	1486.31
462.558	1504.31
462.777	1552.31
462.997	1708.31
463.217	1872.31
463.437	1909.31
463.657	1714.31
463.876	1612.31
464.096	1595.31
464.316	1607.31
464.536	1620.31
464.755	1566.31
464.975	1502.31
465.195	1399.31
465.414	1314.31
465.634	1250.31
465.854	1216.31
466.073	1167.31
466.293	1150.31
466.512	1118.31
466.732	1105.31
466.951	1098.31
467.171	1110.31
467.391	1121.31
467.61	1088.31
467.829	1071.31
468.049	1079.31
468.268	1052.31
468.488	1051.31
468.707	1041.31
468.927	1054.31
469.146	1039.31
469.365	1069.31
469.585	1073.31
469.804	1106.31
470.023	1119.31
470.243	1140.31
470.462	1134.31
470.681	1154.31
470.901	1140.31
471.12	1140.31
471.339	1113.31
471.558	1049.31
471.777	1072.31
471.997	1042.31
472.216	1067.31
472.435	1034.31
472.654	1020.31
472.873	1013.31
473.092	1014.31
473.311	1012.31
473.53	1006.31
473.749	1010.31
473.968	1020.31
474.187	1009.31
474.406	1008.31
474.625	985.31
474.844	999.31
475.063	1003.31
475.282	1014.31
475.501	1012.31
475.72	1023.31
475.939	1041.31
476.158	1035.31
476.377	1068.31
476.596	1059.31
476.814	1074.31
477.033	1093.31
477.252	1106.31
477.471	1096.31
477.69	1160.31
477.908	1160.31
478.127	1212.31
478.346	1253.31
478.564	1263.31
478.783	1252.31
479.002	1305.31
479.22	1306.31
479.439	1295.31
479.658	1274.31
479.876	1267.31
480.095	1302.31
480.313	1320.31
480.532	1393.31
480.751	1416.31
480.969	1340.31
481.188	1262.31
481.406	1228.31
481.624	1196.31
481.843	1204.31
482.061	1165.31
482.28	1168.31
482.498	1167.31
482.717	1189.31
482.935	1170.31
483.153	1167.31
483.372	1156.31
483.59	1145.31
483.808	1164.31
484.027	1125.31
484.245	1144.31
484.463	1175.31
484.681	1179.31
484.9	1194.31
485.118	1204.31
485.336	1201.31
485.554	1204.31
485.772	1230.31
485.99	1258.31
486.209	1235.31
486.427	1272.31
486.645	1228.31
486.863	1240.31
487.081	1242.31
487.299	1234.31
487.517	1235.31
487.735	1198.31
487.953	1215.31
488.171	1209.31
488.389	1219.31
488.607	1191.31
488.825	1203.31
489.043	1180.31
489.261	1194.31
489.479	1222.31
489.696	1193.31
489.914	1199.31
490.132	1203.31
490.35	1200.31
490.568	1200.31
490.786	1207.31
491.003	1216.31
491.221	1245.31
491.439	1223.31
491.657	1207.31
491.874	1214.31
492.092	1219.31
492.31	1216.31
492.527	1240.31
492.745	1250.31
492.963	1261.31
493.18	1245.31
493.398	1290.31
493.615	1280.31
493.833	1307.31
494.05	1292.31
494.268	1277.31
494.485	1299.31
494.703	1296.31
494.92	1303.31
