Data from NiCl2@0.125M.TitratingCurve.Agarose3%dH2O.NegLispCup.LampEnergy10.LIBS07252019_HRD10591_18-30-04-575.txt Node
Date: Thu Jul 25 18:30:04 EDT 2019
User: cochatt
Spectrometer: HR+D1059
Trigger mode: 1
Integration Time (sec): 1.000000E-1
Scans to average: 1
Electric dark correction enabled: true
Nonlinearity correction enabled: false
Boxcar width: 0
XAxis mode: Wavelengths
Number of Pixels in Spectrum: 2048
>>>>>Begin Spectral Data<<<<<
223.165	-22.81
223.4	-22.81
223.635	-22.81
223.869	-9.81
224.104	-16.81
224.338	-0.81
224.573	-15.81
224.808	-18.81
225.042	-10.81
225.277	-3.81
225.511	-3.81
225.746	0.19
225.98	9.19
226.215	13.19
226.449	13.19
226.683	21.19
226.918	12.19
227.152	34.19
227.387	33.19
227.621	46.19
227.856	45.19
228.09	40.19
228.324	47.19
228.559	69.19
228.793	73.19
229.027	108.19
229.262	129.19
229.496	114.19
229.73	141.19
229.964	134.19
230.199	135.19
230.433	130.19
230.667	143.19
230.901	161.19
231.136	143.19
231.37	151.19
231.604	157.19
231.838	146.19
232.072	152.19
232.306	162.19
232.541	146.19
232.775	160.19
233.009	153.19
233.243	156.19
233.477	154.19
233.711	154.19
233.945	171.19
234.179	166.19
234.413	149.19
234.647	156.19
234.881	166.19
235.115	169.19
235.349	151.19
235.583	168.19
235.817	157.19
236.051	156.19
236.285	168.19
236.519	159.19
236.753	166.19
236.987	169.19
237.221	161.19
237.455	165.19
237.689	184.19
237.922	183.19
238.156	183.19
238.39	182.19
238.624	180.19
238.858	171.19
239.091	174.19
239.325	172.19
239.559	183.19
239.793	208.19
240.027	188.19
240.26	201.19
240.494	196.19
240.728	192.19
240.961	189.19
241.195	178.19
241.429	194.19
241.662	197.19
241.896	208.19
242.13	222.19
242.363	201.19
242.597	210.19
242.83	200.19
243.064	214.19
243.298	208.19
243.531	203.19
243.765	212.19
243.998	212.19
244.232	211.19
244.465	218.19
244.699	224.19
244.932	229.19
245.166	231.19
245.399	240.19
245.633	256.19
245.866	254.19
246.099	226.19
246.333	235.19
246.566	246.19
246.8	255.19
247.033	260.19
247.266	243.19
247.5	258.19
247.733	256.19
247.966	250.19
248.2	261.19
248.433	269.19
248.666	276.19
248.899	270.19
249.133	259.19
249.366	265.19
249.599	255.19
249.832	285.19
250.066	272.19
250.299	276.19
250.532	269.19
250.765	286.19
250.998	286.19
251.231	293.19
251.465	291.19
251.698	292.19
251.931	310.19
252.164	276.19
252.397	292.19
252.63	293.19
252.863	297.19
253.096	315.19
253.329	290.19
253.562	315.19
253.795	291.19
254.028	305.19
254.261	296.19
254.494	304.19
254.727	326.19
254.96	324.19
255.193	289.19
255.426	322.19
255.659	315.19
255.892	324.19
256.124	332.19
256.357	311.19
256.59	321.19
256.823	314.19
257.056	320.19
257.289	318.19
257.521	321.19
257.754	320.19
257.987	332.19
258.22	346.19
258.452	334.19
258.685	334.19
258.918	336.19
259.151	325.19
259.383	329.19
259.616	336.19
259.849	342.19
260.081	334.19
260.314	347.19
260.547	360.19
260.779	330.19
261.012	329.19
261.244	359.19
261.477	339.19
261.71	354.19
261.942	362.19
262.175	354.19
262.407	357.19
262.64	363.19
262.872	368.19
263.105	360.19
263.337	366.19
263.57	369.19
263.802	384.19
264.035	384.19
264.267	389.19
264.499	377.19
264.732	385.19
264.964	392.19
265.197	373.19
265.429	385.19
265.661	389.19
265.894	381.19
266.126	397.19
266.358	369.19
266.591	392.19
266.823	405.19
267.055	368.19
267.287	395.19
267.52	404.19
267.752	408.19
267.984	401.19
268.216	378.19
268.448	411.19
268.681	415.19
268.913	390.19
269.145	402.19
269.377	396.19
269.609	410.19
269.841	411.19
270.073	403.19
270.306	421.19
270.538	414.19
270.77	394.19
271.002	421.19
271.234	426.19
271.466	434.19
271.698	406.19
271.93	427.19
272.162	404.19
272.394	424.19
272.626	425.19
272.858	412.19
273.09	442.19
273.322	422.19
273.553	434.19
273.785	406.19
274.017	424.19
274.249	434.19
274.481	448.19
274.713	436.19
274.945	444.19
275.176	427.19
275.408	457.19
275.64	461.19
275.872	441.19
276.104	448.19
276.335	460.19
276.567	459.19
276.799	461.19
277.031	455.19
277.262	478.19
277.494	457.19
277.726	480.19
277.957	459.19
278.189	462.19
278.421	466.19
278.652	452.19
278.884	481.19
279.115	475.19
279.347	489.19
279.579	476.19
279.81	488.19
280.042	490.19
280.273	475.19
280.505	458.19
280.736	493.19
280.968	503.19
281.199	484.19
281.431	510.19
281.662	502.19
281.894	507.19
282.125	491.19
282.356	492.19
282.588	522.19
282.819	517.19
283.051	522.19
283.282	517.19
283.513	530.19
283.745	507.19
283.976	524.19
284.207	536.19
284.439	504.19
284.67	540.19
284.901	533.19
285.132	556.19
285.364	528.19
285.595	530.19
285.826	525.19
286.057	537.19
286.288	530.19
286.52	522.19
286.751	532.19
286.982	547.19
287.213	566.19
287.444	568.19
287.675	567.19
287.906	548.19
288.138	540.19
288.369	570.19
288.6	557.19
288.831	563.19
289.062	557.19
289.293	565.19
289.524	575.19
289.755	575.19
289.986	546.19
290.217	554.19
290.448	576.19
290.679	556.19
290.91	535.19
291.141	604.19
291.371	584.19
291.602	588.19
291.833	560.19
292.064	580.19
292.295	586.19
292.526	578.19
292.757	551.19
292.987	578.19
293.218	570.19
293.449	586.19
293.68	596.19
293.91	577.19
294.141	582.19
294.372	565.19
294.603	599.19
294.833	574.19
295.064	590.19
295.295	599.19
295.525	590.19
295.756	600.19
295.987	597.19
296.217	590.19
296.448	594.19
296.679	603.19
296.909	610.19
297.14	602.19
297.37	597.19
297.601	621.19
297.831	612.19
298.062	629.19
298.292	624.19
298.523	660.19
298.753	656.19
298.984	633.19
299.214	621.19
299.445	640.19
299.675	593.19
299.905	614.19
300.136	619.19
300.366	630.19
300.597	644.19
300.827	648.19
301.057	662.19
301.288	679.19
301.518	640.19
301.748	666.19
301.979	679.19
302.209	681.19
302.439	661.19
302.669	644.19
302.9	644.19
303.13	644.19
303.36	658.19
303.59	652.19
303.82	636.19
304.051	658.19
304.281	669.19
304.511	654.19
304.741	663.19
304.971	643.19
305.201	657.19
305.431	655.19
305.661	652.19
305.891	620.19
306.121	626.19
306.352	636.19
306.582	629.19
306.812	606.19
307.042	642.19
307.272	649.19
307.502	619.19
307.731	630.19
307.961	619.19
308.191	613.19
308.421	640.19
308.651	626.19
308.881	619.19
309.111	624.19
309.341	624.19
309.571	650.19
309.8	641.19
310.03	621.19
310.26	628.19
310.49	624.19
310.72	616.19
310.949	612.19
311.179	629.19
311.409	642.19
311.639	658.19
311.868	653.19
312.098	636.19
312.328	659.19
312.557	648.19
312.787	659.19
313.017	652.19
313.246	669.19
313.476	665.19
313.706	663.19
313.935	681.19
314.165	660.19
314.394	685.19
314.624	663.19
314.853	674.19
315.083	668.19
315.312	677.19
315.542	672.19
315.771	674.19
316.001	680.19
316.23	688.19
316.46	650.19
316.689	659.19
316.919	651.19
317.148	672.19
317.377	663.19
317.607	658.19
317.836	650.19
318.065	654.19
318.295	673.19
318.524	654.19
318.753	631.19
318.983	640.19
319.212	646.19
319.441	676.19
319.67	654.19
319.9	659.19
320.129	648.19
320.358	671.19
320.587	656.19
320.816	646.19
321.046	662.19
321.275	669.19
321.504	666.19
321.733	674.19
321.962	667.19
322.191	666.19
322.42	670.19
322.649	663.19
322.878	662.19
323.108	675.19
323.337	679.19
323.566	672.19
323.795	662.19
324.024	701.19
324.253	675.19
324.482	680.19
324.71	683.19
324.939	683.19
325.168	683.19
325.397	704.19
325.626	696.19
325.855	714.19
326.084	708.19
326.313	727.19
326.542	711.19
326.77	744.19
326.999	714.19
327.228	700.19
327.457	723.19
327.686	706.19
327.914	697.19
328.143	733.19
328.372	722.19
328.6	730.19
328.829	738.19
329.058	705.19
329.287	724.19
329.515	725.19
329.744	716.19
329.972	736.19
330.201	733.19
330.43	726.19
330.658	737.19
330.887	742.19
331.115	754.19
331.344	747.19
331.572	756.19
331.801	761.19
332.03	792.19
332.258	805.19
332.486	840.19
332.715	858.19
332.943	887.19
333.172	906.19
333.4	981.19
333.629	979.19
333.857	1030.19
334.085	985.19
334.314	984.19
334.542	945.19
334.771	922.19
334.999	891.19
335.227	908.19
335.455	899.19
335.684	891.19
335.912	863.19
336.14	889.19
336.369	864.19
336.597	882.19
336.825	886.19
337.053	880.19
337.281	837.19
337.51	818.19
337.738	813.19
337.966	800.19
338.194	798.19
338.422	782.19
338.65	782.19
338.878	759.19
339.106	772.19
339.334	799.19
339.562	774.19
339.79	784.19
340.018	762.19
340.246	777.19
340.474	755.19
340.702	719.19
340.93	743.19
341.158	768.19
341.386	757.19
341.614	744.19
341.842	752.19
342.07	726.19
342.298	735.19
342.526	736.19
342.754	732.19
342.981	720.19
343.209	732.19
343.437	789.19
343.665	842.19
343.893	917.19
344.12	960.19
344.348	906.19
344.576	857.19
344.804	830.19
345.031	781.19
345.259	782.19
345.487	753.19
345.714	767.19
345.942	757.19
346.17	725.19
346.397	729.19
346.625	736.19
346.853	722.19
347.08	731.19
347.308	714.19
347.535	729.19
347.763	738.19
347.99	746.19
348.218	752.19
348.445	716.19
348.673	750.19
348.9	728.19
349.128	702.19
349.355	705.19
349.583	702.19
349.81	690.19
350.037	704.19
350.265	719.19
350.492	726.19
350.72	739.19
350.947	672.19
351.174	714.19
351.402	685.19
351.629	683.19
351.856	691.19
352.083	674.19
352.311	684.19
352.538	696.19
352.765	712.19
352.992	677.19
353.22	690.19
353.447	684.19
353.674	688.19
353.901	710.19
354.128	690.19
354.355	674.19
354.583	684.19
354.81	710.19
355.037	683.19
355.264	698.19
355.491	705.19
355.718	685.19
355.945	702.19
356.172	706.19
356.399	708.19
356.626	713.19
356.853	704.19
357.08	715.19
357.307	699.19
357.534	709.19
357.761	688.19
357.988	711.19
358.215	689.19
358.441	700.19
358.668	706.19
358.895	699.19
359.122	685.19
359.349	679.19
359.576	682.19
359.802	709.19
360.029	697.19
360.256	728.19
360.483	698.19
360.709	702.19
360.936	723.19
361.163	682.19
361.39	701.19
361.616	713.19
361.843	706.19
362.07	718.19
362.296	686.19
362.523	680.19
362.749	693.19
362.976	681.19
363.203	701.19
363.429	685.19
363.656	710.19
363.882	718.19
364.109	698.19
364.335	698.19
364.562	691.19
364.788	698.19
365.015	680.19
365.241	692.19
365.468	673.19
365.694	676.19
365.92	698.19
366.147	707.19
366.373	698.19
366.599	695.19
366.826	673.19
367.052	699.19
367.278	676.19
367.505	680.19
367.731	707.19
367.957	710.19
368.184	693.19
368.41	714.19
368.636	708.19
368.862	705.19
369.089	710.19
369.315	730.19
369.541	715.19
369.767	728.19
369.993	720.19
370.219	724.19
370.445	741.19
370.672	748.19
370.898	722.19
371.124	747.19
371.35	729.19
371.576	770.19
371.802	739.19
372.028	749.19
372.254	755.19
372.48	758.19
372.706	776.19
372.932	824.19
373.158	800.19
373.384	768.19
373.61	768.19
373.835	756.19
374.061	748.19
374.287	747.19
374.513	767.19
374.739	816.19
374.965	811.19
375.191	858.19
375.416	857.19
375.642	831.19
375.868	800.19
376.094	795.19
376.319	790.19
376.545	767.19
376.771	766.19
376.997	763.19
377.222	780.19
377.448	765.19
377.674	772.19
377.899	757.19
378.125	762.19
378.35	752.19
378.576	766.19
378.802	739.19
379.027	733.19
379.253	773.19
379.478	770.19
379.704	742.19
379.929	776.19
380.155	718.19
380.38	745.19
380.606	744.19
380.831	734.19
381.057	754.19
381.282	749.19
381.507	740.19
381.733	786.19
381.958	786.19
382.184	781.19
382.409	788.19
382.634	771.19
382.86	809.19
383.085	830.19
383.31	804.19
383.535	834.19
383.761	841.19
383.986	866.19
384.211	884.19
384.436	894.19
384.662	926.19
384.887	937.19
385.112	914.19
385.337	932.19
385.562	950.19
385.787	928.19
386.013	917.19
386.238	932.19
386.463	932.19
386.688	949.19
386.913	918.19
387.138	900.19
387.363	934.19
387.588	898.19
387.813	909.19
388.038	883.19
388.263	895.19
388.488	916.19
388.713	896.19
388.938	873.19
389.163	901.19
389.387	880.19
389.612	846.19
389.837	896.19
390.062	881.19
390.287	886.19
390.512	875.19
390.736	902.19
390.961	900.19
391.186	932.19
391.411	952.19
391.636	970.19
391.86	1031.19
392.085	1063.19
392.31	1052.19
392.534	1013.19
392.759	969.19
392.984	954.19
393.208	931.19
393.433	941.19
393.658	941.19
393.882	972.19
394.107	966.19
394.331	989.19
394.556	964.19
394.78	947.19
395.005	1009.19
395.229	985.19
395.454	1003.19
395.678	1044.19
395.903	1046.19
396.127	1025.19
396.352	973.19
396.576	950.19
396.801	954.19
397.025	954.19
397.249	983.19
397.474	1012.19
397.698	1008.19
397.922	1001.19
398.147	1034.19
398.371	1041.19
398.595	1044.19
398.82	1118.19
399.044	1206.19
399.268	1315.19
399.492	1528.19
399.717	1801.19
399.941	1804.19
400.165	1579.19
400.389	1380.19
400.613	1282.19
400.837	1228.19
401.062	1178.19
401.286	1138.19
401.51	1138.19
401.734	1142.19
401.958	1150.19
402.182	1172.19
402.406	1179.19
402.63	1188.19
402.854	1236.19
403.078	1241.19
403.302	1293.19
403.526	1329.19
403.75	1309.19
403.974	1350.19
404.198	1358.19
404.422	1402.19
404.645	1372.19
404.869	1343.19
405.093	1314.19
405.317	1302.19
405.541	1264.19
405.765	1278.19
405.988	1258.19
406.212	1253.19
406.436	1260.19
406.66	1278.19
406.883	1310.19
407.107	1431.19
407.331	1442.19
407.555	1530.19
407.778	1500.19
408.002	1451.19
408.226	1412.19
408.449	1390.19
408.673	1332.19
408.896	1318.19
409.12	1317.19
409.344	1314.19
409.567	1316.19
409.791	1344.19
410.014	1314.19
410.238	1240.19
410.461	1252.19
410.685	1305.19
410.908	1262.19
411.132	1206.19
411.355	1172.19
411.578	1204.19
411.802	1156.19
412.025	1193.19
412.249	1237.19
412.472	1232.19
412.695	1149.19
412.919	1140.19
413.142	1131.19
413.365	1136.19
413.589	1160.19
413.812	1166.19
414.035	1120.19
414.258	1131.19
414.482	1175.19
414.705	1187.19
414.928	1174.19
415.151	1124.19
415.374	1161.19
415.597	1160.19
415.821	1140.19
416.044	1138.19
416.267	1121.19
416.49	1137.19
416.713	1122.19
416.936	1144.19
417.159	1132.19
417.382	1123.19
417.605	1108.19
417.828	1114.19
418.051	1144.19
418.274	1169.19
418.497	1167.19
418.72	1166.19
418.943	1150.19
419.166	1237.19
419.389	1347.19
419.611	1304.19
419.834	1267.19
420.057	1214.19
420.28	1171.19
420.503	1092.19
420.726	1109.19
420.948	1110.19
421.171	1132.19
421.394	1109.19
421.617	1130.19
421.839	1113.19
422.062	1149.19
422.285	1137.19
422.507	1208.19
422.73	1164.19
422.953	1185.19
423.175	1206.19
423.398	1235.19
423.621	1219.19
423.843	1236.19
424.066	1242.19
424.288	1261.19
424.511	1233.19
424.733	1206.19
424.956	1152.19
425.178	1153.19
425.401	1155.19
425.623	1165.19
425.846	1086.19
426.068	1126.19
426.291	1075.19
426.513	1095.19
426.735	1085.19
426.958	1050.19
427.18	1044.19
427.402	1052.19
427.625	1047.19
427.847	1005.19
428.069	1000.19
428.292	1008.19
428.514	1046.19
428.736	1004.19
428.958	1030.19
429.181	1012.19
429.403	980.19
429.625	987.19
429.847	1015.19
430.069	977.19
430.292	995.19
430.514	972.19
430.736	1010.19
430.958	1003.19
431.18	986.19
431.402	985.19
431.624	958.19
431.846	1011.19
432.068	1037.19
432.29	1039.19
432.512	1016.19
432.734	1035.19
432.956	1017.19
433.178	1021.19
433.4	1013.19
433.622	1032.19
433.844	1023.19
434.066	1037.19
434.287	1053.19
434.509	1072.19
434.731	1107.19
434.953	1189.19
435.175	1187.19
435.397	1142.19
435.618	1106.19
435.84	1082.19
436.062	1037.19
436.284	1062.19
436.505	1027.19
436.727	1037.19
436.949	1036.19
437.17	1003.19
437.392	1025.19
437.614	997.19
437.835	990.19
438.057	1008.19
438.278	973.19
438.5	984.19
438.721	970.19
438.943	1005.19
439.165	990.19
439.386	987.19
439.608	1000.19
439.829	1005.19
440.05	1014.19
440.272	1004.19
440.493	1024.19
440.715	1044.19
440.936	1048.19
441.158	1061.19
441.379	1123.19
441.6	1157.19
441.822	1200.19
442.043	1195.19
442.264	1176.19
442.486	1133.19
442.707	1134.19
442.928	1137.19
443.149	1152.19
443.371	1127.19
443.592	1177.19
443.813	1194.19
444.034	1184.19
444.255	1203.19
444.476	1259.19
444.698	1365.19
444.919	1456.19
445.14	1526.19
445.361	1329.19
445.582	1213.19
445.803	1153.19
446.024	1078.19
446.245	1083.19
446.466	1075.19
446.687	1049.19
446.908	1038.19
447.129	994.19
447.35	984.19
447.571	962.19
447.792	997.19
448.013	980.19
448.234	968.19
448.455	956.19
448.675	960.19
448.896	965.19
449.117	934.19
449.338	946.19
449.559	928.19
449.779	942.19
450	912.19
450.221	932.19
450.442	959.19
450.662	950.19
450.883	950.19
451.104	987.19
451.324	976.19
451.545	970.19
451.766	956.19
451.986	954.19
452.207	937.19
452.428	944.19
452.648	956.19
452.869	959.19
453.089	933.19
453.31	920.19
453.53	936.19
453.751	948.19
453.971	929.19
454.192	937.19
454.412	886.19
454.633	906.19
454.853	890.19
455.073	882.19
455.294	881.19
455.514	867.19
455.734	900.19
455.955	859.19
456.175	878.19
456.395	850.19
456.616	864.19
456.836	889.19
457.056	888.19
457.276	888.19
457.497	886.19
457.717	892.19
457.937	892.19
458.157	897.19
458.377	936.19
458.598	922.19
458.818	955.19
459.038	981.19
459.258	1002.19
459.478	1040.19
459.698	1076.19
459.918	1097.19
460.138	1126.19
460.358	1214.19
460.578	1250.19
460.798	1234.19
461.018	1238.19
461.238	1209.19
461.458	1188.19
461.678	1229.19
461.898	1204.19
462.118	1234.19
462.338	1312.19
462.558	1338.19
462.777	1398.19
462.997	1517.19
463.217	1722.19
463.437	1724.19
463.657	1548.19
463.876	1458.19
464.096	1438.19
464.316	1473.19
464.536	1449.19
464.755	1363.19
464.975	1354.19
465.195	1258.19
465.414	1220.19
465.634	1137.19
465.854	1104.19
466.073	1079.19
466.293	1031.19
466.512	1042.19
466.732	1037.19
466.951	975.19
467.171	994.19
467.391	1013.19
467.61	1012.19
467.829	997.19
468.049	961.19
468.268	946.19
468.488	937.19
468.707	948.19
468.927	947.19
469.146	954.19
469.365	966.19
469.585	936.19
469.804	971.19
470.023	1027.19
470.243	997.19
470.462	1048.19
470.681	1012.19
470.901	1014.19
471.12	1027.19
471.339	966.19
471.558	962.19
471.777	981.19
471.997	924.19
472.216	955.19
472.435	937.19
472.654	936.19
472.873	924.19
473.092	933.19
473.311	917.19
473.53	921.19
473.749	897.19
473.968	923.19
474.187	899.19
474.406	920.19
474.625	930.19
474.844	907.19
475.063	916.19
475.282	948.19
475.501	932.19
475.72	917.19
475.939	942.19
476.158	947.19
476.377	954.19
476.596	928.19
476.814	991.19
477.033	974.19
477.252	970.19
477.471	1017.19
477.69	1044.19
477.908	1075.19
478.127	1109.19
478.346	1104.19
478.564	1114.19
478.783	1115.19
479.002	1159.19
479.22	1184.19
479.439	1141.19
479.658	1189.19
479.876	1170.19
480.095	1194.19
480.313	1212.19
480.532	1261.19
480.751	1270.19
480.969	1224.19
481.188	1148.19
481.406	1088.19
481.624	1092.19
481.843	1079.19
482.061	1068.19
482.28	1066.19
482.498	1046.19
482.717	1057.19
482.935	1053.19
483.153	1057.19
483.372	1056.19
483.59	1046.19
483.808	1070.19
484.027	1069.19
484.245	1065.19
484.463	1053.19
484.681	1098.19
484.9	1115.19
485.118	1066.19
485.336	1124.19
485.554	1133.19
485.772	1123.19
485.99	1120.19
486.209	1187.19
486.427	1120.19
486.645	1129.19
486.863	1129.19
487.081	1109.19
487.299	1105.19
487.517	1129.19
487.735	1129.19
487.953	1112.19
488.171	1084.19
488.389	1108.19
488.607	1092.19
488.825	1107.19
489.043	1111.19
489.261	1066.19
489.479	1088.19
489.696	1086.19
489.914	1067.19
490.132	1104.19
490.35	1127.19
490.568	1099.19
490.786	1125.19
491.003	1093.19
491.221	1119.19
491.439	1112.19
491.657	1111.19
491.874	1102.19
492.092	1128.19
492.31	1127.19
492.527	1140.19
492.745	1144.19
492.963	1172.19
493.18	1140.19
493.398	1148.19
493.615	1157.19
493.833	1136.19
494.05	1144.19
494.268	1172.19
494.485	1164.19
494.703	1197.19
494.92	1171.19
495.138	1123.19
495.355	1162.19
495.573	1172.19
495.79	1170.19
496.008	1196.19
496.225	1192.19
496.442	1150.19
496.66	1180.19
496.877	1200.19
