Data from NiCl2@0.125M.TitratingCurve.Agarose3%dH2O.NegLispCup.LampEnergy10.LIBS07252019_HRD10591_18-30-45-575.txt Node
Date: Thu Jul 25 18:30:45 EDT 2019
User: cochatt
Spectrometer: HR+D1059
Trigger mode: 1
Integration Time (sec): 1.000000E-1
Scans to average: 1
Electric dark correction enabled: true
Nonlinearity correction enabled: false
Boxcar width: 0
XAxis mode: Wavelengths
Number of Pixels in Spectrum: 2048
>>>>>Begin Spectral Data<<<<<
223.165	-21.75
223.4	-21.75
223.635	-21.75
223.869	-19.75
224.104	-9.75
224.338	-19.75
224.573	-14.75
224.808	-11.75
225.042	-20.75
225.277	-20.75
225.511	0.25
225.746	14.25
225.98	11.25
226.215	11.25
226.449	12.25
226.683	31.25
226.918	26.25
227.152	32.25
227.387	43.25
227.621	49.25
227.856	37.25
228.09	65.25
228.324	55.25
228.559	57.25
228.793	63.25
229.027	63.25
229.262	82.25
229.496	84.25
229.73	68.25
229.964	73.25
230.199	75.25
230.433	84.25
230.667	97.25
230.901	99.25
231.136	94.25
231.37	97.25
231.604	82.25
231.838	95.25
232.072	89.25
232.306	88.25
232.541	83.25
232.775	80.25
233.009	92.25
233.243	101.25
233.477	82.25
233.711	99.25
233.945	76.25
234.179	96.25
234.413	74.25
234.647	82.25
234.881	82.25
235.115	78.25
235.349	80.25
235.583	90.25
235.817	98.25
236.051	89.25
236.285	93.25
236.519	76.25
236.753	90.25
236.987	74.25
237.221	83.25
237.455	88.25
237.689	95.25
237.922	73.25
238.156	108.25
238.39	75.25
238.624	81.25
238.858	87.25
239.091	88.25
239.325	77.25
239.559	78.25
239.793	81.25
240.027	81.25
240.26	91.25
240.494	98.25
240.728	80.25
240.961	88.25
241.195	85.25
241.429	89.25
241.662	84.25
241.896	86.25
242.13	88.25
242.363	72.25
242.597	94.25
242.83	73.25
243.064	67.25
243.298	83.25
243.531	81.25
243.765	83.25
243.998	70.25
244.232	86.25
244.465	103.25
244.699	89.25
244.932	93.25
245.166	79.25
245.399	78.25
245.633	90.25
245.866	79.25
246.099	90.25
246.333	89.25
246.566	72.25
246.8	83.25
247.033	92.25
247.266	105.25
247.5	84.25
247.733	98.25
247.966	80.25
248.2	71.25
248.433	91.25
248.666	87.25
248.899	79.25
249.133	90.25
249.366	81.25
249.599	89.25
249.832	91.25
250.066	75.25
250.299	87.25
250.532	89.25
250.765	84.25
250.998	78.25
251.231	82.25
251.465	91.25
251.698	87.25
251.931	78.25
252.164	86.25
252.397	87.25
252.63	81.25
252.863	89.25
253.096	87.25
253.329	89.25
253.562	87.25
253.795	90.25
254.028	85.25
254.261	79.25
254.494	96.25
254.727	83.25
254.96	83.25
255.193	91.25
255.426	94.25
255.659	84.25
255.892	88.25
256.124	82.25
256.357	90.25
256.59	75.25
256.823	87.25
257.056	78.25
257.289	89.25
257.521	98.25
257.754	84.25
257.987	93.25
258.22	94.25
258.452	92.25
258.685	72.25
258.918	93.25
259.151	90.25
259.383	81.25
259.616	100.25
259.849	88.25
260.081	97.25
260.314	80.25
260.547	83.25
260.779	81.25
261.012	94.25
261.244	86.25
261.477	90.25
261.71	59.25
261.942	87.25
262.175	83.25
262.407	74.25
262.64	63.25
262.872	104.25
263.105	96.25
263.337	101.25
263.57	87.25
263.802	82.25
264.035	91.25
264.267	85.25
264.499	84.25
264.732	93.25
264.964	85.25
265.197	82.25
265.429	85.25
265.661	89.25
265.894	101.25
266.126	88.25
266.358	87.25
266.591	70.25
266.823	84.25
267.055	93.25
267.287	96.25
267.52	85.25
267.752	81.25
267.984	95.25
268.216	81.25
268.448	84.25
268.681	79.25
268.913	85.25
269.145	90.25
269.377	84.25
269.609	82.25
269.841	88.25
270.073	94.25
270.306	101.25
270.538	96.25
270.77	84.25
271.002	106.25
271.234	90.25
271.466	95.25
271.698	97.25
271.93	95.25
272.162	98.25
272.394	95.25
272.626	97.25
272.858	81.25
273.09	79.25
273.322	95.25
273.553	87.25
273.785	100.25
274.017	97.25
274.249	86.25
274.481	83.25
274.713	89.25
274.945	84.25
275.176	83.25
275.408	86.25
275.64	86.25
275.872	86.25
276.104	101.25
276.335	93.25
276.567	97.25
276.799	89.25
277.031	88.25
277.262	91.25
277.494	94.25
277.726	83.25
277.957	87.25
278.189	93.25
278.421	92.25
278.652	83.25
278.884	86.25
279.115	77.25
279.347	80.25
279.579	88.25
279.81	99.25
280.042	95.25
280.273	90.25
280.505	86.25
280.736	81.25
280.968	87.25
281.199	97.25
281.431	84.25
281.662	92.25
281.894	90.25
282.125	95.25
282.356	89.25
282.588	95.25
282.819	90.25
283.051	92.25
283.282	88.25
283.513	105.25
283.745	94.25
283.976	89.25
284.207	80.25
284.439	85.25
284.67	105.25
284.901	91.25
285.132	78.25
285.364	91.25
285.595	81.25
285.826	80.25
286.057	99.25
286.288	109.25
286.52	89.25
286.751	85.25
286.982	93.25
287.213	94.25
287.444	82.25
287.675	103.25
287.906	101.25
288.138	83.25
288.369	87.25
288.6	81.25
288.831	88.25
289.062	86.25
289.293	99.25
289.524	90.25
289.755	95.25
289.986	84.25
290.217	93.25
290.448	90.25
290.679	89.25
290.91	78.25
291.141	70.25
291.371	83.25
291.602	82.25
291.833	103.25
292.064	93.25
292.295	98.25
292.526	93.25
292.757	98.25
292.987	86.25
293.218	80.25
293.449	90.25
293.68	79.25
293.91	87.25
294.141	89.25
294.372	90.25
294.603	80.25
294.833	99.25
295.064	83.25
295.295	83.25
295.525	90.25
295.756	89.25
295.987	86.25
296.217	93.25
296.448	86.25
296.679	89.25
296.909	96.25
297.14	92.25
297.37	97.25
297.601	83.25
297.831	74.25
298.062	90.25
298.292	102.25
298.523	93.25
298.753	98.25
298.984	101.25
299.214	97.25
299.445	88.25
299.675	78.25
299.905	82.25
300.136	87.25
300.366	92.25
300.597	92.25
300.827	89.25
301.057	97.25
301.288	89.25
301.518	96.25
301.748	92.25
301.979	90.25
302.209	109.25
302.439	98.25
302.669	83.25
302.9	109.25
303.13	97.25
303.36	90.25
303.59	70.25
303.82	82.25
304.051	96.25
304.281	93.25
304.511	95.25
304.741	94.25
304.971	94.25
305.201	86.25
305.431	84.25
305.661	106.25
305.891	87.25
306.121	83.25
306.352	93.25
306.582	96.25
306.812	102.25
307.042	76.25
307.272	81.25
307.502	99.25
307.731	80.25
307.961	110.25
308.191	82.25
308.421	90.25
308.651	100.25
308.881	85.25
309.111	90.25
309.341	96.25
309.571	80.25
309.8	86.25
310.03	95.25
310.26	96.25
310.49	81.25
310.72	77.25
310.949	96.25
311.179	101.25
311.409	102.25
311.639	91.25
311.868	87.25
312.098	86.25
312.328	83.25
312.557	95.25
312.787	96.25
313.017	98.25
313.246	81.25
313.476	91.25
313.706	97.25
313.935	94.25
314.165	88.25
314.394	95.25
314.624	95.25
314.853	90.25
315.083	97.25
315.312	88.25
315.542	93.25
315.771	94.25
316.001	85.25
316.23	87.25
316.46	87.25
316.689	92.25
316.919	103.25
317.148	89.25
317.377	101.25
317.607	96.25
317.836	84.25
318.065	86.25
318.295	89.25
318.524	82.25
318.753	86.25
318.983	101.25
319.212	94.25
319.441	86.25
319.67	92.25
319.9	87.25
320.129	95.25
320.358	90.25
320.587	84.25
320.816	78.25
321.046	81.25
321.275	98.25
321.504	78.25
321.733	82.25
321.962	84.25
322.191	106.25
322.42	83.25
322.649	95.25
322.878	89.25
323.108	103.25
323.337	97.25
323.566	94.25
323.795	99.25
324.024	96.25
324.253	86.25
324.482	95.25
324.71	94.25
324.939	87.25
325.168	92.25
325.397	77.25
325.626	82.25
325.855	79.25
326.084	102.25
326.313	90.25
326.542	87.25
326.77	102.25
326.999	87.25
327.228	97.25
327.457	86.25
327.686	81.25
327.914	98.25
328.143	96.25
328.372	83.25
328.6	75.25
328.829	95.25
329.058	91.25
329.287	93.25
329.515	105.25
329.744	91.25
329.972	93.25
330.201	88.25
330.43	89.25
330.658	86.25
330.887	84.25
331.115	89.25
331.344	83.25
331.572	90.25
331.801	93.25
332.03	84.25
332.258	93.25
332.486	87.25
332.715	91.25
332.943	94.25
333.172	87.25
333.4	95.25
333.629	96.25
333.857	96.25
334.085	96.25
334.314	102.25
334.542	87.25
334.771	92.25
334.999	89.25
335.227	78.25
335.455	85.25
335.684	94.25
335.912	101.25
336.14	105.25
336.369	86.25
336.597	90.25
336.825	82.25
337.053	97.25
337.281	93.25
337.51	83.25
337.738	85.25
337.966	89.25
338.194	87.25
338.422	82.25
338.65	81.25
338.878	79.25
339.106	81.25
339.334	97.25
339.562	85.25
339.79	81.25
340.018	93.25
340.246	83.25
340.474	97.25
340.702	84.25
340.93	95.25
341.158	90.25
341.386	95.25
341.614	83.25
341.842	99.25
342.07	87.25
342.298	93.25
342.526	83.25
342.754	79.25
342.981	87.25
343.209	85.25
343.437	98.25
343.665	71.25
343.893	80.25
344.12	100.25
344.348	88.25
344.576	88.25
344.804	72.25
345.031	87.25
345.259	87.25
345.487	96.25
345.714	82.25
345.942	89.25
346.17	86.25
346.397	74.25
346.625	89.25
346.853	88.25
347.08	96.25
347.308	91.25
347.535	91.25
347.763	82.25
347.99	101.25
348.218	93.25
348.445	100.25
348.673	90.25
348.9	99.25
349.128	85.25
349.355	96.25
349.583	94.25
349.81	88.25
350.037	104.25
350.265	85.25
350.492	88.25
350.72	91.25
350.947	83.25
351.174	86.25
351.402	95.25
351.629	83.25
351.856	96.25
352.083	77.25
352.311	78.25
352.538	88.25
352.765	87.25
352.992	83.25
353.22	76.25
353.447	92.25
353.674	89.25
353.901	91.25
354.128	87.25
354.355	91.25
354.583	101.25
354.81	87.25
355.037	76.25
355.264	104.25
355.491	87.25
355.718	95.25
355.945	84.25
356.172	88.25
356.399	70.25
356.626	87.25
356.853	97.25
357.08	102.25
357.307	79.25
357.534	84.25
357.761	87.25
357.988	85.25
358.215	96.25
358.441	89.25
358.668	82.25
358.895	66.25
359.122	91.25
359.349	89.25
359.576	95.25
359.802	106.25
360.029	85.25
360.256	98.25
360.483	89.25
360.709	75.25
360.936	107.25
361.163	86.25
361.39	80.25
361.616	97.25
361.843	92.25
362.07	104.25
362.296	83.25
362.523	98.25
362.749	89.25
362.976	91.25
363.203	96.25
363.429	78.25
363.656	79.25
363.882	94.25
364.109	98.25
364.335	77.25
364.562	88.25
364.788	79.25
365.015	92.25
365.241	83.25
365.468	82.25
365.694	91.25
365.92	80.25
366.147	82.25
366.373	94.25
366.599	82.25
366.826	75.25
367.052	93.25
367.278	90.25
367.505	97.25
367.731	88.25
367.957	103.25
368.184	76.25
368.41	91.25
368.636	67.25
368.862	87.25
369.089	83.25
369.315	70.25
369.541	89.25
369.767	85.25
369.993	77.25
370.219	79.25
370.445	79.25
370.672	97.25
370.898	91.25
371.124	90.25
371.35	82.25
371.576	95.25
371.802	83.25
372.028	90.25
372.254	87.25
372.48	74.25
372.706	77.25
372.932	98.25
373.158	90.25
373.384	85.25
373.61	89.25
373.835	95.25
374.061	74.25
374.287	76.25
374.513	96.25
374.739	97.25
374.965	87.25
375.191	93.25
375.416	81.25
375.642	104.25
375.868	84.25
376.094	95.25
376.319	78.25
376.545	83.25
376.771	78.25
376.997	79.25
377.222	85.25
377.448	97.25
377.674	89.25
377.899	78.25
378.125	79.25
378.35	87.25
378.576	92.25
378.802	93.25
379.027	85.25
379.253	79.25
379.478	87.25
379.704	81.25
379.929	98.25
380.155	76.25
380.38	82.25
380.606	86.25
380.831	78.25
381.057	109.25
381.282	79.25
381.507	86.25
381.733	81.25
381.958	80.25
382.184	90.25
382.409	78.25
382.634	85.25
382.86	80.25
383.085	92.25
383.31	85.25
383.535	96.25
383.761	71.25
383.986	92.25
384.211	89.25
384.436	77.25
384.662	74.25
384.887	88.25
385.112	85.25
385.337	76.25
385.562	95.25
385.787	94.25
386.013	87.25
386.238	78.25
386.463	91.25
386.688	94.25
386.913	90.25
387.138	104.25
387.363	92.25
387.588	93.25
387.813	103.25
388.038	91.25
388.263	86.25
388.488	93.25
388.713	82.25
388.938	88.25
389.163	89.25
389.387	97.25
389.612	88.25
389.837	84.25
390.062	97.25
390.287	95.25
390.512	84.25
390.736	95.25
390.961	84.25
391.186	86.25
391.411	83.25
391.636	88.25
391.86	96.25
392.085	81.25
392.31	78.25
392.534	78.25
392.759	86.25
392.984	90.25
393.208	89.25
393.433	100.25
393.658	100.25
393.882	97.25
394.107	93.25
394.331	89.25
394.556	97.25
394.78	78.25
395.005	93.25
395.229	87.25
395.454	98.25
395.678	88.25
395.903	69.25
396.127	96.25
396.352	88.25
396.576	101.25
396.801	85.25
397.025	97.25
397.249	94.25
397.474	84.25
397.698	92.25
397.922	90.25
398.147	83.25
398.371	82.25
398.595	95.25
398.82	83.25
399.044	89.25
399.268	91.25
399.492	91.25
399.717	79.25
399.941	96.25
400.165	83.25
400.389	79.25
400.613	91.25
400.837	89.25
401.062	89.25
401.286	102.25
401.51	91.25
401.734	97.25
401.958	83.25
402.182	81.25
402.406	72.25
402.63	79.25
402.854	83.25
403.078	88.25
403.302	83.25
403.526	81.25
403.75	87.25
403.974	101.25
404.198	97.25
404.422	89.25
404.645	98.25
404.869	96.25
405.093	83.25
405.317	81.25
405.541	98.25
405.765	91.25
405.988	84.25
406.212	103.25
406.436	83.25
406.66	104.25
406.883	105.25
407.107	86.25
407.331	106.25
407.555	96.25
407.778	102.25
408.002	90.25
408.226	95.25
408.449	80.25
408.673	85.25
408.896	85.25
409.12	89.25
409.344	105.25
409.567	106.25
409.791	79.25
410.014	93.25
410.238	93.25
410.461	78.25
410.685	77.25
410.908	98.25
411.132	80.25
411.355	90.25
411.578	95.25
411.802	95.25
412.025	83.25
412.249	89.25
412.472	106.25
412.695	93.25
412.919	91.25
413.142	96.25
413.365	85.25
413.589	85.25
413.812	92.25
414.035	112.25
414.258	93.25
414.482	84.25
414.705	83.25
414.928	92.25
415.151	89.25
415.374	88.25
415.597	84.25
415.821	91.25
416.044	94.25
416.267	94.25
416.49	94.25
416.713	84.25
416.936	98.25
417.159	86.25
417.382	97.25
417.605	93.25
417.828	93.25
418.051	97.25
418.274	98.25
418.497	95.25
418.72	81.25
418.943	93.25
419.166	97.25
419.389	101.25
419.611	97.25
419.834	85.25
420.057	80.25
420.28	91.25
420.503	82.25
420.726	97.25
420.948	102.25
421.171	88.25
421.394	94.25
421.617	102.25
421.839	105.25
422.062	88.25
422.285	100.25
422.507	99.25
422.73	85.25
422.953	89.25
423.175	83.25
423.398	106.25
423.621	99.25
423.843	102.25
424.066	96.25
424.288	91.25
424.511	97.25
424.733	103.25
424.956	108.25
425.178	97.25
425.401	99.25
425.623	90.25
425.846	104.25
426.068	97.25
426.291	90.25
426.513	90.25
426.735	88.25
426.958	97.25
427.18	93.25
427.402	81.25
427.625	106.25
427.847	94.25
428.069	110.25
428.292	89.25
428.514	107.25
428.736	88.25
428.958	97.25
429.181	92.25
429.403	86.25
429.625	98.25
429.847	92.25
430.069	100.25
430.292	102.25
430.514	94.25
430.736	94.25
430.958	91.25
431.18	97.25
431.402	93.25
431.624	104.25
431.846	87.25
432.068	98.25
432.29	81.25
432.512	84.25
432.734	96.25
432.956	97.25
433.178	95.25
433.4	82.25
433.622	110.25
433.844	94.25
434.066	93.25
434.287	88.25
434.509	87.25
434.731	83.25
434.953	89.25
435.175	90.25
435.397	90.25
435.618	86.25
435.84	101.25
436.062	91.25
436.284	97.25
436.505	98.25
436.727	104.25
436.949	104.25
437.17	75.25
437.392	112.25
437.614	98.25
437.835	89.25
438.057	95.25
438.278	83.25
438.5	95.25
438.721	96.25
438.943	106.25
439.165	110.25
439.386	101.25
439.608	98.25
439.829	97.25
440.05	96.25
440.272	98.25
440.493	109.25
440.715	110.25
440.936	106.25
441.158	111.25
441.379	101.25
441.6	94.25
441.822	87.25
442.043	113.25
442.264	96.25
442.486	101.25
442.707	101.25
442.928	97.25
443.149	102.25
443.371	104.25
443.592	93.25
443.813	96.25
444.034	102.25
444.255	115.25
444.476	102.25
444.698	95.25
444.919	88.25
445.14	218.25
445.361	165.25
445.582	111.25
445.803	107.25
446.024	106.25
446.245	121.25
446.466	100.25
446.687	109.25
446.908	121.25
447.129	112.25
447.35	101.25
447.571	96.25
447.792	106.25
448.013	99.25
448.234	86.25
448.455	101.25
448.675	108.25
448.896	91.25
449.117	100.25
449.338	94.25
449.559	95.25
449.779	95.25
450	94.25
450.221	95.25
450.442	106.25
450.662	102.25
450.883	102.25
451.104	105.25
451.324	94.25
451.545	94.25
451.766	109.25
451.986	103.25
452.207	96.25
452.428	130.25
452.648	95.25
452.869	102.25
453.089	103.25
453.31	92.25
453.53	89.25
453.751	96.25
453.971	87.25
454.192	97.25
454.412	95.25
454.633	87.25
454.853	94.25
455.073	90.25
455.294	93.25
455.514	96.25
455.734	97.25
455.955	86.25
456.175	85.25
456.395	80.25
456.616	91.25
456.836	94.25
457.056	110.25
457.276	91.25
457.497	90.25
457.717	101.25
457.937	90.25
458.157	99.25
458.377	87.25
458.598	90.25
458.818	78.25
459.038	90.25
459.258	94.25
459.478	91.25
459.698	103.25
459.918	88.25
460.138	96.25
460.358	101.25
460.578	87.25
460.798	85.25
461.018	99.25
461.238	86.25
461.458	94.25
461.678	107.25
461.898	96.25
462.118	100.25
462.338	89.25
462.558	101.25
462.777	94.25
462.997	100.25
463.217	92.25
463.437	106.25
463.657	88.25
463.876	88.25
464.096	98.25
464.316	110.25
464.536	95.25
464.755	117.25
464.975	103.25
465.195	84.25
465.414	86.25
465.634	104.25
465.854	81.25
466.073	77.25
466.293	83.25
466.512	110.25
466.732	99.25
466.951	98.25
467.171	87.25
467.391	94.25
467.61	107.25
467.829	95.25
468.049	113.25
468.268	88.25
468.488	102.25
468.707	101.25
468.927	105.25
469.146	102.25
469.365	86.25
469.585	105.25
469.804	106.25
470.023	93.25
470.243	93.25
470.462	93.25
470.681	102.25
470.901	101.25
471.12	106.25
471.339	102.25
471.558	99.25
471.777	98.25
471.997	96.25
472.216	96.25
472.435	102.25
472.654	94.25
472.873	95.25
473.092	95.25
473.311	106.25
473.53	93.25
473.749	94.25
473.968	97.25
474.187	102.25
474.406	106.25
474.625	93.25
474.844	95.25
475.063	104.25
475.282	93.25
475.501	99.25
475.72	95.25
475.939	104.25
476.158	96.25
476.377	107.25
476.596	105.25
476.814	88.25
477.033	91.25
477.252	96.25
477.471	108.25
477.69	97.25
477.908	99.25
478.127	92.25
478.346	98.25
478.564	100.25
478.783	96.25
479.002	100.25
479.22	90.25
479.439	100.25
479.658	86.25
479.876	90.25
480.095	92.25
480.313	91.25
480.532	95.25
480.751	91.25
480.969	98.25
481.188	83.25
481.406	99.25
481.624	83.25
481.843	102.25
482.061	87.25
482.28	80.25
482.498	97.25
482.717	96.25
482.935	95.25
483.153	90.25
483.372	104.25
483.59	96.25
483.808	110.25
484.027	100.25
484.245	108.25
484.463	95.25
484.681	97.25
484.9	98.25
485.118	104.25
485.336	97.25
485.554	97.25
485.772	87.25
485.99	85.25
486.209	91.25
486.427	87.25
486.645	85.25
486.863	103.25
487.081	110.25
487.299	105.25
487.517	105.25
487.735	119.25
487.953	108.25
488.171	119.25
488.389	110.25
488.607	100.25
488.825	97.25
489.043	93.25
489.261	102.25
489.479	87.25
489.696	104.25
489.914	88.25
490.132	101.25
490.35	98.25
490.568	95.25
490.786	96.25
491.003	105.25
491.221	111.25
491.439	118.25
491.657	123.25
491.874	114.25
492.092	121.25
492.31	128.25
492.527	111.25
492.745	122.25
492.963	124.25
493.18	116.25
493.398	104.25
493.615	103.25
493.833	105.25
494.05	101.25
494.268	106.25
494.485	90.25
494.703	107.25
494.92	107.25
495.138	110.25
495.355	111.25
495.573	110.25
495.79	97.25
496.008	113.25
496.225	98.25
496.442	100.25
496.66	118.25
496.877	105.25
497.094	106.25
497.312	109.25
497.529	98.25
497.746	90.25
497.963	101.25
498.181	94.25
498.398	85.25
498.615	99.25
498.832	85.25
499.049	83.25
499.267	104.25
499.484	85.25
499.701	108.25
499.918	113.25
500.135	105.25
500.352	108.25
500.569	104.25
500.786	97.25
501.003	104.25
501.22	91.25
501.437	110.25
501.654	110.25
501.871	98.25
502.088	102.25
502.305	90.25
502.522	91.25
502.739	93.25
502.956	91.25
503.172	104.25
503.389	96.25
503.606	85.25
503.823	108.25
504.04	88.25
504.256	98.25
504.473	110.25
504.69	104.25
504.907	105.25
505.123	95.25
505.34	106.25
505.557	103.25
505.773	109.25
505.99	109.25
506.207	97.25
506.423	101.25
506.64	102.25
506.856	108.25
507.073	109.25
507.289	100.25
507.506	103.25
507.722	81.25
507.939	94.25
508.155	105.25
508.372	87.25
508.588	120.25
508.805	95.25
509.021	97.25
509.238	97.25
509.454	106.25
509.67	97.25
509.887	108.25
510.103	105.25
510.319	101.25
510.536	80.25
510.752	93.25
510.968	87.25
511.184	103.25
511.401	100.25
511.617	103.25
511.833	96.25
512.049	103.25
512.265	86.25
512.481	101.25
512.698	90.25
512.914	89.25
513.13	90.25
513.346	96.25
513.562	95.25
513.778	89.25
513.994	88.25
514.21	82.25
514.426	96.25
514.642	94.25
514.858	94.25
515.074	84.25
515.29	108.25
515.506	91.25
