Data from NiCl2@0.5M.TitratingCurve.Agarose3%dH2O.NegLispCup.LampEnergy10.LIBS07252019_HRD10591_18-21-31-571.txt Node
Date: Thu Jul 25 18:21:31 EDT 2019
User: cochatt
Spectrometer: HR+D1059
Trigger mode: 1
Integration Time (sec): 1.000000E-1
Scans to average: 1
Electric dark correction enabled: true
Nonlinearity correction enabled: false
Boxcar width: 0
XAxis mode: Wavelengths
Number of Pixels in Spectrum: 2048
>>>>>Begin Spectral Data<<<<<
223.165	-22.62
223.4	-22.62
223.635	-22.62
223.869	-12.62
224.104	-12.62
224.338	-17.62
224.573	-14.62
224.808	-25.62
225.042	-12.62
225.277	-3.62
225.511	-4.62
225.746	8.38
225.98	9.38
226.215	-4.62
226.449	16.38
226.683	28.38
226.918	31.38
227.152	37.38
227.387	22.38
227.621	29.38
227.856	56.38
228.09	38.38
228.324	32.38
228.559	59.38
228.793	70.38
229.027	121.38
229.262	119.38
229.496	120.38
229.73	124.38
229.964	135.38
230.199	121.38
230.433	152.38
230.667	133.38
230.901	155.38
231.136	127.38
231.37	141.38
231.604	156.38
231.838	137.38
232.072	136.38
232.306	159.38
232.541	141.38
232.775	172.38
233.009	135.38
233.243	159.38
233.477	149.38
233.711	162.38
233.945	137.38
234.179	171.38
234.413	152.38
234.647	160.38
234.881	159.38
235.115	162.38
235.349	146.38
235.583	158.38
235.817	161.38
236.051	145.38
236.285	167.38
236.519	163.38
236.753	155.38
236.987	161.38
237.221	157.38
237.455	164.38
237.689	159.38
237.922	179.38
238.156	169.38
238.39	174.38
238.624	179.38
238.858	163.38
239.091	164.38
239.325	166.38
239.559	187.38
239.793	184.38
240.027	201.38
240.26	183.38
240.494	185.38
240.728	195.38
240.961	184.38
241.195	200.38
241.429	197.38
241.662	200.38
241.896	193.38
242.13	197.38
242.363	193.38
242.597	195.38
242.83	191.38
243.064	221.38
243.298	210.38
243.531	214.38
243.765	211.38
243.998	215.38
244.232	214.38
244.465	224.38
244.699	229.38
244.932	236.38
245.166	226.38
245.399	208.38
245.633	221.38
245.866	245.38
246.099	217.38
246.333	223.38
246.566	208.38
246.8	226.38
247.033	233.38
247.266	235.38
247.5	217.38
247.733	243.38
247.966	243.38
248.2	243.38
248.433	256.38
248.666	249.38
248.899	250.38
249.133	256.38
249.366	277.38
249.599	281.38
249.832	265.38
250.066	256.38
250.299	264.38
250.532	275.38
250.765	266.38
250.998	253.38
251.231	268.38
251.465	279.38
251.698	274.38
251.931	274.38
252.164	289.38
252.397	266.38
252.63	292.38
252.863	289.38
253.096	276.38
253.329	279.38
253.562	273.38
253.795	312.38
254.028	287.38
254.261	299.38
254.494	285.38
254.727	294.38
254.96	309.38
255.193	299.38
255.426	305.38
255.659	293.38
255.892	296.38
256.124	294.38
256.357	294.38
256.59	306.38
256.823	307.38
257.056	299.38
257.289	299.38
257.521	327.38
257.754	339.38
257.987	319.38
258.22	316.38
258.452	314.38
258.685	322.38
258.918	322.38
259.151	326.38
259.383	316.38
259.616	327.38
259.849	319.38
260.081	326.38
260.314	347.38
260.547	332.38
260.779	313.38
261.012	329.38
261.244	328.38
261.477	339.38
261.71	343.38
261.942	342.38
262.175	342.38
262.407	330.38
262.64	337.38
262.872	354.38
263.105	358.38
263.337	347.38
263.57	334.38
263.802	362.38
264.035	352.38
264.267	373.38
264.499	348.38
264.732	364.38
264.964	355.38
265.197	357.38
265.429	367.38
265.661	360.38
265.894	377.38
266.126	380.38
266.358	370.38
266.591	401.38
266.823	388.38
267.055	381.38
267.287	374.38
267.52	369.38
267.752	389.38
267.984	390.38
268.216	397.38
268.448	403.38
268.681	378.38
268.913	397.38
269.145	379.38
269.377	379.38
269.609	383.38
269.841	379.38
270.073	401.38
270.306	409.38
270.538	392.38
270.77	411.38
271.002	393.38
271.234	392.38
271.466	396.38
271.698	419.38
271.93	402.38
272.162	417.38
272.394	437.38
272.626	413.38
272.858	432.38
273.09	416.38
273.322	425.38
273.553	420.38
273.785	413.38
274.017	433.38
274.249	436.38
274.481	439.38
274.713	439.38
274.945	434.38
275.176	431.38
275.408	435.38
275.64	445.38
275.872	453.38
276.104	473.38
276.335	448.38
276.567	461.38
276.799	439.38
277.031	465.38
277.262	469.38
277.494	456.38
277.726	467.38
277.957	440.38
278.189	472.38
278.421	466.38
278.652	470.38
278.884	479.38
279.115	466.38
279.347	490.38
279.579	468.38
279.81	470.38
280.042	459.38
280.273	479.38
280.505	505.38
280.736	463.38
280.968	505.38
281.199	485.38
281.431	476.38
281.662	503.38
281.894	485.38
282.125	487.38
282.356	481.38
282.588	492.38
282.819	482.38
283.051	504.38
283.282	531.38
283.513	502.38
283.745	532.38
283.976	521.38
284.207	507.38
284.439	515.38
284.67	532.38
284.901	536.38
285.132	531.38
285.364	501.38
285.595	518.38
285.826	537.38
286.057	507.38
286.288	554.38
286.52	544.38
286.751	547.38
286.982	524.38
287.213	549.38
287.444	538.38
287.675	561.38
287.906	520.38
288.138	532.38
288.369	546.38
288.6	561.38
288.831	552.38
289.062	565.38
289.293	572.38
289.524	571.38
289.755	554.38
289.986	535.38
290.217	531.38
290.448	583.38
290.679	576.38
290.91	552.38
291.141	569.38
291.371	576.38
291.602	573.38
291.833	553.38
292.064	573.38
292.295	557.38
292.526	568.38
292.757	557.38
292.987	554.38
293.218	546.38
293.449	551.38
293.68	581.38
293.91	576.38
294.141	556.38
294.372	557.38
294.603	564.38
294.833	571.38
295.064	582.38
295.295	597.38
295.525	567.38
295.756	571.38
295.987	578.38
296.217	597.38
296.448	618.38
296.679	602.38
296.909	606.38
297.14	602.38
297.37	580.38
297.601	611.38
297.831	598.38
298.062	622.38
298.292	614.38
298.523	618.38
298.753	649.38
298.984	631.38
299.214	608.38
299.445	631.38
299.675	633.38
299.905	626.38
300.136	613.38
300.366	618.38
300.597	644.38
300.827	633.38
301.057	647.38
301.288	665.38
301.518	657.38
301.748	647.38
301.979	648.38
302.209	644.38
302.439	665.38
302.669	643.38
302.9	643.38
303.13	654.38
303.36	634.38
303.59	633.38
303.82	647.38
304.051	655.38
304.281	650.38
304.511	629.38
304.741	627.38
304.971	662.38
305.201	637.38
305.431	665.38
305.661	647.38
305.891	627.38
306.121	647.38
306.352	633.38
306.582	669.38
306.812	633.38
307.042	619.38
307.272	635.38
307.502	632.38
307.731	635.38
307.961	633.38
308.191	646.38
308.421	619.38
308.651	610.38
308.881	627.38
309.111	625.38
309.341	635.38
309.571	657.38
309.8	643.38
310.03	632.38
310.26	658.38
310.49	647.38
310.72	654.38
310.949	666.38
311.179	660.38
311.409	659.38
311.639	651.38
311.868	658.38
312.098	667.38
312.328	656.38
312.557	665.38
312.787	669.38
313.017	684.38
313.246	698.38
313.476	707.38
313.706	717.38
313.935	691.38
314.165	703.38
314.394	687.38
314.624	691.38
314.853	692.38
315.083	680.38
315.312	681.38
315.542	689.38
315.771	698.38
316.001	681.38
316.23	681.38
316.46	667.38
316.689	733.38
316.919	698.38
317.148	675.38
317.377	667.38
317.607	687.38
317.836	681.38
318.065	661.38
318.295	667.38
318.524	672.38
318.753	675.38
318.983	676.38
319.212	684.38
319.441	699.38
319.67	659.38
319.9	675.38
320.129	680.38
320.358	711.38
320.587	678.38
320.816	661.38
321.046	693.38
321.275	666.38
321.504	699.38
321.733	700.38
321.962	698.38
322.191	680.38
322.42	684.38
322.649	694.38
322.878	698.38
323.108	687.38
323.337	687.38
323.566	703.38
323.795	704.38
324.024	701.38
324.253	695.38
324.482	698.38
324.71	727.38
324.939	713.38
325.168	709.38
325.397	714.38
325.626	732.38
325.855	738.38
326.084	747.38
326.313	736.38
326.542	723.38
326.77	742.38
326.999	741.38
327.228	736.38
327.457	752.38
327.686	728.38
327.914	728.38
328.143	757.38
328.372	731.38
328.6	736.38
328.829	738.38
329.058	769.38
329.287	744.38
329.515	757.38
329.744	723.38
329.972	738.38
330.201	774.38
330.43	724.38
330.658	765.38
330.887	745.38
331.115	787.38
331.344	809.38
331.572	812.38
331.801	823.38
332.03	837.38
332.258	834.38
332.486	836.38
332.715	886.38
332.943	913.38
333.172	934.38
333.4	978.38
333.629	996.38
333.857	1026.38
334.085	968.38
334.314	987.38
334.542	971.38
334.771	935.38
334.999	935.38
335.227	941.38
335.455	964.38
335.684	933.38
335.912	905.38
336.14	900.38
336.369	871.38
336.597	911.38
336.825	915.38
337.053	907.38
337.281	879.38
337.51	855.38
337.738	851.38
337.966	826.38
338.194	849.38
338.422	817.38
338.65	841.38
338.878	821.38
339.106	834.38
339.334	851.38
339.562	808.38
339.79	796.38
340.018	789.38
340.246	762.38
340.474	762.38
340.702	795.38
340.93	786.38
341.158	780.38
341.386	785.38
341.614	791.38
341.842	812.38
342.07	784.38
342.298	775.38
342.526	790.38
342.754	778.38
342.981	768.38
343.209	810.38
343.437	823.38
343.665	909.38
343.893	914.38
344.12	957.38
344.348	923.38
344.576	889.38
344.804	867.38
345.031	826.38
345.259	808.38
345.487	775.38
345.714	785.38
345.942	776.38
346.17	787.38
346.397	748.38
346.625	756.38
346.853	764.38
347.08	756.38
347.308	745.38
347.535	723.38
347.763	739.38
347.99	723.38
348.218	747.38
348.445	756.38
348.673	719.38
348.9	724.38
349.128	737.38
349.355	742.38
349.583	776.38
349.81	726.38
350.037	725.38
350.265	729.38
350.492	729.38
350.72	732.38
350.947	731.38
351.174	753.38
351.402	731.38
351.629	738.38
351.856	748.38
352.083	719.38
352.311	731.38
352.538	761.38
352.765	732.38
352.992	720.38
353.22	700.38
353.447	679.38
353.674	706.38
353.901	710.38
354.128	720.38
354.355	708.38
354.583	693.38
354.81	694.38
355.037	726.38
355.264	685.38
355.491	723.38
355.718	706.38
355.945	711.38
356.172	733.38
356.399	729.38
356.626	723.38
356.853	725.38
357.08	706.38
357.307	704.38
357.534	716.38
357.761	720.38
357.988	728.38
358.215	724.38
358.441	711.38
358.668	716.38
358.895	717.38
359.122	708.38
359.349	703.38
359.576	726.38
359.802	717.38
360.029	694.38
360.256	694.38
360.483	708.38
360.709	707.38
360.936	731.38
361.163	715.38
361.39	730.38
361.616	723.38
361.843	703.38
362.07	744.38
362.296	722.38
362.523	715.38
362.749	722.38
362.976	715.38
363.203	711.38
363.429	725.38
363.656	713.38
363.882	706.38
364.109	699.38
364.335	722.38
364.562	710.38
364.788	691.38
365.015	714.38
365.241	723.38
365.468	729.38
365.694	693.38
365.92	714.38
366.147	694.38
366.373	697.38
366.599	730.38
366.826	691.38
367.052	711.38
367.278	733.38
367.505	740.38
367.731	714.38
367.957	714.38
368.184	723.38
368.41	713.38
368.636	731.38
368.862	727.38
369.089	730.38
369.315	747.38
369.541	733.38
369.767	709.38
369.993	728.38
370.219	742.38
370.445	762.38
370.672	759.38
370.898	746.38
371.124	755.38
371.35	761.38
371.576	772.38
371.802	769.38
372.028	753.38
372.254	755.38
372.48	775.38
372.706	786.38
372.932	837.38
373.158	786.38
373.384	809.38
373.61	751.38
373.835	781.38
374.061	779.38
374.287	785.38
374.513	801.38
374.739	806.38
374.965	842.38
375.191	851.38
375.416	831.38
375.642	809.38
375.868	801.38
376.094	823.38
376.319	787.38
376.545	784.38
376.771	791.38
376.997	788.38
377.222	741.38
377.448	776.38
377.674	753.38
377.899	766.38
378.125	753.38
378.35	754.38
378.576	771.38
378.802	771.38
379.027	816.38
379.253	758.38
379.478	742.38
379.704	764.38
379.929	775.38
380.155	762.38
380.38	748.38
380.606	755.38
380.831	733.38
381.057	750.38
381.282	769.38
381.507	755.38
381.733	787.38
381.958	757.38
382.184	763.38
382.409	768.38
382.634	795.38
382.86	807.38
383.085	795.38
383.31	790.38
383.535	834.38
383.761	849.38
383.986	852.38
384.211	884.38
384.436	894.38
384.662	890.38
384.887	912.38
385.112	913.38
385.337	927.38
385.562	915.38
385.787	922.38
386.013	903.38
386.238	968.38
386.463	933.38
386.688	932.38
386.913	908.38
387.138	909.38
387.363	899.38
387.588	906.38
387.813	914.38
388.038	876.38
388.263	887.38
388.488	907.38
388.713	914.38
388.938	905.38
389.163	904.38
389.387	882.38
389.612	894.38
389.837	919.38
390.062	877.38
390.287	880.38
390.512	867.38
390.736	917.38
390.961	926.38
391.186	893.38
391.411	965.38
391.636	971.38
391.86	1059.38
392.085	1026.38
392.31	1021.38
392.534	1013.38
392.759	1002.38
392.984	974.38
393.208	984.38
393.433	967.38
393.658	956.38
393.882	977.38
394.107	977.38
394.331	979.38
394.556	969.38
394.78	991.38
395.005	988.38
395.229	1012.38
395.454	1011.38
395.678	1040.38
395.903	1040.38
396.127	1033.38
396.352	961.38
396.576	959.38
396.801	965.38
397.025	1002.38
397.249	989.38
397.474	1009.38
397.698	1035.38
397.922	1051.38
398.147	1029.38
398.371	1039.38
398.595	1079.38
398.82	1173.38
399.044	1196.38
399.268	1338.38
399.492	1527.38
399.717	1748.38
399.941	1717.38
400.165	1521.38
400.389	1395.38
400.613	1241.38
400.837	1220.38
401.062	1183.38
401.286	1163.38
401.51	1130.38
401.734	1139.38
401.958	1178.38
402.182	1199.38
402.406	1209.38
402.63	1204.38
402.854	1241.38
403.078	1258.38
403.302	1290.38
403.526	1327.38
403.75	1344.38
403.974	1333.38
404.198	1333.38
404.422	1374.38
404.645	1324.38
404.869	1272.38
405.093	1305.38
405.317	1271.38
405.541	1253.38
405.765	1240.38
405.988	1241.38
406.212	1259.38
406.436	1234.38
406.66	1286.38
406.883	1316.38
407.107	1388.38
407.331	1440.38
407.555	1467.38
407.778	1475.38
408.002	1461.38
408.226	1383.38
408.449	1348.38
408.673	1343.38
408.896	1285.38
409.12	1281.38
409.344	1303.38
409.567	1314.38
409.791	1281.38
410.014	1276.38
410.238	1269.38
410.461	1293.38
410.685	1279.38
410.908	1225.38
411.132	1186.38
411.355	1175.38
411.578	1201.38
411.802	1192.38
412.025	1235.38
412.249	1215.38
412.472	1230.38
412.695	1175.38
412.919	1155.38
413.142	1163.38
413.365	1177.38
413.589	1194.38
413.812	1153.38
414.035	1119.38
414.258	1159.38
414.482	1179.38
414.705	1172.38
414.928	1224.38
415.151	1176.38
415.374	1172.38
415.597	1142.38
415.821	1116.38
416.044	1137.38
416.267	1105.38
416.49	1125.38
416.713	1133.38
416.936	1123.38
417.159	1106.38
417.382	1140.38
417.605	1134.38
417.828	1137.38
418.051	1157.38
418.274	1149.38
418.497	1140.38
418.72	1181.38
418.943	1185.38
419.166	1258.38
419.389	1301.38
419.611	1281.38
419.834	1206.38
420.057	1184.38
420.28	1175.38
420.503	1144.38
420.726	1151.38
420.948	1131.38
421.171	1127.38
421.394	1160.38
421.617	1138.38
421.839	1133.38
422.062	1201.38
422.285	1127.38
422.507	1148.38
422.73	1216.38
422.953	1188.38
423.175	1233.38
423.398	1210.38
423.621	1212.38
423.843	1257.38
424.066	1223.38
424.288	1213.38
424.511	1189.38
424.733	1164.38
424.956	1183.38
425.178	1186.38
425.401	1163.38
425.623	1141.38
425.846	1112.38
426.068	1108.38
426.291	1102.38
426.513	1077.38
426.735	1065.38
426.958	1048.38
427.18	1065.38
427.402	1071.38
427.625	1045.38
427.847	1041.38
428.069	1028.38
428.292	1041.38
428.514	1039.38
428.736	1021.38
428.958	1029.38
429.181	1000.38
429.403	1012.38
429.625	1023.38
429.847	983.38
430.069	1016.38
430.292	1007.38
430.514	979.38
430.736	989.38
430.958	988.38
431.18	1001.38
431.402	1047.38
431.624	1007.38
431.846	1042.38
432.068	1003.38
432.29	1043.38
432.512	1016.38
432.734	1032.38
432.956	1032.38
433.178	1036.38
433.4	1062.38
433.622	1045.38
433.844	1044.38
434.066	1024.38
434.287	1052.38
434.509	1083.38
434.731	1148.38
434.953	1132.38
435.175	1179.38
435.397	1157.38
435.618	1087.38
435.84	1079.38
436.062	1028.38
436.284	1029.38
436.505	1010.38
436.727	1032.38
436.949	1024.38
437.17	1033.38
437.392	998.38
437.614	993.38
437.835	969.38
438.057	964.38
438.278	1003.38
438.5	970.38
438.721	980.38
438.943	1000.38
439.165	996.38
439.386	1015.38
439.608	1045.38
439.829	1025.38
440.05	1027.38
440.272	1059.38
440.493	1048.38
440.715	1046.38
440.936	1077.38
441.158	1093.38
441.379	1101.38
441.6	1139.38
441.822	1167.38
442.043	1187.38
442.264	1147.38
442.486	1114.38
442.707	1137.38
442.928	1132.38
443.149	1143.38
443.371	1119.38
443.592	1149.38
443.813	1133.38
444.034	1144.38
444.255	1203.38
444.476	1266.38
444.698	1359.38
444.919	1401.38
445.14	1434.38
445.361	1291.38
445.582	1173.38
445.803	1125.38
446.024	1124.38
446.245	1089.38
446.466	1101.38
446.687	1043.38
446.908	1024.38
447.129	1038.38
447.35	1001.38
447.571	1014.38
447.792	992.38
448.013	986.38
448.234	941.38
448.455	973.38
448.675	1002.38
448.896	984.38
449.117	922.38
449.338	949.38
449.559	931.38
449.779	947.38
450	945.38
450.221	952.38
450.442	948.38
450.662	969.38
450.883	947.38
451.104	976.38
451.324	955.38
451.545	965.38
451.766	965.38
451.986	955.38
452.207	962.38
452.428	969.38
452.648	972.38
452.869	924.38
453.089	904.38
453.31	928.38
453.53	924.38
453.751	929.38
453.971	904.38
454.192	916.38
454.412	897.38
454.633	910.38
454.853	901.38
455.073	904.38
455.294	907.38
455.514	916.38
455.734	900.38
455.955	888.38
456.175	913.38
456.395	888.38
456.616	909.38
456.836	887.38
457.056	899.38
457.276	892.38
457.497	896.38
457.717	880.38
457.937	861.38
458.157	890.38
458.377	888.38
458.598	930.38
458.818	951.38
459.038	975.38
459.258	1007.38
459.478	1037.38
459.698	1067.38
459.918	1098.38
460.138	1143.38
460.358	1209.38
460.578	1239.38
460.798	1223.38
461.018	1224.38
461.238	1219.38
461.458	1204.38
461.678	1231.38
461.898	1237.38
462.118	1245.38
462.338	1348.38
462.558	1343.38
462.777	1396.38
462.997	1519.38
463.217	1610.38
463.437	1632.38
463.657	1491.38
463.876	1443.38
464.096	1434.38
464.316	1412.38
464.536	1440.38
464.755	1359.38
464.975	1322.38
465.195	1252.38
465.414	1199.38
465.634	1109.38
465.854	1098.38
466.073	1089.38
466.293	1064.38
466.512	1037.38
466.732	981.38
466.951	1023.38
467.171	1003.38
467.391	973.38
467.61	1024.38
467.829	992.38
468.049	989.38
468.268	949.38
468.488	970.38
468.707	971.38
468.927	948.38
469.146	941.38
469.365	1007.38
469.585	995.38
469.804	1027.38
470.023	1045.38
470.243	987.38
470.462	1063.38
470.681	1060.38
470.901	1049.38
471.12	1010.38
471.339	1009.38
471.558	978.38
471.777	977.38
471.997	1007.38
472.216	965.38
472.435	959.38
472.654	943.38
472.873	928.38
473.092	940.38
473.311	917.38
473.53	935.38
473.749	949.38
473.968	920.38
474.187	935.38
474.406	937.38
474.625	948.38
474.844	942.38
475.063	938.38
475.282	928.38
475.501	944.38
475.72	915.38
475.939	947.38
476.158	958.38
476.377	988.38
476.596	971.38
476.814	977.38
477.033	991.38
477.252	969.38
477.471	1021.38
477.69	1047.38
477.908	1088.38
478.127	1096.38
478.346	1112.38
478.564	1153.38
478.783	1099.38
479.002	1211.38
479.22	1223.38
479.439	1153.38
479.658	1164.38
479.876	1149.38
480.095	1178.38
480.313	1253.38
480.532	1274.38
480.751	1255.38
480.969	1197.38
481.188	1120.38
481.406	1129.38
481.624	1095.38
481.843	1081.38
482.061	1100.38
482.28	1067.38
482.498	1063.38
482.717	1049.38
482.935	1106.38
483.153	1050.38
483.372	1084.38
483.59	1084.38
483.808	1058.38
484.027	1065.38
484.245	1099.38
484.463	1083.38
484.681	1114.38
484.9	1116.38
485.118	1115.38
485.336	1088.38
485.554	1104.38
485.772	1137.38
485.99	1129.38
486.209	1131.38
486.427	1144.38
486.645	1115.38
486.863	1128.38
487.081	1140.38
487.299	1094.38
487.517	1103.38
487.735	1126.38
487.953	1160.38
488.171	1124.38
488.389	1123.38
488.607	1091.38
488.825	1106.38
489.043	1076.38
489.261	1113.38
489.479	1063.38
489.696	1124.38
489.914	1142.38
490.132	1106.38
490.35	1100.38
490.568	1116.38
490.786	1130.38
491.003	1114.38
491.221	1123.38
491.439	1112.38
491.657	1135.38
491.874	1125.38
492.092	1151.38
492.31	1173.38
492.527	1122.38
492.745	1175.38
492.963	1156.38
493.18	1196.38
493.398	1164.38
493.615	1167.38
493.833	1207.38
494.05	1197.38
494.268	1201.38
494.485	1202.38
494.703	1221.38
494.92	1231.38
495.138	1201.38
495.355	1182.38
495.573	1206.38
495.79	1183.38
496.008	1185.38
496.225	1228.38
496.442	1204.38
496.66	1288.38
