Data from NiCl2@0.25M.TitratingCurve.Agarose3%dH2O.NegLispCup.LampEnergy10.LIBS07252019_HRD10591_18-25-52-573.txt Node
Date: Thu Jul 25 18:25:52 EDT 2019
User: cochatt
Spectrometer: HR+D1059
Trigger mode: 1
Integration Time (sec): 1.000000E-1
Scans to average: 1
Electric dark correction enabled: true
Nonlinearity correction enabled: false
Boxcar width: 0
XAxis mode: Wavelengths
Number of Pixels in Spectrum: 2048
>>>>>Begin Spectral Data<<<<<
223.165	-13.5
223.4	-13.5
223.635	-13.5
223.869	-21.5
224.104	-18.5
224.338	-26.5
224.573	-18.5
224.808	-2.5
225.042	-5.5
225.277	-0.5
225.511	-1.5
225.746	-5.5
225.98	11.5
226.215	5.5
226.449	7.5
226.683	22.5
226.918	30.5
227.152	36.5
227.387	17.5
227.621	29.5
227.856	34.5
228.09	39.5
228.324	36.5
228.559	61.5
228.793	68.5
229.027	115.5
229.262	138.5
229.496	125.5
229.73	130.5
229.964	162.5
230.199	139.5
230.433	145.5
230.667	146.5
230.901	150.5
231.136	163.5
231.37	154.5
231.604	160.5
231.838	175.5
232.072	186.5
232.306	167.5
232.541	174.5
232.775	174.5
233.009	181.5
233.243	185.5
233.477	177.5
233.711	165.5
233.945	172.5
234.179	182.5
234.413	195.5
234.647	166.5
234.881	184.5
235.115	184.5
235.349	192.5
235.583	198.5
235.817	170.5
236.051	180.5
236.285	184.5
236.519	190.5
236.753	177.5
236.987	191.5
237.221	200.5
237.455	196.5
237.689	188.5
237.922	197.5
238.156	206.5
238.39	205.5
238.624	208.5
238.858	223.5
239.091	211.5
239.325	205.5
239.559	211.5
239.793	211.5
240.027	242.5
240.26	244.5
240.494	219.5
240.728	236.5
240.961	241.5
241.195	240.5
241.429	241.5
241.662	214.5
241.896	238.5
242.13	221.5
242.363	236.5
242.597	274.5
242.83	256.5
243.064	268.5
243.298	246.5
243.531	252.5
243.765	288.5
243.998	266.5
244.232	257.5
244.465	263.5
244.699	262.5
244.932	277.5
245.166	286.5
245.399	281.5
245.633	271.5
245.866	285.5
246.099	274.5
246.333	292.5
246.566	293.5
246.8	275.5
247.033	294.5
247.266	302.5
247.5	305.5
247.733	309.5
247.966	310.5
248.2	324.5
248.433	313.5
248.666	305.5
248.899	325.5
249.133	311.5
249.366	300.5
249.599	333.5
249.832	319.5
250.066	310.5
250.299	310.5
250.532	334.5
250.765	346.5
250.998	341.5
251.231	319.5
251.465	343.5
251.698	345.5
251.931	345.5
252.164	346.5
252.397	366.5
252.63	356.5
252.863	351.5
253.096	358.5
253.329	345.5
253.562	357.5
253.795	380.5
254.028	365.5
254.261	358.5
254.494	378.5
254.727	375.5
254.96	357.5
255.193	364.5
255.426	378.5
255.659	381.5
255.892	400.5
256.124	384.5
256.357	362.5
256.59	369.5
256.823	380.5
257.056	391.5
257.289	398.5
257.521	388.5
257.754	379.5
257.987	403.5
258.22	398.5
258.452	403.5
258.685	406.5
258.918	410.5
259.151	378.5
259.383	412.5
259.616	402.5
259.849	415.5
260.081	422.5
260.314	428.5
260.547	423.5
260.779	437.5
261.012	421.5
261.244	424.5
261.477	422.5
261.71	439.5
261.942	454.5
262.175	447.5
262.407	455.5
262.64	418.5
262.872	438.5
263.105	429.5
263.337	449.5
263.57	445.5
263.802	464.5
264.035	460.5
264.267	454.5
264.499	466.5
264.732	469.5
264.964	471.5
265.197	480.5
265.429	490.5
265.661	478.5
265.894	475.5
266.126	463.5
266.358	466.5
266.591	500.5
266.823	481.5
267.055	455.5
267.287	490.5
267.52	485.5
267.752	485.5
267.984	486.5
268.216	509.5
268.448	506.5
268.681	502.5
268.913	508.5
269.145	504.5
269.377	506.5
269.609	514.5
269.841	525.5
270.073	503.5
270.306	528.5
270.538	516.5
270.77	503.5
271.002	509.5
271.234	523.5
271.466	498.5
271.698	517.5
271.93	519.5
272.162	526.5
272.394	554.5
272.626	539.5
272.858	527.5
273.09	545.5
273.322	532.5
273.553	544.5
273.785	554.5
274.017	533.5
274.249	545.5
274.481	542.5
274.713	547.5
274.945	560.5
275.176	555.5
275.408	579.5
275.64	566.5
275.872	571.5
276.104	580.5
276.335	590.5
276.567	588.5
276.799	586.5
277.031	596.5
277.262	586.5
277.494	581.5
277.726	583.5
277.957	596.5
278.189	584.5
278.421	588.5
278.652	587.5
278.884	593.5
279.115	602.5
279.347	614.5
279.579	607.5
279.81	624.5
280.042	584.5
280.273	617.5
280.505	636.5
280.736	622.5
280.968	634.5
281.199	618.5
281.431	629.5
281.662	602.5
281.894	636.5
282.125	630.5
282.356	644.5
282.588	654.5
282.819	627.5
283.051	655.5
283.282	642.5
283.513	660.5
283.745	669.5
283.976	650.5
284.207	674.5
284.439	659.5
284.67	677.5
284.901	683.5
285.132	679.5
285.364	658.5
285.595	668.5
285.826	690.5
286.057	675.5
286.288	680.5
286.52	680.5
286.751	695.5
286.982	730.5
287.213	694.5
287.444	689.5
287.675	694.5
287.906	689.5
288.138	704.5
288.369	689.5
288.6	710.5
288.831	718.5
289.062	742.5
289.293	696.5
289.524	693.5
289.755	711.5
289.986	712.5
290.217	690.5
290.448	720.5
290.679	724.5
290.91	727.5
291.141	751.5
291.371	715.5
291.602	718.5
291.833	716.5
292.064	744.5
292.295	714.5
292.526	718.5
292.757	754.5
292.987	711.5
293.218	728.5
293.449	749.5
293.68	740.5
293.91	748.5
294.141	746.5
294.372	704.5
294.603	746.5
294.833	735.5
295.064	743.5
295.295	769.5
295.525	753.5
295.756	720.5
295.987	737.5
296.217	742.5
296.448	734.5
296.679	751.5
296.909	776.5
297.14	755.5
297.37	785.5
297.601	788.5
297.831	776.5
298.062	766.5
298.292	805.5
298.523	808.5
298.753	802.5
298.984	763.5
299.214	762.5
299.445	777.5
299.675	801.5
299.905	779.5
300.136	787.5
300.366	788.5
300.597	801.5
300.827	796.5
301.057	838.5
301.288	822.5
301.518	846.5
301.748	836.5
301.979	845.5
302.209	860.5
302.439	828.5
302.669	855.5
302.9	835.5
303.13	804.5
303.36	810.5
303.59	837.5
303.82	824.5
304.051	815.5
304.281	821.5
304.511	827.5
304.741	831.5
304.971	816.5
305.201	822.5
305.431	836.5
305.661	830.5
305.891	818.5
306.121	815.5
306.352	802.5
306.582	822.5
306.812	818.5
307.042	792.5
307.272	816.5
307.502	812.5
307.731	783.5
307.961	782.5
308.191	811.5
308.421	789.5
308.651	805.5
308.881	766.5
309.111	846.5
309.341	817.5
309.571	805.5
309.8	807.5
310.03	773.5
310.26	833.5
310.49	815.5
310.72	817.5
310.949	825.5
311.179	799.5
311.409	801.5
311.639	830.5
311.868	818.5
312.098	820.5
312.328	843.5
312.557	858.5
312.787	862.5
313.017	837.5
313.246	846.5
313.476	861.5
313.706	858.5
313.935	864.5
314.165	875.5
314.394	866.5
314.624	884.5
314.853	874.5
315.083	846.5
315.312	881.5
315.542	878.5
315.771	868.5
316.001	838.5
316.23	860.5
316.46	842.5
316.689	848.5
316.919	876.5
317.148	876.5
317.377	862.5
317.607	874.5
317.836	823.5
318.065	852.5
318.295	853.5
318.524	858.5
318.753	842.5
318.983	851.5
319.212	854.5
319.441	865.5
319.67	865.5
319.9	866.5
320.129	827.5
320.358	862.5
320.587	830.5
320.816	847.5
321.046	843.5
321.275	864.5
321.504	863.5
321.733	836.5
321.962	885.5
322.191	852.5
322.42	868.5
322.649	856.5
322.878	872.5
323.108	861.5
323.337	878.5
323.566	846.5
323.795	905.5
324.024	896.5
324.253	890.5
324.482	870.5
324.71	881.5
324.939	918.5
325.168	916.5
325.397	896.5
325.626	902.5
325.855	912.5
326.084	926.5
326.313	965.5
326.542	910.5
326.77	930.5
326.999	917.5
327.228	930.5
327.457	899.5
327.686	944.5
327.914	921.5
328.143	928.5
328.372	928.5
328.6	914.5
328.829	928.5
329.058	926.5
329.287	959.5
329.515	951.5
329.744	964.5
329.972	920.5
330.201	934.5
330.43	911.5
330.658	957.5
330.887	944.5
331.115	962.5
331.344	980.5
331.572	1003.5
331.801	1039.5
332.03	1027.5
332.258	1032.5
332.486	1032.5
332.715	1110.5
332.943	1135.5
333.172	1194.5
333.4	1189.5
333.629	1208.5
333.857	1267.5
334.085	1243.5
334.314	1231.5
334.542	1209.5
334.771	1238.5
334.999	1182.5
335.227	1215.5
335.455	1207.5
335.684	1187.5
335.912	1157.5
336.14	1172.5
336.369	1138.5
336.597	1134.5
336.825	1158.5
337.053	1126.5
337.281	1113.5
337.51	1098.5
337.738	1097.5
337.966	1053.5
338.194	1047.5
338.422	1038.5
338.65	1007.5
338.878	1023.5
339.106	1022.5
339.334	1043.5
339.562	1047.5
339.79	996.5
340.018	963.5
340.246	972.5
340.474	977.5
340.702	972.5
340.93	971.5
341.158	974.5
341.386	976.5
341.614	1009.5
341.842	1007.5
342.07	991.5
342.298	968.5
342.526	1002.5
342.754	980.5
342.981	977.5
343.209	955.5
343.437	1042.5
343.665	1102.5
343.893	1184.5
344.12	1187.5
344.348	1182.5
344.576	1122.5
344.804	1083.5
345.031	1038.5
345.259	1022.5
345.487	999.5
345.714	966.5
345.942	962.5
346.17	987.5
346.397	960.5
346.625	952.5
346.853	946.5
347.08	925.5
347.308	930.5
347.535	930.5
347.763	943.5
347.99	927.5
348.218	941.5
348.445	912.5
348.673	895.5
348.9	909.5
349.128	946.5
349.355	958.5
349.583	924.5
349.81	902.5
350.037	926.5
350.265	906.5
350.492	896.5
350.72	935.5
350.947	916.5
351.174	915.5
351.402	918.5
351.629	901.5
351.856	902.5
352.083	877.5
352.311	920.5
352.538	910.5
352.765	912.5
352.992	885.5
353.22	876.5
353.447	872.5
353.674	876.5
353.901	862.5
354.128	896.5
354.355	896.5
354.583	903.5
354.81	883.5
355.037	899.5
355.264	888.5
355.491	904.5
355.718	915.5
355.945	916.5
356.172	909.5
356.399	915.5
356.626	883.5
356.853	904.5
357.08	905.5
357.307	889.5
357.534	883.5
357.761	915.5
357.988	905.5
358.215	917.5
358.441	903.5
358.668	932.5
358.895	913.5
359.122	893.5
359.349	925.5
359.576	919.5
359.802	914.5
360.029	926.5
360.256	940.5
360.483	911.5
360.709	887.5
360.936	922.5
361.163	909.5
361.39	889.5
361.616	894.5
361.843	912.5
362.07	901.5
362.296	903.5
362.523	897.5
362.749	906.5
362.976	892.5
363.203	885.5
363.429	874.5
363.656	911.5
363.882	861.5
364.109	908.5
364.335	883.5
364.562	918.5
364.788	878.5
365.015	897.5
365.241	890.5
365.468	889.5
365.694	885.5
365.92	904.5
366.147	890.5
366.373	880.5
366.599	899.5
366.826	882.5
367.052	895.5
367.278	874.5
367.505	892.5
367.731	929.5
367.957	859.5
368.184	908.5
368.41	930.5
368.636	891.5
368.862	907.5
369.089	900.5
369.315	921.5
369.541	913.5
369.767	929.5
369.993	945.5
370.219	960.5
370.445	944.5
370.672	938.5
370.898	945.5
371.124	975.5
371.35	974.5
371.576	977.5
371.802	993.5
372.028	988.5
372.254	970.5
372.48	984.5
372.706	1007.5
372.932	1024.5
373.158	1020.5
373.384	1002.5
373.61	1021.5
373.835	992.5
374.061	988.5
374.287	973.5
374.513	996.5
374.739	1068.5
374.965	1049.5
375.191	1115.5
375.416	1101.5
375.642	1059.5
375.868	1049.5
376.094	1028.5
376.319	991.5
376.545	1004.5
376.771	980.5
376.997	1004.5
377.222	968.5
377.448	964.5
377.674	968.5
377.899	968.5
378.125	957.5
378.35	993.5
378.576	964.5
378.802	946.5
379.027	969.5
379.253	952.5
379.478	967.5
379.704	973.5
379.929	960.5
380.155	952.5
380.38	978.5
380.606	969.5
380.831	960.5
381.057	972.5
381.282	990.5
381.507	994.5
381.733	987.5
381.958	1001.5
382.184	1005.5
382.409	1013.5
382.634	1004.5
382.86	999.5
383.085	1062.5
383.31	1046.5
383.535	1067.5
383.761	1082.5
383.986	1071.5
384.211	1105.5
384.436	1117.5
384.662	1154.5
384.887	1152.5
385.112	1161.5
385.337	1155.5
385.562	1214.5
385.787	1173.5
386.013	1221.5
386.238	1224.5
386.463	1194.5
386.688	1222.5
386.913	1211.5
387.138	1192.5
387.363	1219.5
387.588	1210.5
387.813	1183.5
388.038	1176.5
388.263	1197.5
388.488	1222.5
388.713	1200.5
388.938	1165.5
389.163	1142.5
389.387	1155.5
389.612	1123.5
389.837	1183.5
390.062	1160.5
390.287	1175.5
390.512	1175.5
390.736	1174.5
390.961	1222.5
391.186	1212.5
391.411	1244.5
391.636	1286.5
391.86	1347.5
392.085	1357.5
392.31	1410.5
392.534	1334.5
392.759	1328.5
392.984	1304.5
393.208	1272.5
393.433	1297.5
393.658	1271.5
393.882	1262.5
394.107	1296.5
394.331	1288.5
394.556	1263.5
394.78	1265.5
395.005	1277.5
395.229	1283.5
395.454	1303.5
395.678	1339.5
395.903	1356.5
396.127	1358.5
396.352	1308.5
396.576	1271.5
396.801	1309.5
397.025	1311.5
397.249	1344.5
397.474	1357.5
397.698	1358.5
397.922	1347.5
398.147	1350.5
398.371	1379.5
398.595	1443.5
398.82	1528.5
399.044	1636.5
399.268	1745.5
399.492	1958.5
399.717	2224.5
399.941	2285.5
400.165	2068.5
400.389	1903.5
400.613	1750.5
400.837	1588.5
401.062	1584.5
401.286	1556.5
401.51	1517.5
401.734	1510.5
401.958	1555.5
402.182	1540.5
402.406	1564.5
402.63	1595.5
402.854	1610.5
403.078	1620.5
403.302	1658.5
403.526	1692.5
403.75	1721.5
403.974	1710.5
404.198	1700.5
404.422	1730.5
404.645	1731.5
404.869	1701.5
405.093	1694.5
405.317	1658.5
405.541	1695.5
405.765	1678.5
405.988	1672.5
406.212	1694.5
406.436	1684.5
406.66	1710.5
406.883	1731.5
407.107	1832.5
407.331	1932.5
407.555	1959.5
407.778	1955.5
408.002	1939.5
408.226	1884.5
408.449	1861.5
408.673	1782.5
408.896	1718.5
409.12	1691.5
409.344	1730.5
409.567	1729.5
409.791	1736.5
410.014	1713.5
410.238	1683.5
410.461	1655.5
410.685	1679.5
410.908	1636.5
411.132	1614.5
411.355	1581.5
411.578	1536.5
411.802	1573.5
412.025	1599.5
412.249	1598.5
412.472	1596.5
412.695	1559.5
412.919	1520.5
413.142	1526.5
413.365	1500.5
413.589	1540.5
413.812	1514.5
414.035	1498.5
414.258	1502.5
414.482	1480.5
414.705	1575.5
414.928	1558.5
415.151	1530.5
415.374	1506.5
415.597	1515.5
415.821	1479.5
416.044	1469.5
416.267	1486.5
416.49	1465.5
416.713	1475.5
416.936	1443.5
417.159	1447.5
417.382	1495.5
417.605	1456.5
417.828	1451.5
418.051	1496.5
418.274	1480.5
418.497	1516.5
418.72	1506.5
418.943	1510.5
419.166	1618.5
419.389	1757.5
419.611	1714.5
419.834	1592.5
420.057	1567.5
420.28	1476.5
420.503	1439.5
420.726	1517.5
420.948	1462.5
421.171	1483.5
421.394	1524.5
421.617	1472.5
421.839	1476.5
422.062	1478.5
422.285	1470.5
422.507	1510.5
422.73	1513.5
422.953	1484.5
423.175	1516.5
423.398	1545.5
423.621	1509.5
423.843	1523.5
424.066	1570.5
424.288	1556.5
424.511	1556.5
424.733	1534.5
424.956	1509.5
425.178	1526.5
425.401	1499.5
425.623	1482.5
425.846	1451.5
426.068	1440.5
426.291	1404.5
426.513	1370.5
426.735	1390.5
426.958	1386.5
427.18	1378.5
427.402	1348.5
427.625	1333.5
427.847	1349.5
428.069	1359.5
428.292	1352.5
428.514	1332.5
428.736	1316.5
428.958	1317.5
429.181	1326.5
429.403	1278.5
429.625	1302.5
429.847	1255.5
430.069	1295.5
430.292	1312.5
430.514	1274.5
430.736	1288.5
430.958	1293.5
431.18	1295.5
431.402	1275.5
431.624	1298.5
431.846	1316.5
432.068	1340.5
432.29	1332.5
432.512	1308.5
432.734	1347.5
432.956	1288.5
433.178	1315.5
433.4	1326.5
433.622	1321.5
433.844	1359.5
434.066	1322.5
434.287	1356.5
434.509	1402.5
434.731	1468.5
434.953	1482.5
435.175	1529.5
435.397	1461.5
435.618	1390.5
435.84	1377.5
436.062	1330.5
436.284	1333.5
436.505	1317.5
436.727	1315.5
436.949	1318.5
437.17	1278.5
437.392	1244.5
437.614	1239.5
437.835	1230.5
438.057	1262.5
438.278	1213.5
438.5	1245.5
438.721	1249.5
438.943	1267.5
439.165	1267.5
439.386	1238.5
439.608	1285.5
439.829	1294.5
440.05	1304.5
440.272	1333.5
440.493	1339.5
440.715	1320.5
440.936	1320.5
441.158	1339.5
441.379	1397.5
441.6	1440.5
441.822	1484.5
442.043	1495.5
442.264	1476.5
442.486	1422.5
442.707	1446.5
442.928	1400.5
443.149	1435.5
443.371	1424.5
443.592	1436.5
443.813	1453.5
444.034	1471.5
444.255	1510.5
444.476	1598.5
444.698	1669.5
444.919	1712.5
445.14	1792.5
445.361	1641.5
445.582	1500.5
445.803	1442.5
446.024	1427.5
446.245	1376.5
446.466	1368.5
446.687	1362.5
446.908	1320.5
447.129	1262.5
447.35	1242.5
447.571	1267.5
447.792	1213.5
448.013	1228.5
448.234	1189.5
448.455	1170.5
448.675	1201.5
448.896	1203.5
449.117	1181.5
449.338	1141.5
449.559	1154.5
449.779	1164.5
450	1156.5
450.221	1183.5
450.442	1202.5
450.662	1189.5
450.883	1207.5
451.104	1211.5
451.324	1206.5
451.545	1212.5
451.766	1178.5
451.986	1174.5
452.207	1166.5
452.428	1156.5
452.648	1167.5
452.869	1101.5
453.089	1153.5
453.31	1154.5
453.53	1155.5
453.751	1152.5
453.971	1100.5
454.192	1138.5
454.412	1135.5
454.633	1112.5
454.853	1146.5
455.073	1116.5
455.294	1129.5
455.514	1080.5
455.734	1120.5
455.955	1096.5
456.175	1082.5
456.395	1070.5
456.616	1100.5
456.836	1110.5
457.056	1087.5
457.276	1101.5
457.497	1140.5
457.717	1107.5
457.937	1125.5
458.157	1107.5
458.377	1135.5
458.598	1197.5
458.818	1243.5
459.038	1270.5
459.258	1288.5
459.478	1353.5
459.698	1347.5
459.918	1389.5
460.138	1428.5
460.358	1473.5
460.578	1538.5
460.798	1543.5
461.018	1573.5
461.238	1520.5
461.458	1538.5
461.678	1518.5
461.898	1614.5
462.118	1629.5
462.338	1667.5
462.558	1688.5
462.777	1791.5
462.997	1903.5
463.217	1991.5
463.437	2008.5
463.657	1911.5
463.876	1815.5
464.096	1829.5
464.316	1834.5
464.536	1812.5
464.755	1767.5
464.975	1683.5
465.195	1592.5
465.414	1490.5
465.634	1439.5
465.854	1352.5
466.073	1327.5
466.293	1308.5
466.512	1295.5
466.732	1269.5
466.951	1235.5
467.171	1256.5
467.391	1265.5
467.61	1249.5
467.829	1230.5
468.049	1226.5
468.268	1196.5
468.488	1163.5
468.707	1212.5
468.927	1207.5
469.146	1185.5
469.365	1226.5
469.585	1232.5
469.804	1254.5
470.023	1266.5
470.243	1295.5
470.462	1329.5
470.681	1300.5
470.901	1289.5
471.12	1274.5
471.339	1253.5
471.558	1220.5
471.777	1205.5
471.997	1202.5
472.216	1177.5
472.435	1215.5
472.654	1174.5
472.873	1168.5
473.092	1160.5
473.311	1165.5
473.53	1163.5
473.749	1146.5
473.968	1191.5
474.187	1155.5
474.406	1171.5
474.625	1162.5
474.844	1150.5
475.063	1190.5
475.282	1179.5
475.501	1143.5
475.72	1164.5
475.939	1201.5
476.158	1180.5
476.377	1185.5
476.596	1216.5
476.814	1239.5
477.033	1208.5
477.252	1247.5
477.471	1288.5
477.69	1328.5
477.908	1339.5
478.127	1387.5
478.346	1414.5
478.564	1443.5
478.783	1442.5
479.002	1457.5
479.22	1465.5
479.439	1445.5
479.658	1460.5
479.876	1483.5
480.095	1515.5
480.313	1508.5
480.532	1598.5
480.751	1574.5
480.969	1525.5
481.188	1470.5
481.406	1444.5
481.624	1381.5
481.843	1377.5
482.061	1359.5
482.28	1370.5
482.498	1339.5
482.717	1327.5
482.935	1337.5
483.153	1320.5
483.372	1343.5
483.59	1369.5
483.808	1315.5
484.027	1354.5
484.245	1334.5
484.463	1364.5
484.681	1389.5
484.9	1386.5
485.118	1395.5
485.336	1378.5
485.554	1402.5
485.772	1410.5
485.99	1446.5
486.209	1418.5
486.427	1431.5
486.645	1404.5
486.863	1401.5
487.081	1411.5
487.299	1414.5
487.517	1388.5
487.735	1411.5
487.953	1399.5
488.171	1407.5
488.389	1392.5
488.607	1383.5
488.825	1399.5
489.043	1394.5
489.261	1384.5
489.479	1406.5
489.696	1394.5
489.914	1407.5
490.132	1436.5
490.35	1422.5
490.568	1417.5
490.786	1424.5
491.003	1443.5
491.221	1429.5
491.439	1416.5
491.657	1433.5
491.874	1429.5
492.092	1424.5
492.31	1416.5
492.527	1469.5
492.745	1454.5
492.963	1439.5
493.18	1475.5
493.398	1476.5
493.615	1492.5
493.833	1460.5
494.05	1494.5
494.268	1466.5
494.485	1509.5
494.703	1528.5
494.92	1511.5
495.138	1498.5
495.355	1518.5
495.573	1542.5
495.79	1545.5
496.008	1536.5
496.225	1564.5
496.442	1560.5
496.66	1585.5
496.877	1614.5
497.094	1607.5
497.312	1656.5
497.529	1704.5
497.746	1740.5
497.963	1796.5
498.181	1886.5
498.398	2028.5
498.615	2084.5
498.832	2262.5
499.049	2414.5
499.267	2631.5
499.484	2922.5
499.701	3154.5
499.918	3516.5
500.135	3891.5
500.352	4318.5
500.569	4464.5
500.786	4469.5
501.003	4227.5
501.22	3840.5
501.437	3528.5
501.654	3166.5
501.871	2879.5
502.088	2606.5
502.305	2469.5
502.522	2279.5
502.739	2168.5
502.956	2054.5
503.172	1954.5
503.389	1886.5
503.606	1817.5
503.823	1786.5
504.04	1805.5
504.256	1798.5
504.473	1854.5
504.69	1849.5
504.907	1822.5
505.123	1691.5
505.34	1615.5
505.557	1539.5
505.773	1540.5
505.99	1458.5
506.207	1411.5
506.423	1408.5
506.64	1376.5
506.856	1363.5
507.073	1344.5
507.289	1381.5
507.506	1313.5
507.722	1281.5
507.939	1300.5
508.155	1293.5
508.372	1288.5
508.588	1292.5
508.805	1260.5
509.021	1265.5
509.238	1253.5
509.454	1238.5
509.67	1223.5
509.887	1222.5
510.103	1228.5
510.319	1215.5
