Data from NiCl2@0.0625M.TitratingCurve.Agarose3%dH2O.NegLispCup.LampEnergy10.LIBS07252019_HRD10591_18-34-46-577.txt Node
Date: Thu Jul 25 18:34:46 EDT 2019
User: cochatt
Spectrometer: HR+D1059
Trigger mode: 1
Integration Time (sec): 1.000000E-1
Scans to average: 1
Electric dark correction enabled: true
Nonlinearity correction enabled: false
Boxcar width: 0
XAxis mode: Wavelengths
Number of Pixels in Spectrum: 2048
>>>>>Begin Spectral Data<<<<<
223.165	-3.12
223.4	-3.12
223.635	-3.12
223.869	0.88
224.104	-14.12
224.338	-10.12
224.573	-21.12
224.808	-12.12
225.042	-19.12
225.277	-11.12
225.511	-15.12
225.746	-6.12
225.98	8.88
226.215	13.88
226.449	1.88
226.683	20.88
226.918	28.88
227.152	36.88
227.387	29.88
227.621	33.88
227.856	42.88
228.09	36.88
228.324	40.88
228.559	56.88
228.793	81.88
229.027	132.88
229.262	141.88
229.496	147.88
229.73	151.88
229.964	159.88
230.199	156.88
230.433	178.88
230.667	174.88
230.901	176.88
231.136	172.88
231.37	158.88
231.604	189.88
231.838	174.88
232.072	183.88
232.306	187.88
232.541	183.88
232.775	186.88
233.009	184.88
233.243	169.88
233.477	194.88
233.711	178.88
233.945	188.88
234.179	199.88
234.413	203.88
234.647	211.88
234.881	194.88
235.115	191.88
235.349	206.88
235.583	206.88
235.817	202.88
236.051	193.88
236.285	199.88
236.519	203.88
236.753	221.88
236.987	208.88
237.221	209.88
237.455	197.88
237.689	211.88
237.922	216.88
238.156	226.88
238.39	215.88
238.624	229.88
238.858	213.88
239.091	236.88
239.325	235.88
239.559	231.88
239.793	233.88
240.027	258.88
240.26	250.88
240.494	239.88
240.728	251.88
240.961	248.88
241.195	255.88
241.429	278.88
241.662	257.88
241.896	251.88
242.13	271.88
242.363	275.88
242.597	281.88
242.83	262.88
243.064	278.88
243.298	293.88
243.531	287.88
243.765	287.88
243.998	295.88
244.232	286.88
244.465	296.88
244.699	298.88
244.932	309.88
245.166	294.88
245.399	316.88
245.633	293.88
245.866	314.88
246.099	310.88
246.333	316.88
246.566	313.88
246.8	332.88
247.033	320.88
247.266	326.88
247.5	326.88
247.733	322.88
247.966	335.88
248.2	332.88
248.433	333.88
248.666	339.88
248.899	345.88
249.133	350.88
249.366	356.88
249.599	351.88
249.832	338.88
250.066	362.88
250.299	371.88
250.532	358.88
250.765	355.88
250.998	346.88
251.231	388.88
251.465	366.88
251.698	393.88
251.931	386.88
252.164	374.88
252.397	376.88
252.63	397.88
252.863	391.88
253.096	390.88
253.329	399.88
253.562	394.88
253.795	408.88
254.028	409.88
254.261	416.88
254.494	400.88
254.727	417.88
254.96	407.88
255.193	420.88
255.426	412.88
255.659	405.88
255.892	430.88
256.124	416.88
256.357	419.88
256.59	439.88
256.823	444.88
257.056	430.88
257.289	457.88
257.521	445.88
257.754	441.88
257.987	435.88
258.22	443.88
258.452	451.88
258.685	458.88
258.918	458.88
259.151	441.88
259.383	452.88
259.616	459.88
259.849	464.88
260.081	462.88
260.314	467.88
260.547	464.88
260.779	464.88
261.012	452.88
261.244	486.88
261.477	468.88
261.71	496.88
261.942	463.88
262.175	482.88
262.407	481.88
262.64	479.88
262.872	486.88
263.105	494.88
263.337	488.88
263.57	466.88
263.802	508.88
264.035	507.88
264.267	515.88
264.499	495.88
264.732	534.88
264.964	533.88
265.197	504.88
265.429	518.88
265.661	502.88
265.894	512.88
266.126	536.88
266.358	527.88
266.591	535.88
266.823	543.88
267.055	517.88
267.287	529.88
267.52	518.88
267.752	533.88
267.984	530.88
268.216	537.88
268.448	553.88
268.681	546.88
268.913	555.88
269.145	565.88
269.377	572.88
269.609	561.88
269.841	562.88
270.073	558.88
270.306	540.88
270.538	571.88
270.77	580.88
271.002	578.88
271.234	588.88
271.466	587.88
271.698	579.88
271.93	567.88
272.162	586.88
272.394	574.88
272.626	607.88
272.858	600.88
273.09	595.88
273.322	595.88
273.553	591.88
273.785	592.88
274.017	610.88
274.249	615.88
274.481	630.88
274.713	619.88
274.945	599.88
275.176	621.88
275.408	625.88
275.64	629.88
275.872	625.88
276.104	644.88
276.335	651.88
276.567	647.88
276.799	635.88
277.031	646.88
277.262	647.88
277.494	663.88
277.726	652.88
277.957	655.88
278.189	644.88
278.421	644.88
278.652	670.88
278.884	681.88
279.115	657.88
279.347	664.88
279.579	674.88
279.81	661.88
280.042	708.88
280.273	650.88
280.505	704.88
280.736	682.88
280.968	713.88
281.199	691.88
281.431	711.88
281.662	698.88
281.894	683.88
282.125	686.88
282.356	712.88
282.588	717.88
282.819	704.88
283.051	708.88
283.282	711.88
283.513	714.88
283.745	716.88
283.976	711.88
284.207	734.88
284.439	727.88
284.67	726.88
284.901	724.88
285.132	728.88
285.364	739.88
285.595	736.88
285.826	741.88
286.057	756.88
286.288	736.88
286.52	730.88
286.751	742.88
286.982	752.88
287.213	759.88
287.444	737.88
287.675	763.88
287.906	756.88
288.138	771.88
288.369	770.88
288.6	774.88
288.831	767.88
289.062	781.88
289.293	784.88
289.524	779.88
289.755	785.88
289.986	798.88
290.217	804.88
290.448	747.88
290.679	778.88
290.91	803.88
291.141	797.88
291.371	773.88
291.602	799.88
291.833	788.88
292.064	809.88
292.295	794.88
292.526	794.88
292.757	795.88
292.987	796.88
293.218	824.88
293.449	816.88
293.68	770.88
293.91	821.88
294.141	801.88
294.372	766.88
294.603	788.88
294.833	806.88
295.064	796.88
295.295	817.88
295.525	809.88
295.756	830.88
295.987	823.88
296.217	810.88
296.448	845.88
296.679	814.88
296.909	814.88
297.14	821.88
297.37	857.88
297.601	859.88
297.831	840.88
298.062	853.88
298.292	854.88
298.523	844.88
298.753	857.88
298.984	847.88
299.214	884.88
299.445	870.88
299.675	860.88
299.905	851.88
300.136	860.88
300.366	859.88
300.597	867.88
300.827	880.88
301.057	906.88
301.288	888.88
301.518	880.88
301.748	909.88
301.979	904.88
302.209	894.88
302.439	904.88
302.669	891.88
302.9	895.88
303.13	902.88
303.36	923.88
303.59	895.88
303.82	900.88
304.051	916.88
304.281	942.88
304.511	869.88
304.741	910.88
304.971	914.88
305.201	923.88
305.431	928.88
305.661	929.88
305.891	919.88
306.121	903.88
306.352	880.88
306.582	934.88
306.812	897.88
307.042	894.88
307.272	887.88
307.502	866.88
307.731	890.88
307.961	875.88
308.191	882.88
308.421	879.88
308.651	888.88
308.881	895.88
309.111	894.88
309.341	859.88
309.571	883.88
309.8	894.88
310.03	904.88
310.26	888.88
310.49	918.88
310.72	909.88
310.949	915.88
311.179	918.88
311.409	923.88
311.639	929.88
311.868	952.88
312.098	935.88
312.328	942.88
312.557	968.88
312.787	909.88
313.017	934.88
313.246	936.88
313.476	919.88
313.706	977.88
313.935	958.88
314.165	989.88
314.394	966.88
314.624	998.88
314.853	968.88
315.083	933.88
315.312	979.88
315.542	987.88
315.771	947.88
316.001	972.88
316.23	950.88
316.46	940.88
316.689	975.88
316.919	924.88
317.148	975.88
317.377	936.88
317.607	958.88
317.836	924.88
318.065	943.88
318.295	966.88
318.524	970.88
318.753	967.88
318.983	961.88
319.212	929.88
319.441	952.88
319.67	956.88
319.9	972.88
320.129	968.88
320.358	961.88
320.587	970.88
320.816	963.88
321.046	948.88
321.275	947.88
321.504	956.88
321.733	958.88
321.962	952.88
322.191	989.88
322.42	961.88
322.649	954.88
322.878	958.88
323.108	969.88
323.337	950.88
323.566	981.88
323.795	1013.88
324.024	1008.88
324.253	982.88
324.482	995.88
324.71	984.88
324.939	996.88
325.168	1008.88
325.397	1007.88
325.626	1021.88
325.855	1013.88
326.084	1072.88
326.313	1059.88
326.542	1049.88
326.77	1090.88
326.999	1044.88
327.228	1044.88
327.457	1027.88
327.686	1032.88
327.914	1030.88
328.143	1018.88
328.372	1054.88
328.6	1045.88
328.829	1023.88
329.058	1051.88
329.287	1040.88
329.515	1065.88
329.744	1062.88
329.972	1058.88
330.201	1079.88
330.43	1030.88
330.658	1072.88
330.887	1087.88
331.115	1101.88
331.344	1107.88
331.572	1103.88
331.801	1128.88
332.03	1115.88
332.258	1158.88
332.486	1198.88
332.715	1195.88
332.943	1219.88
333.172	1231.88
333.4	1273.88
333.629	1285.88
333.857	1332.88
334.085	1305.88
334.314	1331.88
334.542	1321.88
334.771	1307.88
334.999	1273.88
335.227	1314.88
335.455	1287.88
335.684	1304.88
335.912	1279.88
336.14	1247.88
336.369	1239.88
336.597	1254.88
336.825	1243.88
337.053	1216.88
337.281	1191.88
337.51	1188.88
337.738	1193.88
337.966	1196.88
338.194	1183.88
338.422	1142.88
338.65	1135.88
338.878	1141.88
339.106	1132.88
339.334	1156.88
339.562	1145.88
339.79	1087.88
340.018	1114.88
340.246	1117.88
340.474	1089.88
340.702	1091.88
340.93	1106.88
341.158	1112.88
341.386	1078.88
341.614	1101.88
341.842	1107.88
342.07	1079.88
342.298	1090.88
342.526	1089.88
342.754	1080.88
342.981	1109.88
343.209	1074.88
343.437	1143.88
343.665	1193.88
343.893	1251.88
344.12	1313.88
344.348	1241.88
344.576	1224.88
344.804	1178.88
345.031	1156.88
345.259	1134.88
345.487	1111.88
345.714	1095.88
345.942	1104.88
346.17	1111.88
346.397	1063.88
346.625	1058.88
346.853	1070.88
347.08	1041.88
347.308	1042.88
347.535	1057.88
347.763	1086.88
347.99	1056.88
348.218	1042.88
348.445	1028.88
348.673	1042.88
348.9	1048.88
349.128	1048.88
349.355	1008.88
349.583	1064.88
349.81	1029.88
350.037	991.88
350.265	1000.88
350.492	1032.88
350.72	1028.88
350.947	1046.88
351.174	1017.88
351.402	1003.88
351.629	1018.88
351.856	981.88
352.083	1014.88
352.311	990.88
352.538	1000.88
352.765	1037.88
352.992	994.88
353.22	996.88
353.447	1018.88
353.674	1009.88
353.901	1026.88
354.128	1015.88
354.355	1011.88
354.583	983.88
354.81	1007.88
355.037	1017.88
355.264	1008.88
355.491	1028.88
355.718	1007.88
355.945	1030.88
356.172	1010.88
356.399	1001.88
356.626	1012.88
356.853	1000.88
357.08	1020.88
357.307	1019.88
357.534	1025.88
357.761	1009.88
357.988	1022.88
358.215	1023.88
358.441	1037.88
358.668	1006.88
358.895	1011.88
359.122	1018.88
359.349	988.88
359.576	987.88
359.802	977.88
360.029	1016.88
360.256	1030.88
360.483	1019.88
360.709	1012.88
360.936	998.88
361.163	1017.88
361.39	1020.88
361.616	1034.88
361.843	985.88
362.07	1018.88
362.296	992.88
362.523	1015.88
362.749	1041.88
362.976	985.88
363.203	1043.88
363.429	1027.88
363.656	994.88
363.882	994.88
364.109	1020.88
364.335	1022.88
364.562	1049.88
364.788	1016.88
365.015	1041.88
365.241	1026.88
365.468	1020.88
365.694	982.88
365.92	984.88
366.147	1026.88
366.373	1022.88
366.599	1029.88
366.826	1025.88
367.052	1030.88
367.278	1016.88
367.505	1016.88
367.731	1034.88
367.957	1022.88
368.184	1038.88
368.41	1028.88
368.636	1079.88
368.862	1042.88
369.089	1039.88
369.315	1029.88
369.541	1044.88
369.767	1090.88
369.993	1035.88
370.219	1074.88
370.445	1095.88
370.672	1067.88
370.898	1091.88
371.124	1096.88
371.35	1113.88
371.576	1114.88
371.802	1118.88
372.028	1094.88
372.254	1092.88
372.48	1123.88
372.706	1122.88
372.932	1138.88
373.158	1152.88
373.384	1122.88
373.61	1111.88
373.835	1120.88
374.061	1097.88
374.287	1120.88
374.513	1152.88
374.739	1134.88
374.965	1188.88
375.191	1224.88
375.416	1178.88
375.642	1152.88
375.868	1134.88
376.094	1112.88
376.319	1114.88
376.545	1135.88
376.771	1115.88
376.997	1101.88
377.222	1106.88
377.448	1113.88
377.674	1092.88
377.899	1109.88
378.125	1075.88
378.35	1078.88
378.576	1071.88
378.802	1067.88
379.027	1094.88
379.253	1092.88
379.478	1116.88
379.704	1096.88
379.929	1104.88
380.155	1112.88
380.38	1065.88
380.606	1076.88
380.831	1064.88
381.057	1104.88
381.282	1102.88
381.507	1093.88
381.733	1089.88
381.958	1097.88
382.184	1121.88
382.409	1108.88
382.634	1155.88
382.86	1143.88
383.085	1191.88
383.31	1157.88
383.535	1207.88
383.761	1184.88
383.986	1196.88
384.211	1228.88
384.436	1244.88
384.662	1218.88
384.887	1278.88
385.112	1258.88
385.337	1286.88
385.562	1266.88
385.787	1291.88
386.013	1302.88
386.238	1302.88
386.463	1351.88
386.688	1281.88
386.913	1270.88
387.138	1299.88
387.363	1275.88
387.588	1306.88
387.813	1302.88
388.038	1301.88
388.263	1266.88
388.488	1294.88
388.713	1318.88
388.938	1251.88
389.163	1274.88
389.387	1289.88
389.612	1251.88
389.837	1268.88
390.062	1282.88
390.287	1299.88
390.512	1278.88
390.736	1324.88
390.961	1314.88
391.186	1318.88
391.411	1348.88
391.636	1399.88
391.86	1414.88
392.085	1446.88
392.31	1447.88
392.534	1445.88
392.759	1417.88
392.984	1389.88
393.208	1370.88
393.433	1389.88
393.658	1352.88
393.882	1372.88
394.107	1357.88
394.331	1345.88
394.556	1370.88
394.78	1382.88
395.005	1360.88
395.229	1390.88
395.454	1426.88
395.678	1451.88
395.903	1438.88
396.127	1456.88
396.352	1400.88
396.576	1376.88
396.801	1390.88
397.025	1408.88
397.249	1424.88
397.474	1456.88
397.698	1440.88
397.922	1506.88
398.147	1536.88
398.371	1476.88
398.595	1531.88
398.82	1575.88
399.044	1720.88
399.268	1817.88
399.492	2003.88
399.717	2138.88
399.941	2189.88
400.165	2080.88
400.389	1936.88
400.613	1799.88
400.837	1718.88
401.062	1657.88
401.286	1668.88
401.51	1608.88
401.734	1613.88
401.958	1635.88
402.182	1647.88
402.406	1640.88
402.63	1672.88
402.854	1701.88
403.078	1651.88
403.302	1728.88
403.526	1705.88
403.75	1714.88
403.974	1760.88
404.198	1738.88
404.422	1790.88
404.645	1752.88
404.869	1738.88
405.093	1760.88
405.317	1739.88
405.541	1711.88
405.765	1756.88
405.988	1792.88
406.212	1764.88
406.436	1737.88
406.66	1824.88
406.883	1834.88
407.107	1893.88
407.331	1961.88
407.555	1997.88
407.778	2015.88
408.002	1983.88
408.226	1929.88
408.449	1937.88
408.673	1870.88
408.896	1810.88
409.12	1796.88
409.344	1857.88
409.567	1769.88
409.791	1817.88
410.014	1755.88
410.238	1751.88
410.461	1755.88
410.685	1749.88
410.908	1749.88
411.132	1702.88
411.355	1680.88
411.578	1668.88
411.802	1668.88
412.025	1718.88
412.249	1722.88
412.472	1712.88
412.695	1664.88
412.919	1591.88
413.142	1631.88
413.365	1606.88
413.589	1699.88
413.812	1590.88
414.035	1619.88
414.258	1643.88
414.482	1599.88
414.705	1618.88
414.928	1626.88
415.151	1588.88
415.374	1626.88
415.597	1602.88
415.821	1588.88
416.044	1529.88
416.267	1548.88
416.49	1540.88
416.713	1502.88
416.936	1556.88
417.159	1516.88
417.382	1554.88
417.605	1540.88
417.828	1561.88
418.051	1571.88
418.274	1582.88
418.497	1566.88
418.72	1577.88
418.943	1587.88
419.166	1693.88
419.389	1790.88
419.611	1751.88
419.834	1710.88
420.057	1624.88
420.28	1593.88
420.503	1554.88
420.726	1565.88
420.948	1570.88
421.171	1537.88
421.394	1565.88
421.617	1559.88
421.839	1560.88
422.062	1543.88
422.285	1499.88
422.507	1592.88
422.73	1573.88
422.953	1554.88
423.175	1563.88
423.398	1576.88
423.621	1609.88
423.843	1611.88
424.066	1615.88
424.288	1603.88
424.511	1589.88
424.733	1543.88
424.956	1550.88
425.178	1556.88
425.401	1529.88
425.623	1550.88
425.846	1519.88
426.068	1513.88
426.291	1530.88
426.513	1479.88
426.735	1497.88
426.958	1448.88
427.18	1411.88
427.402	1406.88
427.625	1459.88
427.847	1428.88
428.069	1418.88
428.292	1419.88
428.514	1427.88
428.736	1437.88
428.958	1441.88
429.181	1386.88
429.403	1408.88
429.625	1404.88
429.847	1397.88
430.069	1383.88
430.292	1398.88
430.514	1384.88
430.736	1400.88
430.958	1396.88
431.18	1402.88
431.402	1430.88
431.624	1407.88
431.846	1434.88
432.068	1411.88
432.29	1474.88
432.512	1424.88
432.734	1426.88
432.956	1418.88
433.178	1442.88
433.4	1415.88
433.622	1458.88
433.844	1478.88
434.066	1456.88
434.287	1434.88
434.509	1529.88
434.731	1562.88
434.953	1591.88
435.175	1587.88
435.397	1568.88
435.618	1513.88
435.84	1458.88
436.062	1454.88
436.284	1440.88
436.505	1426.88
436.727	1450.88
436.949	1421.88
437.17	1440.88
437.392	1406.88
437.614	1351.88
437.835	1350.88
438.057	1387.88
438.278	1331.88
438.5	1344.88
438.721	1373.88
438.943	1399.88
439.165	1345.88
439.386	1381.88
439.608	1371.88
439.829	1405.88
440.05	1389.88
440.272	1378.88
440.493	1402.88
440.715	1416.88
440.936	1454.88
441.158	1457.88
441.379	1499.88
441.6	1529.88
441.822	1536.88
442.043	1542.88
442.264	1510.88
442.486	1490.88
442.707	1488.88
442.928	1510.88
443.149	1503.88
443.371	1504.88
443.592	1531.88
443.813	1566.88
444.034	1549.88
444.255	1584.88
444.476	1646.88
444.698	1676.88
444.919	1720.88
445.14	1804.88
445.361	1717.88
445.582	1584.88
445.803	1528.88
446.024	1496.88
446.245	1436.88
446.466	1420.88
446.687	1415.88
446.908	1410.88
447.129	1345.88
447.35	1362.88
447.571	1356.88
447.792	1315.88
448.013	1304.88
448.234	1321.88
448.455	1296.88
448.675	1289.88
448.896	1266.88
449.117	1255.88
449.338	1296.88
449.559	1246.88
449.779	1227.88
450	1266.88
450.221	1246.88
450.442	1241.88
450.662	1291.88
450.883	1272.88
451.104	1282.88
451.324	1253.88
451.545	1262.88
451.766	1250.88
451.986	1251.88
452.207	1251.88
452.428	1264.88
452.648	1258.88
452.869	1224.88
453.089	1197.88
453.31	1235.88
453.53	1216.88
453.751	1222.88
453.971	1201.88
454.192	1224.88
454.412	1165.88
454.633	1174.88
454.853	1226.88
455.073	1188.88
455.294	1208.88
455.514	1181.88
455.734	1176.88
455.955	1156.88
456.175	1186.88
456.395	1177.88
456.616	1180.88
456.836	1192.88
457.056	1172.88
457.276	1194.88
457.497	1234.88
457.717	1200.88
457.937	1240.88
458.157	1234.88
458.377	1231.88
458.598	1278.88
458.818	1281.88
459.038	1301.88
459.258	1330.88
459.478	1416.88
459.698	1414.88
459.918	1427.88
460.138	1470.88
460.358	1521.88
460.578	1590.88
460.798	1579.88
461.018	1606.88
461.238	1582.88
461.458	1559.88
461.678	1552.88
461.898	1604.88
462.118	1633.88
462.338	1696.88
462.558	1758.88
462.777	1759.88
462.997	1891.88
463.217	1953.88
463.437	1939.88
463.657	1894.88
463.876	1858.88
464.096	1827.88
464.316	1838.88
464.536	1794.88
464.755	1760.88
464.975	1730.88
465.195	1642.88
465.414	1582.88
465.634	1434.88
465.854	1439.88
466.073	1420.88
466.293	1400.88
466.512	1364.88
466.732	1338.88
466.951	1342.88
467.171	1344.88
467.391	1317.88
467.61	1272.88
467.829	1341.88
468.049	1317.88
468.268	1283.88
468.488	1280.88
468.707	1274.88
468.927	1282.88
469.146	1278.88
469.365	1294.88
469.585	1291.88
469.804	1350.88
470.023	1319.88
470.243	1344.88
470.462	1369.88
470.681	1376.88
470.901	1369.88
471.12	1318.88
471.339	1318.88
471.558	1335.88
471.777	1314.88
471.997	1334.88
472.216	1264.88
472.435	1284.88
472.654	1290.88
472.873	1282.88
473.092	1266.88
473.311	1251.88
473.53	1274.88
473.749	1230.88
473.968	1249.88
474.187	1263.88
474.406	1273.88
474.625	1232.88
474.844	1273.88
475.063	1314.88
475.282	1306.88
475.501	1271.88
475.72	1301.88
475.939	1346.88
476.158	1330.88
476.377	1338.88
476.596	1319.88
476.814	1363.88
477.033	1386.88
477.252	1392.88
477.471	1385.88
477.69	1416.88
477.908	1476.88
478.127	1508.88
478.346	1516.88
478.564	1542.88
478.783	1547.88
479.002	1561.88
479.22	1575.88
479.439	1573.88
479.658	1580.88
479.876	1592.88
480.095	1566.88
480.313	1630.88
480.532	1699.88
480.751	1660.88
480.969	1659.88
481.188	1600.88
481.406	1600.88
481.624	1571.88
481.843	1568.88
482.061	1560.88
482.28	1578.88
482.498	1539.88
482.717	1521.88
482.935	1545.88
483.153	1568.88
483.372	1582.88
483.59	1523.88
483.808	1615.88
484.027	1637.88
484.245	1638.88
484.463	1612.88
484.681	1628.88
484.9	1630.88
485.118	1660.88
485.336	1630.88
485.554	1678.88
485.772	1708.88
485.99	1708.88
486.209	1716.88
486.427	1700.88
486.645	1685.88
486.863	1676.88
487.081	1675.88
487.299	1667.88
487.517	1649.88
487.735	1689.88
487.953	1669.88
488.171	1632.88
488.389	1624.88
488.607	1611.88
488.825	1594.88
489.043	1612.88
489.261	1649.88
489.479	1622.88
489.696	1639.88
489.914	1625.88
490.132	1627.88
490.35	1593.88
490.568	1612.88
490.786	1579.88
491.003	1615.88
491.221	1611.88
491.439	1590.88
491.657	1591.88
