Data from NiCl2@0.125M.TitratingCurve.Agarose3%dH2O.NegLispCup.LampEnergy10.LIBS07252019_HRD10591_18-29-50-575.txt Node
Date: Thu Jul 25 18:29:50 EDT 2019
User: cochatt
Spectrometer: HR+D1059
Trigger mode: 1
Integration Time (sec): 1.000000E-1
Scans to average: 1
Electric dark correction enabled: true
Nonlinearity correction enabled: false
Boxcar width: 0
XAxis mode: Wavelengths
Number of Pixels in Spectrum: 2048
>>>>>Begin Spectral Data<<<<<
223.165	-15.75
223.4	-15.75
223.635	-15.75
223.869	-14.75
224.104	-18.75
224.338	-12.75
224.573	-23.75
224.808	3.25
225.042	-18.75
225.277	-9.75
225.511	-10.75
225.746	7.25
225.98	10.25
226.215	18.25
226.449	9.25
226.683	28.25
226.918	23.25
227.152	25.25
227.387	27.25
227.621	32.25
227.856	36.25
228.09	42.25
228.324	50.25
228.559	50.25
228.793	66.25
229.027	111.25
229.262	124.25
229.496	118.25
229.73	120.25
229.964	125.25
230.199	123.25
230.433	125.25
230.667	130.25
230.901	127.25
231.136	110.25
231.37	145.25
231.604	149.25
231.838	152.25
232.072	134.25
232.306	140.25
232.541	155.25
232.775	139.25
233.009	164.25
233.243	157.25
233.477	157.25
233.711	153.25
233.945	161.25
234.179	150.25
234.413	157.25
234.647	149.25
234.881	165.25
235.115	154.25
235.349	145.25
235.583	139.25
235.817	150.25
236.051	170.25
236.285	155.25
236.519	143.25
236.753	157.25
236.987	164.25
237.221	162.25
237.455	167.25
237.689	167.25
237.922	161.25
238.156	181.25
238.39	163.25
238.624	181.25
238.858	185.25
239.091	164.25
239.325	174.25
239.559	183.25
239.793	182.25
240.027	174.25
240.26	162.25
240.494	178.25
240.728	184.25
240.961	188.25
241.195	179.25
241.429	197.25
241.662	203.25
241.896	198.25
242.13	194.25
242.363	203.25
242.597	208.25
242.83	204.25
243.064	213.25
243.298	201.25
243.531	202.25
243.765	221.25
243.998	225.25
244.232	213.25
244.465	197.25
244.699	223.25
244.932	224.25
245.166	231.25
245.399	224.25
245.633	202.25
245.866	228.25
246.099	210.25
246.333	210.25
246.566	242.25
246.8	225.25
247.033	234.25
247.266	218.25
247.5	233.25
247.733	226.25
247.966	247.25
248.2	231.25
248.433	254.25
248.666	238.25
248.899	242.25
249.133	251.25
249.366	254.25
249.599	266.25
249.832	243.25
250.066	267.25
250.299	253.25
250.532	268.25
250.765	276.25
250.998	278.25
251.231	262.25
251.465	284.25
251.698	269.25
251.931	265.25
252.164	269.25
252.397	272.25
252.63	287.25
252.863	293.25
253.096	285.25
253.329	297.25
253.562	275.25
253.795	278.25
254.028	280.25
254.261	294.25
254.494	307.25
254.727	289.25
254.96	291.25
255.193	288.25
255.426	303.25
255.659	271.25
255.892	305.25
256.124	301.25
256.357	316.25
256.59	313.25
256.823	295.25
257.056	305.25
257.289	314.25
257.521	318.25
257.754	304.25
257.987	321.25
258.22	295.25
258.452	302.25
258.685	326.25
258.918	326.25
259.151	312.25
259.383	329.25
259.616	321.25
259.849	327.25
260.081	328.25
260.314	317.25
260.547	319.25
260.779	340.25
261.012	316.25
261.244	329.25
261.477	324.25
261.71	324.25
261.942	323.25
262.175	338.25
262.407	326.25
262.64	330.25
262.872	354.25
263.105	339.25
263.337	350.25
263.57	337.25
263.802	356.25
264.035	345.25
264.267	362.25
264.499	374.25
264.732	362.25
264.964	353.25
265.197	373.25
265.429	371.25
265.661	357.25
265.894	361.25
266.126	381.25
266.358	375.25
266.591	362.25
266.823	389.25
267.055	368.25
267.287	373.25
267.52	381.25
267.752	396.25
267.984	392.25
268.216	383.25
268.448	385.25
268.681	390.25
268.913	375.25
269.145	371.25
269.377	379.25
269.609	391.25
269.841	379.25
270.073	392.25
270.306	376.25
270.538	393.25
270.77	401.25
271.002	409.25
271.234	401.25
271.466	402.25
271.698	391.25
271.93	403.25
272.162	381.25
272.394	404.25
272.626	424.25
272.858	417.25
273.09	407.25
273.322	415.25
273.553	422.25
273.785	437.25
274.017	420.25
274.249	415.25
274.481	423.25
274.713	425.25
274.945	409.25
275.176	447.25
275.408	437.25
275.64	425.25
275.872	433.25
276.104	435.25
276.335	442.25
276.567	442.25
276.799	448.25
277.031	458.25
277.262	441.25
277.494	454.25
277.726	456.25
277.957	449.25
278.189	434.25
278.421	421.25
278.652	426.25
278.884	449.25
279.115	446.25
279.347	457.25
279.579	448.25
279.81	445.25
280.042	470.25
280.273	461.25
280.505	451.25
280.736	459.25
280.968	463.25
281.199	456.25
281.431	479.25
281.662	482.25
281.894	466.25
282.125	487.25
282.356	464.25
282.588	485.25
282.819	469.25
283.051	496.25
283.282	482.25
283.513	507.25
283.745	505.25
283.976	496.25
284.207	490.25
284.439	516.25
284.67	493.25
284.901	483.25
285.132	497.25
285.364	530.25
285.595	503.25
285.826	497.25
286.057	521.25
286.288	522.25
286.52	522.25
286.751	516.25
286.982	535.25
287.213	539.25
287.444	527.25
287.675	520.25
287.906	541.25
288.138	540.25
288.369	545.25
288.6	532.25
288.831	522.25
289.062	536.25
289.293	539.25
289.524	541.25
289.755	530.25
289.986	538.25
290.217	546.25
290.448	563.25
290.679	553.25
290.91	534.25
291.141	551.25
291.371	562.25
291.602	551.25
291.833	539.25
292.064	553.25
292.295	550.25
292.526	542.25
292.757	539.25
292.987	560.25
293.218	545.25
293.449	557.25
293.68	565.25
293.91	547.25
294.141	552.25
294.372	565.25
294.603	551.25
294.833	555.25
295.064	546.25
295.295	547.25
295.525	527.25
295.756	543.25
295.987	556.25
296.217	551.25
296.448	571.25
296.679	559.25
296.909	563.25
297.14	571.25
297.37	565.25
297.601	601.25
297.831	598.25
298.062	561.25
298.292	599.25
298.523	637.25
298.753	628.25
298.984	601.25
299.214	622.25
299.445	613.25
299.675	584.25
299.905	620.25
300.136	600.25
300.366	609.25
300.597	617.25
300.827	600.25
301.057	635.25
301.288	623.25
301.518	631.25
301.748	644.25
301.979	625.25
302.209	637.25
302.439	610.25
302.669	648.25
302.9	605.25
303.13	599.25
303.36	598.25
303.59	617.25
303.82	651.25
304.051	627.25
304.281	629.25
304.511	624.25
304.741	611.25
304.971	621.25
305.201	639.25
305.431	627.25
305.661	615.25
305.891	618.25
306.121	617.25
306.352	593.25
306.582	623.25
306.812	608.25
307.042	583.25
307.272	633.25
307.502	609.25
307.731	595.25
307.961	591.25
308.191	607.25
308.421	612.25
308.651	608.25
308.881	596.25
309.111	590.25
309.341	597.25
309.571	608.25
309.8	618.25
310.03	625.25
310.26	603.25
310.49	602.25
310.72	614.25
310.949	617.25
311.179	610.25
311.409	622.25
311.639	629.25
311.868	622.25
312.098	627.25
312.328	642.25
312.557	648.25
312.787	639.25
313.017	643.25
313.246	652.25
313.476	646.25
313.706	659.25
313.935	671.25
314.165	657.25
314.394	657.25
314.624	675.25
314.853	657.25
315.083	678.25
315.312	631.25
315.542	650.25
315.771	646.25
316.001	642.25
316.23	627.25
316.46	642.25
316.689	631.25
316.919	635.25
317.148	647.25
317.377	634.25
317.607	643.25
317.836	643.25
318.065	637.25
318.295	627.25
318.524	637.25
318.753	655.25
318.983	638.25
319.212	626.25
319.441	659.25
319.67	634.25
319.9	643.25
320.129	647.25
320.358	653.25
320.587	641.25
320.816	652.25
321.046	634.25
321.275	643.25
321.504	641.25
321.733	651.25
321.962	648.25
322.191	636.25
322.42	645.25
322.649	642.25
322.878	646.25
323.108	651.25
323.337	681.25
323.566	672.25
323.795	649.25
324.024	697.25
324.253	675.25
324.482	655.25
324.71	645.25
324.939	683.25
325.168	665.25
325.397	664.25
325.626	693.25
325.855	681.25
326.084	708.25
326.313	697.25
326.542	700.25
326.77	733.25
326.999	731.25
327.228	696.25
327.457	709.25
327.686	702.25
327.914	712.25
328.143	697.25
328.372	727.25
328.6	705.25
328.829	699.25
329.058	698.25
329.287	708.25
329.515	721.25
329.744	714.25
329.972	726.25
330.201	709.25
330.43	718.25
330.658	731.25
330.887	727.25
331.115	723.25
331.344	729.25
331.572	739.25
331.801	742.25
332.03	794.25
332.258	795.25
332.486	813.25
332.715	855.25
332.943	880.25
333.172	930.25
333.4	985.25
333.629	954.25
333.857	986.25
334.085	963.25
334.314	946.25
334.542	960.25
334.771	914.25
334.999	886.25
335.227	870.25
335.455	871.25
335.684	875.25
335.912	859.25
336.14	855.25
336.369	858.25
336.597	843.25
336.825	837.25
337.053	846.25
337.281	874.25
337.51	809.25
337.738	821.25
337.966	778.25
338.194	758.25
338.422	796.25
338.65	763.25
338.878	740.25
339.106	763.25
339.334	780.25
339.562	753.25
339.79	743.25
340.018	741.25
340.246	713.25
340.474	729.25
340.702	762.25
340.93	755.25
341.158	739.25
341.386	721.25
341.614	736.25
341.842	726.25
342.07	710.25
342.298	753.25
342.526	734.25
342.754	740.25
342.981	746.25
343.209	770.25
343.437	768.25
343.665	864.25
343.893	882.25
344.12	943.25
344.348	895.25
344.576	838.25
344.804	772.25
345.031	756.25
345.259	787.25
345.487	752.25
345.714	733.25
345.942	720.25
346.17	728.25
346.397	726.25
346.625	707.25
346.853	720.25
347.08	717.25
347.308	724.25
347.535	702.25
347.763	735.25
347.99	723.25
348.218	711.25
348.445	728.25
348.673	705.25
348.9	711.25
349.128	702.25
349.355	737.25
349.583	711.25
349.81	687.25
350.037	679.25
350.265	684.25
350.492	695.25
350.72	693.25
350.947	694.25
351.174	696.25
351.402	688.25
351.629	665.25
351.856	678.25
352.083	674.25
352.311	673.25
352.538	697.25
352.765	688.25
352.992	681.25
353.22	666.25
353.447	655.25
353.674	675.25
353.901	691.25
354.128	689.25
354.355	672.25
354.583	674.25
354.81	681.25
355.037	680.25
355.264	687.25
355.491	689.25
355.718	692.25
355.945	688.25
356.172	703.25
356.399	690.25
356.626	677.25
356.853	701.25
357.08	666.25
357.307	694.25
357.534	694.25
357.761	692.25
357.988	701.25
358.215	695.25
358.441	699.25
358.668	707.25
358.895	709.25
359.122	673.25
359.349	717.25
359.576	697.25
359.802	722.25
360.029	703.25
360.256	681.25
360.483	687.25
360.709	711.25
360.936	698.25
361.163	668.25
361.39	691.25
361.616	698.25
361.843	678.25
362.07	691.25
362.296	709.25
362.523	678.25
362.749	721.25
362.976	694.25
363.203	670.25
363.429	691.25
363.656	697.25
363.882	688.25
364.109	681.25
364.335	697.25
364.562	692.25
364.788	680.25
365.015	676.25
365.241	680.25
365.468	692.25
365.694	697.25
365.92	699.25
366.147	700.25
366.373	673.25
366.599	675.25
366.826	679.25
367.052	678.25
367.278	704.25
367.505	693.25
367.731	667.25
367.957	703.25
368.184	678.25
368.41	715.25
368.636	720.25
368.862	714.25
369.089	702.25
369.315	701.25
369.541	700.25
369.767	733.25
369.993	693.25
370.219	732.25
370.445	746.25
370.672	727.25
370.898	721.25
371.124	718.25
371.35	730.25
371.576	746.25
371.802	741.25
372.028	742.25
372.254	764.25
372.48	789.25
372.706	771.25
372.932	797.25
373.158	771.25
373.384	751.25
373.61	774.25
373.835	777.25
374.061	729.25
374.287	767.25
374.513	785.25
374.739	795.25
374.965	844.25
375.191	859.25
375.416	819.25
375.642	835.25
375.868	805.25
376.094	771.25
376.319	777.25
376.545	765.25
376.771	775.25
376.997	742.25
377.222	773.25
377.448	753.25
377.674	770.25
377.899	765.25
378.125	750.25
378.35	772.25
378.576	759.25
378.802	734.25
379.027	735.25
379.253	749.25
379.478	738.25
379.704	725.25
379.929	732.25
380.155	759.25
380.38	755.25
380.606	755.25
380.831	752.25
381.057	757.25
381.282	749.25
381.507	779.25
381.733	755.25
381.958	773.25
382.184	749.25
382.409	798.25
382.634	793.25
382.86	782.25
383.085	779.25
383.31	842.25
383.535	844.25
383.761	852.25
383.986	875.25
384.211	862.25
384.436	897.25
384.662	901.25
384.887	912.25
385.112	915.25
385.337	934.25
385.562	900.25
385.787	932.25
386.013	931.25
386.238	893.25
386.463	907.25
386.688	905.25
386.913	893.25
387.138	898.25
387.363	909.25
387.588	903.25
387.813	891.25
388.038	877.25
388.263	880.25
388.488	887.25
388.713	877.25
388.938	882.25
389.163	889.25
389.387	896.25
389.612	879.25
389.837	861.25
390.062	888.25
390.287	883.25
390.512	867.25
390.736	900.25
390.961	937.25
391.186	943.25
391.411	973.25
391.636	982.25
391.86	1027.25
392.085	1051.25
392.31	1045.25
392.534	1008.25
392.759	979.25
392.984	941.25
393.208	961.25
393.433	990.25
393.658	980.25
393.882	953.25
394.107	970.25
394.331	989.25
394.556	984.25
394.78	979.25
395.005	998.25
395.229	1002.25
395.454	1022.25
395.678	1038.25
395.903	1052.25
396.127	987.25
396.352	995.25
396.576	965.25
396.801	944.25
397.025	938.25
397.249	986.25
397.474	1011.25
397.698	1015.25
397.922	1016.25
398.147	1012.25
398.371	1033.25
398.595	1082.25
398.82	1155.25
399.044	1211.25
399.268	1354.25
399.492	1565.25
399.717	1805.25
399.941	1779.25
400.165	1541.25
400.389	1403.25
400.613	1288.25
400.837	1183.25
401.062	1175.25
401.286	1152.25
401.51	1139.25
401.734	1143.25
401.958	1159.25
402.182	1170.25
402.406	1198.25
402.63	1233.25
402.854	1226.25
403.078	1237.25
403.302	1291.25
403.526	1340.25
403.75	1362.25
403.974	1355.25
404.198	1366.25
404.422	1357.25
404.645	1348.25
404.869	1296.25
405.093	1301.25
405.317	1303.25
405.541	1277.25
405.765	1255.25
405.988	1240.25
406.212	1233.25
406.436	1248.25
406.66	1278.25
406.883	1307.25
407.107	1427.25
407.331	1479.25
407.555	1493.25
407.778	1477.25
408.002	1420.25
408.226	1443.25
408.449	1393.25
408.673	1345.25
408.896	1273.25
409.12	1279.25
409.344	1262.25
409.567	1299.25
409.791	1337.25
410.014	1301.25
410.238	1319.25
410.461	1288.25
410.685	1302.25
410.908	1222.25
411.132	1243.25
411.355	1204.25
411.578	1187.25
411.802	1199.25
412.025	1184.25
412.249	1202.25
412.472	1222.25
412.695	1170.25
412.919	1130.25
413.142	1158.25
413.365	1167.25
413.589	1169.25
413.812	1144.25
414.035	1124.25
414.258	1146.25
414.482	1149.25
414.705	1161.25
414.928	1187.25
415.151	1159.25
415.374	1146.25
415.597	1143.25
415.821	1143.25
416.044	1129.25
416.267	1117.25
416.49	1124.25
416.713	1101.25
416.936	1125.25
417.159	1121.25
417.382	1121.25
417.605	1114.25
417.828	1098.25
418.051	1143.25
418.274	1150.25
418.497	1128.25
418.72	1145.25
418.943	1153.25
419.166	1252.25
419.389	1310.25
419.611	1289.25
419.834	1227.25
420.057	1204.25
420.28	1166.25
420.503	1125.25
420.726	1103.25
420.948	1134.25
421.171	1113.25
421.394	1143.25
421.617	1109.25
421.839	1161.25
422.062	1133.25
422.285	1125.25
422.507	1165.25
422.73	1167.25
422.953	1153.25
423.175	1183.25
423.398	1224.25
423.621	1249.25
423.843	1249.25
424.066	1224.25
424.288	1230.25
424.511	1190.25
424.733	1169.25
424.956	1163.25
425.178	1177.25
425.401	1140.25
425.623	1147.25
425.846	1096.25
426.068	1089.25
426.291	1084.25
426.513	1087.25
426.735	1049.25
426.958	1081.25
427.18	1045.25
427.402	1035.25
427.625	1044.25
427.847	991.25
428.069	992.25
428.292	1001.25
428.514	998.25
428.736	1016.25
428.958	997.25
429.181	987.25
429.403	955.25
429.625	1002.25
429.847	989.25
430.069	962.25
430.292	991.25
430.514	973.25
430.736	989.25
430.958	967.25
431.18	974.25
431.402	966.25
431.624	966.25
431.846	1015.25
432.068	980.25
432.29	1033.25
432.512	999.25
432.734	1011.25
432.956	1005.25
433.178	1009.25
433.4	1006.25
433.622	988.25
433.844	1013.25
434.066	1031.25
434.287	985.25
434.509	1047.25
434.731	1098.25
434.953	1134.25
435.175	1141.25
435.397	1134.25
435.618	1064.25
435.84	1041.25
436.062	1016.25
436.284	961.25
436.505	962.25
436.727	995.25
436.949	996.25
437.17	1002.25
437.392	985.25
437.614	976.25
437.835	964.25
438.057	976.25
438.278	941.25
438.5	954.25
438.721	967.25
438.943	1013.25
439.165	965.25
439.386	986.25
439.608	1006.25
439.829	985.25
440.05	1002.25
440.272	1030.25
440.493	1010.25
440.715	1009.25
440.936	1071.25
441.158	1069.25
441.379	1070.25
441.6	1128.25
441.822	1161.25
442.043	1124.25
442.264	1133.25
442.486	1128.25
442.707	1151.25
442.928	1109.25
443.149	1145.25
443.371	1133.25
443.592	1105.25
443.813	1147.25
444.034	1147.25
444.255	1179.25
444.476	1243.25
444.698	1328.25
444.919	1365.25
445.14	1473.25
445.361	1288.25
445.582	1207.25
445.803	1097.25
446.024	1041.25
446.245	1074.25
446.466	1034.25
446.687	1007.25
446.908	1023.25
447.129	984.25
447.35	981.25
447.571	970.25
447.792	943.25
448.013	947.25
448.234	927.25
448.455	944.25
448.675	922.25
448.896	944.25
449.117	885.25
449.338	893.25
449.559	894.25
449.779	921.25
450	919.25
450.221	901.25
450.442	918.25
450.662	935.25
450.883	943.25
451.104	970.25
451.324	935.25
451.545	950.25
451.766	941.25
451.986	915.25
452.207	955.25
452.428	953.25
452.648	915.25
452.869	897.25
453.089	909.25
453.31	913.25
453.53	923.25
453.751	885.25
453.971	893.25
454.192	900.25
454.412	854.25
454.633	890.25
454.853	881.25
455.073	863.25
455.294	864.25
455.514	865.25
455.734	879.25
455.955	851.25
456.175	865.25
456.395	839.25
456.616	867.25
456.836	859.25
457.056	857.25
457.276	815.25
457.497	880.25
457.717	865.25
457.937	868.25
458.157	871.25
458.377	902.25
458.598	907.25
458.818	929.25
459.038	934.25
459.258	993.25
459.478	1018.25
459.698	1030.25
459.918	1053.25
460.138	1104.25
460.358	1172.25
460.578	1193.25
460.798	1209.25
461.018	1210.25
461.238	1184.25
461.458	1207.25
461.678	1186.25
461.898	1189.25
462.118	1244.25
462.338	1311.25
462.558	1299.25
462.777	1374.25
462.997	1453.25
463.217	1633.25
463.437	1627.25
463.657	1507.25
463.876	1415.25
464.096	1391.25
464.316	1351.25
464.536	1397.25
464.755	1347.25
464.975	1311.25
465.195	1262.25
465.414	1138.25
465.634	1064.25
465.854	1047.25
466.073	1039.25
466.293	1011.25
466.512	973.25
466.732	972.25
466.951	962.25
467.171	959.25
467.391	989.25
467.61	1002.25
467.829	954.25
468.049	955.25
468.268	929.25
468.488	931.25
468.707	900.25
468.927	901.25
469.146	918.25
469.365	926.25
469.585	951.25
469.804	966.25
470.023	991.25
470.243	962.25
470.462	1031.25
470.681	984.25
470.901	963.25
471.12	978.25
471.339	985.25
471.558	970.25
471.777	962.25
471.997	930.25
472.216	925.25
472.435	926.25
472.654	922.25
472.873	893.25
473.092	877.25
473.311	906.25
473.53	884.25
473.749	880.25
473.968	889.25
474.187	910.25
474.406	877.25
474.625	874.25
474.844	846.25
475.063	911.25
475.282	869.25
475.501	913.25
475.72	905.25
475.939	947.25
476.158	888.25
476.377	917.25
476.596	927.25
476.814	951.25
477.033	957.25
477.252	957.25
477.471	966.25
477.69	988.25
477.908	1021.25
478.127	1063.25
478.346	1091.25
478.564	1109.25
478.783	1086.25
479.002	1130.25
479.22	1118.25
479.439	1090.25
479.658	1126.25
479.876	1081.25
480.095	1130.25
480.313	1170.25
480.532	1191.25
480.751	1202.25
480.969	1160.25
481.188	1089.25
481.406	1085.25
481.624	1049.25
481.843	1075.25
482.061	1019.25
482.28	1026.25
482.498	997.25
482.717	1018.25
482.935	1029.25
483.153	1018.25
483.372	1011.25
483.59	1035.25
483.808	1017.25
484.027	1008.25
484.245	1033.25
484.463	1012.25
484.681	1045.25
484.9	1027.25
485.118	1078.25
485.336	1039.25
485.554	1051.25
485.772	1058.25
485.99	1091.25
486.209	1102.25
486.427	1108.25
486.645	1081.25
486.863	1102.25
487.081	1078.25
487.299	1084.25
487.517	1046.25
487.735	1055.25
487.953	1083.25
488.171	1058.25
488.389	1032.25
488.607	1055.25
488.825	1040.25
489.043	1037.25
489.261	1042.25
489.479	1031.25
489.696	1052.25
489.914	1063.25
490.132	1069.25
490.35	1066.25
490.568	1031.25
490.786	1057.25
491.003	1095.25
491.221	1076.25
491.439	1075.25
491.657	1076.25
491.874	1086.25
492.092	1043.25
492.31	1052.25
492.527	1055.25
492.745	1070.25
492.963	1098.25
493.18	1098.25
493.398	1101.25
493.615	1118.25
493.833	1098.25
494.05	1136.25
494.268	1111.25
494.485	1114.25
494.703	1133.25
494.92	1126.25
495.138	1111.25
495.355	1141.25
495.573	1130.25
495.79	1139.25
496.008	1127.25
496.225	1147.25
496.442	1114.25
496.66	1137.25
496.877	1192.25
497.094	1213.25
497.312	1208.25
