Data from NiCl2@0.125M.TitratingCurve.Agarose3%dH2O.NegLispCup.LampEnergy10.LIBS07252019_HRD10591_18-29-06-575.txt Node
Date: Thu Jul 25 18:29:06 EDT 2019
User: cochatt
Spectrometer: HR+D1059
Trigger mode: 1
Integration Time (sec): 1.000000E-1
Scans to average: 1
Electric dark correction enabled: true
Nonlinearity correction enabled: false
Boxcar width: 0
XAxis mode: Wavelengths
Number of Pixels in Spectrum: 2048
>>>>>Begin Spectral Data<<<<<
223.165	-12.19
223.4	-12.19
223.635	-12.19
223.869	-13.19
224.104	-19.19
224.338	-15.19
224.573	-8.19
224.808	-22.19
225.042	-12.19
225.277	-8.19
225.511	-15.19
225.746	3.81
225.98	7.81
226.215	12.81
226.449	8.81
226.683	22.81
226.918	35.81
227.152	33.81
227.387	26.81
227.621	35.81
227.856	41.81
228.09	42.81
228.324	38.81
228.559	57.81
228.793	75.81
229.027	89.81
229.262	116.81
229.496	101.81
229.73	122.81
229.964	122.81
230.199	132.81
230.433	119.81
230.667	130.81
230.901	125.81
231.136	135.81
231.37	127.81
231.604	132.81
231.838	135.81
232.072	136.81
232.306	144.81
232.541	134.81
232.775	141.81
233.009	143.81
233.243	156.81
233.477	157.81
233.711	134.81
233.945	144.81
234.179	146.81
234.413	152.81
234.647	142.81
234.881	137.81
235.115	157.81
235.349	145.81
235.583	160.81
235.817	147.81
236.051	155.81
236.285	158.81
236.519	165.81
236.753	162.81
236.987	170.81
237.221	159.81
237.455	173.81
237.689	162.81
237.922	173.81
238.156	149.81
238.39	154.81
238.624	157.81
238.858	176.81
239.091	162.81
239.325	167.81
239.559	167.81
239.793	185.81
240.027	182.81
240.26	171.81
240.494	199.81
240.728	174.81
240.961	163.81
241.195	181.81
241.429	159.81
241.662	190.81
241.896	189.81
242.13	209.81
242.363	196.81
242.597	198.81
242.83	200.81
243.064	193.81
243.298	193.81
243.531	210.81
243.765	186.81
243.998	213.81
244.232	193.81
244.465	219.81
244.699	209.81
244.932	214.81
245.166	204.81
245.399	222.81
245.633	216.81
245.866	231.81
246.099	222.81
246.333	238.81
246.566	231.81
246.8	232.81
247.033	213.81
247.266	222.81
247.5	218.81
247.733	251.81
247.966	245.81
248.2	242.81
248.433	242.81
248.666	232.81
248.899	227.81
249.133	225.81
249.366	245.81
249.599	256.81
249.832	249.81
250.066	251.81
250.299	257.81
250.532	247.81
250.765	254.81
250.998	246.81
251.231	267.81
251.465	273.81
251.698	240.81
251.931	265.81
252.164	289.81
252.397	274.81
252.63	257.81
252.863	253.81
253.096	269.81
253.329	270.81
253.562	260.81
253.795	272.81
254.028	282.81
254.261	294.81
254.494	278.81
254.727	281.81
254.96	272.81
255.193	292.81
255.426	291.81
255.659	284.81
255.892	281.81
256.124	303.81
256.357	273.81
256.59	294.81
256.823	290.81
257.056	277.81
257.289	290.81
257.521	279.81
257.754	282.81
257.987	289.81
258.22	304.81
258.452	293.81
258.685	296.81
258.918	328.81
259.151	308.81
259.383	309.81
259.616	289.81
259.849	331.81
260.081	317.81
260.314	318.81
260.547	328.81
260.779	327.81
261.012	311.81
261.244	323.81
261.477	334.81
261.71	321.81
261.942	328.81
262.175	312.81
262.407	318.81
262.64	320.81
262.872	330.81
263.105	331.81
263.337	321.81
263.57	342.81
263.802	321.81
264.035	331.81
264.267	340.81
264.499	354.81
264.732	328.81
264.964	346.81
265.197	369.81
265.429	340.81
265.661	341.81
265.894	357.81
266.126	339.81
266.358	356.81
266.591	350.81
266.823	361.81
267.055	350.81
267.287	365.81
267.52	357.81
267.752	370.81
267.984	355.81
268.216	352.81
268.448	360.81
268.681	378.81
268.913	375.81
269.145	366.81
269.377	369.81
269.609	377.81
269.841	377.81
270.073	347.81
270.306	393.81
270.538	380.81
270.77	365.81
271.002	385.81
271.234	369.81
271.466	375.81
271.698	378.81
271.93	382.81
272.162	377.81
272.394	385.81
272.626	376.81
272.858	375.81
273.09	387.81
273.322	388.81
273.553	386.81
273.785	412.81
274.017	379.81
274.249	408.81
274.481	405.81
274.713	394.81
274.945	398.81
275.176	398.81
275.408	404.81
275.64	420.81
275.872	405.81
276.104	441.81
276.335	410.81
276.567	417.81
276.799	409.81
277.031	438.81
277.262	405.81
277.494	435.81
277.726	429.81
277.957	423.81
278.189	431.81
278.421	408.81
278.652	431.81
278.884	445.81
279.115	424.81
279.347	431.81
279.579	429.81
279.81	442.81
280.042	433.81
280.273	437.81
280.505	434.81
280.736	442.81
280.968	441.81
281.199	442.81
281.431	452.81
281.662	453.81
281.894	456.81
282.125	461.81
282.356	448.81
282.588	463.81
282.819	441.81
283.051	467.81
283.282	441.81
283.513	469.81
283.745	458.81
283.976	460.81
284.207	467.81
284.439	471.81
284.67	480.81
284.901	473.81
285.132	482.81
285.364	498.81
285.595	496.81
285.826	468.81
286.057	475.81
286.288	464.81
286.52	497.81
286.751	511.81
286.982	477.81
287.213	503.81
287.444	501.81
287.675	498.81
287.906	515.81
288.138	517.81
288.369	516.81
288.6	496.81
288.831	521.81
289.062	518.81
289.293	526.81
289.524	529.81
289.755	502.81
289.986	499.81
290.217	507.81
290.448	516.81
290.679	515.81
290.91	524.81
291.141	509.81
291.371	526.81
291.602	526.81
291.833	518.81
292.064	507.81
292.295	530.81
292.526	526.81
292.757	523.81
292.987	513.81
293.218	514.81
293.449	520.81
293.68	515.81
293.91	520.81
294.141	526.81
294.372	518.81
294.603	565.81
294.833	517.81
295.064	520.81
295.295	529.81
295.525	519.81
295.756	575.81
295.987	544.81
296.217	576.81
296.448	529.81
296.679	550.81
296.909	537.81
297.14	546.81
297.37	573.81
297.601	569.81
297.831	597.81
298.062	570.81
298.292	579.81
298.523	608.81
298.753	596.81
298.984	571.81
299.214	581.81
299.445	574.81
299.675	564.81
299.905	572.81
300.136	575.81
300.366	581.81
300.597	581.81
300.827	583.81
301.057	607.81
301.288	597.81
301.518	587.81
301.748	611.81
301.979	592.81
302.209	592.81
302.439	601.81
302.669	595.81
302.9	588.81
303.13	598.81
303.36	594.81
303.59	582.81
303.82	573.81
304.051	566.81
304.281	595.81
304.511	586.81
304.741	610.81
304.971	599.81
305.201	589.81
305.431	592.81
305.661	588.81
305.891	593.81
306.121	574.81
306.352	574.81
306.582	573.81
306.812	593.81
307.042	585.81
307.272	566.81
307.502	551.81
307.731	560.81
307.961	572.81
308.191	576.81
308.421	567.81
308.651	563.81
308.881	569.81
309.111	541.81
309.341	540.81
309.571	568.81
309.8	569.81
310.03	544.81
310.26	565.81
310.49	567.81
310.72	553.81
310.949	569.81
311.179	589.81
311.409	596.81
311.639	592.81
311.868	604.81
312.098	597.81
312.328	592.81
312.557	593.81
312.787	593.81
313.017	607.81
313.246	602.81
313.476	574.81
313.706	606.81
313.935	622.81
314.165	615.81
314.394	611.81
314.624	619.81
314.853	626.81
315.083	590.81
315.312	617.81
315.542	603.81
315.771	586.81
316.001	612.81
316.23	593.81
316.46	589.81
316.689	601.81
316.919	601.81
317.148	576.81
317.377	584.81
317.607	575.81
317.836	587.81
318.065	585.81
318.295	602.81
318.524	594.81
318.753	587.81
318.983	599.81
319.212	569.81
319.441	593.81
319.67	591.81
319.9	583.81
320.129	581.81
320.358	623.81
320.587	588.81
320.816	591.81
321.046	614.81
321.275	592.81
321.504	568.81
321.733	591.81
321.962	584.81
322.191	620.81
322.42	589.81
322.649	591.81
322.878	599.81
323.108	612.81
323.337	607.81
323.566	608.81
323.795	621.81
324.024	607.81
324.253	602.81
324.482	602.81
324.71	615.81
324.939	598.81
325.168	609.81
325.397	634.81
325.626	627.81
325.855	636.81
326.084	643.81
326.313	643.81
326.542	664.81
326.77	655.81
326.999	654.81
327.228	639.81
327.457	617.81
327.686	625.81
327.914	628.81
328.143	650.81
328.372	641.81
328.6	634.81
328.829	641.81
329.058	627.81
329.287	647.81
329.515	648.81
329.744	676.81
329.972	647.81
330.201	658.81
330.43	662.81
330.658	678.81
330.887	660.81
331.115	694.81
331.344	681.81
331.572	690.81
331.801	703.81
332.03	697.81
332.258	733.81
332.486	737.81
332.715	776.81
332.943	817.81
333.172	850.81
333.4	885.81
333.629	891.81
333.857	904.81
334.085	892.81
334.314	887.81
334.542	850.81
334.771	827.81
334.999	810.81
335.227	807.81
335.455	803.81
335.684	809.81
335.912	768.81
336.14	771.81
336.369	760.81
336.597	797.81
336.825	793.81
337.053	795.81
337.281	780.81
337.51	733.81
337.738	761.81
337.966	751.81
338.194	698.81
338.422	697.81
338.65	718.81
338.878	707.81
339.106	726.81
339.334	681.81
339.562	676.81
339.79	674.81
340.018	640.81
340.246	686.81
340.474	669.81
340.702	673.81
340.93	679.81
341.158	685.81
341.386	674.81
341.614	697.81
341.842	677.81
342.07	657.81
342.298	657.81
342.526	671.81
342.754	677.81
342.981	675.81
343.209	679.81
343.437	728.81
343.665	746.81
343.893	820.81
344.12	851.81
344.348	803.81
344.576	745.81
344.804	725.81
345.031	707.81
345.259	666.81
345.487	671.81
345.714	667.81
345.942	672.81
346.17	665.81
346.397	658.81
346.625	672.81
346.853	642.81
347.08	670.81
347.308	650.81
347.535	669.81
347.763	685.81
347.99	699.81
348.218	671.81
348.445	694.81
348.673	673.81
348.9	656.81
349.128	656.81
349.355	639.81
349.583	665.81
349.81	639.81
350.037	624.81
350.265	636.81
350.492	656.81
350.72	612.81
350.947	617.81
351.174	625.81
351.402	639.81
351.629	623.81
351.856	603.81
352.083	645.81
352.311	631.81
352.538	622.81
352.765	627.81
352.992	619.81
353.22	608.81
353.447	622.81
353.674	615.81
353.901	634.81
354.128	623.81
354.355	624.81
354.583	641.81
354.81	617.81
355.037	617.81
355.264	623.81
355.491	626.81
355.718	629.81
355.945	635.81
356.172	618.81
356.399	641.81
356.626	631.81
356.853	648.81
357.08	650.81
357.307	637.81
357.534	648.81
357.761	631.81
357.988	630.81
358.215	620.81
358.441	661.81
358.668	631.81
358.895	616.81
359.122	633.81
359.349	639.81
359.576	641.81
359.802	629.81
360.029	639.81
360.256	643.81
360.483	629.81
360.709	627.81
360.936	627.81
361.163	616.81
361.39	609.81
361.616	626.81
361.843	629.81
362.07	641.81
362.296	625.81
362.523	608.81
362.749	629.81
362.976	643.81
363.203	630.81
363.429	612.81
363.656	641.81
363.882	587.81
364.109	611.81
364.335	630.81
364.562	625.81
364.788	621.81
365.015	652.81
365.241	637.81
365.468	618.81
365.694	629.81
365.92	598.81
366.147	627.81
366.373	613.81
366.599	605.81
366.826	623.81
367.052	647.81
367.278	623.81
367.505	611.81
367.731	643.81
367.957	643.81
368.184	624.81
368.41	624.81
368.636	663.81
368.862	652.81
369.089	644.81
369.315	651.81
369.541	644.81
369.767	669.81
369.993	633.81
370.219	636.81
370.445	639.81
370.672	637.81
370.898	658.81
371.124	672.81
371.35	672.81
371.576	689.81
371.802	682.81
372.028	675.81
372.254	689.81
372.48	685.81
372.706	694.81
372.932	714.81
373.158	715.81
373.384	680.81
373.61	674.81
373.835	692.81
374.061	676.81
374.287	710.81
374.513	704.81
374.739	738.81
374.965	783.81
375.191	750.81
375.416	777.81
375.642	732.81
375.868	713.81
376.094	739.81
376.319	726.81
376.545	697.81
376.771	687.81
376.997	701.81
377.222	666.81
377.448	687.81
377.674	666.81
377.899	657.81
378.125	680.81
378.35	673.81
378.576	660.81
378.802	666.81
379.027	702.81
379.253	660.81
379.478	658.81
379.704	660.81
379.929	662.81
380.155	676.81
380.38	666.81
380.606	671.81
380.831	682.81
381.057	653.81
381.282	687.81
381.507	682.81
381.733	688.81
381.958	693.81
382.184	676.81
382.409	709.81
382.634	695.81
382.86	710.81
383.085	725.81
383.31	731.81
383.535	721.81
383.761	726.81
383.986	752.81
384.211	787.81
384.436	806.81
384.662	807.81
384.887	847.81
385.112	838.81
385.337	818.81
385.562	842.81
385.787	814.81
386.013	845.81
386.238	837.81
386.463	807.81
386.688	839.81
386.913	833.81
387.138	833.81
387.363	812.81
387.588	789.81
387.813	813.81
388.038	798.81
388.263	802.81
388.488	801.81
388.713	802.81
388.938	804.81
389.163	805.81
389.387	809.81
389.612	793.81
389.837	776.81
390.062	782.81
390.287	785.81
390.512	773.81
390.736	823.81
390.961	819.81
391.186	838.81
391.411	863.81
391.636	885.81
391.86	904.81
392.085	931.81
392.31	916.81
392.534	918.81
392.759	890.81
392.984	881.81
393.208	858.81
393.433	879.81
393.658	880.81
393.882	853.81
394.107	890.81
394.331	875.81
394.556	865.81
394.78	885.81
395.005	901.81
395.229	866.81
395.454	906.81
395.678	927.81
395.903	953.81
396.127	890.81
396.352	864.81
396.576	865.81
396.801	850.81
397.025	874.81
397.249	879.81
397.474	893.81
397.698	926.81
397.922	898.81
398.147	929.81
398.371	928.81
398.595	930.81
398.82	989.81
399.044	1066.81
399.268	1149.81
399.492	1385.81
399.717	1579.81
399.941	1597.81
400.165	1415.81
400.389	1217.81
400.613	1134.81
400.837	1059.81
401.062	1043.81
401.286	997.81
401.51	1016.81
401.734	1013.81
401.958	1052.81
402.182	1066.81
402.406	1066.81
402.63	1048.81
402.854	1087.81
403.078	1139.81
403.302	1144.81
403.526	1184.81
403.75	1212.81
403.974	1221.81
404.198	1209.81
404.422	1203.81
404.645	1190.81
404.869	1181.81
405.093	1194.81
405.317	1165.81
405.541	1147.81
405.765	1148.81
405.988	1155.81
406.212	1140.81
406.436	1126.81
406.66	1142.81
406.883	1150.81
407.107	1211.81
407.331	1322.81
407.555	1370.81
407.778	1299.81
408.002	1334.81
408.226	1289.81
408.449	1256.81
408.673	1195.81
408.896	1184.81
409.12	1162.81
409.344	1202.81
409.567	1191.81
409.791	1187.81
410.014	1194.81
410.238	1174.81
410.461	1169.81
410.685	1143.81
410.908	1116.81
411.132	1096.81
411.355	1041.81
411.578	1059.81
411.802	1077.81
412.025	1055.81
412.249	1133.81
412.472	1071.81
412.695	1053.81
412.919	1034.81
413.142	1031.81
413.365	1053.81
413.589	1029.81
413.812	996.81
414.035	1030.81
414.258	1015.81
414.482	1021.81
414.705	1078.81
414.928	1012.81
415.151	1056.81
415.374	1017.81
415.597	1045.81
415.821	1018.81
416.044	1027.81
416.267	1006.81
416.49	1000.81
416.713	993.81
416.936	1016.81
417.159	990.81
417.382	1012.81
417.605	1011.81
417.828	1038.81
418.051	1003.81
418.274	1025.81
418.497	1031.81
418.72	1047.81
418.943	1041.81
419.166	1145.81
419.389	1233.81
419.611	1176.81
419.834	1123.81
420.057	1087.81
420.28	1054.81
420.503	993.81
420.726	1019.81
420.948	1005.81
421.171	1020.81
421.394	999.81
421.617	1023.81
421.839	1050.81
422.062	1040.81
422.285	1022.81
422.507	1027.81
422.73	1013.81
422.953	1057.81
423.175	1094.81
423.398	1073.81
423.621	1067.81
423.843	1101.81
424.066	1116.81
424.288	1089.81
424.511	1093.81
424.733	1107.81
424.956	1056.81
425.178	1044.81
425.401	1070.81
425.623	1025.81
425.846	998.81
426.068	1007.81
426.291	992.81
426.513	948.81
426.735	951.81
426.958	969.81
427.18	937.81
427.402	920.81
427.625	910.81
427.847	911.81
428.069	937.81
428.292	924.81
428.514	925.81
428.736	897.81
428.958	921.81
429.181	887.81
429.403	884.81
429.625	895.81
429.847	886.81
430.069	897.81
430.292	890.81
430.514	890.81
430.736	887.81
430.958	913.81
431.18	896.81
431.402	894.81
431.624	906.81
431.846	879.81
432.068	938.81
432.29	958.81
432.512	892.81
432.734	914.81
432.956	925.81
433.178	936.81
433.4	924.81
433.622	911.81
433.844	909.81
434.066	936.81
434.287	928.81
434.509	966.81
434.731	1017.81
434.953	1048.81
435.175	1074.81
435.397	1034.81
435.618	961.81
435.84	945.81
436.062	939.81
436.284	922.81
436.505	917.81
436.727	929.81
436.949	907.81
437.17	933.81
437.392	908.81
437.614	880.81
437.835	855.81
438.057	895.81
438.278	879.81
438.5	891.81
438.721	878.81
438.943	921.81
439.165	882.81
439.386	888.81
439.608	921.81
439.829	912.81
440.05	952.81
440.272	930.81
440.493	929.81
440.715	928.81
440.936	928.81
441.158	956.81
441.379	1012.81
441.6	1057.81
441.822	1096.81
442.043	1056.81
442.264	1064.81
442.486	1004.81
442.707	1003.81
442.928	1005.81
443.149	1035.81
443.371	1056.81
443.592	1031.81
443.813	1032.81
444.034	1062.81
444.255	1090.81
444.476	1150.81
444.698	1217.81
444.919	1276.81
445.14	1373.81
445.361	1234.81
445.582	1107.81
445.803	1023.81
446.024	984.81
446.245	1003.81
446.466	987.81
446.687	959.81
446.908	929.81
447.129	908.81
447.35	887.81
447.571	907.81
447.792	866.81
448.013	907.81
448.234	877.81
448.455	843.81
448.675	846.81
448.896	855.81
449.117	856.81
449.338	858.81
449.559	874.81
449.779	845.81
450	862.81
450.221	843.81
450.442	887.81
450.662	869.81
450.883	852.81
451.104	877.81
451.324	893.81
451.545	904.81
451.766	874.81
451.986	890.81
452.207	864.81
452.428	870.81
452.648	844.81
452.869	865.81
453.089	801.81
453.31	861.81
453.53	843.81
453.751	827.81
453.971	815.81
454.192	832.81
454.412	806.81
454.633	827.81
454.853	820.81
455.073	823.81
455.294	793.81
455.514	810.81
455.734	789.81
455.955	756.81
456.175	789.81
456.395	803.81
456.616	806.81
456.836	780.81
457.056	823.81
457.276	787.81
457.497	813.81
457.717	783.81
457.937	798.81
458.157	793.81
458.377	798.81
458.598	828.81
458.818	840.81
459.038	851.81
459.258	915.81
459.478	959.81
459.698	971.81
459.918	969.81
460.138	985.81
460.358	1077.81
460.578	1104.81
460.798	1134.81
461.018	1110.81
461.238	1072.81
461.458	1113.81
461.678	1095.81
461.898	1131.81
462.118	1074.81
462.338	1185.81
462.558	1191.81
462.777	1251.81
462.997	1349.81
463.217	1498.81
463.437	1531.81
463.657	1427.81
463.876	1322.81
464.096	1287.81
464.316	1306.81
464.536	1315.81
464.755	1274.81
464.975	1225.81
465.195	1182.81
465.414	1074.81
465.634	1005.81
465.854	973.81
466.073	957.81
466.293	929.81
466.512	927.81
466.732	911.81
466.951	882.81
467.171	936.81
467.391	891.81
467.61	871.81
467.829	853.81
468.049	903.81
468.268	829.81
468.488	858.81
468.707	834.81
468.927	829.81
469.146	820.81
469.365	861.81
469.585	866.81
469.804	873.81
470.023	934.81
470.243	924.81
470.462	942.81
470.681	931.81
470.901	947.81
471.12	900.81
471.339	903.81
471.558	870.81
471.777	855.81
471.997	854.81
472.216	824.81
472.435	849.81
472.654	847.81
472.873	818.81
473.092	814.81
473.311	813.81
473.53	830.81
473.749	803.81
473.968	817.81
474.187	804.81
474.406	808.81
474.625	819.81
474.844	837.81
475.063	836.81
475.282	830.81
475.501	817.81
475.72	829.81
475.939	849.81
476.158	855.81
476.377	859.81
476.596	865.81
476.814	861.81
477.033	865.81
477.252	890.81
477.471	911.81
477.69	925.81
477.908	946.81
478.127	986.81
478.346	982.81
478.564	997.81
478.783	1005.81
479.002	1050.81
479.22	1030.81
479.439	1026.81
479.658	1000.81
479.876	1004.81
480.095	1048.81
480.313	1051.81
480.532	1115.81
480.751	1123.81
480.969	1056.81
481.188	1031.81
481.406	985.81
481.624	941.81
481.843	941.81
482.061	923.81
482.28	932.81
482.498	934.81
482.717	930.81
482.935	920.81
483.153	933.81
483.372	918.81
483.59	945.81
483.808	939.81
484.027	926.81
484.245	930.81
484.463	961.81
484.681	949.81
484.9	960.81
485.118	967.81
485.336	983.81
485.554	961.81
485.772	983.81
485.99	977.81
486.209	997.81
486.427	996.81
486.645	988.81
486.863	1029.81
487.081	1015.81
487.299	990.81
487.517	975.81
487.735	1001.81
487.953	976.81
488.171	980.81
488.389	969.81
488.607	958.81
488.825	951.81
489.043	958.81
489.261	982.81
489.479	929.81
489.696	954.81
489.914	981.81
490.132	979.81
490.35	995.81
490.568	996.81
490.786	975.81
491.003	993.81
491.221	1008.81
491.439	1000.81
491.657	981.81
491.874	966.81
492.092	981.81
492.31	991.81
492.527	991.81
492.745	1002.81
492.963	1031.81
493.18	1025.81
493.398	973.81
493.615	1020.81
493.833	1029.81
494.05	1061.81
494.268	1001.81
494.485	1028.81
494.703	1031.81
494.92	1036.81
495.138	1042.81
495.355	1022.81
495.573	1028.81
495.79	1035.81
496.008	1029.81
496.225	1051.81
496.442	1060.81
496.66	1081.81
496.877	1057.81
497.094	1097.81
497.312	1124.81
497.529	1133.81
497.746	1145.81
497.963	1214.81
498.181	1285.81
498.398	1272.81
498.615	1358.81
498.832	1489.81
