Data from NiCl2@0.25M.TitratingCurve.Agarose3%dH2O.NegLispCup.LampEnergy10.LIBS07252019_HRD10591_18-23-11-572.txt Node
Date: Thu Jul 25 18:23:11 EDT 2019
User: cochatt
Spectrometer: HR+D1059
Trigger mode: 1
Integration Time (sec): 1.000000E-1
Scans to average: 1
Electric dark correction enabled: true
Nonlinearity correction enabled: false
Boxcar width: 0
XAxis mode: Wavelengths
Number of Pixels in Spectrum: 2048
>>>>>Begin Spectral Data<<<<<
223.165	-14.31
223.4	-14.31
223.635	-14.31
223.869	-21.31
224.104	-15.31
224.338	-8.31
224.573	-21.31
224.808	-16.31
225.042	-0.31
225.277	1.69
225.511	-19.31
225.746	0.69
225.98	-0.31
226.215	14.69
226.449	10.69
226.683	30.69
226.918	21.69
227.152	36.69
227.387	32.69
227.621	26.69
227.856	39.69
228.09	45.69
228.324	51.69
228.559	53.69
228.793	70.69
229.027	77.69
229.262	78.69
229.496	93.69
229.73	90.69
229.964	105.69
230.199	112.69
230.433	109.69
230.667	125.69
230.901	118.69
231.136	115.69
231.37	105.69
231.604	116.69
231.838	122.69
232.072	121.69
232.306	116.69
232.541	125.69
232.775	124.69
233.009	116.69
233.243	119.69
233.477	128.69
233.711	135.69
233.945	113.69
234.179	109.69
234.413	119.69
234.647	120.69
234.881	142.69
235.115	132.69
235.349	125.69
235.583	114.69
235.817	120.69
236.051	135.69
236.285	120.69
236.519	138.69
236.753	122.69
236.987	125.69
237.221	132.69
237.455	138.69
237.689	117.69
237.922	130.69
238.156	110.69
238.39	143.69
238.624	132.69
238.858	122.69
239.091	129.69
239.325	144.69
239.559	126.69
239.793	125.69
240.027	132.69
240.26	136.69
240.494	158.69
240.728	153.69
240.961	146.69
241.195	138.69
241.429	164.69
241.662	154.69
241.896	147.69
242.13	165.69
242.363	151.69
242.597	169.69
242.83	149.69
243.064	144.69
243.298	146.69
243.531	162.69
243.765	158.69
243.998	166.69
244.232	164.69
244.465	149.69
244.699	158.69
244.932	153.69
245.166	157.69
245.399	174.69
245.633	165.69
245.866	184.69
246.099	166.69
246.333	157.69
246.566	163.69
246.8	176.69
247.033	175.69
247.266	176.69
247.5	161.69
247.733	188.69
247.966	185.69
248.2	153.69
248.433	176.69
248.666	181.69
248.899	184.69
249.133	200.69
249.366	195.69
249.599	198.69
249.832	194.69
250.066	184.69
250.299	189.69
250.532	191.69
250.765	197.69
250.998	200.69
251.231	195.69
251.465	201.69
251.698	190.69
251.931	211.69
252.164	195.69
252.397	203.69
252.63	199.69
252.863	207.69
253.096	206.69
253.329	209.69
253.562	220.69
253.795	198.69
254.028	204.69
254.261	187.69
254.494	206.69
254.727	206.69
254.96	209.69
255.193	223.69
255.426	212.69
255.659	202.69
255.892	210.69
256.124	213.69
256.357	217.69
256.59	221.69
256.823	229.69
257.056	225.69
257.289	228.69
257.521	222.69
257.754	219.69
257.987	217.69
258.22	235.69
258.452	214.69
258.685	230.69
258.918	236.69
259.151	245.69
259.383	236.69
259.616	244.69
259.849	221.69
260.081	243.69
260.314	239.69
260.547	225.69
260.779	239.69
261.012	230.69
261.244	241.69
261.477	244.69
261.71	251.69
261.942	247.69
262.175	238.69
262.407	243.69
262.64	248.69
262.872	248.69
263.105	261.69
263.337	258.69
263.57	257.69
263.802	244.69
264.035	261.69
264.267	240.69
264.499	245.69
264.732	262.69
264.964	263.69
265.197	256.69
265.429	261.69
265.661	258.69
265.894	262.69
266.126	254.69
266.358	233.69
266.591	262.69
266.823	270.69
267.055	282.69
267.287	271.69
267.52	264.69
267.752	260.69
267.984	270.69
268.216	273.69
268.448	278.69
268.681	275.69
268.913	269.69
269.145	260.69
269.377	256.69
269.609	271.69
269.841	279.69
270.073	271.69
270.306	284.69
270.538	277.69
270.77	274.69
271.002	284.69
271.234	292.69
271.466	270.69
271.698	284.69
271.93	276.69
272.162	274.69
272.394	313.69
272.626	297.69
272.858	278.69
273.09	292.69
273.322	292.69
273.553	289.69
273.785	321.69
274.017	298.69
274.249	316.69
274.481	300.69
274.713	292.69
274.945	311.69
275.176	303.69
275.408	307.69
275.64	302.69
275.872	293.69
276.104	309.69
276.335	312.69
276.567	319.69
276.799	311.69
277.031	318.69
277.262	335.69
277.494	321.69
277.726	331.69
277.957	328.69
278.189	310.69
278.421	329.69
278.652	322.69
278.884	318.69
279.115	309.69
279.347	334.69
279.579	324.69
279.81	338.69
280.042	334.69
280.273	324.69
280.505	322.69
280.736	338.69
280.968	325.69
281.199	330.69
281.431	332.69
281.662	331.69
281.894	340.69
282.125	343.69
282.356	344.69
282.588	342.69
282.819	359.69
283.051	341.69
283.282	339.69
283.513	364.69
283.745	343.69
283.976	350.69
284.207	345.69
284.439	351.69
284.67	353.69
284.901	357.69
285.132	359.69
285.364	380.69
285.595	327.69
285.826	350.69
286.057	378.69
286.288	374.69
286.52	369.69
286.751	370.69
286.982	356.69
287.213	361.69
287.444	366.69
287.675	380.69
287.906	376.69
288.138	367.69
288.369	368.69
288.6	380.69
288.831	373.69
289.062	380.69
289.293	382.69
289.524	376.69
289.755	397.69
289.986	374.69
290.217	383.69
290.448	380.69
290.679	391.69
290.91	378.69
291.141	376.69
291.371	392.69
291.602	370.69
291.833	379.69
292.064	409.69
292.295	388.69
292.526	384.69
292.757	387.69
292.987	391.69
293.218	388.69
293.449	405.69
293.68	387.69
293.91	391.69
294.141	383.69
294.372	381.69
294.603	402.69
294.833	372.69
295.064	402.69
295.295	395.69
295.525	386.69
295.756	378.69
295.987	394.69
296.217	388.69
296.448	396.69
296.679	392.69
296.909	404.69
297.14	397.69
297.37	402.69
297.601	417.69
297.831	407.69
298.062	415.69
298.292	418.69
298.523	422.69
298.753	429.69
298.984	426.69
299.214	406.69
299.445	405.69
299.675	415.69
299.905	412.69
300.136	415.69
300.366	432.69
300.597	444.69
300.827	437.69
301.057	446.69
301.288	444.69
301.518	433.69
301.748	440.69
301.979	446.69
302.209	419.69
302.439	434.69
302.669	422.69
302.9	438.69
303.13	429.69
303.36	453.69
303.59	429.69
303.82	423.69
304.051	430.69
304.281	434.69
304.511	446.69
304.741	425.69
304.971	425.69
305.201	448.69
305.431	463.69
305.661	432.69
305.891	448.69
306.121	434.69
306.352	422.69
306.582	442.69
306.812	421.69
307.042	441.69
307.272	437.69
307.502	445.69
307.731	444.69
307.961	428.69
308.191	424.69
308.421	447.69
308.651	439.69
308.881	432.69
309.111	435.69
309.341	445.69
309.571	448.69
309.8	429.69
310.03	444.69
310.26	446.69
310.49	465.69
310.72	435.69
310.949	415.69
311.179	428.69
311.409	442.69
311.639	459.69
311.868	453.69
312.098	449.69
312.328	446.69
312.557	458.69
312.787	457.69
313.017	452.69
313.246	478.69
313.476	479.69
313.706	467.69
313.935	486.69
314.165	469.69
314.394	459.69
314.624	480.69
314.853	480.69
315.083	469.69
315.312	476.69
315.542	476.69
315.771	448.69
316.001	449.69
316.23	488.69
316.46	468.69
316.689	462.69
316.919	461.69
317.148	469.69
317.377	481.69
317.607	469.69
317.836	457.69
318.065	466.69
318.295	458.69
318.524	472.69
318.753	456.69
318.983	469.69
319.212	463.69
319.441	456.69
319.67	451.69
319.9	469.69
320.129	477.69
320.358	476.69
320.587	463.69
320.816	475.69
321.046	469.69
321.275	483.69
321.504	464.69
321.733	454.69
321.962	458.69
322.191	450.69
322.42	471.69
322.649	487.69
322.878	465.69
323.108	461.69
323.337	470.69
323.566	480.69
323.795	496.69
324.024	484.69
324.253	477.69
324.482	494.69
324.71	488.69
324.939	502.69
325.168	489.69
325.397	482.69
325.626	508.69
325.855	503.69
326.084	505.69
326.313	497.69
326.542	502.69
326.77	516.69
326.999	525.69
327.228	490.69
327.457	487.69
327.686	503.69
327.914	519.69
328.143	498.69
328.372	496.69
328.6	504.69
328.829	511.69
329.058	502.69
329.287	522.69
329.515	522.69
329.744	512.69
329.972	493.69
330.201	546.69
330.43	518.69
330.658	520.69
330.887	529.69
331.115	537.69
331.344	543.69
331.572	532.69
331.801	533.69
332.03	545.69
332.258	558.69
332.486	586.69
332.715	613.69
332.943	636.69
333.172	654.69
333.4	661.69
333.629	646.69
333.857	670.69
334.085	654.69
334.314	659.69
334.542	638.69
334.771	646.69
334.999	642.69
335.227	632.69
335.455	631.69
335.684	606.69
335.912	612.69
336.14	595.69
336.369	594.69
336.597	628.69
336.825	614.69
337.053	609.69
337.281	595.69
337.51	589.69
337.738	579.69
337.966	572.69
338.194	572.69
338.422	559.69
338.65	553.69
338.878	580.69
339.106	554.69
339.334	560.69
339.562	554.69
339.79	558.69
340.018	550.69
340.246	525.69
340.474	545.69
340.702	553.69
340.93	546.69
341.158	550.69
341.386	542.69
341.614	533.69
341.842	552.69
342.07	573.69
342.298	540.69
342.526	554.69
342.754	552.69
342.981	534.69
343.209	556.69
343.437	589.69
343.665	625.69
343.893	632.69
344.12	642.69
344.348	644.69
344.576	580.69
344.804	600.69
345.031	551.69
345.259	558.69
345.487	542.69
345.714	526.69
345.942	568.69
346.17	546.69
346.397	536.69
346.625	544.69
346.853	515.69
347.08	521.69
347.308	543.69
347.535	510.69
347.763	534.69
347.99	518.69
348.218	519.69
348.445	538.69
348.673	518.69
348.9	508.69
349.128	525.69
349.355	506.69
349.583	516.69
349.81	510.69
350.037	499.69
350.265	503.69
350.492	539.69
350.72	512.69
350.947	514.69
351.174	515.69
351.402	511.69
351.629	521.69
351.856	511.69
352.083	518.69
352.311	513.69
352.538	505.69
352.765	511.69
352.992	499.69
353.22	502.69
353.447	501.69
353.674	504.69
353.901	494.69
354.128	499.69
354.355	508.69
354.583	492.69
354.81	496.69
355.037	507.69
355.264	527.69
355.491	520.69
355.718	483.69
355.945	514.69
356.172	520.69
356.399	518.69
356.626	496.69
356.853	508.69
357.08	509.69
357.307	515.69
357.534	500.69
357.761	520.69
357.988	529.69
358.215	492.69
358.441	502.69
358.668	523.69
358.895	531.69
359.122	519.69
359.349	489.69
359.576	500.69
359.802	521.69
360.029	514.69
360.256	498.69
360.483	527.69
360.709	497.69
360.936	521.69
361.163	498.69
361.39	500.69
361.616	506.69
361.843	510.69
362.07	512.69
362.296	502.69
362.523	497.69
362.749	488.69
362.976	526.69
363.203	523.69
363.429	518.69
363.656	522.69
363.882	496.69
364.109	502.69
364.335	488.69
364.562	487.69
364.788	493.69
365.015	508.69
365.241	517.69
365.468	489.69
365.694	509.69
365.92	498.69
366.147	517.69
366.373	498.69
366.599	511.69
366.826	488.69
367.052	505.69
367.278	496.69
367.505	513.69
367.731	532.69
367.957	519.69
368.184	514.69
368.41	527.69
368.636	526.69
368.862	541.69
369.089	517.69
369.315	528.69
369.541	522.69
369.767	536.69
369.993	544.69
370.219	501.69
370.445	536.69
370.672	522.69
370.898	544.69
371.124	538.69
371.35	569.69
371.576	532.69
371.802	545.69
372.028	540.69
372.254	544.69
372.48	551.69
372.706	552.69
372.932	547.69
373.158	569.69
373.384	555.69
373.61	536.69
373.835	562.69
374.061	569.69
374.287	566.69
374.513	540.69
374.739	552.69
374.965	596.69
375.191	612.69
375.416	602.69
375.642	569.69
375.868	580.69
376.094	553.69
376.319	574.69
376.545	553.69
376.771	561.69
376.997	550.69
377.222	536.69
377.448	549.69
377.674	544.69
377.899	535.69
378.125	544.69
378.35	543.69
378.576	527.69
378.802	545.69
379.027	550.69
379.253	543.69
379.478	558.69
379.704	543.69
379.929	562.69
380.155	561.69
380.38	554.69
380.606	540.69
380.831	536.69
381.057	553.69
381.282	538.69
381.507	543.69
381.733	549.69
381.958	567.69
382.184	566.69
382.409	568.69
382.634	560.69
382.86	582.69
383.085	582.69
383.31	591.69
383.535	589.69
383.761	610.69
383.986	599.69
384.211	617.69
384.436	617.69
384.662	598.69
384.887	636.69
385.112	645.69
385.337	660.69
385.562	646.69
385.787	654.69
386.013	643.69
386.238	657.69
386.463	655.69
386.688	650.69
386.913	653.69
387.138	651.69
387.363	662.69
387.588	643.69
387.813	640.69
388.038	647.69
388.263	609.69
388.488	639.69
388.713	633.69
388.938	646.69
389.163	621.69
389.387	630.69
389.612	631.69
389.837	648.69
390.062	650.69
390.287	623.69
390.512	634.69
390.736	648.69
390.961	674.69
391.186	639.69
391.411	687.69
391.636	700.69
391.86	708.69
392.085	735.69
392.31	712.69
392.534	709.69
392.759	693.69
392.984	692.69
393.208	660.69
393.433	676.69
393.658	687.69
393.882	684.69
394.107	694.69
394.331	678.69
394.556	696.69
394.78	680.69
395.005	686.69
395.229	699.69
395.454	705.69
395.678	729.69
395.903	735.69
396.127	721.69
396.352	696.69
396.576	678.69
396.801	657.69
397.025	696.69
397.249	724.69
397.474	737.69
397.698	709.69
397.922	740.69
398.147	730.69
398.371	733.69
398.595	756.69
398.82	775.69
399.044	859.69
399.268	934.69
399.492	1037.69
399.717	1193.69
399.941	1152.69
400.165	1036.69
400.389	965.69
400.613	900.69
400.837	842.69
401.062	795.69
401.286	805.69
401.51	797.69
401.734	786.69
401.958	820.69
402.182	801.69
402.406	812.69
402.63	836.69
402.854	854.69
403.078	847.69
403.302	885.69
403.526	888.69
403.75	895.69
403.974	899.69
404.198	911.69
404.422	896.69
404.645	921.69
404.869	909.69
405.093	916.69
405.317	848.69
405.541	876.69
405.765	874.69
405.988	836.69
406.212	885.69
406.436	876.69
406.66	873.69
406.883	896.69
407.107	961.69
407.331	975.69
407.555	1008.69
407.778	991.69
408.002	976.69
408.226	974.69
408.449	948.69
408.673	896.69
408.896	881.69
409.12	891.69
409.344	928.69
409.567	883.69
409.791	888.69
410.014	886.69
410.238	912.69
410.461	876.69
410.685	853.69
410.908	814.69
411.132	860.69
411.355	815.69
411.578	835.69
411.802	825.69
412.025	846.69
412.249	836.69
412.472	820.69
412.695	829.69
412.919	824.69
413.142	799.69
413.365	812.69
413.589	814.69
413.812	801.69
414.035	816.69
414.258	788.69
414.482	800.69
414.705	835.69
414.928	809.69
415.151	809.69
415.374	796.69
415.597	791.69
415.821	779.69
416.044	768.69
416.267	792.69
416.49	804.69
416.713	797.69
416.936	782.69
417.159	777.69
417.382	789.69
417.605	794.69
417.828	777.69
418.051	791.69
418.274	817.69
418.497	785.69
418.72	810.69
418.943	812.69
419.166	852.69
419.389	903.69
419.611	891.69
419.834	849.69
420.057	810.69
420.28	814.69
420.503	808.69
420.726	805.69
420.948	796.69
421.171	778.69
421.394	797.69
421.617	786.69
421.839	795.69
422.062	790.69
422.285	793.69
422.507	796.69
422.73	808.69
422.953	819.69
423.175	818.69
423.398	859.69
423.621	836.69
423.843	842.69
424.066	838.69
424.288	822.69
424.511	826.69
424.733	837.69
424.956	783.69
425.178	805.69
425.401	799.69
425.623	824.69
425.846	768.69
426.068	759.69
426.291	769.69
426.513	744.69
426.735	724.69
426.958	752.69
427.18	730.69
427.402	734.69
427.625	752.69
427.847	738.69
428.069	714.69
428.292	712.69
428.514	719.69
428.736	716.69
428.958	729.69
429.181	695.69
429.403	698.69
429.625	692.69
429.847	702.69
430.069	691.69
430.292	701.69
430.514	698.69
430.736	698.69
430.958	708.69
431.18	701.69
431.402	721.69
431.624	699.69
431.846	710.69
432.068	714.69
432.29	713.69
432.512	708.69
432.734	692.69
432.956	694.69
433.178	727.69
433.4	730.69
433.622	722.69
433.844	740.69
434.066	745.69
434.287	742.69
434.509	757.69
434.731	791.69
434.953	790.69
435.175	825.69
435.397	781.69
435.618	741.69
435.84	754.69
436.062	738.69
436.284	707.69
436.505	724.69
436.727	716.69
436.949	711.69
437.17	694.69
437.392	693.69
437.614	710.69
437.835	698.69
438.057	696.69
438.278	666.69
438.5	684.69
438.721	682.69
438.943	698.69
439.165	687.69
439.386	719.69
439.608	701.69
439.829	710.69
440.05	700.69
440.272	726.69
440.493	726.69
440.715	722.69
440.936	733.69
441.158	744.69
441.379	775.69
441.6	796.69
441.822	784.69
442.043	815.69
442.264	785.69
442.486	762.69
442.707	744.69
442.928	762.69
443.149	781.69
443.371	782.69
443.592	795.69
443.813	781.69
444.034	802.69
444.255	801.69
444.476	878.69
444.698	915.69
444.919	965.69
445.14	993.69
445.361	897.69
445.582	810.69
445.803	789.69
446.024	741.69
446.245	756.69
446.466	767.69
446.687	725.69
446.908	722.69
447.129	691.69
447.35	690.69
447.571	673.69
447.792	660.69
448.013	662.69
448.234	674.69
448.455	674.69
448.675	664.69
448.896	676.69
449.117	630.69
449.338	651.69
449.559	634.69
449.779	638.69
450	642.69
450.221	642.69
450.442	661.69
450.662	672.69
450.883	666.69
451.104	673.69
451.324	676.69
451.545	658.69
451.766	660.69
451.986	675.69
452.207	656.69
452.428	663.69
452.648	657.69
452.869	632.69
453.089	637.69
453.31	657.69
453.53	634.69
453.751	647.69
453.971	605.69
454.192	642.69
454.412	623.69
454.633	622.69
454.853	643.69
455.073	618.69
455.294	635.69
455.514	618.69
455.734	610.69
455.955	607.69
456.175	641.69
456.395	636.69
456.616	608.69
456.836	629.69
457.056	605.69
457.276	601.69
457.497	643.69
457.717	614.69
457.937	625.69
458.157	611.69
458.377	619.69
458.598	661.69
458.818	650.69
459.038	672.69
459.258	679.69
459.478	709.69
459.698	724.69
459.918	754.69
460.138	804.69
460.358	826.69
460.578	820.69
460.798	849.69
461.018	864.69
461.238	857.69
461.458	858.69
461.678	830.69
461.898	839.69
462.118	848.69
462.338	916.69
462.558	889.69
462.777	927.69
462.997	1032.69
463.217	1088.69
463.437	1073.69
463.657	1011.69
463.876	963.69
464.096	996.69
464.316	943.69
464.536	968.69
464.755	907.69
464.975	902.69
465.195	847.69
465.414	804.69
465.634	759.69
465.854	774.69
466.073	738.69
466.293	733.69
466.512	722.69
466.732	700.69
466.951	713.69
467.171	696.69
467.391	700.69
467.61	667.69
467.829	688.69
468.049	678.69
468.268	673.69
468.488	694.69
468.707	665.69
468.927	687.69
469.146	674.69
469.365	702.69
469.585	686.69
469.804	674.69
470.023	700.69
470.243	708.69
470.462	708.69
470.681	718.69
470.901	705.69
471.12	710.69
471.339	689.69
471.558	676.69
471.777	720.69
471.997	682.69
472.216	658.69
472.435	677.69
472.654	653.69
472.873	677.69
473.092	660.69
473.311	651.69
473.53	663.69
473.749	665.69
473.968	657.69
474.187	656.69
474.406	639.69
474.625	661.69
474.844	666.69
475.063	673.69
475.282	670.69
475.501	644.69
475.72	668.69
475.939	686.69
476.158	696.69
476.377	705.69
476.596	689.69
476.814	709.69
477.033	705.69
477.252	703.69
477.471	709.69
477.69	729.69
477.908	761.69
478.127	816.69
478.346	774.69
478.564	790.69
478.783	790.69
479.002	830.69
479.22	817.69
479.439	816.69
479.658	810.69
479.876	827.69
480.095	830.69
480.313	881.69
480.532	863.69
480.751	881.69
480.969	816.69
481.188	803.69
481.406	801.69
481.624	793.69
481.843	775.69
482.061	762.69
482.28	768.69
482.498	772.69
482.717	755.69
482.935	773.69
483.153	775.69
483.372	784.69
483.59	756.69
483.808	771.69
484.027	781.69
484.245	781.69
484.463	773.69
484.681	777.69
484.9	793.69
485.118	770.69
485.336	796.69
485.554	792.69
485.772	787.69
485.99	792.69
486.209	817.69
486.427	776.69
486.645	784.69
486.863	807.69
487.081	793.69
487.299	793.69
487.517	816.69
487.735	793.69
487.953	809.69
488.171	789.69
488.389	802.69
488.607	802.69
488.825	781.69
489.043	772.69
489.261	799.69
489.479	794.69
489.696	793.69
489.914	809.69
490.132	828.69
490.35	809.69
490.568	827.69
490.786	794.69
491.003	806.69
491.221	826.69
491.439	805.69
491.657	814.69
491.874	806.69
492.092	812.69
492.31	836.69
492.527	836.69
492.745	830.69
492.963	821.69
493.18	858.69
493.398	843.69
493.615	851.69
493.833	846.69
494.05	872.69
494.268	857.69
494.485	874.69
494.703	860.69
494.92	879.69
495.138	850.69
495.355	841.69
495.573	853.69
495.79	860.69
496.008	861.69
496.225	910.69
496.442	902.69
496.66	901.69
496.877	910.69
497.094	911.69
497.312	920.69
497.529	966.69
497.746	974.69
497.963	999.69
498.181	1029.69
498.398	1078.69
498.615	1142.69
498.832	1175.69
499.049	1281.69
499.267	1361.69
499.484	1488.69
499.701	1650.69
499.918	1811.69
500.135	2038.69
500.352	2276.69
500.569	2334.69
500.786	2270.69
501.003	2138.69
501.22	1942.69
