Data from NiCl2@0.5M.TitratingCurve.Agarose3%dH2O.NegLispCup.LampEnergy10.LIBS07252019_HRD10591_18-19-01-571.txt Node
Date: Thu Jul 25 18:19:01 EDT 2019
User: cochatt
Spectrometer: HR+D1059
Trigger mode: 1
Integration Time (sec): 1.000000E-1
Scans to average: 1
Electric dark correction enabled: true
Nonlinearity correction enabled: false
Boxcar width: 0
XAxis mode: Wavelengths
Number of Pixels in Spectrum: 2048
>>>>>Begin Spectral Data<<<<<
223.165	-1.62
223.4	-1.62
223.635	-1.62
223.869	-14.62
224.104	-17.62
224.338	-29.62
224.573	-20.62
224.808	-14.62
225.042	-2.62
225.277	-3.62
225.511	5.38
225.746	8.38
225.98	-8.62
226.215	4.38
226.449	15.38
226.683	31.38
226.918	18.38
227.152	30.38
227.387	23.38
227.621	30.38
227.856	36.38
228.09	56.38
228.324	69.38
228.559	55.38
228.793	78.38
229.027	109.38
229.262	128.38
229.496	120.38
229.73	122.38
229.964	138.38
230.199	142.38
230.433	148.38
230.667	133.38
230.901	149.38
231.136	142.38
231.37	133.38
231.604	144.38
231.838	142.38
232.072	142.38
232.306	143.38
232.541	159.38
232.775	163.38
233.009	159.38
233.243	146.38
233.477	155.38
233.711	152.38
233.945	154.38
234.179	151.38
234.413	151.38
234.647	152.38
234.881	153.38
235.115	150.38
235.349	171.38
235.583	146.38
235.817	146.38
236.051	156.38
236.285	166.38
236.519	173.38
236.753	149.38
236.987	161.38
237.221	152.38
237.455	150.38
237.689	164.38
237.922	157.38
238.156	164.38
238.39	162.38
238.624	163.38
238.858	187.38
239.091	165.38
239.325	174.38
239.559	197.38
239.793	173.38
240.027	192.38
240.26	175.38
240.494	175.38
240.728	186.38
240.961	199.38
241.195	177.38
241.429	181.38
241.662	180.38
241.896	190.38
242.13	204.38
242.363	188.38
242.597	184.38
242.83	192.38
243.064	186.38
243.298	221.38
243.531	204.38
243.765	210.38
243.998	209.38
244.232	214.38
244.465	192.38
244.699	205.38
244.932	197.38
245.166	201.38
245.399	206.38
245.633	190.38
245.866	203.38
246.099	215.38
246.333	219.38
246.566	201.38
246.8	209.38
247.033	221.38
247.266	213.38
247.5	210.38
247.733	209.38
247.966	217.38
248.2	222.38
248.433	232.38
248.666	232.38
248.899	245.38
249.133	209.38
249.366	250.38
249.599	239.38
249.832	256.38
250.066	238.38
250.299	240.38
250.532	240.38
250.765	240.38
250.998	242.38
251.231	263.38
251.465	264.38
251.698	264.38
251.931	252.38
252.164	242.38
252.397	270.38
252.63	277.38
252.863	254.38
253.096	266.38
253.329	264.38
253.562	274.38
253.795	257.38
254.028	270.38
254.261	257.38
254.494	255.38
254.727	270.38
254.96	267.38
255.193	275.38
255.426	275.38
255.659	283.38
255.892	285.38
256.124	284.38
256.357	292.38
256.59	284.38
256.823	288.38
257.056	288.38
257.289	280.38
257.521	262.38
257.754	282.38
257.987	312.38
258.22	292.38
258.452	280.38
258.685	313.38
258.918	294.38
259.151	283.38
259.383	298.38
259.616	305.38
259.849	294.38
260.081	322.38
260.314	302.38
260.547	295.38
260.779	305.38
261.012	319.38
261.244	309.38
261.477	308.38
261.71	311.38
261.942	315.38
262.175	326.38
262.407	319.38
262.64	333.38
262.872	326.38
263.105	326.38
263.337	319.38
263.57	327.38
263.802	334.38
264.035	331.38
264.267	327.38
264.499	325.38
264.732	322.38
264.964	340.38
265.197	335.38
265.429	328.38
265.661	336.38
265.894	352.38
266.126	363.38
266.358	344.38
266.591	347.38
266.823	354.38
267.055	339.38
267.287	342.38
267.52	361.38
267.752	349.38
267.984	342.38
268.216	343.38
268.448	371.38
268.681	365.38
268.913	378.38
269.145	377.38
269.377	363.38
269.609	396.38
269.841	365.38
270.073	364.38
270.306	383.38
270.538	379.38
270.77	391.38
271.002	374.38
271.234	382.38
271.466	376.38
271.698	368.38
271.93	385.38
272.162	388.38
272.394	391.38
272.626	408.38
272.858	376.38
273.09	369.38
273.322	402.38
273.553	384.38
273.785	398.38
274.017	389.38
274.249	382.38
274.481	411.38
274.713	397.38
274.945	421.38
275.176	381.38
275.408	412.38
275.64	397.38
275.872	416.38
276.104	400.38
276.335	424.38
276.567	417.38
276.799	416.38
277.031	429.38
277.262	418.38
277.494	426.38
277.726	420.38
277.957	427.38
278.189	418.38
278.421	432.38
278.652	420.38
278.884	410.38
279.115	423.38
279.347	428.38
279.579	448.38
279.81	432.38
280.042	457.38
280.273	438.38
280.505	417.38
280.736	446.38
280.968	444.38
281.199	454.38
281.431	444.38
281.662	439.38
281.894	448.38
282.125	461.38
282.356	446.38
282.588	444.38
282.819	457.38
283.051	463.38
283.282	472.38
283.513	458.38
283.745	462.38
283.976	457.38
284.207	476.38
284.439	477.38
284.67	467.38
284.901	475.38
285.132	456.38
285.364	488.38
285.595	487.38
285.826	486.38
286.057	481.38
286.288	490.38
286.52	472.38
286.751	474.38
286.982	476.38
287.213	485.38
287.444	495.38
287.675	485.38
287.906	496.38
288.138	476.38
288.369	480.38
288.6	491.38
288.831	491.38
289.062	511.38
289.293	494.38
289.524	503.38
289.755	516.38
289.986	502.38
290.217	496.38
290.448	490.38
290.679	494.38
290.91	501.38
291.141	517.38
291.371	509.38
291.602	516.38
291.833	489.38
292.064	487.38
292.295	494.38
292.526	495.38
292.757	523.38
292.987	496.38
293.218	500.38
293.449	529.38
293.68	514.38
293.91	510.38
294.141	523.38
294.372	496.38
294.603	527.38
294.833	537.38
295.064	528.38
295.295	518.38
295.525	521.38
295.756	532.38
295.987	532.38
296.217	524.38
296.448	533.38
296.679	521.38
296.909	553.38
297.14	547.38
297.37	550.38
297.601	549.38
297.831	536.38
298.062	576.38
298.292	559.38
298.523	561.38
298.753	577.38
298.984	542.38
299.214	562.38
299.445	554.38
299.675	561.38
299.905	564.38
300.136	590.38
300.366	569.38
300.597	581.38
300.827	578.38
301.057	586.38
301.288	595.38
301.518	600.38
301.748	610.38
301.979	606.38
302.209	620.38
302.439	591.38
302.669	598.38
302.9	598.38
303.13	583.38
303.36	582.38
303.59	593.38
303.82	583.38
304.051	605.38
304.281	607.38
304.511	599.38
304.741	617.38
304.971	609.38
305.201	624.38
305.431	601.38
305.661	612.38
305.891	609.38
306.121	620.38
306.352	584.38
306.582	603.38
306.812	580.38
307.042	584.38
307.272	604.38
307.502	584.38
307.731	588.38
307.961	577.38
308.191	598.38
308.421	619.38
308.651	597.38
308.881	569.38
309.111	602.38
309.341	586.38
309.571	612.38
309.8	602.38
310.03	606.38
310.26	617.38
310.49	623.38
310.72	592.38
310.949	606.38
311.179	602.38
311.409	629.38
311.639	604.38
311.868	608.38
312.098	619.38
312.328	611.38
312.557	622.38
312.787	632.38
313.017	627.38
313.246	633.38
313.476	614.38
313.706	658.38
313.935	640.38
314.165	630.38
314.394	638.38
314.624	642.38
314.853	637.38
315.083	673.38
315.312	626.38
315.542	637.38
315.771	634.38
316.001	623.38
316.23	635.38
316.46	619.38
316.689	629.38
316.919	630.38
317.148	659.38
317.377	630.38
317.607	638.38
317.836	654.38
318.065	630.38
318.295	626.38
318.524	648.38
318.753	630.38
318.983	634.38
319.212	618.38
319.441	606.38
319.67	641.38
319.9	652.38
320.129	641.38
320.358	654.38
320.587	659.38
320.816	654.38
321.046	621.38
321.275	648.38
321.504	648.38
321.733	649.38
321.962	665.38
322.191	658.38
322.42	662.38
322.649	646.38
322.878	678.38
323.108	652.38
323.337	654.38
323.566	654.38
323.795	679.38
324.024	676.38
324.253	649.38
324.482	646.38
324.71	674.38
324.939	643.38
325.168	670.38
325.397	678.38
325.626	672.38
325.855	696.38
326.084	693.38
326.313	696.38
326.542	674.38
326.77	697.38
326.999	682.38
327.228	686.38
327.457	692.38
327.686	701.38
327.914	683.38
328.143	669.38
328.372	703.38
328.6	700.38
328.829	696.38
329.058	679.38
329.287	689.38
329.515	686.38
329.744	696.38
329.972	687.38
330.201	703.38
330.43	710.38
330.658	728.38
330.887	709.38
331.115	704.38
331.344	704.38
331.572	732.38
331.801	736.38
332.03	765.38
332.258	736.38
332.486	763.38
332.715	778.38
332.943	794.38
333.172	784.38
333.4	831.38
333.629	837.38
333.857	864.38
334.085	840.38
334.314	836.38
334.542	853.38
334.771	838.38
334.999	863.38
335.227	809.38
335.455	817.38
335.684	813.38
335.912	830.38
336.14	830.38
336.369	813.38
336.597	823.38
336.825	846.38
337.053	839.38
337.281	842.38
337.51	824.38
337.738	811.38
337.966	785.38
338.194	804.38
338.422	806.38
338.65	761.38
338.878	771.38
339.106	772.38
339.334	760.38
339.562	784.38
339.79	756.38
340.018	741.38
340.246	741.38
340.474	764.38
340.702	712.38
340.93	726.38
341.158	751.38
341.386	739.38
341.614	779.38
341.842	756.38
342.07	747.38
342.298	719.38
342.526	766.38
342.754	744.38
342.981	750.38
343.209	748.38
343.437	767.38
343.665	790.38
343.893	822.38
344.12	816.38
344.348	803.38
344.576	780.38
344.804	803.38
345.031	806.38
345.259	749.38
345.487	737.38
345.714	759.38
345.942	767.38
346.17	762.38
346.397	735.38
346.625	738.38
346.853	708.38
347.08	721.38
347.308	704.38
347.535	708.38
347.763	698.38
347.99	703.38
348.218	705.38
348.445	691.38
348.673	698.38
348.9	712.38
349.128	722.38
349.355	748.38
349.583	734.38
349.81	701.38
350.037	683.38
350.265	679.38
350.492	695.38
350.72	652.38
350.947	697.38
351.174	700.38
351.402	712.38
351.629	706.38
351.856	721.38
352.083	689.38
352.311	708.38
352.538	716.38
352.765	754.38
352.992	664.38
353.22	658.38
353.447	663.38
353.674	659.38
353.901	662.38
354.128	676.38
354.355	687.38
354.583	688.38
354.81	664.38
355.037	659.38
355.264	652.38
355.491	650.38
355.718	658.38
355.945	666.38
356.172	688.38
356.399	662.38
356.626	674.38
356.853	709.38
357.08	672.38
357.307	691.38
357.534	656.38
357.761	672.38
357.988	678.38
358.215	670.38
358.441	666.38
358.668	666.38
358.895	695.38
359.122	670.38
359.349	672.38
359.576	686.38
359.802	679.38
360.029	681.38
360.256	673.38
360.483	656.38
360.709	670.38
360.936	686.38
361.163	673.38
361.39	679.38
361.616	689.38
361.843	687.38
362.07	718.38
362.296	697.38
362.523	655.38
362.749	655.38
362.976	677.38
363.203	666.38
363.429	642.38
363.656	669.38
363.882	658.38
364.109	654.38
364.335	633.38
364.562	650.38
364.788	647.38
365.015	686.38
365.241	666.38
365.468	681.38
365.694	662.38
365.92	664.38
366.147	635.38
366.373	654.38
366.599	651.38
366.826	661.38
367.052	648.38
367.278	659.38
367.505	660.38
367.731	681.38
367.957	660.38
368.184	686.38
368.41	687.38
368.636	672.38
368.862	659.38
369.089	690.38
369.315	674.38
369.541	692.38
369.767	696.38
369.993	678.38
370.219	672.38
370.445	703.38
370.672	668.38
370.898	700.38
371.124	717.38
371.35	710.38
371.576	695.38
371.802	699.38
372.028	672.38
372.254	708.38
372.48	708.38
372.706	728.38
372.932	713.38
373.158	698.38
373.384	718.38
373.61	701.38
373.835	716.38
374.061	704.38
374.287	734.38
374.513	706.38
374.739	729.38
374.965	736.38
375.191	748.38
375.416	775.38
375.642	734.38
375.868	729.38
376.094	730.38
376.319	704.38
376.545	725.38
376.771	722.38
376.997	698.38
377.222	695.38
377.448	706.38
377.674	682.38
377.899	683.38
378.125	687.38
378.35	696.38
378.576	697.38
378.802	687.38
379.027	702.38
379.253	673.38
379.478	699.38
379.704	688.38
379.929	694.38
380.155	689.38
380.38	692.38
380.606	698.38
380.831	682.38
381.057	723.38
381.282	681.38
381.507	706.38
381.733	701.38
381.958	696.38
382.184	703.38
382.409	714.38
382.634	719.38
382.86	725.38
383.085	736.38
383.31	711.38
383.535	743.38
383.761	749.38
383.986	757.38
384.211	756.38
384.436	765.38
384.662	778.38
384.887	777.38
385.112	772.38
385.337	784.38
385.562	796.38
385.787	794.38
386.013	810.38
386.238	840.38
386.463	793.38
386.688	822.38
386.913	787.38
387.138	783.38
387.363	808.38
387.588	806.38
387.813	806.38
388.038	821.38
388.263	809.38
388.488	820.38
388.713	802.38
388.938	805.38
389.163	803.38
389.387	829.38
389.612	809.38
389.837	800.38
390.062	814.38
390.287	786.38
390.512	794.38
390.736	824.38
390.961	813.38
391.186	844.38
391.411	857.38
391.636	864.38
391.86	872.38
392.085	909.38
392.31	856.38
392.534	832.38
392.759	859.38
392.984	831.38
393.208	861.38
393.433	842.38
393.658	830.38
393.882	857.38
394.107	867.38
394.331	870.38
394.556	856.38
394.78	846.38
395.005	862.38
395.229	856.38
395.454	893.38
395.678	859.38
395.903	892.38
396.127	888.38
396.352	870.38
396.576	866.38
396.801	864.38
397.025	859.38
397.249	896.38
397.474	897.38
397.698	943.38
397.922	924.38
398.147	932.38
398.371	929.38
398.595	998.38
398.82	996.38
399.044	1026.38
399.268	1083.38
399.492	1156.38
399.717	1242.38
399.941	1264.38
400.165	1221.38
400.389	1156.38
400.613	1124.38
400.837	1058.38
401.062	1038.38
401.286	1020.38
401.51	1003.38
401.734	1004.38
401.958	1020.38
402.182	981.38
402.406	987.38
402.63	1014.38
402.854	1036.38
403.078	1043.38
403.302	1049.38
403.526	1001.38
403.75	1060.38
403.974	1062.38
404.198	1039.38
404.422	1067.38
404.645	1050.38
404.869	1049.38
405.093	1054.38
405.317	1060.38
405.541	1093.38
405.765	1094.38
405.988	1046.38
406.212	1073.38
406.436	1092.38
406.66	1114.38
406.883	1105.38
407.107	1162.38
407.331	1162.38
407.555	1217.38
407.778	1199.38
408.002	1199.38
408.226	1172.38
408.449	1183.38
408.673	1104.38
408.896	1122.38
409.12	1096.38
409.344	1123.38
409.567	1095.38
409.791	1158.38
410.014	1084.38
410.238	1086.38
410.461	1094.38
410.685	1100.38
410.908	1088.38
411.132	1041.38
411.355	1041.38
411.578	1048.38
411.802	1071.38
412.025	1066.38
412.249	1072.38
412.472	1080.38
412.695	1036.38
412.919	1016.38
413.142	1036.38
413.365	997.38
413.589	1033.38
413.812	1018.38
414.035	1006.38
414.258	1026.38
414.482	1016.38
414.705	1025.38
414.928	991.38
415.151	1001.38
415.374	1013.38
415.597	1030.38
415.821	978.38
416.044	989.38
416.267	980.38
416.49	958.38
416.713	989.38
416.936	998.38
417.159	1017.38
417.382	972.38
417.605	964.38
417.828	960.38
418.051	981.38
418.274	969.38
418.497	988.38
418.72	1048.38
418.943	996.38
419.166	1076.38
419.389	1153.38
419.611	1092.38
419.834	1080.38
420.057	1044.38
420.28	1030.38
420.503	999.38
420.726	987.38
420.948	986.38
421.171	997.38
421.394	975.38
421.617	996.38
421.839	970.38
422.062	987.38
422.285	984.38
422.507	999.38
422.73	987.38
422.953	990.38
423.175	1022.38
423.398	1037.38
423.621	1006.38
423.843	1005.38
424.066	1038.38
424.288	988.38
424.511	1022.38
424.733	990.38
424.956	991.38
425.178	989.38
425.401	972.38
425.623	1001.38
425.846	958.38
426.068	990.38
426.291	986.38
426.513	952.38
426.735	944.38
426.958	964.38
427.18	943.38
427.402	978.38
427.625	950.38
427.847	909.38
428.069	973.38
428.292	968.38
428.514	950.38
428.736	953.38
428.958	935.38
429.181	939.38
429.403	933.38
429.625	925.38
429.847	931.38
430.069	924.38
430.292	927.38
430.514	932.38
430.736	933.38
430.958	947.38
431.18	913.38
431.402	958.38
431.624	950.38
431.846	939.38
432.068	935.38
432.29	960.38
432.512	950.38
432.734	971.38
432.956	950.38
433.178	952.38
433.4	966.38
433.622	965.38
433.844	946.38
434.066	970.38
434.287	1001.38
434.509	1018.38
434.731	1002.38
434.953	1004.38
435.175	1025.38
435.397	1002.38
435.618	989.38
435.84	961.38
436.062	967.38
436.284	938.38
436.505	966.38
436.727	963.38
436.949	954.38
437.17	981.38
437.392	950.38
437.614	939.38
437.835	918.38
438.057	915.38
438.278	909.38
438.5	909.38
438.721	914.38
438.943	940.38
439.165	913.38
439.386	956.38
439.608	925.38
439.829	956.38
440.05	959.38
440.272	948.38
440.493	972.38
440.715	966.38
440.936	986.38
441.158	1014.38
441.379	1008.38
441.6	1036.38
441.822	1040.38
442.043	1035.38
442.264	1033.38
442.486	1036.38
442.707	1026.38
442.928	1018.38
443.149	1020.38
443.371	1040.38
443.592	1085.38
443.813	1061.38
444.034	1042.38
444.255	1060.38
444.476	1101.38
444.698	1145.38
444.919	1130.38
445.14	1216.38
445.361	1131.38
445.582	1088.38
445.803	1033.38
446.024	1013.38
446.245	1010.38
446.466	1014.38
446.687	985.38
446.908	992.38
447.129	957.38
447.35	922.38
447.571	924.38
447.792	935.38
448.013	942.38
448.234	898.38
448.455	878.38
448.675	907.38
448.896	912.38
449.117	869.38
449.338	903.38
449.559	909.38
449.779	898.38
450	884.38
450.221	913.38
450.442	913.38
450.662	904.38
450.883	932.38
451.104	938.38
451.324	934.38
451.545	904.38
451.766	863.38
451.986	878.38
452.207	862.38
452.428	868.38
452.648	856.38
452.869	870.38
453.089	861.38
453.31	893.38
453.53	860.38
453.751	850.38
453.971	854.38
454.192	850.38
454.412	862.38
454.633	855.38
454.853	833.38
455.073	853.38
455.294	858.38
455.514	858.38
455.734	865.38
455.955	850.38
456.175	855.38
456.395	835.38
456.616	836.38
456.836	860.38
457.056	844.38
457.276	823.38
457.497	853.38
457.717	862.38
457.937	885.38
458.157	858.38
458.377	869.38
458.598	892.38
458.818	896.38
459.038	924.38
459.258	936.38
459.478	1001.38
459.698	1017.38
459.918	1040.38
460.138	1043.38
460.358	1098.38
460.578	1105.38
460.798	1087.38
461.018	1116.38
461.238	1092.38
461.458	1087.38
461.678	1105.38
461.898	1112.38
462.118	1117.38
462.338	1168.38
462.558	1181.38
462.777	1220.38
462.997	1236.38
463.217	1327.38
463.437	1354.38
463.657	1294.38
463.876	1255.38
464.096	1220.38
464.316	1212.38
464.536	1209.38
464.755	1176.38
464.975	1158.38
465.195	1116.38
465.414	1099.38
465.634	1032.38
465.854	1037.38
466.073	1018.38
466.293	979.38
466.512	968.38
466.732	958.38
466.951	992.38
467.171	983.38
467.391	928.38
467.61	938.38
467.829	933.38
468.049	942.38
468.268	933.38
468.488	913.38
468.707	932.38
468.927	943.38
469.146	949.38
469.365	954.38
469.585	934.38
469.804	943.38
470.023	963.38
470.243	934.38
470.462	961.38
470.681	961.38
470.901	980.38
471.12	947.38
471.339	942.38
471.558	980.38
471.777	978.38
471.997	948.38
472.216	936.38
472.435	901.38
472.654	926.38
472.873	908.38
473.092	949.38
473.311	923.38
473.53	881.38
473.749	933.38
473.968	910.38
474.187	900.38
474.406	909.38
474.625	910.38
474.844	905.38
475.063	961.38
475.282	928.38
475.501	911.38
475.72	940.38
475.939	946.38
476.158	960.38
476.377	963.38
476.596	970.38
476.814	978.38
477.033	978.38
477.252	994.38
477.471	991.38
477.69	1012.38
477.908	1052.38
478.127	1042.38
478.346	1060.38
478.564	1064.38
478.783	1065.38
479.002	1103.38
479.22	1148.38
479.439	1118.38
479.658	1083.38
479.876	1098.38
480.095	1098.38
480.313	1144.38
480.532	1149.38
480.751	1133.38
480.969	1118.38
481.188	1098.38
481.406	1096.38
481.624	1050.38
481.843	1065.38
482.061	1067.38
482.28	1062.38
482.498	1035.38
482.717	1029.38
482.935	1075.38
483.153	1046.38
483.372	1055.38
483.59	1095.38
483.808	1086.38
484.027	1085.38
484.245	1067.38
484.463	1074.38
484.681	1085.38
484.9	1107.38
485.118	1079.38
485.336	1076.38
485.554	1098.38
485.772	1081.38
485.99	1103.38
486.209	1103.38
486.427	1106.38
486.645	1105.38
486.863	1102.38
487.081	1092.38
487.299	1099.38
487.517	1127.38
487.735	1108.38
487.953	1127.38
488.171	1129.38
488.389	1092.38
488.607	1095.38
488.825	1084.38
489.043	1102.38
489.261	1096.38
489.479	1075.38
489.696	1114.38
489.914	1102.38
490.132	1116.38
490.35	1113.38
490.568	1158.38
490.786	1112.38
491.003	1107.38
491.221	1163.38
491.439	1154.38
491.657	1148.38
491.874	1145.38
492.092	1161.38
492.31	1180.38
492.527	1176.38
492.745	1189.38
492.963	1182.38
493.18	1149.38
493.398	1140.38
493.615	1176.38
493.833	1153.38
494.05	1156.38
494.268	1176.38
494.485	1180.38
494.703	1160.38
494.92	1235.38
495.138	1220.38
495.355	1199.38
495.573	1230.38
495.79	1210.38
496.008	1217.38
496.225	1247.38
496.442	1253.38
496.66	1279.38
496.877	1261.38
497.094	1308.38
497.312	1306.38
497.529	1318.38
497.746	1372.38
497.963	1400.38
498.181	1422.38
498.398	1498.38
