Data from NiCl2@0.125M.TitratingCurve.Agarose3%dH2O.NegLispCup.LampEnergy10.LIBS07252019_HRD10591_18-29-53-574.txt Node
Date: Thu Jul 25 18:29:53 EDT 2019
User: cochatt
Spectrometer: HR+D1059
Trigger mode: 1
Integration Time (sec): 1.000000E-1
Scans to average: 1
Electric dark correction enabled: true
Nonlinearity correction enabled: false
Boxcar width: 0
XAxis mode: Wavelengths
Number of Pixels in Spectrum: 2048
>>>>>Begin Spectral Data<<<<<
223.165	-14.06
223.4	-14.06
223.635	-14.06
223.869	-37.06
224.104	-21.06
224.338	-14.06
224.573	-15.06
224.808	1.94
225.042	-12.06
225.277	-23.06
225.511	6.94
225.746	3.94
225.98	1.94
226.215	12.94
226.449	22.94
226.683	23.94
226.918	32.94
227.152	28.94
227.387	29.94
227.621	28.94
227.856	44.94
228.09	37.94
228.324	44.94
228.559	54.94
228.793	76.94
229.027	120.94
229.262	117.94
229.496	126.94
229.73	139.94
229.964	145.94
230.199	135.94
230.433	146.94
230.667	150.94
230.901	157.94
231.136	139.94
231.37	160.94
231.604	152.94
231.838	154.94
232.072	159.94
232.306	165.94
232.541	170.94
232.775	159.94
233.009	151.94
233.243	154.94
233.477	170.94
233.711	165.94
233.945	150.94
234.179	165.94
234.413	169.94
234.647	165.94
234.881	164.94
235.115	163.94
235.349	176.94
235.583	174.94
235.817	175.94
236.051	183.94
236.285	178.94
236.519	180.94
236.753	178.94
236.987	170.94
237.221	189.94
237.455	190.94
237.689	169.94
237.922	186.94
238.156	184.94
238.39	195.94
238.624	207.94
238.858	197.94
239.091	190.94
239.325	195.94
239.559	204.94
239.793	208.94
240.027	210.94
240.26	191.94
240.494	198.94
240.728	211.94
240.961	225.94
241.195	216.94
241.429	220.94
241.662	221.94
241.896	211.94
242.13	218.94
242.363	200.94
242.597	223.94
242.83	240.94
243.064	206.94
243.298	219.94
243.531	247.94
243.765	241.94
243.998	258.94
244.232	242.94
244.465	238.94
244.699	234.94
244.932	247.94
245.166	261.94
245.399	272.94
245.633	255.94
245.866	240.94
246.099	249.94
246.333	273.94
246.566	244.94
246.8	263.94
247.033	272.94
247.266	259.94
247.5	256.94
247.733	272.94
247.966	262.94
248.2	280.94
248.433	275.94
248.666	276.94
248.899	279.94
249.133	289.94
249.366	293.94
249.599	292.94
249.832	282.94
250.066	304.94
250.299	294.94
250.532	317.94
250.765	294.94
250.998	306.94
251.231	302.94
251.465	314.94
251.698	309.94
251.931	304.94
252.164	308.94
252.397	329.94
252.63	309.94
252.863	306.94
253.096	330.94
253.329	329.94
253.562	321.94
253.795	337.94
254.028	340.94
254.261	322.94
254.494	340.94
254.727	307.94
254.96	332.94
255.193	348.94
255.426	346.94
255.659	349.94
255.892	332.94
256.124	338.94
256.357	341.94
256.59	302.94
256.823	349.94
257.056	371.94
257.289	357.94
257.521	353.94
257.754	367.94
257.987	350.94
258.22	360.94
258.452	359.94
258.685	361.94
258.918	343.94
259.151	358.94
259.383	364.94
259.616	347.94
259.849	368.94
260.081	366.94
260.314	376.94
260.547	375.94
260.779	366.94
261.012	360.94
261.244	363.94
261.477	389.94
261.71	376.94
261.942	403.94
262.175	392.94
262.407	381.94
262.64	402.94
262.872	377.94
263.105	402.94
263.337	400.94
263.57	412.94
263.802	406.94
264.035	428.94
264.267	408.94
264.499	409.94
264.732	420.94
264.964	419.94
265.197	420.94
265.429	412.94
265.661	408.94
265.894	423.94
266.126	420.94
266.358	432.94
266.591	433.94
266.823	411.94
267.055	412.94
267.287	417.94
267.52	424.94
267.752	449.94
267.984	419.94
268.216	422.94
268.448	434.94
268.681	432.94
268.913	456.94
269.145	427.94
269.377	444.94
269.609	443.94
269.841	441.94
270.073	448.94
270.306	455.94
270.538	436.94
270.77	442.94
271.002	461.94
271.234	451.94
271.466	441.94
271.698	452.94
271.93	462.94
272.162	443.94
272.394	464.94
272.626	470.94
272.858	472.94
273.09	465.94
273.322	499.94
273.553	480.94
273.785	480.94
274.017	473.94
274.249	482.94
274.481	486.94
274.713	469.94
274.945	484.94
275.176	487.94
275.408	494.94
275.64	498.94
275.872	481.94
276.104	492.94
276.335	498.94
276.567	503.94
276.799	491.94
277.031	487.94
277.262	510.94
277.494	514.94
277.726	511.94
277.957	520.94
278.189	504.94
278.421	507.94
278.652	523.94
278.884	523.94
279.115	515.94
279.347	520.94
279.579	518.94
279.81	532.94
280.042	511.94
280.273	530.94
280.505	548.94
280.736	548.94
280.968	541.94
281.199	542.94
281.431	560.94
281.662	542.94
281.894	561.94
282.125	550.94
282.356	570.94
282.588	546.94
282.819	567.94
283.051	549.94
283.282	544.94
283.513	561.94
283.745	572.94
283.976	548.94
284.207	569.94
284.439	560.94
284.67	566.94
284.901	599.94
285.132	588.94
285.364	590.94
285.595	582.94
285.826	584.94
286.057	588.94
286.288	622.94
286.52	588.94
286.751	594.94
286.982	588.94
287.213	595.94
287.444	593.94
287.675	593.94
287.906	616.94
288.138	615.94
288.369	601.94
288.6	616.94
288.831	638.94
289.062	619.94
289.293	634.94
289.524	626.94
289.755	597.94
289.986	610.94
290.217	616.94
290.448	604.94
290.679	611.94
290.91	629.94
291.141	619.94
291.371	611.94
291.602	630.94
291.833	634.94
292.064	630.94
292.295	637.94
292.526	629.94
292.757	626.94
292.987	629.94
293.218	624.94
293.449	652.94
293.68	654.94
293.91	630.94
294.141	644.94
294.372	631.94
294.603	632.94
294.833	660.94
295.064	651.94
295.295	656.94
295.525	667.94
295.756	657.94
295.987	644.94
296.217	649.94
296.448	661.94
296.679	674.94
296.909	675.94
297.14	661.94
297.37	668.94
297.601	686.94
297.831	686.94
298.062	689.94
298.292	709.94
298.523	694.94
298.753	728.94
298.984	698.94
299.214	676.94
299.445	688.94
299.675	691.94
299.905	704.94
300.136	707.94
300.366	683.94
300.597	707.94
300.827	699.94
301.057	714.94
301.288	735.94
301.518	737.94
301.748	743.94
301.979	745.94
302.209	711.94
302.439	708.94
302.669	705.94
302.9	706.94
303.13	721.94
303.36	695.94
303.59	694.94
303.82	725.94
304.051	728.94
304.281	717.94
304.511	697.94
304.741	717.94
304.971	726.94
305.201	712.94
305.431	696.94
305.661	710.94
305.891	720.94
306.121	683.94
306.352	695.94
306.582	718.94
306.812	676.94
307.042	686.94
307.272	694.94
307.502	700.94
307.731	672.94
307.961	696.94
308.191	703.94
308.421	701.94
308.651	684.94
308.881	688.94
309.111	676.94
309.341	688.94
309.571	705.94
309.8	693.94
310.03	672.94
310.26	713.94
310.49	676.94
310.72	689.94
310.949	694.94
311.179	699.94
311.409	715.94
311.639	729.94
311.868	688.94
312.098	711.94
312.328	702.94
312.557	711.94
312.787	735.94
313.017	729.94
313.246	762.94
313.476	739.94
313.706	762.94
313.935	747.94
314.165	761.94
314.394	766.94
314.624	763.94
314.853	726.94
315.083	760.94
315.312	756.94
315.542	744.94
315.771	724.94
316.001	716.94
316.23	746.94
316.46	726.94
316.689	734.94
316.919	723.94
317.148	708.94
317.377	722.94
317.607	716.94
317.836	720.94
318.065	728.94
318.295	716.94
318.524	754.94
318.753	719.94
318.983	714.94
319.212	699.94
319.441	746.94
319.67	731.94
319.9	732.94
320.129	734.94
320.358	747.94
320.587	748.94
320.816	732.94
321.046	747.94
321.275	730.94
321.504	742.94
321.733	726.94
321.962	726.94
322.191	754.94
322.42	740.94
322.649	743.94
322.878	707.94
323.108	714.94
323.337	733.94
323.566	732.94
323.795	752.94
324.024	757.94
324.253	734.94
324.482	756.94
324.71	731.94
324.939	755.94
325.168	776.94
325.397	758.94
325.626	785.94
325.855	782.94
326.084	778.94
326.313	793.94
326.542	787.94
326.77	821.94
326.999	780.94
327.228	778.94
327.457	788.94
327.686	777.94
327.914	787.94
328.143	785.94
328.372	769.94
328.6	787.94
328.829	815.94
329.058	818.94
329.287	822.94
329.515	816.94
329.744	824.94
329.972	808.94
330.201	822.94
330.43	814.94
330.658	793.94
330.887	818.94
331.115	823.94
331.344	826.94
331.572	858.94
331.801	856.94
332.03	883.94
332.258	914.94
332.486	908.94
332.715	945.94
332.943	999.94
333.172	1065.94
333.4	1088.94
333.629	1110.94
333.857	1109.94
334.085	1080.94
334.314	1093.94
334.542	1020.94
334.771	1003.94
334.999	1021.94
335.227	974.94
335.455	984.94
335.684	968.94
335.912	985.94
336.14	944.94
336.369	965.94
336.597	971.94
336.825	962.94
337.053	981.94
337.281	928.94
337.51	916.94
337.738	923.94
337.966	902.94
338.194	891.94
338.422	842.94
338.65	870.94
338.878	886.94
339.106	867.94
339.334	872.94
339.562	857.94
339.79	838.94
340.018	817.94
340.246	819.94
340.474	862.94
340.702	862.94
340.93	834.94
341.158	878.94
341.386	813.94
341.614	851.94
341.842	820.94
342.07	823.94
342.298	818.94
342.526	803.94
342.754	835.94
342.981	835.94
343.209	847.94
343.437	894.94
343.665	927.94
343.893	1006.94
344.12	1067.94
344.348	1001.94
344.576	945.94
344.804	900.94
345.031	862.94
345.259	837.94
345.487	845.94
345.714	831.94
345.942	804.94
346.17	830.94
346.397	840.94
346.625	802.94
346.853	814.94
347.08	791.94
347.308	812.94
347.535	810.94
347.763	832.94
347.99	806.94
348.218	817.94
348.445	805.94
348.673	806.94
348.9	815.94
349.128	800.94
349.355	806.94
349.583	790.94
349.81	793.94
350.037	786.94
350.265	772.94
350.492	786.94
350.72	754.94
350.947	776.94
351.174	770.94
351.402	784.94
351.629	762.94
351.856	767.94
352.083	754.94
352.311	760.94
352.538	750.94
352.765	762.94
352.992	780.94
353.22	784.94
353.447	759.94
353.674	752.94
353.901	738.94
354.128	778.94
354.355	783.94
354.583	770.94
354.81	754.94
355.037	770.94
355.264	806.94
355.491	779.94
355.718	776.94
355.945	798.94
356.172	788.94
356.399	782.94
356.626	803.94
356.853	787.94
357.08	778.94
357.307	794.94
357.534	764.94
357.761	763.94
357.988	778.94
358.215	773.94
358.441	782.94
358.668	780.94
358.895	772.94
359.122	743.94
359.349	762.94
359.576	804.94
359.802	767.94
360.029	774.94
360.256	743.94
360.483	795.94
360.709	757.94
360.936	786.94
361.163	799.94
361.39	774.94
361.616	774.94
361.843	754.94
362.07	758.94
362.296	777.94
362.523	777.94
362.749	784.94
362.976	740.94
363.203	779.94
363.429	758.94
363.656	788.94
363.882	746.94
364.109	739.94
364.335	755.94
364.562	754.94
364.788	785.94
365.015	759.94
365.241	758.94
365.468	772.94
365.694	747.94
365.92	780.94
366.147	768.94
366.373	780.94
366.599	762.94
366.826	796.94
367.052	780.94
367.278	758.94
367.505	770.94
367.731	793.94
367.957	762.94
368.184	759.94
368.41	781.94
368.636	784.94
368.862	799.94
369.089	799.94
369.315	788.94
369.541	781.94
369.767	797.94
369.993	799.94
370.219	802.94
370.445	833.94
370.672	835.94
370.898	854.94
371.124	830.94
371.35	821.94
371.576	851.94
371.802	845.94
372.028	836.94
372.254	845.94
372.48	832.94
372.706	869.94
372.932	879.94
373.158	882.94
373.384	874.94
373.61	876.94
373.835	844.94
374.061	853.94
374.287	832.94
374.513	860.94
374.739	890.94
374.965	908.94
375.191	962.94
375.416	924.94
375.642	904.94
375.868	898.94
376.094	886.94
376.319	864.94
376.545	871.94
376.771	855.94
376.997	837.94
377.222	865.94
377.448	843.94
377.674	857.94
377.899	860.94
378.125	860.94
378.35	849.94
378.576	848.94
378.802	837.94
379.027	840.94
379.253	836.94
379.478	839.94
379.704	833.94
379.929	836.94
380.155	859.94
380.38	845.94
380.606	818.94
380.831	827.94
381.057	829.94
381.282	831.94
381.507	826.94
381.733	854.94
381.958	856.94
382.184	853.94
382.409	869.94
382.634	881.94
382.86	856.94
383.085	866.94
383.31	912.94
383.535	938.94
383.761	934.94
383.986	950.94
384.211	971.94
384.436	977.94
384.662	965.94
384.887	1037.94
385.112	1020.94
385.337	1024.94
385.562	1022.94
385.787	1018.94
386.013	1053.94
386.238	1011.94
386.463	1031.94
386.688	1023.94
386.913	988.94
387.138	1002.94
387.363	980.94
387.588	963.94
387.813	982.94
388.038	1014.94
388.263	992.94
388.488	1006.94
388.713	1031.94
388.938	1009.94
389.163	979.94
389.387	999.94
389.612	982.94
389.837	981.94
390.062	976.94
390.287	963.94
390.512	986.94
390.736	988.94
390.961	1034.94
391.186	1077.94
391.411	1090.94
391.636	1050.94
391.86	1124.94
392.085	1162.94
392.31	1163.94
392.534	1153.94
392.759	1067.94
392.984	1076.94
393.208	1060.94
393.433	1084.94
393.658	1079.94
393.882	1097.94
394.107	1084.94
394.331	1070.94
394.556	1084.94
394.78	1089.94
395.005	1110.94
395.229	1096.94
395.454	1118.94
395.678	1145.94
395.903	1154.94
396.127	1157.94
396.352	1089.94
396.576	1058.94
396.801	1077.94
397.025	1060.94
397.249	1061.94
397.474	1134.94
397.698	1126.94
397.922	1141.94
398.147	1126.94
398.371	1138.94
398.595	1172.94
398.82	1244.94
399.044	1330.94
399.268	1466.94
399.492	1705.94
399.717	1996.94
399.941	2002.94
400.165	1698.94
400.389	1527.94
400.613	1438.94
400.837	1352.94
401.062	1298.94
401.286	1296.94
401.51	1236.94
401.734	1270.94
401.958	1310.94
402.182	1320.94
402.406	1314.94
402.63	1337.94
402.854	1397.94
403.078	1376.94
403.302	1419.94
403.526	1482.94
403.75	1458.94
403.974	1544.94
404.198	1532.94
404.422	1550.94
404.645	1473.94
404.869	1499.94
405.093	1486.94
405.317	1434.94
405.541	1458.94
405.765	1414.94
405.988	1382.94
406.212	1366.94
406.436	1398.94
406.66	1439.94
406.883	1449.94
407.107	1527.94
407.331	1592.94
407.555	1689.94
407.778	1676.94
408.002	1630.94
408.226	1616.94
408.449	1545.94
408.673	1483.94
408.896	1461.94
409.12	1440.94
409.344	1451.94
409.567	1448.94
409.791	1482.94
410.014	1447.94
410.238	1430.94
410.461	1442.94
410.685	1410.94
410.908	1386.94
411.132	1356.94
411.355	1353.94
411.578	1346.94
411.802	1292.94
412.025	1345.94
412.249	1363.94
412.472	1353.94
412.695	1326.94
412.919	1256.94
413.142	1270.94
413.365	1267.94
413.589	1306.94
413.812	1250.94
414.035	1225.94
414.258	1266.94
414.482	1230.94
414.705	1292.94
414.928	1302.94
415.151	1318.94
415.374	1302.94
415.597	1304.94
415.821	1232.94
416.044	1225.94
416.267	1242.94
416.49	1208.94
416.713	1211.94
416.936	1278.94
417.159	1257.94
417.382	1206.94
417.605	1227.94
417.828	1236.94
418.051	1263.94
418.274	1277.94
418.497	1260.94
418.72	1316.94
418.943	1307.94
419.166	1394.94
419.389	1472.94
419.611	1424.94
419.834	1368.94
420.057	1325.94
420.28	1299.94
420.503	1252.94
420.726	1238.94
420.948	1255.94
421.171	1250.94
421.394	1252.94
421.617	1218.94
421.839	1249.94
422.062	1276.94
422.285	1237.94
422.507	1298.94
422.73	1316.94
422.953	1318.94
423.175	1336.94
423.398	1352.94
423.621	1335.94
423.843	1362.94
424.066	1360.94
424.288	1352.94
424.511	1347.94
424.733	1344.94
424.956	1328.94
425.178	1282.94
425.401	1287.94
425.623	1259.94
425.846	1219.94
426.068	1237.94
426.291	1207.94
426.513	1209.94
426.735	1172.94
426.958	1173.94
427.18	1158.94
427.402	1156.94
427.625	1148.94
427.847	1141.94
428.069	1137.94
428.292	1154.94
428.514	1113.94
428.736	1113.94
428.958	1126.94
429.181	1090.94
429.403	1067.94
429.625	1090.94
429.847	1098.94
430.069	1091.94
430.292	1090.94
430.514	1089.94
430.736	1108.94
430.958	1074.94
431.18	1088.94
431.402	1100.94
431.624	1095.94
431.846	1144.94
432.068	1128.94
432.29	1186.94
432.512	1129.94
432.734	1176.94
432.956	1063.94
433.178	1144.94
433.4	1121.94
433.622	1115.94
433.844	1154.94
434.066	1148.94
434.287	1165.94
434.509	1174.94
434.731	1238.94
434.953	1254.94
435.175	1289.94
435.397	1266.94
435.618	1208.94
435.84	1194.94
436.062	1175.94
436.284	1132.94
436.505	1102.94
436.727	1146.94
436.949	1135.94
437.17	1158.94
437.392	1127.94
437.614	1120.94
437.835	1089.94
438.057	1097.94
438.278	1071.94
438.5	1074.94
438.721	1066.94
438.943	1104.94
439.165	1081.94
439.386	1090.94
439.608	1098.94
439.829	1111.94
440.05	1153.94
440.272	1138.94
440.493	1154.94
440.715	1137.94
440.936	1165.94
441.158	1166.94
441.379	1179.94
441.6	1245.94
441.822	1312.94
442.043	1306.94
442.264	1272.94
442.486	1240.94
442.707	1258.94
442.928	1250.94
443.149	1217.94
443.371	1248.94
443.592	1257.94
443.813	1271.94
444.034	1288.94
444.255	1338.94
444.476	1374.94
444.698	1496.94
444.919	1566.94
445.14	1634.94
445.361	1476.94
445.582	1343.94
445.803	1265.94
446.024	1236.94
446.245	1167.94
446.466	1184.94
446.687	1148.94
446.908	1136.94
447.129	1137.94
447.35	1092.94
447.571	1091.94
447.792	1067.94
448.013	1059.94
448.234	1050.94
448.455	1063.94
448.675	1082.94
448.896	1047.94
449.117	1044.94
449.338	1024.94
449.559	1011.94
449.779	1002.94
450	1016.94
450.221	991.94
450.442	1036.94
450.662	1053.94
450.883	1048.94
451.104	1074.94
451.324	1092.94
451.545	1054.94
451.766	1065.94
451.986	1068.94
452.207	1038.94
452.428	1024.94
452.648	1059.94
452.869	998.94
453.089	1029.94
453.31	1017.94
453.53	1013.94
453.751	1035.94
453.971	979.94
454.192	986.94
454.412	976.94
454.633	962.94
454.853	983.94
455.073	978.94
455.294	982.94
455.514	984.94
455.734	977.94
455.955	987.94
456.175	954.94
456.395	933.94
456.616	937.94
456.836	969.94
457.056	961.94
457.276	952.94
457.497	983.94
457.717	967.94
457.937	961.94
458.157	990.94
458.377	999.94
458.598	1017.94
458.818	1030.94
459.038	1056.94
459.258	1089.94
459.478	1125.94
459.698	1167.94
459.918	1194.94
460.138	1240.94
460.358	1310.94
460.578	1362.94
460.798	1352.94
461.018	1363.94
461.238	1382.94
461.458	1356.94
461.678	1299.94
461.898	1371.94
462.118	1349.94
462.338	1424.94
462.558	1452.94
462.777	1494.94
462.997	1662.94
463.217	1859.94
463.437	1842.94
463.657	1676.94
463.876	1577.94
464.096	1596.94
464.316	1563.94
464.536	1571.94
464.755	1510.94
464.975	1486.94
465.195	1407.94
465.414	1314.94
465.634	1242.94
465.854	1191.94
466.073	1143.94
466.293	1154.94
466.512	1142.94
466.732	1088.94
466.951	1104.94
467.171	1116.94
467.391	1099.94
467.61	1091.94
467.829	1078.94
468.049	1075.94
468.268	1054.94
468.488	1026.94
468.707	1023.94
468.927	1044.94
469.146	1026.94
469.365	1043.94
469.585	1053.94
469.804	1095.94
470.023	1126.94
470.243	1098.94
470.462	1120.94
470.681	1120.94
470.901	1130.94
471.12	1140.94
471.339	1112.94
471.558	1073.94
471.777	1059.94
471.997	1021.94
472.216	1029.94
472.435	1058.94
472.654	1024.94
472.873	1021.94
473.092	987.94
473.311	974.94
473.53	1006.94
473.749	1009.94
473.968	1007.94
474.187	988.94
474.406	996.94
474.625	975.94
474.844	1001.94
475.063	998.94
475.282	1030.94
475.501	1038.94
475.72	996.94
475.939	1040.94
476.158	1042.94
476.377	1040.94
476.596	1043.94
476.814	1087.94
477.033	1078.94
477.252	1096.94
477.471	1105.94
477.69	1172.94
477.908	1188.94
478.127	1203.94
478.346	1206.94
478.564	1254.94
478.783	1249.94
479.002	1253.94
479.22	1260.94
479.439	1282.94
479.658	1248.94
479.876	1251.94
480.095	1274.94
480.313	1322.94
480.532	1410.94
480.751	1371.94
480.969	1307.94
481.188	1254.94
481.406	1208.94
481.624	1165.94
481.843	1172.94
482.061	1195.94
482.28	1168.94
482.498	1166.94
482.717	1137.94
482.935	1158.94
483.153	1144.94
483.372	1152.94
483.59	1122.94
483.808	1131.94
484.027	1145.94
484.245	1142.94
484.463	1152.94
484.681	1178.94
484.9	1174.94
485.118	1179.94
485.336	1177.94
485.554	1218.94
485.772	1209.94
485.99	1206.94
486.209	1253.94
486.427	1248.94
486.645	1203.94
486.863	1234.94
487.081	1218.94
487.299	1192.94
487.517	1198.94
487.735	1192.94
487.953	1206.94
488.171	1208.94
488.389	1177.94
488.607	1179.94
488.825	1191.94
489.043	1175.94
489.261	1192.94
489.479	1189.94
489.696	1198.94
489.914	1214.94
490.132	1200.94
490.35	1202.94
490.568	1199.94
490.786	1207.94
491.003	1208.94
491.221	1216.94
491.439	1204.94
491.657	1205.94
491.874	1217.94
492.092	1220.94
492.31	1223.94
492.527	1240.94
492.745	1218.94
492.963	1212.94
493.18	1268.94
493.398	1251.94
493.615	1292.94
493.833	1249.94
494.05	1284.94
494.268	1292.94
494.485	1324.94
494.703	1264.94
494.92	1264.94
495.138	1255.94
