Data from NiCl2@0.5M.TitratingCurve.Agarose3%dH2O.NegLispCup.LampEnergy10.LIBS07252019_HRD10591_18-18-55-647.txt Node
Date: Thu Jul 25 18:18:55 EDT 2019
User: cochatt
Spectrometer: HR+D1059
Trigger mode: 1
Integration Time (sec): 1.000000E-1
Scans to average: 1
Electric dark correction enabled: true
Nonlinearity correction enabled: false
Boxcar width: 0
XAxis mode: Wavelengths
Number of Pixels in Spectrum: 2048
>>>>>Begin Spectral Data<<<<<
223.165	-7.19
223.4	-7.19
223.635	-7.19
223.869	-14.19
224.104	-14.19
224.338	-7.19
224.573	-8.19
224.808	-6.19
225.042	-8.19
225.277	2.81
225.511	-9.19
225.746	5.81
225.98	-1.19
226.215	4.81
226.449	6.81
226.683	7.81
226.918	23.81
227.152	23.81
227.387	19.81
227.621	34.81
227.856	32.81
228.09	40.81
228.324	55.81
228.559	65.81
228.793	75.81
229.027	104.81
229.262	134.81
229.496	123.81
229.73	134.81
229.964	140.81
230.199	155.81
230.433	168.81
230.667	161.81
230.901	153.81
231.136	160.81
231.37	158.81
231.604	129.81
231.838	160.81
232.072	174.81
232.306	155.81
232.541	160.81
232.775	154.81
233.009	166.81
233.243	164.81
233.477	153.81
233.711	150.81
233.945	159.81
234.179	164.81
234.413	161.81
234.647	164.81
234.881	171.81
235.115	173.81
235.349	184.81
235.583	188.81
235.817	168.81
236.051	166.81
236.285	170.81
236.519	172.81
236.753	180.81
236.987	154.81
237.221	172.81
237.455	201.81
237.689	175.81
237.922	178.81
238.156	186.81
238.39	179.81
238.624	186.81
238.858	185.81
239.091	190.81
239.325	204.81
239.559	194.81
239.793	214.81
240.027	200.81
240.26	187.81
240.494	204.81
240.728	190.81
240.961	191.81
241.195	207.81
241.429	205.81
241.662	193.81
241.896	221.81
242.13	217.81
242.363	208.81
242.597	210.81
242.83	231.81
243.064	211.81
243.298	222.81
243.531	225.81
243.765	227.81
243.998	238.81
244.232	230.81
244.465	224.81
244.699	214.81
244.932	239.81
245.166	232.81
245.399	245.81
245.633	259.81
245.866	241.81
246.099	255.81
246.333	246.81
246.566	260.81
246.8	224.81
247.033	245.81
247.266	250.81
247.5	253.81
247.733	270.81
247.966	271.81
248.2	263.81
248.433	256.81
248.666	264.81
248.899	279.81
249.133	271.81
249.366	266.81
249.599	271.81
249.832	278.81
250.066	278.81
250.299	271.81
250.532	289.81
250.765	283.81
250.998	282.81
251.231	290.81
251.465	301.81
251.698	318.81
251.931	303.81
252.164	301.81
252.397	303.81
252.63	311.81
252.863	296.81
253.096	310.81
253.329	297.81
253.562	314.81
253.795	316.81
254.028	305.81
254.261	317.81
254.494	320.81
254.727	321.81
254.96	317.81
255.193	329.81
255.426	334.81
255.659	327.81
255.892	334.81
256.124	324.81
256.357	306.81
256.59	350.81
256.823	339.81
257.056	337.81
257.289	326.81
257.521	341.81
257.754	342.81
257.987	351.81
258.22	342.81
258.452	362.81
258.685	361.81
258.918	357.81
259.151	368.81
259.383	358.81
259.616	349.81
259.849	381.81
260.081	364.81
260.314	356.81
260.547	338.81
260.779	356.81
261.012	359.81
261.244	364.81
261.477	385.81
261.71	381.81
261.942	388.81
262.175	379.81
262.407	386.81
262.64	394.81
262.872	372.81
263.105	380.81
263.337	382.81
263.57	386.81
263.802	383.81
264.035	397.81
264.267	395.81
264.499	399.81
264.732	401.81
264.964	400.81
265.197	405.81
265.429	393.81
265.661	414.81
265.894	410.81
266.126	405.81
266.358	400.81
266.591	419.81
266.823	411.81
267.055	396.81
267.287	446.81
267.52	424.81
267.752	422.81
267.984	433.81
268.216	416.81
268.448	441.81
268.681	436.81
268.913	426.81
269.145	414.81
269.377	451.81
269.609	439.81
269.841	433.81
270.073	423.81
270.306	434.81
270.538	430.81
270.77	445.81
271.002	445.81
271.234	442.81
271.466	464.81
271.698	428.81
271.93	448.81
272.162	472.81
272.394	447.81
272.626	448.81
272.858	454.81
273.09	451.81
273.322	475.81
273.553	468.81
273.785	459.81
274.017	454.81
274.249	476.81
274.481	488.81
274.713	486.81
274.945	473.81
275.176	466.81
275.408	470.81
275.64	480.81
275.872	489.81
276.104	498.81
276.335	492.81
276.567	497.81
276.799	497.81
277.031	505.81
277.262	508.81
277.494	516.81
277.726	520.81
277.957	526.81
278.189	495.81
278.421	506.81
278.652	508.81
278.884	511.81
279.115	528.81
279.347	541.81
279.579	509.81
279.81	523.81
280.042	545.81
280.273	518.81
280.505	536.81
280.736	537.81
280.968	549.81
281.199	553.81
281.431	552.81
281.662	552.81
281.894	550.81
282.125	542.81
282.356	550.81
282.588	558.81
282.819	581.81
283.051	559.81
283.282	551.81
283.513	552.81
283.745	548.81
283.976	558.81
284.207	577.81
284.439	557.81
284.67	561.81
284.901	582.81
285.132	595.81
285.364	585.81
285.595	577.81
285.826	578.81
286.057	586.81
286.288	571.81
286.52	578.81
286.751	592.81
286.982	594.81
287.213	594.81
287.444	578.81
287.675	585.81
287.906	590.81
288.138	576.81
288.369	612.81
288.6	627.81
288.831	596.81
289.062	588.81
289.293	601.81
289.524	608.81
289.755	628.81
289.986	624.81
290.217	625.81
290.448	610.81
290.679	622.81
290.91	615.81
291.141	606.81
291.371	612.81
291.602	617.81
291.833	641.81
292.064	602.81
292.295	621.81
292.526	618.81
292.757	616.81
292.987	629.81
293.218	616.81
293.449	626.81
293.68	604.81
293.91	617.81
294.141	643.81
294.372	614.81
294.603	637.81
294.833	636.81
295.064	633.81
295.295	648.81
295.525	638.81
295.756	649.81
295.987	621.81
296.217	626.81
296.448	649.81
296.679	650.81
296.909	636.81
297.14	655.81
297.37	674.81
297.601	668.81
297.831	668.81
298.062	663.81
298.292	689.81
298.523	681.81
298.753	707.81
298.984	673.81
299.214	686.81
299.445	714.81
299.675	690.81
299.905	693.81
300.136	690.81
300.366	711.81
300.597	740.81
300.827	733.81
301.057	696.81
301.288	715.81
301.518	724.81
301.748	724.81
301.979	732.81
302.209	709.81
302.439	704.81
302.669	710.81
302.9	704.81
303.13	698.81
303.36	729.81
303.59	704.81
303.82	737.81
304.051	757.81
304.281	712.81
304.511	706.81
304.741	733.81
304.971	707.81
305.201	734.81
305.431	750.81
305.661	738.81
305.891	726.81
306.121	708.81
306.352	741.81
306.582	750.81
306.812	720.81
307.042	728.81
307.272	716.81
307.502	673.81
307.731	711.81
307.961	727.81
308.191	725.81
308.421	717.81
308.651	728.81
308.881	714.81
309.111	708.81
309.341	707.81
309.571	716.81
309.8	738.81
310.03	725.81
310.26	746.81
310.49	778.81
310.72	736.81
310.949	718.81
311.179	722.81
311.409	750.81
311.639	754.81
311.868	732.81
312.098	733.81
312.328	762.81
312.557	753.81
312.787	744.81
313.017	724.81
313.246	757.81
313.476	776.81
313.706	787.81
313.935	769.81
314.165	774.81
314.394	763.81
314.624	766.81
314.853	759.81
315.083	759.81
315.312	801.81
315.542	756.81
315.771	754.81
316.001	815.81
316.23	768.81
316.46	735.81
316.689	753.81
316.919	769.81
317.148	755.81
317.377	761.81
317.607	775.81
317.836	755.81
318.065	750.81
318.295	755.81
318.524	758.81
318.753	769.81
318.983	768.81
319.212	748.81
319.441	778.81
319.67	760.81
319.9	788.81
320.129	798.81
320.358	748.81
320.587	767.81
320.816	792.81
321.046	766.81
321.275	781.81
321.504	769.81
321.733	777.81
321.962	788.81
322.191	785.81
322.42	787.81
322.649	784.81
322.878	797.81
323.108	777.81
323.337	792.81
323.566	793.81
323.795	813.81
324.024	808.81
324.253	799.81
324.482	817.81
324.71	812.81
324.939	812.81
325.168	821.81
325.397	785.81
325.626	837.81
325.855	810.81
326.084	837.81
326.313	846.81
326.542	846.81
326.77	812.81
326.999	839.81
327.228	838.81
327.457	833.81
327.686	831.81
327.914	815.81
328.143	809.81
328.372	846.81
328.6	840.81
328.829	833.81
329.058	840.81
329.287	808.81
329.515	856.81
329.744	844.81
329.972	876.81
330.201	848.81
330.43	871.81
330.658	857.81
330.887	851.81
331.115	871.81
331.344	897.81
331.572	880.81
331.801	904.81
332.03	931.81
332.258	898.81
332.486	937.81
332.715	953.81
332.943	978.81
333.172	983.81
333.4	1008.81
333.629	1006.81
333.857	1049.81
334.085	1060.81
334.314	1055.81
334.542	1040.81
334.771	1034.81
334.999	1022.81
335.227	1034.81
335.455	1028.81
335.684	1063.81
335.912	1042.81
336.14	1017.81
336.369	1007.81
336.597	1027.81
336.825	1018.81
337.053	1018.81
337.281	1009.81
337.51	958.81
337.738	983.81
337.966	953.81
338.194	964.81
338.422	967.81
338.65	920.81
338.878	910.81
339.106	960.81
339.334	944.81
339.562	919.81
339.79	910.81
340.018	905.81
340.246	897.81
340.474	920.81
340.702	894.81
340.93	886.81
341.158	904.81
341.386	940.81
341.614	970.81
341.842	917.81
342.07	898.81
342.298	909.81
342.526	905.81
342.754	898.81
342.981	894.81
343.209	906.81
343.437	975.81
343.665	974.81
343.893	996.81
344.12	999.81
344.348	1000.81
344.576	1000.81
344.804	979.81
345.031	949.81
345.259	899.81
345.487	932.81
345.714	916.81
345.942	941.81
346.17	940.81
346.397	947.81
346.625	892.81
346.853	887.81
347.08	893.81
347.308	853.81
347.535	877.81
347.763	864.81
347.99	861.81
348.218	866.81
348.445	860.81
348.673	864.81
348.9	867.81
349.128	857.81
349.355	852.81
349.583	864.81
349.81	871.81
350.037	831.81
350.265	853.81
350.492	831.81
350.72	818.81
350.947	820.81
351.174	857.81
351.402	881.81
351.629	871.81
351.856	856.81
352.083	816.81
352.311	847.81
352.538	878.81
352.765	896.81
352.992	829.81
353.22	796.81
353.447	810.81
353.674	812.81
353.901	808.81
354.128	806.81
354.355	814.81
354.583	792.81
354.81	786.81
355.037	814.81
355.264	820.81
355.491	786.81
355.718	818.81
355.945	787.81
356.172	809.81
356.399	810.81
356.626	827.81
356.853	866.81
357.08	830.81
357.307	820.81
357.534	772.81
357.761	810.81
357.988	841.81
358.215	788.81
358.441	816.81
358.668	789.81
358.895	792.81
359.122	798.81
359.349	810.81
359.576	816.81
359.802	824.81
360.029	816.81
360.256	794.81
360.483	790.81
360.709	810.81
360.936	808.81
361.163	836.81
361.39	829.81
361.616	843.81
361.843	841.81
362.07	887.81
362.296	868.81
362.523	815.81
362.749	814.81
362.976	791.81
363.203	820.81
363.429	774.81
363.656	809.81
363.882	803.81
364.109	794.81
364.335	820.81
364.562	792.81
364.788	792.81
365.015	798.81
365.241	790.81
365.468	800.81
365.694	804.81
365.92	799.81
366.147	807.81
366.373	803.81
366.599	836.81
366.826	788.81
367.052	795.81
367.278	814.81
367.505	793.81
367.731	812.81
367.957	801.81
368.184	804.81
368.41	792.81
368.636	820.81
368.862	827.81
369.089	813.81
369.315	833.81
369.541	841.81
369.767	831.81
369.993	846.81
370.219	835.81
370.445	857.81
370.672	835.81
370.898	829.81
371.124	837.81
371.35	867.81
371.576	840.81
371.802	862.81
372.028	864.81
372.254	860.81
372.48	891.81
372.706	894.81
372.932	904.81
373.158	878.81
373.384	849.81
373.61	882.81
373.835	876.81
374.061	857.81
374.287	847.81
374.513	889.81
374.739	901.81
374.965	903.81
375.191	896.81
375.416	915.81
375.642	884.81
375.868	905.81
376.094	851.81
376.319	845.81
376.545	878.81
376.771	864.81
376.997	834.81
377.222	855.81
377.448	844.81
377.674	847.81
377.899	827.81
378.125	843.81
378.35	850.81
378.576	836.81
378.802	862.81
379.027	859.81
379.253	830.81
379.478	831.81
379.704	826.81
379.929	841.81
380.155	849.81
380.38	829.81
380.606	862.81
380.831	840.81
381.057	865.81
381.282	845.81
381.507	823.81
381.733	854.81
381.958	861.81
382.184	853.81
382.409	868.81
382.634	885.81
382.86	876.81
383.085	896.81
383.31	895.81
383.535	891.81
383.761	905.81
383.986	927.81
384.211	949.81
384.436	924.81
384.662	960.81
384.887	962.81
385.112	978.81
385.337	972.81
385.562	987.81
385.787	957.81
386.013	1034.81
386.238	983.81
386.463	1007.81
386.688	992.81
386.913	995.81
387.138	963.81
387.363	965.81
387.588	987.81
387.813	984.81
388.038	984.81
388.263	983.81
388.488	994.81
388.713	979.81
388.938	986.81
389.163	1000.81
389.387	985.81
389.612	984.81
389.837	1005.81
390.062	984.81
390.287	1004.81
390.512	960.81
390.736	980.81
390.961	984.81
391.186	1029.81
391.411	1063.81
391.636	1028.81
391.86	1040.81
392.085	1105.81
392.31	1082.81
392.534	1077.81
392.759	1082.81
392.984	1074.81
393.208	1030.81
393.433	1016.81
393.658	1045.81
393.882	1062.81
394.107	1049.81
394.331	1048.81
394.556	1077.81
394.78	1065.81
395.005	1062.81
395.229	1050.81
395.454	1080.81
395.678	1104.81
395.903	1098.81
396.127	1132.81
396.352	1082.81
396.576	1045.81
396.801	1089.81
397.025	1088.81
397.249	1083.81
397.474	1075.81
397.698	1114.81
397.922	1126.81
398.147	1130.81
398.371	1159.81
398.595	1178.81
398.82	1205.81
399.044	1289.81
399.268	1350.81
399.492	1500.81
399.717	1584.81
399.941	1602.81
400.165	1536.81
400.389	1433.81
400.613	1366.81
400.837	1334.81
401.062	1296.81
401.286	1271.81
401.51	1241.81
401.734	1237.81
401.958	1226.81
402.182	1252.81
402.406	1249.81
402.63	1248.81
402.854	1255.81
403.078	1263.81
403.302	1325.81
403.526	1304.81
403.75	1297.81
403.974	1304.81
404.198	1296.81
404.422	1292.81
404.645	1312.81
404.869	1317.81
405.093	1314.81
405.317	1304.81
405.541	1316.81
405.765	1284.81
405.988	1283.81
406.212	1303.81
406.436	1288.81
406.66	1382.81
406.883	1355.81
407.107	1425.81
407.331	1457.81
407.555	1477.81
407.778	1487.81
408.002	1456.81
408.226	1412.81
408.449	1429.81
408.673	1372.81
408.896	1353.81
409.12	1389.81
409.344	1400.81
409.567	1377.81
409.791	1382.81
410.014	1367.81
410.238	1345.81
410.461	1344.81
410.685	1320.81
410.908	1321.81
411.132	1304.81
411.355	1290.81
411.578	1310.81
411.802	1283.81
412.025	1265.81
412.249	1292.81
412.472	1301.81
412.695	1277.81
412.919	1254.81
413.142	1223.81
413.365	1240.81
413.589	1269.81
413.812	1250.81
414.035	1223.81
414.258	1233.81
414.482	1251.81
414.705	1250.81
414.928	1248.81
415.151	1238.81
415.374	1252.81
415.597	1224.81
415.821	1237.81
416.044	1217.81
416.267	1206.81
416.49	1220.81
416.713	1170.81
416.936	1196.81
417.159	1186.81
417.382	1180.81
417.605	1182.81
417.828	1208.81
418.051	1232.81
418.274	1212.81
418.497	1183.81
418.72	1233.81
418.943	1204.81
419.166	1304.81
419.389	1360.81
419.611	1349.81
419.834	1308.81
420.057	1245.81
420.28	1218.81
420.503	1190.81
420.726	1201.81
420.948	1196.81
421.171	1204.81
421.394	1220.81
421.617	1199.81
421.839	1225.81
422.062	1236.81
422.285	1206.81
422.507	1234.81
422.73	1200.81
422.953	1204.81
423.175	1222.81
423.398	1229.81
423.621	1209.81
423.843	1269.81
424.066	1243.81
424.288	1214.81
424.511	1215.81
424.733	1221.81
424.956	1215.81
425.178	1204.81
425.401	1206.81
425.623	1192.81
425.846	1210.81
426.068	1203.81
426.291	1154.81
426.513	1138.81
426.735	1173.81
426.958	1167.81
427.18	1141.81
427.402	1156.81
427.625	1188.81
427.847	1136.81
428.069	1144.81
428.292	1134.81
428.514	1130.81
428.736	1123.81
428.958	1152.81
429.181	1114.81
429.403	1118.81
429.625	1130.81
429.847	1090.81
430.069	1089.81
430.292	1121.81
430.514	1105.81
430.736	1109.81
430.958	1157.81
431.18	1110.81
431.402	1137.81
431.624	1118.81
431.846	1131.81
432.068	1145.81
432.29	1168.81
432.512	1134.81
432.734	1123.81
432.956	1144.81
433.178	1161.81
433.4	1169.81
433.622	1144.81
433.844	1209.81
434.066	1190.81
434.287	1181.81
434.509	1197.81
434.731	1217.81
434.953	1232.81
435.175	1227.81
435.397	1239.81
435.618	1225.81
435.84	1177.81
436.062	1175.81
436.284	1142.81
436.505	1140.81
436.727	1138.81
436.949	1138.81
437.17	1155.81
437.392	1150.81
437.614	1128.81
437.835	1096.81
438.057	1113.81
438.278	1090.81
438.5	1097.81
438.721	1110.81
438.943	1128.81
439.165	1093.81
439.386	1130.81
439.608	1128.81
439.829	1163.81
440.05	1150.81
440.272	1141.81
440.493	1164.81
440.715	1157.81
440.936	1191.81
441.158	1186.81
441.379	1205.81
441.6	1250.81
441.822	1256.81
442.043	1281.81
442.264	1230.81
442.486	1222.81
442.707	1270.81
442.928	1225.81
443.149	1198.81
443.371	1253.81
443.592	1260.81
443.813	1276.81
444.034	1239.81
444.255	1276.81
444.476	1324.81
444.698	1381.81
444.919	1410.81
445.14	1445.81
445.361	1366.81
445.582	1297.81
445.803	1248.81
446.024	1223.81
446.245	1204.81
446.466	1181.81
446.687	1174.81
446.908	1162.81
447.129	1139.81
447.35	1160.81
447.571	1115.81
447.792	1084.81
448.013	1132.81
448.234	1077.81
448.455	1080.81
448.675	1072.81
448.896	1097.81
449.117	1047.81
449.338	1036.81
449.559	1034.81
449.779	1067.81
450	1055.81
450.221	1034.81
450.442	1044.81
450.662	1039.81
450.883	1084.81
451.104	1099.81
451.324	1072.81
451.545	1070.81
451.766	1056.81
451.986	1060.81
452.207	1045.81
452.428	1029.81
452.648	1056.81
452.869	1031.81
453.089	1048.81
453.31	1036.81
453.53	1016.81
453.751	1018.81
453.971	1047.81
454.192	1010.81
454.412	1032.81
454.633	1027.81
454.853	1043.81
455.073	1015.81
455.294	1024.81
455.514	1024.81
455.734	1046.81
455.955	1000.81
456.175	1054.81
456.395	997.81
456.616	972.81
456.836	1015.81
457.056	979.81
457.276	974.81
457.497	1004.81
457.717	1009.81
457.937	1025.81
458.157	1050.81
458.377	1032.81
458.598	1064.81
458.818	1087.81
459.038	1088.81
459.258	1108.81
459.478	1184.81
459.698	1236.81
459.918	1278.81
460.138	1232.81
460.358	1280.81
460.578	1301.81
460.798	1342.81
461.018	1347.81
461.238	1310.81
461.458	1287.81
461.678	1308.81
461.898	1324.81
462.118	1325.81
462.338	1407.81
462.558	1427.81
462.777	1505.81
462.997	1553.81
463.217	1619.81
463.437	1665.81
463.657	1536.81
463.876	1481.81
464.096	1510.81
464.316	1499.81
464.536	1454.81
464.755	1454.81
464.975	1397.81
465.195	1305.81
465.414	1307.81
465.634	1255.81
465.854	1194.81
466.073	1188.81
466.293	1157.81
466.512	1172.81
466.732	1124.81
466.951	1148.81
467.171	1155.81
467.391	1152.81
467.61	1106.81
467.829	1097.81
468.049	1110.81
468.268	1083.81
468.488	1107.81
468.707	1074.81
468.927	1099.81
469.146	1096.81
469.365	1121.81
469.585	1105.81
469.804	1134.81
470.023	1128.81
470.243	1142.81
470.462	1154.81
470.681	1108.81
470.901	1144.81
471.12	1130.81
471.339	1123.81
471.558	1143.81
471.777	1121.81
471.997	1099.81
472.216	1106.81
472.435	1089.81
472.654	1064.81
472.873	1068.81
473.092	1084.81
473.311	1078.81
473.53	1078.81
473.749	1080.81
473.968	1073.81
474.187	1074.81
474.406	1101.81
474.625	1102.81
474.844	1113.81
475.063	1130.81
475.282	1116.81
475.501	1099.81
475.72	1102.81
475.939	1097.81
476.158	1118.81
476.377	1126.81
476.596	1126.81
476.814	1126.81
477.033	1148.81
477.252	1161.81
477.471	1202.81
477.69	1212.81
477.908	1236.81
478.127	1244.81
478.346	1243.81
478.564	1287.81
478.783	1289.81
479.002	1350.81
479.22	1366.81
479.439	1328.81
479.658	1313.81
479.876	1304.81
480.095	1333.81
480.313	1359.81
480.532	1419.81
480.751	1360.81
480.969	1343.81
481.188	1314.81
481.406	1286.81
481.624	1317.81
481.843	1302.81
482.061	1256.81
482.28	1247.81
482.498	1250.81
482.717	1256.81
482.935	1283.81
483.153	1264.81
483.372	1320.81
483.59	1339.81
483.808	1306.81
484.027	1302.81
484.245	1322.81
484.463	1295.81
484.681	1292.81
484.9	1308.81
485.118	1327.81
485.336	1321.81
485.554	1312.81
485.772	1338.81
485.99	1319.81
486.209	1324.81
486.427	1314.81
486.645	1321.81
486.863	1347.81
487.081	1340.81
487.299	1304.81
487.517	1346.81
487.735	1353.81
487.953	1360.81
488.171	1324.81
488.389	1340.81
488.607	1333.81
488.825	1284.81
489.043	1308.81
489.261	1332.81
489.479	1305.81
489.696	1311.81
489.914	1303.81
490.132	1351.81
490.35	1336.81
490.568	1310.81
490.786	1360.81
491.003	1368.81
491.221	1361.81
491.439	1384.81
491.657	1392.81
491.874	1360.81
492.092	1364.81
492.31	1392.81
492.527	1393.81
492.745	1373.81
492.963	1394.81
493.18	1383.81
493.398	1410.81
493.615	1395.81
493.833	1408.81
494.05	1425.81
494.268	1433.81
494.485	1400.81
494.703	1417.81
494.92	1409.81
