Data from NiCl2@0.0625M.TitratingCurve.Agarose3%dH2O.NegLispCup.LampEnergy10.LIBS07252019_HRD10591_18-33-24-577.txt Node
Date: Thu Jul 25 18:33:24 EDT 2019
User: cochatt
Spectrometer: HR+D1059
Trigger mode: 1
Integration Time (sec): 1.000000E-1
Scans to average: 1
Electric dark correction enabled: true
Nonlinearity correction enabled: false
Boxcar width: 0
XAxis mode: Wavelengths
Number of Pixels in Spectrum: 2048
>>>>>Begin Spectral Data<<<<<
223.165	-14.75
223.4	-14.75
223.635	-14.75
223.869	-20.75
224.104	-26.75
224.338	-17.75
224.573	-16.75
224.808	-5.75
225.042	-4.75
225.277	-8.75
225.511	-7.75
225.746	-4.75
225.98	11.25
226.215	21.25
226.449	12.25
226.683	18.25
226.918	26.25
227.152	39.25
227.387	38.25
227.621	46.25
227.856	52.25
228.09	43.25
228.324	48.25
228.559	53.25
228.793	78.25
229.027	146.25
229.262	159.25
229.496	161.25
229.73	170.25
229.964	177.25
230.199	186.25
230.433	175.25
230.667	192.25
230.901	198.25
231.136	198.25
231.37	194.25
231.604	195.25
231.838	204.25
232.072	200.25
232.306	218.25
232.541	218.25
232.775	208.25
233.009	226.25
233.243	214.25
233.477	226.25
233.711	205.25
233.945	219.25
234.179	229.25
234.413	227.25
234.647	227.25
234.881	233.25
235.115	223.25
235.349	224.25
235.583	229.25
235.817	239.25
236.051	237.25
236.285	218.25
236.519	238.25
236.753	233.25
236.987	249.25
237.221	242.25
237.455	273.25
237.689	240.25
237.922	254.25
238.156	252.25
238.39	255.25
238.624	266.25
238.858	263.25
239.091	260.25
239.325	266.25
239.559	281.25
239.793	269.25
240.027	296.25
240.26	286.25
240.494	282.25
240.728	294.25
240.961	283.25
241.195	307.25
241.429	316.25
241.662	312.25
241.896	302.25
242.13	319.25
242.363	320.25
242.597	311.25
242.83	322.25
243.064	320.25
243.298	334.25
243.531	342.25
243.765	348.25
243.998	338.25
244.232	344.25
244.465	353.25
244.699	357.25
244.932	369.25
245.166	366.25
245.399	374.25
245.633	373.25
245.866	347.25
246.099	356.25
246.333	390.25
246.566	368.25
246.8	376.25
247.033	376.25
247.266	387.25
247.5	396.25
247.733	397.25
247.966	396.25
248.2	400.25
248.433	412.25
248.666	433.25
248.899	408.25
249.133	416.25
249.366	419.25
249.599	430.25
249.832	404.25
250.066	424.25
250.299	436.25
250.532	457.25
250.765	422.25
250.998	448.25
251.231	441.25
251.465	454.25
251.698	451.25
251.931	444.25
252.164	458.25
252.397	450.25
252.63	484.25
252.863	478.25
253.096	470.25
253.329	482.25
253.562	490.25
253.795	481.25
254.028	501.25
254.261	486.25
254.494	499.25
254.727	474.25
254.96	490.25
255.193	484.25
255.426	494.25
255.659	483.25
255.892	495.25
256.124	505.25
256.357	495.25
256.59	524.25
256.823	510.25
257.056	508.25
257.289	514.25
257.521	542.25
257.754	524.25
257.987	518.25
258.22	531.25
258.452	530.25
258.685	543.25
258.918	558.25
259.151	539.25
259.383	546.25
259.616	545.25
259.849	558.25
260.081	545.25
260.314	551.25
260.547	553.25
260.779	545.25
261.012	575.25
261.244	556.25
261.477	560.25
261.71	569.25
261.942	564.25
262.175	586.25
262.407	584.25
262.64	575.25
262.872	600.25
263.105	579.25
263.337	596.25
263.57	597.25
263.802	596.25
264.035	627.25
264.267	615.25
264.499	594.25
264.732	633.25
264.964	613.25
265.197	612.25
265.429	608.25
265.661	612.25
265.894	624.25
266.126	626.25
266.358	625.25
266.591	635.25
266.823	622.25
267.055	634.25
267.287	647.25
267.52	644.25
267.752	664.25
267.984	669.25
268.216	634.25
268.448	682.25
268.681	669.25
268.913	652.25
269.145	661.25
269.377	664.25
269.609	650.25
269.841	683.25
270.073	673.25
270.306	675.25
270.538	668.25
270.77	698.25
271.002	698.25
271.234	710.25
271.466	710.25
271.698	709.25
271.93	703.25
272.162	692.25
272.394	722.25
272.626	710.25
272.858	708.25
273.09	721.25
273.322	730.25
273.553	697.25
273.785	730.25
274.017	732.25
274.249	754.25
274.481	741.25
274.713	737.25
274.945	747.25
275.176	770.25
275.408	740.25
275.64	762.25
275.872	751.25
276.104	746.25
276.335	804.25
276.567	781.25
276.799	721.25
277.031	778.25
277.262	798.25
277.494	788.25
277.726	778.25
277.957	794.25
278.189	821.25
278.421	793.25
278.652	789.25
278.884	800.25
279.115	788.25
279.347	825.25
279.579	791.25
279.81	852.25
280.042	808.25
280.273	810.25
280.505	852.25
280.736	812.25
280.968	832.25
281.199	843.25
281.431	847.25
281.662	832.25
281.894	827.25
282.125	848.25
282.356	851.25
282.588	863.25
282.819	859.25
283.051	874.25
283.282	869.25
283.513	878.25
283.745	877.25
283.976	898.25
284.207	882.25
284.439	920.25
284.67	883.25
284.901	897.25
285.132	866.25
285.364	862.25
285.595	919.25
285.826	872.25
286.057	908.25
286.288	911.25
286.52	897.25
286.751	915.25
286.982	900.25
287.213	896.25
287.444	923.25
287.675	924.25
287.906	916.25
288.138	929.25
288.369	895.25
288.6	918.25
288.831	915.25
289.062	937.25
289.293	926.25
289.524	947.25
289.755	974.25
289.986	946.25
290.217	961.25
290.448	952.25
290.679	956.25
290.91	961.25
291.141	970.25
291.371	952.25
291.602	1003.25
291.833	975.25
292.064	922.25
292.295	945.25
292.526	960.25
292.757	974.25
292.987	944.25
293.218	968.25
293.449	968.25
293.68	975.25
293.91	936.25
294.141	958.25
294.372	946.25
294.603	962.25
294.833	995.25
295.064	962.25
295.295	1001.25
295.525	961.25
295.756	976.25
295.987	984.25
296.217	1009.25
296.448	987.25
296.679	1011.25
296.909	1028.25
297.14	1016.25
297.37	1061.25
297.601	1039.25
297.831	1019.25
298.062	1039.25
298.292	1020.25
298.523	1072.25
298.753	1055.25
298.984	1053.25
299.214	1037.25
299.445	1037.25
299.675	1032.25
299.905	1090.25
300.136	1031.25
300.366	1043.25
300.597	1058.25
300.827	1103.25
301.057	1070.25
301.288	1109.25
301.518	1089.25
301.748	1129.25
301.979	1140.25
302.209	1126.25
302.439	1126.25
302.669	1095.25
302.9	1099.25
303.13	1092.25
303.36	1098.25
303.59	1085.25
303.82	1055.25
304.051	1099.25
304.281	1104.25
304.511	1106.25
304.741	1103.25
304.971	1103.25
305.201	1104.25
305.431	1072.25
305.661	1093.25
305.891	1066.25
306.121	1071.25
306.352	1113.25
306.582	1094.25
306.812	1076.25
307.042	1084.25
307.272	1084.25
307.502	1087.25
307.731	1082.25
307.961	1093.25
308.191	1059.25
308.421	1064.25
308.651	1088.25
308.881	1093.25
309.111	1059.25
309.341	1082.25
309.571	1112.25
309.8	1105.25
310.03	1102.25
310.26	1091.25
310.49	1116.25
310.72	1095.25
310.949	1091.25
311.179	1120.25
311.409	1127.25
311.639	1121.25
311.868	1124.25
312.098	1150.25
312.328	1116.25
312.557	1150.25
312.787	1143.25
313.017	1123.25
313.246	1160.25
313.476	1170.25
313.706	1168.25
313.935	1173.25
314.165	1173.25
314.394	1172.25
314.624	1203.25
314.853	1156.25
315.083	1174.25
315.312	1206.25
315.542	1169.25
315.771	1187.25
316.001	1178.25
316.23	1160.25
316.46	1169.25
316.689	1200.25
316.919	1187.25
317.148	1204.25
317.377	1150.25
317.607	1143.25
317.836	1160.25
318.065	1165.25
318.295	1211.25
318.524	1182.25
318.753	1175.25
318.983	1182.25
319.212	1144.25
319.441	1181.25
319.67	1176.25
319.9	1161.25
320.129	1161.25
320.358	1177.25
320.587	1165.25
320.816	1163.25
321.046	1191.25
321.275	1182.25
321.504	1160.25
321.733	1143.25
321.962	1188.25
322.191	1187.25
322.42	1187.25
322.649	1198.25
322.878	1173.25
323.108	1194.25
323.337	1188.25
323.566	1210.25
323.795	1220.25
324.024	1228.25
324.253	1226.25
324.482	1228.25
324.71	1218.25
324.939	1244.25
325.168	1219.25
325.397	1199.25
325.626	1236.25
325.855	1231.25
326.084	1259.25
326.313	1259.25
326.542	1289.25
326.77	1278.25
326.999	1259.25
327.228	1297.25
327.457	1256.25
327.686	1282.25
327.914	1257.25
328.143	1287.25
328.372	1247.25
328.6	1294.25
328.829	1261.25
329.058	1273.25
329.287	1310.25
329.515	1311.25
329.744	1268.25
329.972	1306.25
330.201	1286.25
330.43	1305.25
330.658	1311.25
330.887	1288.25
331.115	1346.25
331.344	1343.25
331.572	1335.25
331.801	1352.25
332.03	1429.25
332.258	1446.25
332.486	1454.25
332.715	1502.25
332.943	1478.25
333.172	1548.25
333.4	1643.25
333.629	1617.25
333.857	1657.25
334.085	1641.25
334.314	1652.25
334.542	1589.25
334.771	1632.25
334.999	1570.25
335.227	1643.25
335.455	1586.25
335.684	1574.25
335.912	1623.25
336.14	1579.25
336.369	1577.25
336.597	1545.25
336.825	1503.25
337.053	1510.25
337.281	1479.25
337.51	1475.25
337.738	1473.25
337.966	1429.25
338.194	1406.25
338.422	1399.25
338.65	1432.25
338.878	1413.25
339.106	1432.25
339.334	1396.25
339.562	1410.25
339.79	1323.25
340.018	1359.25
340.246	1315.25
340.474	1348.25
340.702	1342.25
340.93	1355.25
341.158	1352.25
341.386	1346.25
341.614	1359.25
341.842	1370.25
342.07	1367.25
342.298	1340.25
342.526	1346.25
342.754	1339.25
342.981	1364.25
343.209	1367.25
343.437	1419.25
343.665	1484.25
343.893	1555.25
344.12	1588.25
344.348	1565.25
344.576	1484.25
344.804	1447.25
345.031	1393.25
345.259	1390.25
345.487	1352.25
345.714	1370.25
345.942	1352.25
346.17	1336.25
346.397	1322.25
346.625	1316.25
346.853	1268.25
347.08	1253.25
347.308	1304.25
347.535	1288.25
347.763	1291.25
347.99	1279.25
348.218	1302.25
348.445	1269.25
348.673	1273.25
348.9	1299.25
349.128	1290.25
349.355	1269.25
349.583	1296.25
349.81	1260.25
350.037	1266.25
350.265	1246.25
350.492	1224.25
350.72	1230.25
350.947	1223.25
351.174	1254.25
351.402	1251.25
351.629	1244.25
351.856	1219.25
352.083	1235.25
352.311	1225.25
352.538	1222.25
352.765	1226.25
352.992	1238.25
353.22	1210.25
353.447	1214.25
353.674	1222.25
353.901	1220.25
354.128	1242.25
354.355	1235.25
354.583	1214.25
354.81	1255.25
355.037	1238.25
355.264	1270.25
355.491	1254.25
355.718	1242.25
355.945	1218.25
356.172	1227.25
356.399	1262.25
356.626	1246.25
356.853	1262.25
357.08	1274.25
357.307	1264.25
357.534	1246.25
357.761	1257.25
357.988	1240.25
358.215	1234.25
358.441	1242.25
358.668	1221.25
358.895	1244.25
359.122	1232.25
359.349	1259.25
359.576	1253.25
359.802	1255.25
360.029	1240.25
360.256	1270.25
360.483	1231.25
360.709	1264.25
360.936	1248.25
361.163	1239.25
361.39	1234.25
361.616	1242.25
361.843	1251.25
362.07	1239.25
362.296	1237.25
362.523	1236.25
362.749	1242.25
362.976	1232.25
363.203	1256.25
363.429	1265.25
363.656	1227.25
363.882	1264.25
364.109	1235.25
364.335	1255.25
364.562	1275.25
364.788	1250.25
365.015	1250.25
365.241	1250.25
365.468	1231.25
365.694	1249.25
365.92	1238.25
366.147	1286.25
366.373	1290.25
366.599	1246.25
366.826	1282.25
367.052	1268.25
367.278	1280.25
367.505	1242.25
367.731	1258.25
367.957	1263.25
368.184	1277.25
368.41	1262.25
368.636	1265.25
368.862	1298.25
369.089	1278.25
369.315	1316.25
369.541	1308.25
369.767	1302.25
369.993	1295.25
370.219	1310.25
370.445	1333.25
370.672	1302.25
370.898	1312.25
371.124	1345.25
371.35	1340.25
371.576	1374.25
371.802	1379.25
372.028	1363.25
372.254	1369.25
372.48	1367.25
372.706	1369.25
372.932	1380.25
373.158	1389.25
373.384	1360.25
373.61	1341.25
373.835	1382.25
374.061	1352.25
374.287	1362.25
374.513	1411.25
374.739	1404.25
374.965	1449.25
375.191	1495.25
375.416	1478.25
375.642	1424.25
375.868	1406.25
376.094	1384.25
376.319	1363.25
376.545	1361.25
376.771	1351.25
376.997	1332.25
377.222	1360.25
377.448	1355.25
377.674	1370.25
377.899	1326.25
378.125	1355.25
378.35	1349.25
378.576	1316.25
378.802	1332.25
379.027	1325.25
379.253	1362.25
379.478	1307.25
379.704	1299.25
379.929	1350.25
380.155	1316.25
380.38	1348.25
380.606	1336.25
380.831	1321.25
381.057	1332.25
381.282	1338.25
381.507	1330.25
381.733	1360.25
381.958	1383.25
382.184	1426.25
382.409	1402.25
382.634	1455.25
382.86	1407.25
383.085	1429.25
383.31	1445.25
383.535	1477.25
383.761	1503.25
383.986	1498.25
384.211	1504.25
384.436	1514.25
384.662	1595.25
384.887	1583.25
385.112	1572.25
385.337	1603.25
385.562	1629.25
385.787	1594.25
386.013	1629.25
386.238	1644.25
386.463	1602.25
386.688	1619.25
386.913	1568.25
387.138	1602.25
387.363	1609.25
387.588	1591.25
387.813	1623.25
388.038	1601.25
388.263	1620.25
388.488	1612.25
388.713	1602.25
388.938	1608.25
389.163	1580.25
389.387	1590.25
389.612	1589.25
389.837	1601.25
390.062	1610.25
390.287	1604.25
390.512	1582.25
390.736	1623.25
390.961	1638.25
391.186	1662.25
391.411	1700.25
391.636	1711.25
391.86	1756.25
392.085	1754.25
392.31	1778.25
392.534	1734.25
392.759	1737.25
392.984	1734.25
393.208	1709.25
393.433	1732.25
393.658	1718.25
393.882	1682.25
394.107	1677.25
394.331	1700.25
394.556	1698.25
394.78	1705.25
395.005	1717.25
395.229	1753.25
395.454	1794.25
395.678	1823.25
395.903	1796.25
396.127	1784.25
396.352	1731.25
396.576	1722.25
396.801	1739.25
397.025	1768.25
397.249	1772.25
397.474	1832.25
397.698	1753.25
397.922	1811.25
398.147	1799.25
398.371	1864.25
398.595	1892.25
398.82	2002.25
399.044	2117.25
399.268	2285.25
399.492	2559.25
399.717	2734.25
399.941	2759.25
400.165	2565.25
400.389	2364.25
400.613	2237.25
400.837	2105.25
401.062	2050.25
401.286	2004.25
401.51	1978.25
401.734	2009.25
401.958	2006.25
402.182	2014.25
402.406	2050.25
402.63	2091.25
402.854	2081.25
403.078	2047.25
403.302	2152.25
403.526	2144.25
403.75	2192.25
403.974	2219.25
404.198	2171.25
404.422	2183.25
404.645	2212.25
404.869	2152.25
405.093	2186.25
405.317	2111.25
405.541	2144.25
405.765	2182.25
405.988	2144.25
406.212	2171.25
406.436	2138.25
406.66	2187.25
406.883	2227.25
407.107	2400.25
407.331	2475.25
407.555	2505.25
407.778	2530.25
408.002	2486.25
408.226	2422.25
408.449	2381.25
408.673	2265.25
408.896	2249.25
409.12	2224.25
409.344	2209.25
409.567	2197.25
409.791	2243.25
410.014	2222.25
410.238	2194.25
410.461	2185.25
410.685	2162.25
410.908	2142.25
411.132	2115.25
411.355	2083.25
411.578	2083.25
411.802	2080.25
412.025	2064.25
412.249	2102.25
412.472	2123.25
412.695	2015.25
412.919	2001.25
413.142	2012.25
413.365	2014.25
413.589	2039.25
413.812	1984.25
414.035	1949.25
414.258	1966.25
414.482	1972.25
414.705	2039.25
414.928	2030.25
415.151	1961.25
415.374	1992.25
415.597	1961.25
415.821	1926.25
416.044	1910.25
416.267	1945.25
416.49	1923.25
416.713	1898.25
416.936	1933.25
417.159	1927.25
417.382	1865.25
417.605	1904.25
417.828	1910.25
418.051	1967.25
418.274	1944.25
418.497	1924.25
418.72	1925.25
418.943	1947.25
419.166	2077.25
419.389	2236.25
419.611	2144.25
419.834	2086.25
420.057	2008.25
420.28	1931.25
420.503	1919.25
420.726	1881.25
420.948	1860.25
421.171	1931.25
421.394	1931.25
421.617	1900.25
421.839	1934.25
422.062	1921.25
422.285	1914.25
422.507	1980.25
422.73	1934.25
422.953	1933.25
423.175	1945.25
423.398	1960.25
423.621	1950.25
423.843	1999.25
424.066	2007.25
424.288	1964.25
424.511	1958.25
424.733	1935.25
424.956	1893.25
425.178	1963.25
425.401	1973.25
425.623	1934.25
425.846	1908.25
426.068	1871.25
426.291	1856.25
426.513	1854.25
426.735	1851.25
426.958	1821.25
427.18	1783.25
427.402	1783.25
427.625	1841.25
427.847	1752.25
428.069	1754.25
428.292	1794.25
428.514	1723.25
428.736	1747.25
428.958	1747.25
429.181	1728.25
429.403	1766.25
429.625	1717.25
429.847	1729.25
430.069	1739.25
430.292	1740.25
430.514	1707.25
430.736	1710.25
430.958	1720.25
431.18	1760.25
431.402	1747.25
431.624	1750.25
431.846	1774.25
432.068	1754.25
432.29	1783.25
432.512	1757.25
432.734	1784.25
432.956	1720.25
433.178	1808.25
433.4	1765.25
433.622	1810.25
433.844	1809.25
434.066	1810.25
434.287	1820.25
434.509	1876.25
434.731	1932.25
434.953	1961.25
435.175	1935.25
435.397	1946.25
435.618	1862.25
435.84	1848.25
436.062	1802.25
436.284	1763.25
436.505	1739.25
436.727	1777.25
436.949	1719.25
437.17	1774.25
437.392	1752.25
437.614	1749.25
437.835	1674.25
438.057	1706.25
438.278	1676.25
438.5	1681.25
438.721	1610.25
438.943	1694.25
439.165	1652.25
439.386	1674.25
439.608	1730.25
439.829	1733.25
440.05	1731.25
440.272	1699.25
440.493	1787.25
440.715	1738.25
440.936	1752.25
441.158	1836.25
441.379	1804.25
441.6	1924.25
441.822	1887.25
442.043	1908.25
442.264	1843.25
442.486	1855.25
442.707	1860.25
442.928	1881.25
443.149	1870.25
443.371	1855.25
443.592	1888.25
443.813	1904.25
444.034	1886.25
444.255	1958.25
444.476	2018.25
444.698	2123.25
444.919	2144.25
445.14	2207.25
445.361	2105.25
445.582	1959.25
445.803	1850.25
446.024	1844.25
446.245	1824.25
446.466	1795.25
446.687	1700.25
446.908	1730.25
447.129	1690.25
447.35	1701.25
447.571	1658.25
447.792	1665.25
448.013	1650.25
448.234	1584.25
448.455	1575.25
448.675	1580.25
448.896	1590.25
449.117	1568.25
449.338	1549.25
449.559	1538.25
449.779	1536.25
450	1567.25
450.221	1537.25
450.442	1521.25
450.662	1530.25
450.883	1569.25
451.104	1579.25
451.324	1554.25
451.545	1534.25
451.766	1600.25
451.986	1564.25
452.207	1575.25
452.428	1499.25
452.648	1522.25
452.869	1501.25
453.089	1514.25
453.31	1506.25
453.53	1499.25
453.751	1497.25
453.971	1505.25
454.192	1527.25
454.412	1484.25
454.633	1492.25
454.853	1465.25
455.073	1451.25
455.294	1460.25
455.514	1438.25
455.734	1422.25
455.955	1452.25
456.175	1425.25
456.395	1433.25
456.616	1443.25
456.836	1486.25
457.056	1473.25
457.276	1456.25
457.497	1457.25
457.717	1484.25
457.937	1500.25
458.157	1519.25
458.377	1519.25
458.598	1573.25
458.818	1611.25
459.038	1648.25
459.258	1688.25
459.478	1734.25
459.698	1804.25
459.918	1797.25
460.138	1828.25
460.358	1958.25
460.578	1926.25
460.798	1959.25
461.018	1982.25
461.238	1934.25
461.458	1946.25
461.678	1946.25
461.898	2001.25
462.118	2024.25
462.338	2107.25
462.558	2155.25
462.777	2190.25
462.997	2371.25
463.217	2482.25
463.437	2504.25
463.657	2361.25
463.876	2268.25
464.096	2270.25
464.316	2242.25
464.536	2229.25
464.755	2195.25
464.975	2161.25
465.195	2044.25
465.414	1986.25
465.634	1838.25
465.854	1765.25
466.073	1760.25
466.293	1705.25
466.512	1680.25
466.732	1662.25
466.951	1640.25
467.171	1682.25
467.391	1689.25
467.61	1614.25
467.829	1604.25
468.049	1612.25
468.268	1588.25
468.488	1574.25
468.707	1577.25
468.927	1582.25
469.146	1585.25
469.365	1589.25
469.585	1607.25
469.804	1612.25
470.023	1627.25
470.243	1630.25
470.462	1685.25
470.681	1676.25
470.901	1681.25
471.12	1635.25
471.339	1652.25
471.558	1634.25
471.777	1626.25
471.997	1614.25
472.216	1616.25
472.435	1625.25
472.654	1566.25
472.873	1547.25
473.092	1569.25
473.311	1586.25
473.53	1594.25
473.749	1577.25
473.968	1607.25
474.187	1541.25
474.406	1555.25
474.625	1590.25
474.844	1578.25
475.063	1580.25
475.282	1584.25
475.501	1595.25
475.72	1644.25
475.939	1596.25
476.158	1626.25
476.377	1654.25
476.596	1663.25
476.814	1706.25
477.033	1658.25
477.252	1721.25
477.471	1740.25
477.69	1770.25
477.908	1814.25
478.127	1849.25
478.346	1864.25
478.564	1910.25
478.783	1902.25
479.002	1945.25
479.22	1977.25
479.439	1998.25
479.658	1977.25
479.876	1980.25
480.095	2043.25
480.313	2050.25
480.532	2089.25
480.751	2129.25
480.969	2047.25
481.188	1972.25
481.406	1959.25
481.624	1914.25
481.843	1940.25
482.061	1954.25
482.28	1914.25
482.498	1900.25
482.717	1899.25
482.935	1953.25
483.153	1920.25
483.372	1907.25
483.59	1961.25
483.808	1937.25
484.027	1963.25
484.245	2003.25
484.463	1986.25
484.681	2032.25
484.9	2046.25
485.118	2058.25
485.336	2060.25
485.554	2095.25
485.772	2128.25
485.99	2090.25
486.209	2094.25
486.427	2039.25
486.645	2099.25
486.863	2091.25
487.081	2052.25
487.299	2103.25
487.517	2050.25
487.735	2044.25
487.953	2062.25
488.171	2062.25
488.389	2072.25
488.607	2054.25
488.825	1984.25
489.043	2014.25
489.261	1977.25
489.479	2022.25
489.696	1998.25
