Data from NiCl2@0.0625M.TitratingCurve.Agarose3%dH2O.NegLispCup.LampEnergy10.LIBS07252019_HRD10591_18-33-04-576.txt Node
Date: Thu Jul 25 18:33:04 EDT 2019
User: cochatt
Spectrometer: HR+D1059
Trigger mode: 1
Integration Time (sec): 1.000000E-1
Scans to average: 1
Electric dark correction enabled: true
Nonlinearity correction enabled: false
Boxcar width: 0
XAxis mode: Wavelengths
Number of Pixels in Spectrum: 2048
>>>>>Begin Spectral Data<<<<<
223.165	-19.31
223.4	-19.31
223.635	-19.31
223.869	-14.31
224.104	-12.31
224.338	-19.31
224.573	-21.31
224.808	-18.31
225.042	-11.31
225.277	3.69
225.511	-4.31
225.746	12.69
225.98	18.69
226.215	1.69
226.449	20.69
226.683	12.69
226.918	27.69
227.152	22.69
227.387	40.69
227.621	34.69
227.856	46.69
228.09	48.69
228.324	49.69
228.559	66.69
228.793	91.69
229.027	121.69
229.262	135.69
229.496	122.69
229.73	127.69
229.964	130.69
230.199	137.69
230.433	140.69
230.667	137.69
230.901	152.69
231.136	146.69
231.37	143.69
231.604	157.69
231.838	157.69
232.072	149.69
232.306	164.69
232.541	161.69
232.775	172.69
233.009	167.69
233.243	171.69
233.477	169.69
233.711	179.69
233.945	166.69
234.179	188.69
234.413	181.69
234.647	173.69
234.881	157.69
235.115	169.69
235.349	171.69
235.583	167.69
235.817	194.69
236.051	173.69
236.285	177.69
236.519	163.69
236.753	173.69
236.987	178.69
237.221	201.69
237.455	185.69
237.689	189.69
237.922	195.69
238.156	188.69
238.39	198.69
238.624	183.69
238.858	191.69
239.091	199.69
239.325	208.69
239.559	203.69
239.793	207.69
240.027	199.69
240.26	213.69
240.494	208.69
240.728	198.69
240.961	194.69
241.195	197.69
241.429	215.69
241.662	211.69
241.896	236.69
242.13	221.69
242.363	230.69
242.597	209.69
242.83	254.69
243.064	232.69
243.298	228.69
243.531	235.69
243.765	222.69
243.998	264.69
244.232	252.69
244.465	253.69
244.699	241.69
244.932	243.69
245.166	252.69
245.399	247.69
245.633	278.69
245.866	257.69
246.099	273.69
246.333	267.69
246.566	267.69
246.8	268.69
247.033	277.69
247.266	269.69
247.5	248.69
247.733	289.69
247.966	275.69
248.2	289.69
248.433	289.69
248.666	285.69
248.899	286.69
249.133	286.69
249.366	289.69
249.599	281.69
249.832	282.69
250.066	289.69
250.299	295.69
250.532	305.69
250.765	304.69
250.998	307.69
251.231	319.69
251.465	303.69
251.698	301.69
251.931	275.69
252.164	319.69
252.397	322.69
252.63	315.69
252.863	308.69
253.096	296.69
253.329	334.69
253.562	330.69
253.795	323.69
254.028	321.69
254.261	349.69
254.494	341.69
254.727	334.69
254.96	325.69
255.193	323.69
255.426	335.69
255.659	330.69
255.892	349.69
256.124	352.69
256.357	350.69
256.59	346.69
256.823	345.69
257.056	330.69
257.289	343.69
257.521	393.69
257.754	341.69
257.987	353.69
258.22	389.69
258.452	369.69
258.685	362.69
258.918	375.69
259.151	346.69
259.383	367.69
259.616	363.69
259.849	362.69
260.081	385.69
260.314	397.69
260.547	380.69
260.779	393.69
261.012	374.69
261.244	382.69
261.477	385.69
261.71	381.69
261.942	391.69
262.175	401.69
262.407	363.69
262.64	395.69
262.872	397.69
263.105	398.69
263.337	395.69
263.57	411.69
263.802	407.69
264.035	402.69
264.267	397.69
264.499	398.69
264.732	391.69
264.964	417.69
265.197	426.69
265.429	429.69
265.661	423.69
265.894	399.69
266.126	415.69
266.358	415.69
266.591	409.69
266.823	429.69
267.055	432.69
267.287	440.69
267.52	446.69
267.752	426.69
267.984	421.69
268.216	454.69
268.448	442.69
268.681	433.69
268.913	438.69
269.145	449.69
269.377	442.69
269.609	426.69
269.841	441.69
270.073	445.69
270.306	452.69
270.538	462.69
270.77	440.69
271.002	457.69
271.234	458.69
271.466	468.69
271.698	475.69
271.93	456.69
272.162	476.69
272.394	477.69
272.626	485.69
272.858	465.69
273.09	478.69
273.322	474.69
273.553	484.69
273.785	505.69
274.017	472.69
274.249	507.69
274.481	480.69
274.713	501.69
274.945	495.69
275.176	479.69
275.408	500.69
275.64	490.69
275.872	475.69
276.104	520.69
276.335	504.69
276.567	507.69
276.799	514.69
277.031	499.69
277.262	501.69
277.494	515.69
277.726	507.69
277.957	517.69
278.189	517.69
278.421	502.69
278.652	531.69
278.884	534.69
279.115	520.69
279.347	530.69
279.579	557.69
279.81	570.69
280.042	538.69
280.273	517.69
280.505	544.69
280.736	530.69
280.968	544.69
281.199	557.69
281.431	564.69
281.662	545.69
281.894	549.69
282.125	543.69
282.356	573.69
282.588	557.69
282.819	568.69
283.051	553.69
283.282	581.69
283.513	589.69
283.745	587.69
283.976	552.69
284.207	574.69
284.439	579.69
284.67	597.69
284.901	583.69
285.132	583.69
285.364	576.69
285.595	595.69
285.826	569.69
286.057	611.69
286.288	602.69
286.52	605.69
286.751	610.69
286.982	628.69
287.213	614.69
287.444	608.69
287.675	622.69
287.906	608.69
288.138	620.69
288.369	608.69
288.6	635.69
288.831	613.69
289.062	613.69
289.293	609.69
289.524	609.69
289.755	636.69
289.986	620.69
290.217	634.69
290.448	640.69
290.679	630.69
290.91	629.69
291.141	633.69
291.371	649.69
291.602	630.69
291.833	619.69
292.064	638.69
292.295	636.69
292.526	639.69
292.757	638.69
292.987	637.69
293.218	621.69
293.449	651.69
293.68	637.69
293.91	633.69
294.141	623.69
294.372	632.69
294.603	657.69
294.833	627.69
295.064	648.69
295.295	632.69
295.525	643.69
295.756	652.69
295.987	660.69
296.217	653.69
296.448	650.69
296.679	678.69
296.909	667.69
297.14	675.69
297.37	690.69
297.601	681.69
297.831	660.69
298.062	677.69
298.292	674.69
298.523	703.69
298.753	718.69
298.984	677.69
299.214	675.69
299.445	699.69
299.675	685.69
299.905	681.69
300.136	685.69
300.366	685.69
300.597	713.69
300.827	708.69
301.057	723.69
301.288	733.69
301.518	708.69
301.748	721.69
301.979	710.69
302.209	727.69
302.439	734.69
302.669	723.69
302.9	717.69
303.13	711.69
303.36	730.69
303.59	718.69
303.82	750.69
304.051	737.69
304.281	701.69
304.511	754.69
304.741	727.69
304.971	722.69
305.201	723.69
305.431	711.69
305.661	727.69
305.891	714.69
306.121	724.69
306.352	720.69
306.582	702.69
306.812	695.69
307.042	721.69
307.272	729.69
307.502	695.69
307.731	730.69
307.961	722.69
308.191	724.69
308.421	703.69
308.651	716.69
308.881	711.69
309.111	707.69
309.341	699.69
309.571	709.69
309.8	717.69
310.03	735.69
310.26	695.69
310.49	701.69
310.72	732.69
310.949	710.69
311.179	721.69
311.409	716.69
311.639	738.69
311.868	703.69
312.098	729.69
312.328	718.69
312.557	738.69
312.787	750.69
313.017	758.69
313.246	771.69
313.476	758.69
313.706	763.69
313.935	780.69
314.165	791.69
314.394	793.69
314.624	767.69
314.853	745.69
315.083	730.69
315.312	754.69
315.542	762.69
315.771	783.69
316.001	739.69
316.23	760.69
316.46	765.69
316.689	739.69
316.919	761.69
317.148	753.69
317.377	775.69
317.607	730.69
317.836	754.69
318.065	739.69
318.295	754.69
318.524	738.69
318.753	748.69
318.983	769.69
319.212	733.69
319.441	731.69
319.67	767.69
319.9	781.69
320.129	746.69
320.358	735.69
320.587	767.69
320.816	756.69
321.046	748.69
321.275	749.69
321.504	771.69
321.733	748.69
321.962	786.69
322.191	779.69
322.42	778.69
322.649	763.69
322.878	749.69
323.108	766.69
323.337	769.69
323.566	764.69
323.795	783.69
324.024	782.69
324.253	793.69
324.482	792.69
324.71	800.69
324.939	789.69
325.168	803.69
325.397	788.69
325.626	822.69
325.855	819.69
326.084	833.69
326.313	838.69
326.542	837.69
326.77	831.69
326.999	806.69
327.228	817.69
327.457	836.69
327.686	822.69
327.914	835.69
328.143	836.69
328.372	828.69
328.6	838.69
328.829	814.69
329.058	819.69
329.287	849.69
329.515	837.69
329.744	849.69
329.972	838.69
330.201	848.69
330.43	867.69
330.658	859.69
330.887	860.69
331.115	855.69
331.344	863.69
331.572	834.69
331.801	895.69
332.03	918.69
332.258	929.69
332.486	963.69
332.715	991.69
332.943	1030.69
333.172	1057.69
333.4	1102.69
333.629	1114.69
333.857	1122.69
334.085	1095.69
334.314	1090.69
334.542	1073.69
334.771	1073.69
334.999	1049.69
335.227	1045.69
335.455	1021.69
335.684	1034.69
335.912	992.69
336.14	1005.69
336.369	999.69
336.597	990.69
336.825	974.69
337.053	985.69
337.281	946.69
337.51	934.69
337.738	947.69
337.966	931.69
338.194	925.69
338.422	920.69
338.65	899.69
338.878	908.69
339.106	891.69
339.334	901.69
339.562	926.69
339.79	897.69
340.018	863.69
340.246	839.69
340.474	868.69
340.702	877.69
340.93	869.69
341.158	860.69
341.386	859.69
341.614	867.69
341.842	867.69
342.07	882.69
342.298	862.69
342.526	844.69
342.754	889.69
342.981	873.69
343.209	891.69
343.437	913.69
343.665	971.69
343.893	1055.69
344.12	1065.69
344.348	1022.69
344.576	973.69
344.804	935.69
345.031	896.69
345.259	890.69
345.487	873.69
345.714	872.69
345.942	848.69
346.17	845.69
346.397	865.69
346.625	802.69
346.853	841.69
347.08	828.69
347.308	841.69
347.535	826.69
347.763	822.69
347.99	848.69
348.218	830.69
348.445	837.69
348.673	841.69
348.9	809.69
349.128	827.69
349.355	825.69
349.583	830.69
349.81	801.69
350.037	830.69
350.265	821.69
350.492	792.69
350.72	804.69
350.947	801.69
351.174	799.69
351.402	803.69
351.629	812.69
351.856	797.69
352.083	805.69
352.311	800.69
352.538	812.69
352.765	829.69
352.992	808.69
353.22	783.69
353.447	798.69
353.674	764.69
353.901	798.69
354.128	805.69
354.355	791.69
354.583	775.69
354.81	788.69
355.037	808.69
355.264	794.69
355.491	795.69
355.718	782.69
355.945	822.69
356.172	827.69
356.399	827.69
356.626	802.69
356.853	791.69
357.08	818.69
357.307	799.69
357.534	805.69
357.761	795.69
357.988	801.69
358.215	821.69
358.441	798.69
358.668	819.69
358.895	803.69
359.122	788.69
359.349	814.69
359.576	802.69
359.802	817.69
360.029	795.69
360.256	805.69
360.483	837.69
360.709	821.69
360.936	780.69
361.163	804.69
361.39	791.69
361.616	808.69
361.843	777.69
362.07	828.69
362.296	811.69
362.523	813.69
362.749	813.69
362.976	793.69
363.203	799.69
363.429	790.69
363.656	810.69
363.882	788.69
364.109	794.69
364.335	793.69
364.562	813.69
364.788	781.69
365.015	809.69
365.241	823.69
365.468	803.69
365.694	825.69
365.92	786.69
366.147	815.69
366.373	782.69
366.599	810.69
366.826	759.69
367.052	807.69
367.278	790.69
367.505	797.69
367.731	805.69
367.957	805.69
368.184	818.69
368.41	817.69
368.636	821.69
368.862	828.69
369.089	826.69
369.315	821.69
369.541	830.69
369.767	843.69
369.993	841.69
370.219	859.69
370.445	844.69
370.672	835.69
370.898	845.69
371.124	861.69
371.35	885.69
371.576	893.69
371.802	891.69
372.028	873.69
372.254	862.69
372.48	897.69
372.706	891.69
372.932	928.69
373.158	915.69
373.384	898.69
373.61	881.69
373.835	859.69
374.061	872.69
374.287	885.69
374.513	909.69
374.739	950.69
374.965	931.69
375.191	989.69
375.416	956.69
375.642	935.69
375.868	924.69
376.094	897.69
376.319	909.69
376.545	864.69
376.771	893.69
376.997	859.69
377.222	893.69
377.448	846.69
377.674	861.69
377.899	875.69
378.125	859.69
378.35	843.69
378.576	878.69
378.802	875.69
379.027	829.69
379.253	833.69
379.478	864.69
379.704	871.69
379.929	850.69
380.155	862.69
380.38	858.69
380.606	862.69
380.831	851.69
381.057	842.69
381.282	882.69
381.507	852.69
381.733	873.69
381.958	894.69
382.184	876.69
382.409	908.69
382.634	959.69
382.86	912.69
383.085	901.69
383.31	906.69
383.535	954.69
383.761	986.69
383.986	979.69
384.211	971.69
384.436	1018.69
384.662	1032.69
384.887	1012.69
385.112	1050.69
385.337	1068.69
385.562	1039.69
385.787	1044.69
386.013	1052.69
386.238	1052.69
386.463	1051.69
386.688	1083.69
386.913	1028.69
387.138	1000.69
387.363	1021.69
387.588	1029.69
387.813	1033.69
388.038	1029.69
388.263	1042.69
388.488	1057.69
388.713	1057.69
388.938	1007.69
389.163	1004.69
389.387	1013.69
389.612	1005.69
389.837	1005.69
390.062	1019.69
390.287	1029.69
390.512	1029.69
390.736	1056.69
390.961	1075.69
391.186	1078.69
391.411	1065.69
391.636	1111.69
391.86	1167.69
392.085	1214.69
392.31	1173.69
392.534	1143.69
392.759	1146.69
392.984	1105.69
393.208	1103.69
393.433	1099.69
393.658	1141.69
393.882	1119.69
394.107	1093.69
394.331	1118.69
394.556	1146.69
394.78	1137.69
395.005	1115.69
395.229	1134.69
395.454	1154.69
395.678	1166.69
395.903	1164.69
396.127	1179.69
396.352	1139.69
396.576	1118.69
396.801	1110.69
397.025	1124.69
397.249	1166.69
397.474	1164.69
397.698	1195.69
397.922	1190.69
398.147	1162.69
398.371	1201.69
398.595	1241.69
398.82	1303.69
399.044	1383.69
399.268	1542.69
399.492	1737.69
399.717	2041.69
399.941	1999.69
400.165	1741.69
400.389	1527.69
400.613	1437.69
400.837	1359.69
401.062	1321.69
401.286	1324.69
401.51	1311.69
401.734	1313.69
401.958	1314.69
402.182	1335.69
402.406	1372.69
402.63	1373.69
402.854	1360.69
403.078	1427.69
403.302	1447.69
403.526	1460.69
403.75	1489.69
403.974	1533.69
404.198	1506.69
404.422	1510.69
404.645	1499.69
404.869	1504.69
405.093	1487.69
405.317	1455.69
405.541	1436.69
405.765	1417.69
405.988	1402.69
406.212	1402.69
406.436	1424.69
406.66	1464.69
406.883	1487.69
407.107	1567.69
407.331	1659.69
407.555	1744.69
407.778	1665.69
408.002	1625.69
408.226	1559.69
408.449	1550.69
408.673	1513.69
408.896	1467.69
409.12	1443.69
409.344	1486.69
409.567	1427.69
409.791	1459.69
410.014	1453.69
410.238	1449.69
410.461	1444.69
410.685	1410.69
410.908	1398.69
411.132	1403.69
411.355	1353.69
411.578	1349.69
411.802	1359.69
412.025	1355.69
412.249	1404.69
412.472	1355.69
412.695	1339.69
412.919	1317.69
413.142	1312.69
413.365	1298.69
413.589	1321.69
413.812	1263.69
414.035	1289.69
414.258	1268.69
414.482	1342.69
414.705	1320.69
414.928	1303.69
415.151	1315.69
415.374	1322.69
415.597	1291.69
415.821	1275.69
416.044	1251.69
416.267	1234.69
416.49	1256.69
416.713	1281.69
416.936	1315.69
417.159	1261.69
417.382	1265.69
417.605	1268.69
417.828	1278.69
418.051	1289.69
418.274	1292.69
418.497	1296.69
418.72	1332.69
418.943	1327.69
419.166	1416.69
419.389	1466.69
419.611	1454.69
419.834	1375.69
420.057	1344.69
420.28	1330.69
420.503	1277.69
420.726	1279.69
420.948	1266.69
421.171	1249.69
421.394	1287.69
421.617	1269.69
421.839	1303.69
422.062	1287.69
422.285	1281.69
422.507	1304.69
422.73	1318.69
422.953	1339.69
423.175	1374.69
423.398	1363.69
423.621	1353.69
423.843	1393.69
424.066	1386.69
424.288	1363.69
424.511	1318.69
424.733	1316.69
424.956	1295.69
425.178	1295.69
425.401	1284.69
425.623	1251.69
425.846	1253.69
426.068	1231.69
426.291	1231.69
426.513	1223.69
426.735	1206.69
426.958	1177.69
427.18	1177.69
427.402	1191.69
427.625	1169.69
427.847	1118.69
428.069	1142.69
428.292	1137.69
428.514	1153.69
428.736	1154.69
428.958	1167.69
429.181	1115.69
429.403	1099.69
429.625	1089.69
429.847	1118.69
430.069	1115.69
430.292	1134.69
430.514	1080.69
430.736	1091.69
430.958	1090.69
431.18	1110.69
431.402	1118.69
431.624	1118.69
431.846	1148.69
432.068	1158.69
432.29	1157.69
432.512	1115.69
432.734	1161.69
432.956	1132.69
433.178	1133.69
433.4	1134.69
433.622	1166.69
433.844	1162.69
434.066	1158.69
434.287	1160.69
434.509	1187.69
434.731	1242.69
434.953	1294.69
435.175	1271.69
435.397	1238.69
435.618	1207.69
435.84	1203.69
436.062	1161.69
436.284	1131.69
436.505	1131.69
436.727	1139.69
436.949	1164.69
437.17	1121.69
437.392	1120.69
437.614	1093.69
437.835	1099.69
438.057	1091.69
438.278	1037.69
438.5	1086.69
438.721	1116.69
438.943	1085.69
439.165	1111.69
439.386	1114.69
439.608	1116.69
439.829	1143.69
440.05	1137.69
440.272	1150.69
440.493	1149.69
440.715	1167.69
440.936	1166.69
441.158	1213.69
441.379	1223.69
441.6	1293.69
441.822	1273.69
442.043	1294.69
442.264	1279.69
442.486	1229.69
442.707	1258.69
442.928	1217.69
443.149	1221.69
443.371	1244.69
443.592	1257.69
443.813	1275.69
444.034	1287.69
444.255	1325.69
444.476	1377.69
444.698	1465.69
444.919	1529.69
445.14	1571.69
445.361	1377.69
445.582	1304.69
445.803	1232.69
446.024	1195.69
446.245	1235.69
446.466	1187.69
446.687	1145.69
446.908	1098.69
447.129	1116.69
447.35	1100.69
447.571	1089.69
447.792	1060.69
448.013	1083.69
448.234	1049.69
448.455	1061.69
448.675	1046.69
448.896	1023.69
449.117	1017.69
449.338	1016.69
449.559	1001.69
449.779	1054.69
450	1013.69
450.221	1017.69
450.442	1037.69
450.662	1066.69
450.883	1047.69
451.104	1063.69
451.324	1051.69
451.545	1046.69
451.766	1016.69
451.986	1037.69
452.207	1029.69
452.428	1042.69
452.648	1028.69
452.869	998.69
453.089	982.69
453.31	1013.69
453.53	1005.69
453.751	1015.69
453.971	1002.69
454.192	1004.69
454.412	959.69
454.633	957.69
454.853	998.69
455.073	951.69
455.294	979.69
455.514	969.69
455.734	978.69
455.955	941.69
456.175	942.69
456.395	953.69
456.616	962.69
456.836	952.69
457.056	960.69
457.276	941.69
457.497	1002.69
457.717	948.69
457.937	952.69
458.157	974.69
458.377	1005.69
458.598	981.69
458.818	1047.69
459.038	1084.69
459.258	1096.69
459.478	1129.69
459.698	1174.69
459.918	1203.69
460.138	1224.69
460.358	1312.69
460.578	1311.69
460.798	1343.69
461.018	1351.69
461.238	1322.69
461.458	1309.69
461.678	1316.69
461.898	1340.69
462.118	1344.69
462.338	1413.69
462.558	1400.69
462.777	1504.69
462.997	1648.69
463.217	1750.69
463.437	1773.69
463.657	1595.69
463.876	1509.69
464.096	1547.69
464.316	1561.69
464.536	1526.69
464.755	1467.69
464.975	1451.69
465.195	1383.69
465.414	1283.69
465.634	1209.69
465.854	1193.69
466.073	1161.69
466.293	1115.69
466.512	1113.69
466.732	1095.69
466.951	1081.69
467.171	1084.69
467.391	1070.69
467.61	1065.69
467.829	1082.69
468.049	1087.69
468.268	1052.69
468.488	1052.69
468.707	1017.69
468.927	996.69
469.146	1011.69
469.365	1028.69
469.585	1088.69
469.804	1075.69
470.023	1131.69
470.243	1101.69
470.462	1112.69
470.681	1099.69
470.901	1132.69
471.12	1105.69
471.339	1105.69
471.558	1080.69
471.777	1049.69
471.997	1053.69
472.216	1066.69
472.435	1047.69
472.654	1000.69
472.873	989.69
473.092	1010.69
473.311	1007.69
473.53	1021.69
473.749	972.69
473.968	1014.69
474.187	997.69
474.406	1000.69
474.625	1011.69
474.844	993.69
475.063	999.69
475.282	1053.69
475.501	1021.69
475.72	1033.69
475.939	1029.69
476.158	1047.69
476.377	1057.69
476.596	1067.69
476.814	1064.69
477.033	1088.69
477.252	1112.69
477.471	1111.69
477.69	1146.69
477.908	1153.69
478.127	1191.69
478.346	1195.69
478.564	1229.69
478.783	1221.69
479.002	1288.69
479.22	1305.69
479.439	1251.69
479.658	1244.69
479.876	1253.69
480.095	1296.69
480.313	1342.69
480.532	1366.69
480.751	1382.69
480.969	1291.69
481.188	1229.69
481.406	1226.69
481.624	1177.69
481.843	1185.69
482.061	1181.69
482.28	1129.69
482.498	1147.69
482.717	1147.69
482.935	1155.69
483.153	1150.69
483.372	1147.69
483.59	1154.69
483.808	1145.69
484.027	1182.69
484.245	1204.69
484.463	1185.69
484.681	1204.69
484.9	1207.69
485.118	1206.69
485.336	1217.69
485.554	1237.69
485.772	1239.69
485.99	1226.69
486.209	1239.69
486.427	1230.69
486.645	1226.69
486.863	1203.69
487.081	1225.69
487.299	1201.69
487.517	1195.69
487.735	1217.69
487.953	1207.69
488.171	1223.69
488.389	1224.69
488.607	1245.69
488.825	1200.69
489.043	1194.69
489.261	1170.69
489.479	1182.69
489.696	1216.69
489.914	1238.69
490.132	1203.69
490.35	1191.69
490.568	1203.69
490.786	1199.69
491.003	1201.69
491.221	1230.69
491.439	1198.69
491.657	1207.69
491.874	1204.69
492.092	1207.69
492.31	1217.69
492.527	1234.69
492.745	1209.69
492.963	1246.69
493.18	1225.69
493.398	1233.69
493.615	1251.69
493.833	1232.69
494.05	1263.69
494.268	1277.69
494.485	1272.69
494.703	1266.69
494.92	1270.69
