Data from NiCl2@0.5M.TitratingCurve.Agarose3%dH2O.NegLispCup.LampEnergy10.LIBS07252019_HRD10591_18-21-41-571.txt Node
Date: Thu Jul 25 18:21:41 EDT 2019
User: cochatt
Spectrometer: HR+D1059
Trigger mode: 1
Integration Time (sec): 1.000000E-1
Scans to average: 1
Electric dark correction enabled: true
Nonlinearity correction enabled: false
Boxcar width: 0
XAxis mode: Wavelengths
Number of Pixels in Spectrum: 2048
>>>>>Begin Spectral Data<<<<<
223.165	-20.81
223.4	-20.81
223.635	-20.81
223.869	-16.81
224.104	-22.81
224.338	-8.81
224.573	-4.81
224.808	-10.81
225.042	6.19
225.277	-8.81
225.511	-15.81
225.746	-1.81
225.98	3.19
226.215	8.19
226.449	15.19
226.683	29.19
226.918	23.19
227.152	26.19
227.387	38.19
227.621	30.19
227.856	37.19
228.09	43.19
228.324	51.19
228.559	52.19
228.793	74.19
229.027	121.19
229.262	131.19
229.496	147.19
229.73	141.19
229.964	146.19
230.199	154.19
230.433	174.19
230.667	143.19
230.901	158.19
231.136	155.19
231.37	151.19
231.604	183.19
231.838	172.19
232.072	199.19
232.306	167.19
232.541	182.19
232.775	185.19
233.009	181.19
233.243	172.19
233.477	170.19
233.711	180.19
233.945	181.19
234.179	172.19
234.413	163.19
234.647	177.19
234.881	180.19
235.115	174.19
235.349	182.19
235.583	176.19
235.817	180.19
236.051	190.19
236.285	178.19
236.519	176.19
236.753	191.19
236.987	182.19
237.221	182.19
237.455	171.19
237.689	183.19
237.922	181.19
238.156	191.19
238.39	190.19
238.624	188.19
238.858	201.19
239.091	188.19
239.325	198.19
239.559	197.19
239.793	204.19
240.027	215.19
240.26	222.19
240.494	226.19
240.728	221.19
240.961	226.19
241.195	222.19
241.429	218.19
241.662	212.19
241.896	227.19
242.13	230.19
242.363	245.19
242.597	227.19
242.83	235.19
243.064	239.19
243.298	234.19
243.531	238.19
243.765	248.19
243.998	256.19
244.232	244.19
244.465	248.19
244.699	246.19
244.932	251.19
245.166	261.19
245.399	242.19
245.633	278.19
245.866	253.19
246.099	251.19
246.333	250.19
246.566	256.19
246.8	268.19
247.033	270.19
247.266	262.19
247.5	246.19
247.733	287.19
247.966	289.19
248.2	288.19
248.433	282.19
248.666	289.19
248.899	280.19
249.133	272.19
249.366	297.19
249.599	295.19
249.832	304.19
250.066	290.19
250.299	318.19
250.532	315.19
250.765	292.19
250.998	315.19
251.231	315.19
251.465	335.19
251.698	314.19
251.931	311.19
252.164	327.19
252.397	322.19
252.63	334.19
252.863	322.19
253.096	331.19
253.329	335.19
253.562	356.19
253.795	327.19
254.028	326.19
254.261	340.19
254.494	344.19
254.727	343.19
254.96	335.19
255.193	340.19
255.426	348.19
255.659	355.19
255.892	370.19
256.124	358.19
256.357	365.19
256.59	355.19
256.823	368.19
257.056	361.19
257.289	357.19
257.521	347.19
257.754	369.19
257.987	356.19
258.22	370.19
258.452	346.19
258.685	362.19
258.918	374.19
259.151	388.19
259.383	392.19
259.616	389.19
259.849	390.19
260.081	400.19
260.314	371.19
260.547	414.19
260.779	392.19
261.012	385.19
261.244	377.19
261.477	394.19
261.71	413.19
261.942	393.19
262.175	391.19
262.407	413.19
262.64	412.19
262.872	404.19
263.105	408.19
263.337	413.19
263.57	409.19
263.802	416.19
264.035	418.19
264.267	420.19
264.499	431.19
264.732	427.19
264.964	419.19
265.197	433.19
265.429	428.19
265.661	422.19
265.894	420.19
266.126	455.19
266.358	434.19
266.591	441.19
266.823	446.19
267.055	450.19
267.287	434.19
267.52	430.19
267.752	466.19
267.984	459.19
268.216	451.19
268.448	469.19
268.681	456.19
268.913	443.19
269.145	460.19
269.377	451.19
269.609	443.19
269.841	469.19
270.073	454.19
270.306	467.19
270.538	471.19
270.77	461.19
271.002	456.19
271.234	488.19
271.466	477.19
271.698	470.19
271.93	478.19
272.162	486.19
272.394	473.19
272.626	500.19
272.858	485.19
273.09	491.19
273.322	515.19
273.553	487.19
273.785	490.19
274.017	509.19
274.249	523.19
274.481	512.19
274.713	505.19
274.945	498.19
275.176	494.19
275.408	508.19
275.64	519.19
275.872	528.19
276.104	536.19
276.335	510.19
276.567	534.19
276.799	543.19
277.031	546.19
277.262	532.19
277.494	525.19
277.726	540.19
277.957	537.19
278.189	545.19
278.421	523.19
278.652	542.19
278.884	562.19
279.115	558.19
279.347	551.19
279.579	544.19
279.81	572.19
280.042	571.19
280.273	549.19
280.505	568.19
280.736	563.19
280.968	563.19
281.199	576.19
281.431	578.19
281.662	582.19
281.894	576.19
282.125	568.19
282.356	597.19
282.588	595.19
282.819	602.19
283.051	608.19
283.282	606.19
283.513	585.19
283.745	592.19
283.976	611.19
284.207	591.19
284.439	598.19
284.67	611.19
284.901	616.19
285.132	610.19
285.364	635.19
285.595	629.19
285.826	612.19
286.057	611.19
286.288	661.19
286.52	636.19
286.751	640.19
286.982	614.19
287.213	614.19
287.444	644.19
287.675	623.19
287.906	633.19
288.138	641.19
288.369	610.19
288.6	625.19
288.831	669.19
289.062	642.19
289.293	628.19
289.524	653.19
289.755	649.19
289.986	642.19
290.217	649.19
290.448	640.19
290.679	650.19
290.91	648.19
291.141	638.19
291.371	640.19
291.602	669.19
291.833	646.19
292.064	656.19
292.295	666.19
292.526	653.19
292.757	658.19
292.987	664.19
293.218	655.19
293.449	674.19
293.68	680.19
293.91	673.19
294.141	659.19
294.372	655.19
294.603	680.19
294.833	666.19
295.064	668.19
295.295	683.19
295.525	659.19
295.756	678.19
295.987	652.19
296.217	666.19
296.448	682.19
296.679	663.19
296.909	676.19
297.14	699.19
297.37	705.19
297.601	708.19
297.831	707.19
298.062	702.19
298.292	693.19
298.523	726.19
298.753	740.19
298.984	719.19
299.214	726.19
299.445	729.19
299.675	716.19
299.905	736.19
300.136	735.19
300.366	738.19
300.597	752.19
300.827	737.19
301.057	732.19
301.288	788.19
301.518	766.19
301.748	753.19
301.979	768.19
302.209	773.19
302.439	744.19
302.669	731.19
302.9	761.19
303.13	738.19
303.36	748.19
303.59	790.19
303.82	766.19
304.051	788.19
304.281	776.19
304.511	743.19
304.741	762.19
304.971	768.19
305.201	785.19
305.431	793.19
305.661	755.19
305.891	747.19
306.121	750.19
306.352	769.19
306.582	753.19
306.812	744.19
307.042	777.19
307.272	740.19
307.502	750.19
307.731	758.19
307.961	750.19
308.191	771.19
308.421	744.19
308.651	755.19
308.881	757.19
309.111	750.19
309.341	716.19
309.571	741.19
309.8	758.19
310.03	760.19
310.26	796.19
310.49	780.19
310.72	738.19
310.949	732.19
311.179	777.19
311.409	743.19
311.639	753.19
311.868	752.19
312.098	779.19
312.328	776.19
312.557	790.19
312.787	771.19
313.017	792.19
313.246	805.19
313.476	812.19
313.706	822.19
313.935	780.19
314.165	810.19
314.394	791.19
314.624	821.19
314.853	789.19
315.083	802.19
315.312	809.19
315.542	809.19
315.771	823.19
316.001	808.19
316.23	783.19
316.46	798.19
316.689	805.19
316.919	795.19
317.148	803.19
317.377	792.19
317.607	779.19
317.836	786.19
318.065	778.19
318.295	800.19
318.524	795.19
318.753	785.19
318.983	791.19
319.212	787.19
319.441	825.19
319.67	786.19
319.9	800.19
320.129	784.19
320.358	803.19
320.587	799.19
320.816	807.19
321.046	791.19
321.275	807.19
321.504	807.19
321.733	822.19
321.962	831.19
322.191	818.19
322.42	801.19
322.649	822.19
322.878	834.19
323.108	795.19
323.337	835.19
323.566	834.19
323.795	825.19
324.024	827.19
324.253	812.19
324.482	848.19
324.71	824.19
324.939	820.19
325.168	836.19
325.397	833.19
325.626	843.19
325.855	870.19
326.084	866.19
326.313	886.19
326.542	900.19
326.77	886.19
326.999	852.19
327.228	835.19
327.457	863.19
327.686	853.19
327.914	871.19
328.143	880.19
328.372	857.19
328.6	856.19
328.829	862.19
329.058	854.19
329.287	868.19
329.515	863.19
329.744	887.19
329.972	870.19
330.201	910.19
330.43	905.19
330.658	896.19
330.887	902.19
331.115	878.19
331.344	913.19
331.572	936.19
331.801	947.19
332.03	942.19
332.258	955.19
332.486	1014.19
332.715	1013.19
332.943	1002.19
333.172	1055.19
333.4	1074.19
333.629	1086.19
333.857	1123.19
334.085	1131.19
334.314	1137.19
334.542	1102.19
334.771	1096.19
334.999	1055.19
335.227	1082.19
335.455	1086.19
335.684	1088.19
335.912	1058.19
336.14	1082.19
336.369	1036.19
336.597	1062.19
336.825	1066.19
337.053	1066.19
337.281	1060.19
337.51	1040.19
337.738	1026.19
337.966	1023.19
338.194	1010.19
338.422	996.19
338.65	953.19
338.878	950.19
339.106	954.19
339.334	958.19
339.562	975.19
339.79	957.19
340.018	918.19
340.246	935.19
340.474	926.19
340.702	906.19
340.93	954.19
341.158	941.19
341.386	937.19
341.614	986.19
341.842	947.19
342.07	894.19
342.298	923.19
342.526	918.19
342.754	902.19
342.981	907.19
343.209	925.19
343.437	982.19
343.665	1029.19
343.893	1076.19
344.12	1090.19
344.348	1035.19
344.576	993.19
344.804	1035.19
345.031	962.19
345.259	955.19
345.487	930.19
345.714	938.19
345.942	959.19
346.17	939.19
346.397	958.19
346.625	900.19
346.853	898.19
347.08	877.19
347.308	896.19
347.535	912.19
347.763	878.19
347.99	903.19
348.218	892.19
348.445	883.19
348.673	880.19
348.9	868.19
349.128	872.19
349.355	902.19
349.583	916.19
349.81	891.19
350.037	854.19
350.265	828.19
350.492	858.19
350.72	840.19
350.947	849.19
351.174	884.19
351.402	885.19
351.629	884.19
351.856	897.19
352.083	844.19
352.311	867.19
352.538	889.19
352.765	886.19
352.992	852.19
353.22	838.19
353.447	797.19
353.674	841.19
353.901	816.19
354.128	820.19
354.355	840.19
354.583	806.19
354.81	807.19
355.037	853.19
355.264	893.19
355.491	819.19
355.718	826.19
355.945	835.19
356.172	835.19
356.399	840.19
356.626	860.19
356.853	880.19
357.08	835.19
357.307	854.19
357.534	842.19
357.761	855.19
357.988	861.19
358.215	848.19
358.441	818.19
358.668	818.19
358.895	812.19
359.122	811.19
359.349	835.19
359.576	820.19
359.802	838.19
360.029	854.19
360.256	855.19
360.483	843.19
360.709	854.19
360.936	869.19
361.163	824.19
361.39	832.19
361.616	832.19
361.843	875.19
362.07	867.19
362.296	871.19
362.523	851.19
362.749	827.19
362.976	827.19
363.203	831.19
363.429	810.19
363.656	831.19
363.882	824.19
364.109	826.19
364.335	811.19
364.562	826.19
364.788	793.19
365.015	842.19
365.241	865.19
365.468	848.19
365.694	819.19
365.92	832.19
366.147	834.19
366.373	827.19
366.599	798.19
366.826	817.19
367.052	804.19
367.278	828.19
367.505	856.19
367.731	834.19
367.957	831.19
368.184	839.19
368.41	828.19
368.636	826.19
368.862	840.19
369.089	856.19
369.315	831.19
369.541	858.19
369.767	862.19
369.993	849.19
370.219	872.19
370.445	887.19
370.672	860.19
370.898	880.19
371.124	875.19
371.35	884.19
371.576	907.19
371.802	890.19
372.028	885.19
372.254	903.19
372.48	899.19
372.706	918.19
372.932	910.19
373.158	914.19
373.384	901.19
373.61	903.19
373.835	900.19
374.061	935.19
374.287	919.19
374.513	902.19
374.739	934.19
374.965	969.19
375.191	946.19
375.416	973.19
375.642	930.19
375.868	923.19
376.094	921.19
376.319	919.19
376.545	897.19
376.771	898.19
376.997	889.19
377.222	890.19
377.448	905.19
377.674	915.19
377.899	891.19
378.125	869.19
378.35	873.19
378.576	866.19
378.802	886.19
379.027	880.19
379.253	871.19
379.478	853.19
379.704	884.19
379.929	866.19
380.155	855.19
380.38	857.19
380.606	890.19
380.831	876.19
381.057	892.19
381.282	886.19
381.507	884.19
381.733	891.19
381.958	894.19
382.184	900.19
382.409	921.19
382.634	904.19
382.86	934.19
383.085	918.19
383.31	954.19
383.535	916.19
383.761	960.19
383.986	981.19
384.211	987.19
384.436	982.19
384.662	996.19
384.887	1028.19
385.112	1001.19
385.337	1052.19
385.562	997.19
385.787	1064.19
386.013	1081.19
386.238	1067.19
386.463	1040.19
386.688	1086.19
386.913	1030.19
387.138	1020.19
387.363	1017.19
387.588	1042.19
387.813	1046.19
388.038	1042.19
388.263	1033.19
388.488	1082.19
388.713	1055.19
388.938	1074.19
389.163	1070.19
389.387	1058.19
389.612	1016.19
389.837	1028.19
390.062	1047.19
390.287	1054.19
390.512	1031.19
390.736	1067.19
390.961	1058.19
391.186	1078.19
391.411	1106.19
391.636	1098.19
391.86	1145.19
392.085	1174.19
392.31	1155.19
392.534	1146.19
392.759	1153.19
392.984	1135.19
393.208	1120.19
393.433	1147.19
393.658	1108.19
393.882	1142.19
394.107	1131.19
394.331	1150.19
394.556	1146.19
394.78	1139.19
395.005	1140.19
395.229	1159.19
395.454	1153.19
395.678	1180.19
395.903	1163.19
396.127	1200.19
396.352	1150.19
396.576	1126.19
396.801	1134.19
397.025	1160.19
397.249	1182.19
397.474	1193.19
397.698	1205.19
397.922	1210.19
398.147	1210.19
398.371	1235.19
398.595	1254.19
398.82	1309.19
399.044	1394.19
399.268	1504.19
399.492	1679.19
399.717	1802.19
399.941	1823.19
400.165	1745.19
400.389	1573.19
400.613	1477.19
400.837	1419.19
401.062	1370.19
401.286	1374.19
401.51	1345.19
401.734	1300.19
401.958	1343.19
402.182	1369.19
402.406	1351.19
402.63	1331.19
402.854	1365.19
403.078	1404.19
403.302	1405.19
403.526	1414.19
403.75	1400.19
403.974	1416.19
404.198	1457.19
404.422	1448.19
404.645	1456.19
404.869	1449.19
405.093	1462.19
405.317	1421.19
405.541	1428.19
405.765	1431.19
405.988	1438.19
406.212	1380.19
406.436	1448.19
406.66	1472.19
406.883	1481.19
407.107	1562.19
407.331	1612.19
407.555	1698.19
407.778	1647.19
408.002	1620.19
408.226	1595.19
408.449	1594.19
408.673	1527.19
408.896	1488.19
409.12	1469.19
409.344	1533.19
409.567	1475.19
409.791	1485.19
410.014	1473.19
410.238	1439.19
410.461	1475.19
410.685	1456.19
410.908	1421.19
411.132	1426.19
411.355	1370.19
411.578	1392.19
411.802	1408.19
412.025	1393.19
412.249	1396.19
412.472	1410.19
412.695	1360.19
412.919	1345.19
413.142	1362.19
413.365	1351.19
413.589	1319.19
413.812	1326.19
414.035	1315.19
414.258	1350.19
414.482	1363.19
414.705	1347.19
414.928	1344.19
415.151	1351.19
415.374	1339.19
415.597	1326.19
415.821	1328.19
416.044	1271.19
416.267	1304.19
416.49	1315.19
416.713	1312.19
416.936	1302.19
417.159	1299.19
417.382	1292.19
417.605	1297.19
417.828	1307.19
418.051	1302.19
418.274	1289.19
418.497	1298.19
418.72	1311.19
418.943	1300.19
419.166	1403.19
419.389	1482.19
419.611	1486.19
419.834	1414.19
420.057	1374.19
420.28	1331.19
420.503	1285.19
420.726	1284.19
420.948	1269.19
421.171	1302.19
421.394	1295.19
421.617	1276.19
421.839	1278.19
422.062	1314.19
422.285	1303.19
422.507	1306.19
422.73	1298.19
422.953	1281.19
423.175	1326.19
423.398	1345.19
423.621	1316.19
423.843	1361.19
424.066	1344.19
424.288	1339.19
424.511	1342.19
424.733	1321.19
424.956	1332.19
425.178	1338.19
425.401	1296.19
425.623	1283.19
425.846	1259.19
426.068	1270.19
426.291	1255.19
426.513	1276.19
426.735	1218.19
426.958	1257.19
427.18	1234.19
427.402	1216.19
427.625	1222.19
427.847	1195.19
428.069	1194.19
428.292	1200.19
428.514	1176.19
428.736	1184.19
428.958	1200.19
429.181	1186.19
429.403	1198.19
429.625	1182.19
429.847	1146.19
430.069	1139.19
430.292	1188.19
430.514	1171.19
430.736	1163.19
430.958	1198.19
431.18	1188.19
431.402	1196.19
431.624	1183.19
431.846	1200.19
432.068	1206.19
432.29	1201.19
432.512	1162.19
432.734	1189.19
432.956	1205.19
433.178	1204.19
433.4	1220.19
433.622	1209.19
433.844	1250.19
434.066	1212.19
434.287	1218.19
434.509	1285.19
434.731	1290.19
434.953	1305.19
435.175	1317.19
435.397	1317.19
435.618	1259.19
435.84	1242.19
436.062	1190.19
436.284	1200.19
436.505	1190.19
436.727	1220.19
436.949	1198.19
437.17	1192.19
437.392	1176.19
437.614	1163.19
437.835	1160.19
438.057	1157.19
438.278	1128.19
438.5	1141.19
438.721	1139.19
438.943	1139.19
439.165	1144.19
439.386	1145.19
439.608	1218.19
439.829	1173.19
440.05	1181.19
440.272	1199.19
440.493	1177.19
440.715	1211.19
440.936	1223.19
441.158	1248.19
441.379	1248.19
441.6	1278.19
441.822	1282.19
442.043	1321.19
442.264	1309.19
442.486	1255.19
442.707	1296.19
442.928	1311.19
443.149	1296.19
443.371	1255.19
443.592	1352.19
443.813	1339.19
444.034	1312.19
444.255	1376.19
444.476	1405.19
444.698	1465.19
444.919	1488.19
445.14	1573.19
445.361	1464.19
445.582	1374.19
445.803	1312.19
446.024	1257.19
446.245	1261.19
446.466	1206.19
446.687	1190.19
446.908	1203.19
447.129	1156.19
447.35	1190.19
447.571	1171.19
447.792	1123.19
448.013	1123.19
448.234	1128.19
448.455	1106.19
448.675	1121.19
448.896	1115.19
449.117	1116.19
449.338	1102.19
449.559	1103.19
449.779	1103.19
450	1077.19
450.221	1098.19
450.442	1107.19
450.662	1133.19
450.883	1106.19
451.104	1145.19
451.324	1123.19
451.545	1086.19
451.766	1128.19
451.986	1094.19
452.207	1096.19
452.428	1077.19
452.648	1089.19
452.869	1072.19
453.089	1044.19
453.31	1078.19
453.53	1063.19
453.751	1058.19
453.971	1071.19
454.192	1080.19
454.412	1062.19
454.633	1028.19
454.853	1056.19
455.073	1030.19
455.294	1022.19
455.514	1053.19
455.734	1046.19
455.955	1035.19
456.175	1046.19
456.395	1040.19
456.616	1023.19
456.836	1043.19
457.056	1041.19
457.276	1015.19
457.497	1051.19
457.717	1040.19
457.937	1024.19
458.157	1056.19
458.377	1080.19
458.598	1124.19
458.818	1106.19
459.038	1162.19
459.258	1155.19
459.478	1224.19
459.698	1268.19
459.918	1307.19
460.138	1284.19
460.358	1332.19
460.578	1357.19
460.798	1396.19
461.018	1424.19
461.238	1354.19
461.458	1364.19
461.678	1404.19
461.898	1407.19
462.118	1436.19
462.338	1438.19
462.558	1531.19
462.777	1581.19
462.997	1655.19
463.217	1744.19
463.437	1794.19
463.657	1712.19
463.876	1652.19
464.096	1637.19
464.316	1589.19
464.536	1571.19
464.755	1544.19
464.975	1476.19
465.195	1470.19
465.414	1392.19
465.634	1272.19
465.854	1258.19
466.073	1218.19
466.293	1194.19
466.512	1183.19
466.732	1152.19
466.951	1159.19
467.171	1207.19
467.391	1186.19
467.61	1147.19
467.829	1085.19
468.049	1110.19
468.268	1130.19
468.488	1096.19
468.707	1114.19
468.927	1092.19
469.146	1084.19
469.365	1158.19
469.585	1113.19
469.804	1138.19
470.023	1152.19
470.243	1173.19
470.462	1184.19
470.681	1178.19
470.901	1182.19
471.12	1185.19
471.339	1147.19
471.558	1141.19
471.777	1136.19
471.997	1134.19
472.216	1109.19
472.435	1115.19
472.654	1099.19
472.873	1107.19
473.092	1112.19
473.311	1081.19
473.53	1116.19
473.749	1088.19
473.968	1094.19
474.187	1090.19
474.406	1094.19
474.625	1102.19
474.844	1066.19
475.063	1136.19
475.282	1104.19
475.501	1142.19
475.72	1104.19
475.939	1115.19
476.158	1116.19
476.377	1153.19
476.596	1165.19
476.814	1142.19
477.033	1179.19
477.252	1193.19
477.471	1202.19
477.69	1209.19
477.908	1259.19
478.127	1291.19
478.346	1278.19
478.564	1332.19
478.783	1339.19
479.002	1390.19
479.22	1394.19
479.439	1363.19
479.658	1370.19
479.876	1342.19
480.095	1372.19
480.313	1394.19
480.532	1410.19
480.751	1409.19
480.969	1344.19
481.188	1365.19
481.406	1354.19
481.624	1296.19
481.843	1270.19
482.061	1250.19
482.28	1278.19
482.498	1256.19
482.717	1256.19
482.935	1276.19
483.153	1308.19
483.372	1290.19
483.59	1314.19
483.808	1263.19
484.027	1292.19
484.245	1301.19
484.463	1298.19
484.681	1332.19
484.9	1334.19
485.118	1332.19
485.336	1353.19
485.554	1364.19
485.772	1380.19
485.99	1343.19
486.209	1373.19
486.427	1334.19
486.645	1346.19
486.863	1339.19
487.081	1333.19
487.299	1312.19
487.517	1338.19
487.735	1384.19
487.953	1377.19
488.171	1370.19
488.389	1347.19
488.607	1307.19
488.825	1319.19
489.043	1314.19
489.261	1317.19
489.479	1309.19
489.696	1335.19
489.914	1356.19
490.132	1314.19
490.35	1336.19
490.568	1323.19
490.786	1346.19
491.003	1391.19
491.221	1358.19
491.439	1346.19
491.657	1334.19
491.874	1366.19
492.092	1374.19
492.31	1374.19
492.527	1368.19
492.745	1351.19
492.963	1383.19
493.18	1406.19
493.398	1379.19
493.615	1408.19
493.833	1404.19
494.05	1381.19
494.268	1396.19
494.485	1426.19
