Data from NiCl2@0.125M.TitratingCurve.Agarose3%dH2O.NegLispCup.LampEnergy10.LIBS07252019_HRD10591_18-28-40-574.txt Node
Date: Thu Jul 25 18:28:40 EDT 2019
User: cochatt
Spectrometer: HR+D1059
Trigger mode: 1
Integration Time (sec): 1.000000E-1
Scans to average: 1
Electric dark correction enabled: true
Nonlinearity correction enabled: false
Boxcar width: 0
XAxis mode: Wavelengths
Number of Pixels in Spectrum: 2048
>>>>>Begin Spectral Data<<<<<
223.165	-21.25
223.4	-21.25
223.635	-21.25
223.869	-26.25
224.104	-22.25
224.338	-1.25
224.573	-16.25
224.808	-7.25
225.042	-7.25
225.277	-4.25
225.511	-9.25
225.746	4.75
225.98	0.75
226.215	19.75
226.449	9.75
226.683	23.75
226.918	29.75
227.152	26.75
227.387	31.75
227.621	40.75
227.856	34.75
228.09	43.75
228.324	46.75
228.559	48.75
228.793	65.75
229.027	111.75
229.262	117.75
229.496	123.75
229.73	122.75
229.964	135.75
230.199	131.75
230.433	138.75
230.667	118.75
230.901	140.75
231.136	131.75
231.37	141.75
231.604	137.75
231.838	134.75
232.072	149.75
232.306	161.75
232.541	138.75
232.775	150.75
233.009	158.75
233.243	150.75
233.477	173.75
233.711	155.75
233.945	173.75
234.179	154.75
234.413	165.75
234.647	156.75
234.881	163.75
235.115	147.75
235.349	173.75
235.583	151.75
235.817	162.75
236.051	156.75
236.285	166.75
236.519	178.75
236.753	158.75
236.987	163.75
237.221	171.75
237.455	157.75
237.689	183.75
237.922	157.75
238.156	172.75
238.39	172.75
238.624	179.75
238.858	181.75
239.091	168.75
239.325	178.75
239.559	177.75
239.793	184.75
240.027	204.75
240.26	206.75
240.494	194.75
240.728	181.75
240.961	189.75
241.195	189.75
241.429	207.75
241.662	201.75
241.896	219.75
242.13	212.75
242.363	198.75
242.597	200.75
242.83	209.75
243.064	202.75
243.298	209.75
243.531	201.75
243.765	219.75
243.998	230.75
244.232	220.75
244.465	205.75
244.699	229.75
244.932	233.75
245.166	228.75
245.399	227.75
245.633	233.75
245.866	235.75
246.099	223.75
246.333	225.75
246.566	237.75
246.8	241.75
247.033	260.75
247.266	219.75
247.5	245.75
247.733	248.75
247.966	238.75
248.2	257.75
248.433	253.75
248.666	268.75
248.899	245.75
249.133	248.75
249.366	257.75
249.599	263.75
249.832	257.75
250.066	281.75
250.299	269.75
250.532	259.75
250.765	271.75
250.998	270.75
251.231	290.75
251.465	286.75
251.698	273.75
251.931	291.75
252.164	325.75
252.397	307.75
252.63	291.75
252.863	301.75
253.096	298.75
253.329	282.75
253.562	294.75
253.795	298.75
254.028	293.75
254.261	303.75
254.494	290.75
254.727	286.75
254.96	286.75
255.193	306.75
255.426	307.75
255.659	304.75
255.892	317.75
256.124	300.75
256.357	326.75
256.59	312.75
256.823	315.75
257.056	311.75
257.289	311.75
257.521	322.75
257.754	327.75
257.987	321.75
258.22	342.75
258.452	327.75
258.685	329.75
258.918	330.75
259.151	325.75
259.383	346.75
259.616	323.75
259.849	328.75
260.081	341.75
260.314	335.75
260.547	328.75
260.779	356.75
261.012	337.75
261.244	343.75
261.477	368.75
261.71	368.75
261.942	336.75
262.175	351.75
262.407	354.75
262.64	335.75
262.872	343.75
263.105	373.75
263.337	351.75
263.57	373.75
263.802	371.75
264.035	360.75
264.267	351.75
264.499	377.75
264.732	373.75
264.964	381.75
265.197	366.75
265.429	395.75
265.661	367.75
265.894	366.75
266.126	377.75
266.358	387.75
266.591	395.75
266.823	379.75
267.055	384.75
267.287	389.75
267.52	382.75
267.752	386.75
267.984	404.75
268.216	405.75
268.448	398.75
268.681	411.75
268.913	386.75
269.145	409.75
269.377	389.75
269.609	395.75
269.841	398.75
270.073	398.75
270.306	389.75
270.538	397.75
270.77	392.75
271.002	400.75
271.234	401.75
271.466	400.75
271.698	401.75
271.93	416.75
272.162	403.75
272.394	414.75
272.626	415.75
272.858	417.75
273.09	397.75
273.322	435.75
273.553	425.75
273.785	436.75
274.017	407.75
274.249	429.75
274.481	416.75
274.713	433.75
274.945	440.75
275.176	442.75
275.408	457.75
275.64	438.75
275.872	451.75
276.104	450.75
276.335	452.75
276.567	438.75
276.799	459.75
277.031	462.75
277.262	461.75
277.494	457.75
277.726	451.75
277.957	453.75
278.189	452.75
278.421	467.75
278.652	466.75
278.884	472.75
279.115	456.75
279.347	477.75
279.579	476.75
279.81	467.75
280.042	467.75
280.273	485.75
280.505	485.75
280.736	469.75
280.968	499.75
281.199	484.75
281.431	516.75
281.662	505.75
281.894	490.75
282.125	514.75
282.356	499.75
282.588	494.75
282.819	494.75
283.051	498.75
283.282	474.75
283.513	513.75
283.745	513.75
283.976	509.75
284.207	503.75
284.439	500.75
284.67	508.75
284.901	531.75
285.132	524.75
285.364	528.75
285.595	539.75
285.826	539.75
286.057	535.75
286.288	527.75
286.52	531.75
286.751	527.75
286.982	513.75
287.213	541.75
287.444	517.75
287.675	537.75
287.906	509.75
288.138	541.75
288.369	522.75
288.6	558.75
288.831	539.75
289.062	553.75
289.293	551.75
289.524	530.75
289.755	534.75
289.986	552.75
290.217	576.75
290.448	550.75
290.679	574.75
290.91	547.75
291.141	537.75
291.371	554.75
291.602	579.75
291.833	540.75
292.064	560.75
292.295	546.75
292.526	573.75
292.757	586.75
292.987	550.75
293.218	571.75
293.449	553.75
293.68	570.75
293.91	557.75
294.141	573.75
294.372	540.75
294.603	595.75
294.833	567.75
295.064	594.75
295.295	581.75
295.525	568.75
295.756	588.75
295.987	573.75
296.217	586.75
296.448	590.75
296.679	587.75
296.909	575.75
297.14	582.75
297.37	594.75
297.601	618.75
297.831	609.75
298.062	628.75
298.292	605.75
298.523	629.75
298.753	629.75
298.984	611.75
299.214	631.75
299.445	604.75
299.675	609.75
299.905	629.75
300.136	620.75
300.366	635.75
300.597	634.75
300.827	644.75
301.057	630.75
301.288	662.75
301.518	657.75
301.748	649.75
301.979	650.75
302.209	661.75
302.439	665.75
302.669	677.75
302.9	666.75
303.13	659.75
303.36	625.75
303.59	638.75
303.82	635.75
304.051	625.75
304.281	643.75
304.511	617.75
304.741	622.75
304.971	616.75
305.201	647.75
305.431	641.75
305.661	611.75
305.891	627.75
306.121	631.75
306.352	616.75
306.582	603.75
306.812	622.75
307.042	618.75
307.272	647.75
307.502	620.75
307.731	622.75
307.961	609.75
308.191	620.75
308.421	616.75
308.651	629.75
308.881	603.75
309.111	631.75
309.341	631.75
309.571	620.75
309.8	619.75
310.03	645.75
310.26	606.75
310.49	631.75
310.72	620.75
310.949	605.75
311.179	620.75
311.409	625.75
311.639	647.75
311.868	629.75
312.098	655.75
312.328	648.75
312.557	659.75
312.787	627.75
313.017	668.75
313.246	648.75
313.476	645.75
313.706	666.75
313.935	687.75
314.165	671.75
314.394	659.75
314.624	676.75
314.853	673.75
315.083	641.75
315.312	666.75
315.542	661.75
315.771	637.75
316.001	672.75
316.23	648.75
316.46	643.75
316.689	659.75
316.919	673.75
317.148	644.75
317.377	667.75
317.607	651.75
317.836	645.75
318.065	635.75
318.295	648.75
318.524	654.75
318.753	654.75
318.983	670.75
319.212	629.75
319.441	648.75
319.67	661.75
319.9	676.75
320.129	670.75
320.358	657.75
320.587	655.75
320.816	641.75
321.046	645.75
321.275	646.75
321.504	664.75
321.733	656.75
321.962	679.75
322.191	659.75
322.42	634.75
322.649	650.75
322.878	669.75
323.108	676.75
323.337	651.75
323.566	654.75
323.795	672.75
324.024	653.75
324.253	665.75
324.482	709.75
324.71	649.75
324.939	667.75
325.168	690.75
325.397	679.75
325.626	691.75
325.855	689.75
326.084	693.75
326.313	722.75
326.542	727.75
326.77	718.75
326.999	698.75
327.228	698.75
327.457	702.75
327.686	721.75
327.914	723.75
328.143	714.75
328.372	700.75
328.6	712.75
328.829	698.75
329.058	708.75
329.287	699.75
329.515	705.75
329.744	741.75
329.972	718.75
330.201	709.75
330.43	730.75
330.658	705.75
330.887	734.75
331.115	747.75
331.344	746.75
331.572	741.75
331.801	746.75
332.03	763.75
332.258	769.75
332.486	805.75
332.715	847.75
332.943	863.75
333.172	931.75
333.4	934.75
333.629	945.75
333.857	992.75
334.085	971.75
334.314	951.75
334.542	935.75
334.771	906.75
334.999	911.75
335.227	888.75
335.455	889.75
335.684	872.75
335.912	866.75
336.14	838.75
336.369	873.75
336.597	862.75
336.825	845.75
337.053	841.75
337.281	838.75
337.51	833.75
337.738	801.75
337.966	817.75
338.194	781.75
338.422	779.75
338.65	746.75
338.878	750.75
339.106	760.75
339.334	764.75
339.562	758.75
339.79	767.75
340.018	734.75
340.246	755.75
340.474	753.75
340.702	760.75
340.93	770.75
341.158	764.75
341.386	764.75
341.614	745.75
341.842	742.75
342.07	718.75
342.298	739.75
342.526	742.75
342.754	707.75
342.981	726.75
343.209	737.75
343.437	783.75
343.665	811.75
343.893	893.75
344.12	945.75
344.348	897.75
344.576	849.75
344.804	811.75
345.031	790.75
345.259	749.75
345.487	764.75
345.714	759.75
345.942	757.75
346.17	738.75
346.397	750.75
346.625	725.75
346.853	679.75
347.08	725.75
347.308	714.75
347.535	749.75
347.763	748.75
347.99	740.75
348.218	757.75
348.445	731.75
348.673	723.75
348.9	738.75
349.128	739.75
349.355	708.75
349.583	717.75
349.81	709.75
350.037	683.75
350.265	713.75
350.492	711.75
350.72	711.75
350.947	687.75
351.174	692.75
351.402	697.75
351.629	706.75
351.856	706.75
352.083	696.75
352.311	661.75
352.538	719.75
352.765	701.75
352.992	700.75
353.22	694.75
353.447	678.75
353.674	699.75
353.901	712.75
354.128	695.75
354.355	706.75
354.583	705.75
354.81	670.75
355.037	686.75
355.264	700.75
355.491	684.75
355.718	702.75
355.945	713.75
356.172	697.75
356.399	680.75
356.626	701.75
356.853	728.75
357.08	698.75
357.307	700.75
357.534	704.75
357.761	686.75
357.988	702.75
358.215	676.75
358.441	687.75
358.668	704.75
358.895	697.75
359.122	687.75
359.349	675.75
359.576	695.75
359.802	705.75
360.029	669.75
360.256	697.75
360.483	703.75
360.709	682.75
360.936	710.75
361.163	699.75
361.39	691.75
361.616	674.75
361.843	695.75
362.07	698.75
362.296	692.75
362.523	692.75
362.749	681.75
362.976	684.75
363.203	682.75
363.429	686.75
363.656	709.75
363.882	670.75
364.109	655.75
364.335	678.75
364.562	712.75
364.788	679.75
365.015	688.75
365.241	686.75
365.468	671.75
365.694	672.75
365.92	674.75
366.147	706.75
366.373	684.75
366.599	689.75
366.826	673.75
367.052	682.75
367.278	709.75
367.505	673.75
367.731	687.75
367.957	719.75
368.184	716.75
368.41	695.75
368.636	689.75
368.862	704.75
369.089	715.75
369.315	709.75
369.541	734.75
369.767	703.75
369.993	731.75
370.219	721.75
370.445	735.75
370.672	721.75
370.898	723.75
371.124	739.75
371.35	756.75
371.576	741.75
371.802	744.75
372.028	718.75
372.254	744.75
372.48	752.75
372.706	779.75
372.932	794.75
373.158	775.75
373.384	785.75
373.61	748.75
373.835	751.75
374.061	751.75
374.287	763.75
374.513	777.75
374.739	790.75
374.965	825.75
375.191	828.75
375.416	853.75
375.642	794.75
375.868	819.75
376.094	801.75
376.319	744.75
376.545	755.75
376.771	789.75
376.997	754.75
377.222	738.75
377.448	756.75
377.674	762.75
377.899	735.75
378.125	741.75
378.35	735.75
378.576	739.75
378.802	754.75
379.027	744.75
379.253	740.75
379.478	730.75
379.704	750.75
379.929	753.75
380.155	771.75
380.38	741.75
380.606	757.75
380.831	758.75
381.057	734.75
381.282	762.75
381.507	732.75
381.733	770.75
381.958	725.75
382.184	782.75
382.409	771.75
382.634	797.75
382.86	801.75
383.085	779.75
383.31	807.75
383.535	837.75
383.761	798.75
383.986	852.75
384.211	854.75
384.436	871.75
384.662	892.75
384.887	924.75
385.112	914.75
385.337	889.75
385.562	929.75
385.787	911.75
386.013	897.75
386.238	920.75
386.463	922.75
386.688	911.75
386.913	909.75
387.138	893.75
387.363	877.75
387.588	880.75
387.813	893.75
388.038	881.75
388.263	889.75
388.488	898.75
388.713	885.75
388.938	906.75
389.163	881.75
389.387	883.75
389.612	899.75
389.837	892.75
390.062	872.75
390.287	883.75
390.512	875.75
390.736	879.75
390.961	898.75
391.186	904.75
391.411	948.75
391.636	998.75
391.86	998.75
392.085	1015.75
392.31	1030.75
392.534	1007.75
392.759	1006.75
392.984	974.75
393.208	957.75
393.433	938.75
393.658	961.75
393.882	965.75
394.107	965.75
394.331	979.75
394.556	981.75
394.78	974.75
395.005	950.75
395.229	989.75
395.454	999.75
395.678	1015.75
395.903	1037.75
396.127	1020.75
396.352	977.75
396.576	954.75
396.801	970.75
397.025	948.75
397.249	1023.75
397.474	1034.75
397.698	1002.75
397.922	1044.75
398.147	1020.75
398.371	1030.75
398.595	1068.75
398.82	1129.75
399.044	1184.75
399.268	1337.75
399.492	1496.75
399.717	1677.75
399.941	1734.75
400.165	1558.75
400.389	1402.75
400.613	1279.75
400.837	1203.75
401.062	1179.75
401.286	1156.75
401.51	1129.75
401.734	1140.75
401.958	1132.75
402.182	1138.75
402.406	1181.75
402.63	1163.75
402.854	1205.75
403.078	1197.75
403.302	1246.75
403.526	1257.75
403.75	1307.75
403.974	1333.75
404.198	1299.75
404.422	1314.75
404.645	1311.75
404.869	1308.75
405.093	1292.75
405.317	1224.75
405.541	1252.75
405.765	1260.75
405.988	1281.75
406.212	1225.75
406.436	1253.75
406.66	1292.75
406.883	1265.75
407.107	1365.75
407.331	1454.75
407.555	1469.75
407.778	1463.75
408.002	1450.75
408.226	1395.75
408.449	1360.75
408.673	1307.75
408.896	1298.75
409.12	1247.75
409.344	1287.75
409.567	1243.75
409.791	1292.75
410.014	1286.75
410.238	1294.75
410.461	1268.75
410.685	1255.75
410.908	1237.75
411.132	1188.75
411.355	1165.75
411.578	1172.75
411.802	1185.75
412.025	1175.75
412.249	1211.75
412.472	1188.75
412.695	1145.75
412.919	1131.75
413.142	1131.75
413.365	1153.75
413.589	1131.75
413.812	1139.75
414.035	1086.75
414.258	1118.75
414.482	1120.75
414.705	1152.75
414.928	1127.75
415.151	1166.75
415.374	1128.75
415.597	1145.75
415.821	1132.75
416.044	1117.75
416.267	1113.75
416.49	1078.75
416.713	1097.75
416.936	1090.75
417.159	1101.75
417.382	1072.75
417.605	1085.75
417.828	1103.75
418.051	1121.75
418.274	1085.75
418.497	1109.75
418.72	1166.75
418.943	1163.75
419.166	1214.75
419.389	1286.75
419.611	1287.75
419.834	1251.75
420.057	1159.75
420.28	1147.75
420.503	1138.75
420.726	1118.75
420.948	1093.75
421.171	1094.75
421.394	1093.75
421.617	1108.75
421.839	1151.75
422.062	1136.75
422.285	1106.75
422.507	1137.75
422.73	1139.75
422.953	1155.75
423.175	1222.75
423.398	1211.75
423.621	1168.75
423.843	1201.75
424.066	1206.75
424.288	1198.75
424.511	1211.75
424.733	1157.75
424.956	1169.75
425.178	1171.75
425.401	1154.75
425.623	1126.75
425.846	1132.75
426.068	1096.75
426.291	1084.75
426.513	1068.75
426.735	1069.75
426.958	1067.75
427.18	1020.75
427.402	1053.75
427.625	1024.75
427.847	1045.75
428.069	1033.75
428.292	1038.75
428.514	975.75
428.736	1011.75
428.958	996.75
429.181	1000.75
429.403	982.75
429.625	981.75
429.847	939.75
430.069	962.75
430.292	995.75
430.514	978.75
430.736	990.75
430.958	989.75
431.18	989.75
431.402	1001.75
431.624	1002.75
431.846	999.75
432.068	1011.75
432.29	1035.75
432.512	976.75
432.734	1020.75
432.956	999.75
433.178	1000.75
433.4	1027.75
433.622	1034.75
433.844	1005.75
434.066	1050.75
434.287	1054.75
434.509	1060.75
434.731	1090.75
434.953	1156.75
435.175	1135.75
435.397	1134.75
435.618	1070.75
435.84	1029.75
436.062	1059.75
436.284	1015.75
436.505	1022.75
436.727	1029.75
436.949	1012.75
437.17	995.75
437.392	987.75
437.614	983.75
437.835	956.75
438.057	996.75
438.278	995.75
438.5	957.75
438.721	965.75
438.943	999.75
439.165	970.75
439.386	978.75
439.608	1013.75
439.829	1015.75
440.05	1030.75
440.272	1027.75
440.493	1026.75
440.715	1052.75
440.936	1065.75
441.158	1054.75
441.379	1108.75
441.6	1160.75
441.822	1144.75
442.043	1171.75
442.264	1129.75
442.486	1084.75
442.707	1091.75
442.928	1111.75
443.149	1115.75
443.371	1107.75
443.592	1108.75
443.813	1124.75
444.034	1115.75
444.255	1191.75
444.476	1271.75
444.698	1315.75
444.919	1373.75
445.14	1462.75
445.361	1319.75
445.582	1167.75
445.803	1130.75
446.024	1105.75
446.245	1096.75
446.466	1094.75
446.687	1053.75
446.908	1002.75
447.129	996.75
447.35	1024.75
447.571	997.75
447.792	958.75
448.013	960.75
448.234	931.75
448.455	956.75
448.675	943.75
448.896	957.75
449.117	927.75
449.338	935.75
449.559	926.75
449.779	915.75
450	917.75
450.221	920.75
450.442	947.75
450.662	944.75
450.883	977.75
451.104	995.75
451.324	983.75
451.545	972.75
451.766	964.75
451.986	975.75
452.207	959.75
452.428	933.75
452.648	939.75
452.869	919.75
453.089	918.75
453.31	925.75
453.53	923.75
453.751	923.75
453.971	919.75
454.192	904.75
454.412	912.75
454.633	884.75
454.853	892.75
455.073	896.75
455.294	899.75
455.514	882.75
455.734	879.75
455.955	854.75
456.175	885.75
456.395	894.75
456.616	909.75
456.836	876.75
457.056	868.75
457.276	851.75
457.497	907.75
457.717	882.75
457.937	892.75
458.157	899.75
458.377	915.75
458.598	905.75
458.818	947.75
459.038	952.75
459.258	999.75
459.478	1053.75
459.698	1030.75
459.918	1082.75
460.138	1135.75
460.358	1189.75
460.578	1233.75
460.798	1216.75
461.018	1213.75
461.238	1221.75
461.458	1205.75
461.678	1209.75
461.898	1218.75
462.118	1227.75
462.338	1270.75
462.558	1308.75
462.777	1390.75
462.997	1501.75
463.217	1581.75
463.437	1645.75
463.657	1510.75
463.876	1419.75
464.096	1409.75
464.316	1433.75
464.536	1437.75
464.755	1383.75
464.975	1296.75
465.195	1250.75
465.414	1209.75
465.634	1100.75
465.854	1086.75
466.073	1051.75
466.293	1033.75
466.512	989.75
466.732	990.75
466.951	999.75
467.171	989.75
467.391	989.75
467.61	977.75
467.829	943.75
468.049	965.75
468.268	956.75
468.488	966.75
468.707	953.75
468.927	928.75
469.146	934.75
469.365	952.75
469.585	945.75
469.804	951.75
470.023	999.75
470.243	1009.75
470.462	1011.75
470.681	993.75
470.901	1061.75
471.12	1023.75
471.339	1000.75
471.558	969.75
471.777	978.75
471.997	935.75
472.216	961.75
472.435	924.75
472.654	918.75
472.873	926.75
473.092	925.75
473.311	940.75
473.53	921.75
473.749	904.75
473.968	918.75
474.187	901.75
474.406	933.75
474.625	927.75
474.844	917.75
475.063	927.75
475.282	891.75
475.501	950.75
475.72	947.75
475.939	936.75
476.158	946.75
476.377	967.75
476.596	972.75
476.814	1000.75
477.033	966.75
477.252	1007.75
477.471	1012.75
477.69	1027.75
477.908	1055.75
478.127	1068.75
478.346	1090.75
478.564	1107.75
478.783	1130.75
479.002	1177.75
479.22	1169.75
479.439	1146.75
479.658	1129.75
479.876	1155.75
480.095	1167.75
480.313	1230.75
480.532	1223.75
480.751	1210.75
480.969	1195.75
481.188	1122.75
481.406	1099.75
481.624	1100.75
481.843	1081.75
482.061	1062.75
482.28	1070.75
482.498	1037.75
482.717	1059.75
482.935	1017.75
483.153	1056.75
483.372	1043.75
483.59	1048.75
483.808	1075.75
484.027	1043.75
484.245	1069.75
484.463	1051.75
484.681	1046.75
484.9	1045.75
485.118	1101.75
485.336	1111.75
485.554	1116.75
485.772	1107.75
485.99	1117.75
486.209	1140.75
486.427	1117.75
486.645	1084.75
486.863	1134.75
487.081	1110.75
487.299	1079.75
487.517	1117.75
487.735	1095.75
487.953	1110.75
488.171	1098.75
488.389	1094.75
488.607	1071.75
488.825	1097.75
489.043	1061.75
489.261	1061.75
489.479	1081.75
489.696	1095.75
489.914	1086.75
490.132	1108.75
490.35	1099.75
490.568	1108.75
490.786	1083.75
491.003	1100.75
491.221	1130.75
491.439	1130.75
491.657	1123.75
491.874	1121.75
492.092	1118.75
492.31	1119.75
492.527	1132.75
492.745	1135.75
492.963	1140.75
493.18	1131.75
493.398	1130.75
493.615	1167.75
493.833	1157.75
494.05	1137.75
494.268	1151.75
494.485	1139.75
494.703	1180.75
494.92	1187.75
495.138	1179.75
495.355	1166.75
495.573	1191.75
495.79	1180.75
496.008	1157.75
496.225	1169.75
496.442	1175.75
496.66	1223.75
496.877	1219.75
497.094	1230.75
