Data from NiCl2@0.25M.TitratingCurve.Agarose3%dH2O.NegLispCup.LampEnergy10.LIBS07252019_HRD10591_18-26-00-574.txt Node
Date: Thu Jul 25 18:26:00 EDT 2019
User: cochatt
Spectrometer: HR+D1059
Trigger mode: 1
Integration Time (sec): 1.000000E-1
Scans to average: 1
Electric dark correction enabled: true
Nonlinearity correction enabled: false
Boxcar width: 0
XAxis mode: Wavelengths
Number of Pixels in Spectrum: 2048
>>>>>Begin Spectral Data<<<<<
223.165	-18.88
223.4	-18.88
223.635	-18.88
223.869	-27.88
224.104	-16.88
224.338	-13.88
224.573	-13.88
224.808	-19.88
225.042	-6.88
225.277	-11.88
225.511	-0.88
225.746	5.12
225.98	20.12
226.215	15.12
226.449	13.12
226.683	12.12
226.918	27.12
227.152	38.12
227.387	30.12
227.621	39.12
227.856	46.12
228.09	61.12
228.324	58.12
228.559	61.12
228.793	73.12
229.027	108.12
229.262	119.12
229.496	140.12
229.73	124.12
229.964	133.12
230.199	128.12
230.433	126.12
230.667	157.12
230.901	147.12
231.136	135.12
231.37	127.12
231.604	141.12
231.838	154.12
232.072	158.12
232.306	149.12
232.541	162.12
232.775	148.12
233.009	157.12
233.243	168.12
233.477	170.12
233.711	158.12
233.945	156.12
234.179	165.12
234.413	169.12
234.647	167.12
234.881	171.12
235.115	178.12
235.349	156.12
235.583	170.12
235.817	169.12
236.051	157.12
236.285	167.12
236.519	167.12
236.753	173.12
236.987	189.12
237.221	176.12
237.455	170.12
237.689	168.12
237.922	178.12
238.156	183.12
238.39	164.12
238.624	191.12
238.858	189.12
239.091	203.12
239.325	182.12
239.559	190.12
239.793	178.12
240.027	189.12
240.26	182.12
240.494	209.12
240.728	204.12
240.961	191.12
241.195	204.12
241.429	215.12
241.662	196.12
241.896	201.12
242.13	205.12
242.363	225.12
242.597	221.12
242.83	214.12
243.064	211.12
243.298	225.12
243.531	208.12
243.765	214.12
243.998	204.12
244.232	235.12
244.465	236.12
244.699	242.12
244.932	255.12
245.166	258.12
245.399	241.12
245.633	256.12
245.866	258.12
246.099	240.12
246.333	250.12
246.566	245.12
246.8	240.12
247.033	234.12
247.266	253.12
247.5	252.12
247.733	244.12
247.966	256.12
248.2	259.12
248.433	262.12
248.666	265.12
248.899	262.12
249.133	266.12
249.366	277.12
249.599	279.12
249.832	276.12
250.066	284.12
250.299	269.12
250.532	278.12
250.765	270.12
250.998	278.12
251.231	279.12
251.465	282.12
251.698	275.12
251.931	275.12
252.164	301.12
252.397	293.12
252.63	290.12
252.863	300.12
253.096	298.12
253.329	307.12
253.562	311.12
253.795	305.12
254.028	309.12
254.261	290.12
254.494	318.12
254.727	316.12
254.96	299.12
255.193	313.12
255.426	281.12
255.659	304.12
255.892	314.12
256.124	324.12
256.357	327.12
256.59	329.12
256.823	311.12
257.056	335.12
257.289	331.12
257.521	323.12
257.754	339.12
257.987	340.12
258.22	339.12
258.452	342.12
258.685	322.12
258.918	326.12
259.151	356.12
259.383	343.12
259.616	346.12
259.849	347.12
260.081	354.12
260.314	354.12
260.547	340.12
260.779	350.12
261.012	356.12
261.244	346.12
261.477	375.12
261.71	366.12
261.942	374.12
262.175	352.12
262.407	354.12
262.64	353.12
262.872	366.12
263.105	374.12
263.337	362.12
263.57	376.12
263.802	382.12
264.035	375.12
264.267	382.12
264.499	375.12
264.732	385.12
264.964	386.12
265.197	381.12
265.429	392.12
265.661	366.12
265.894	390.12
266.126	403.12
266.358	390.12
266.591	384.12
266.823	390.12
267.055	396.12
267.287	408.12
267.52	402.12
267.752	419.12
267.984	438.12
268.216	426.12
268.448	401.12
268.681	409.12
268.913	410.12
269.145	393.12
269.377	408.12
269.609	410.12
269.841	411.12
270.073	429.12
270.306	422.12
270.538	428.12
270.77	414.12
271.002	414.12
271.234	401.12
271.466	414.12
271.698	413.12
271.93	423.12
272.162	423.12
272.394	416.12
272.626	427.12
272.858	432.12
273.09	441.12
273.322	447.12
273.553	449.12
273.785	450.12
274.017	464.12
274.249	463.12
274.481	445.12
274.713	419.12
274.945	461.12
275.176	469.12
275.408	471.12
275.64	451.12
275.872	444.12
276.104	477.12
276.335	491.12
276.567	463.12
276.799	460.12
277.031	461.12
277.262	484.12
277.494	457.12
277.726	474.12
277.957	483.12
278.189	452.12
278.421	479.12
278.652	488.12
278.884	488.12
279.115	482.12
279.347	496.12
279.579	492.12
279.81	503.12
280.042	516.12
280.273	498.12
280.505	489.12
280.736	493.12
280.968	503.12
281.199	495.12
281.431	524.12
281.662	505.12
281.894	519.12
282.125	507.12
282.356	534.12
282.588	518.12
282.819	518.12
283.051	520.12
283.282	521.12
283.513	518.12
283.745	508.12
283.976	541.12
284.207	534.12
284.439	532.12
284.67	523.12
284.901	570.12
285.132	546.12
285.364	524.12
285.595	531.12
285.826	538.12
286.057	559.12
286.288	533.12
286.52	562.12
286.751	534.12
286.982	565.12
287.213	557.12
287.444	575.12
287.675	553.12
287.906	545.12
288.138	562.12
288.369	577.12
288.6	563.12
288.831	565.12
289.062	553.12
289.293	554.12
289.524	554.12
289.755	575.12
289.986	578.12
290.217	580.12
290.448	580.12
290.679	568.12
290.91	581.12
291.141	586.12
291.371	570.12
291.602	566.12
291.833	584.12
292.064	581.12
292.295	589.12
292.526	569.12
292.757	583.12
292.987	574.12
293.218	586.12
293.449	584.12
293.68	599.12
293.91	591.12
294.141	581.12
294.372	586.12
294.603	586.12
294.833	605.12
295.064	613.12
295.295	598.12
295.525	599.12
295.756	590.12
295.987	584.12
296.217	605.12
296.448	604.12
296.679	619.12
296.909	596.12
297.14	603.12
297.37	636.12
297.601	622.12
297.831	623.12
298.062	627.12
298.292	646.12
298.523	642.12
298.753	631.12
298.984	645.12
299.214	638.12
299.445	631.12
299.675	630.12
299.905	631.12
300.136	626.12
300.366	636.12
300.597	655.12
300.827	682.12
301.057	663.12
301.288	646.12
301.518	671.12
301.748	683.12
301.979	689.12
302.209	683.12
302.439	687.12
302.669	665.12
302.9	645.12
303.13	681.12
303.36	663.12
303.59	660.12
303.82	669.12
304.051	643.12
304.281	679.12
304.511	660.12
304.741	651.12
304.971	664.12
305.201	661.12
305.431	648.12
305.661	658.12
305.891	640.12
306.121	628.12
306.352	656.12
306.582	647.12
306.812	631.12
307.042	662.12
307.272	659.12
307.502	642.12
307.731	655.12
307.961	649.12
308.191	637.12
308.421	666.12
308.651	630.12
308.881	630.12
309.111	640.12
309.341	652.12
309.571	638.12
309.8	645.12
310.03	650.12
310.26	667.12
310.49	632.12
310.72	664.12
310.949	647.12
311.179	625.12
311.409	652.12
311.639	666.12
311.868	641.12
312.098	671.12
312.328	660.12
312.557	653.12
312.787	674.12
313.017	699.12
313.246	677.12
313.476	701.12
313.706	698.12
313.935	662.12
314.165	684.12
314.394	688.12
314.624	700.12
314.853	690.12
315.083	705.12
315.312	715.12
315.542	683.12
315.771	690.12
316.001	692.12
316.23	711.12
316.46	674.12
316.689	676.12
316.919	677.12
317.148	662.12
317.377	679.12
317.607	659.12
317.836	668.12
318.065	666.12
318.295	677.12
318.524	699.12
318.753	664.12
318.983	682.12
319.212	692.12
319.441	682.12
319.67	661.12
319.9	680.12
320.129	710.12
320.358	702.12
320.587	699.12
320.816	690.12
321.046	690.12
321.275	697.12
321.504	680.12
321.733	702.12
321.962	690.12
322.191	675.12
322.42	681.12
322.649	706.12
322.878	669.12
323.108	696.12
323.337	716.12
323.566	700.12
323.795	699.12
324.024	702.12
324.253	695.12
324.482	722.12
324.71	743.12
324.939	740.12
325.168	743.12
325.397	709.12
325.626	701.12
325.855	726.12
326.084	761.12
326.313	751.12
326.542	776.12
326.77	750.12
326.999	755.12
327.228	748.12
327.457	747.12
327.686	730.12
327.914	730.12
328.143	721.12
328.372	753.12
328.6	757.12
328.829	745.12
329.058	756.12
329.287	739.12
329.515	755.12
329.744	759.12
329.972	752.12
330.201	754.12
330.43	774.12
330.658	764.12
330.887	776.12
331.115	788.12
331.344	790.12
331.572	792.12
331.801	803.12
332.03	799.12
332.258	836.12
332.486	854.12
332.715	870.12
332.943	914.12
333.172	943.12
333.4	972.12
333.629	984.12
333.857	990.12
334.085	991.12
334.314	996.12
334.542	974.12
334.771	952.12
334.999	943.12
335.227	962.12
335.455	934.12
335.684	900.12
335.912	903.12
336.14	920.12
336.369	914.12
336.597	913.12
336.825	903.12
337.053	898.12
337.281	899.12
337.51	879.12
337.738	871.12
337.966	863.12
338.194	844.12
338.422	857.12
338.65	863.12
338.878	819.12
339.106	816.12
339.334	829.12
339.562	820.12
339.79	805.12
340.018	798.12
340.246	777.12
340.474	800.12
340.702	769.12
340.93	799.12
341.158	783.12
341.386	782.12
341.614	795.12
341.842	797.12
342.07	791.12
342.298	807.12
342.526	759.12
342.754	760.12
342.981	774.12
343.209	798.12
343.437	825.12
343.665	862.12
343.893	926.12
344.12	964.12
344.348	929.12
344.576	920.12
344.804	861.12
345.031	809.12
345.259	792.12
345.487	804.12
345.714	771.12
345.942	758.12
346.17	765.12
346.397	756.12
346.625	768.12
346.853	746.12
347.08	751.12
347.308	738.12
347.535	763.12
347.763	782.12
347.99	755.12
348.218	748.12
348.445	761.12
348.673	771.12
348.9	776.12
349.128	761.12
349.355	734.12
349.583	735.12
349.81	748.12
350.037	756.12
350.265	736.12
350.492	723.12
350.72	749.12
350.947	728.12
351.174	730.12
351.402	741.12
351.629	766.12
351.856	718.12
352.083	723.12
352.311	715.12
352.538	730.12
352.765	729.12
352.992	723.12
353.22	709.12
353.447	710.12
353.674	704.12
353.901	705.12
354.128	714.12
354.355	696.12
354.583	735.12
354.81	722.12
355.037	712.12
355.264	722.12
355.491	713.12
355.718	735.12
355.945	712.12
356.172	710.12
356.399	733.12
356.626	724.12
356.853	774.12
357.08	747.12
357.307	720.12
357.534	721.12
357.761	738.12
357.988	731.12
358.215	720.12
358.441	723.12
358.668	706.12
358.895	742.12
359.122	715.12
359.349	720.12
359.576	700.12
359.802	734.12
360.029	726.12
360.256	740.12
360.483	719.12
360.709	717.12
360.936	751.12
361.163	749.12
361.39	714.12
361.616	749.12
361.843	727.12
362.07	730.12
362.296	720.12
362.523	712.12
362.749	725.12
362.976	726.12
363.203	707.12
363.429	744.12
363.656	710.12
363.882	724.12
364.109	733.12
364.335	720.12
364.562	707.12
364.788	719.12
365.015	743.12
365.241	709.12
365.468	722.12
365.694	735.12
365.92	726.12
366.147	736.12
366.373	719.12
366.599	729.12
366.826	744.12
367.052	730.12
367.278	728.12
367.505	715.12
367.731	735.12
367.957	736.12
368.184	732.12
368.41	735.12
368.636	750.12
368.862	753.12
369.089	784.12
369.315	766.12
369.541	741.12
369.767	751.12
369.993	762.12
370.219	762.12
370.445	762.12
370.672	779.12
370.898	794.12
371.124	784.12
371.35	798.12
371.576	798.12
371.802	792.12
372.028	783.12
372.254	809.12
372.48	806.12
372.706	827.12
372.932	818.12
373.158	836.12
373.384	805.12
373.61	796.12
373.835	810.12
374.061	794.12
374.287	819.12
374.513	796.12
374.739	845.12
374.965	847.12
375.191	876.12
375.416	878.12
375.642	821.12
375.868	848.12
376.094	856.12
376.319	826.12
376.545	828.12
376.771	800.12
376.997	806.12
377.222	797.12
377.448	792.12
377.674	813.12
377.899	791.12
378.125	784.12
378.35	768.12
378.576	806.12
378.802	790.12
379.027	775.12
379.253	786.12
379.478	778.12
379.704	806.12
379.929	815.12
380.155	778.12
380.38	790.12
380.606	777.12
380.831	787.12
381.057	796.12
381.282	780.12
381.507	795.12
381.733	794.12
381.958	773.12
382.184	830.12
382.409	814.12
382.634	809.12
382.86	849.12
383.085	847.12
383.31	847.12
383.535	896.12
383.761	892.12
383.986	889.12
384.211	911.12
384.436	903.12
384.662	943.12
384.887	921.12
385.112	934.12
385.337	940.12
385.562	941.12
385.787	938.12
386.013	971.12
386.238	952.12
386.463	962.12
386.688	978.12
386.913	941.12
387.138	922.12
387.363	949.12
387.588	914.12
387.813	966.12
388.038	936.12
388.263	907.12
388.488	975.12
388.713	942.12
388.938	936.12
389.163	964.12
389.387	960.12
389.612	953.12
389.837	967.12
390.062	924.12
390.287	950.12
390.512	946.12
390.736	966.12
390.961	982.12
391.186	1004.12
391.411	985.12
391.636	1050.12
391.86	1087.12
392.085	1060.12
392.31	1090.12
392.534	1060.12
392.759	1044.12
392.984	1062.12
393.208	1036.12
393.433	1029.12
393.658	1006.12
393.882	1026.12
394.107	993.12
394.331	1035.12
394.556	1010.12
394.78	1008.12
395.005	1033.12
395.229	1036.12
395.454	1059.12
395.678	1073.12
395.903	1097.12
396.127	1093.12
396.352	1050.12
396.576	1012.12
396.801	1040.12
397.025	1036.12
397.249	1077.12
397.474	1082.12
397.698	1100.12
397.922	1091.12
398.147	1115.12
398.371	1103.12
398.595	1158.12
398.82	1184.12
399.044	1268.12
399.268	1401.12
399.492	1570.12
399.717	1747.12
399.941	1766.12
400.165	1636.12
400.389	1481.12
400.613	1362.12
400.837	1284.12
401.062	1242.12
401.286	1241.12
401.51	1215.12
401.734	1205.12
401.958	1246.12
402.182	1214.12
402.406	1240.12
402.63	1247.12
402.854	1270.12
403.078	1289.12
403.302	1284.12
403.526	1334.12
403.75	1362.12
403.974	1348.12
404.198	1360.12
404.422	1371.12
404.645	1352.12
404.869	1370.12
405.093	1359.12
405.317	1314.12
405.541	1316.12
405.765	1327.12
405.988	1330.12
406.212	1302.12
406.436	1354.12
406.66	1391.12
406.883	1387.12
407.107	1455.12
407.331	1499.12
407.555	1540.12
407.778	1556.12
408.002	1545.12
408.226	1505.12
408.449	1460.12
408.673	1419.12
408.896	1364.12
409.12	1370.12
409.344	1412.12
409.567	1389.12
409.791	1375.12
410.014	1366.12
410.238	1346.12
410.461	1341.12
410.685	1349.12
410.908	1327.12
411.132	1290.12
411.355	1265.12
411.578	1284.12
411.802	1255.12
412.025	1287.12
412.249	1293.12
412.472	1284.12
412.695	1254.12
412.919	1210.12
413.142	1239.12
413.365	1249.12
413.589	1204.12
413.812	1186.12
414.035	1208.12
414.258	1206.12
414.482	1221.12
414.705	1239.12
414.928	1220.12
415.151	1220.12
415.374	1212.12
415.597	1221.12
415.821	1188.12
416.044	1176.12
416.267	1156.12
416.49	1165.12
416.713	1166.12
416.936	1192.12
417.159	1153.12
417.382	1147.12
417.605	1165.12
417.828	1188.12
418.051	1182.12
418.274	1188.12
418.497	1182.12
418.72	1190.12
418.943	1219.12
419.166	1283.12
419.389	1366.12
419.611	1360.12
419.834	1298.12
420.057	1264.12
420.28	1222.12
420.503	1198.12
420.726	1189.12
420.948	1184.12
421.171	1191.12
421.394	1162.12
421.617	1158.12
421.839	1203.12
422.062	1227.12
422.285	1167.12
422.507	1226.12
422.73	1184.12
422.953	1236.12
423.175	1202.12
423.398	1247.12
423.621	1244.12
423.843	1214.12
424.066	1276.12
424.288	1238.12
424.511	1211.12
424.733	1224.12
424.956	1237.12
425.178	1194.12
425.401	1203.12
425.623	1187.12
425.846	1144.12
426.068	1142.12
426.291	1169.12
426.513	1144.12
426.735	1124.12
426.958	1131.12
427.18	1133.12
427.402	1130.12
427.625	1103.12
427.847	1079.12
428.069	1086.12
428.292	1096.12
428.514	1054.12
428.736	1080.12
428.958	1063.12
429.181	1054.12
429.403	1046.12
429.625	1020.12
429.847	1049.12
430.069	1031.12
430.292	1063.12
430.514	995.12
430.736	1040.12
430.958	1037.12
431.18	1018.12
431.402	1028.12
431.624	1071.12
431.846	1057.12
432.068	1086.12
432.29	1077.12
432.512	1058.12
432.734	1081.12
432.956	1052.12
433.178	1088.12
433.4	1079.12
433.622	1077.12
433.844	1097.12
434.066	1094.12
434.287	1114.12
434.509	1135.12
434.731	1159.12
434.953	1181.12
435.175	1228.12
435.397	1192.12
435.618	1127.12
435.84	1096.12
436.062	1103.12
436.284	1049.12
436.505	1046.12
436.727	1071.12
436.949	1050.12
437.17	1078.12
437.392	1049.12
437.614	1017.12
437.835	1023.12
438.057	1029.12
438.278	1012.12
438.5	1000.12
438.721	1054.12
438.943	1026.12
439.165	1018.12
439.386	1045.12
439.608	1043.12
439.829	1053.12
440.05	1036.12
440.272	1038.12
440.493	1062.12
440.715	1075.12
440.936	1101.12
441.158	1110.12
441.379	1155.12
441.6	1159.12
441.822	1206.12
442.043	1195.12
442.264	1160.12
442.486	1134.12
442.707	1142.12
442.928	1162.12
443.149	1171.12
443.371	1134.12
443.592	1169.12
443.813	1154.12
444.034	1163.12
444.255	1243.12
444.476	1292.12
444.698	1342.12
444.919	1379.12
445.14	1398.12
445.361	1293.12
445.582	1236.12
445.803	1141.12
446.024	1146.12
446.245	1101.12
446.466	1114.12
446.687	1082.12
446.908	1080.12
447.129	1060.12
447.35	1009.12
447.571	1043.12
447.792	1010.12
448.013	984.12
448.234	1008.12
448.455	990.12
448.675	980.12
448.896	977.12
449.117	974.12
449.338	976.12
449.559	927.12
449.779	959.12
450	959.12
450.221	954.12
450.442	972.12
450.662	990.12
450.883	959.12
451.104	1026.12
451.324	982.12
451.545	977.12
451.766	989.12
451.986	969.12
452.207	969.12
452.428	946.12
452.648	957.12
452.869	923.12
453.089	927.12
453.31	963.12
453.53	940.12
453.751	946.12
453.971	948.12
454.192	932.12
454.412	914.12
454.633	916.12
454.853	956.12
455.073	915.12
455.294	935.12
455.514	924.12
455.734	915.12
455.955	894.12
456.175	918.12
456.395	880.12
456.616	894.12
456.836	894.12
457.056	889.12
457.276	892.12
457.497	918.12
457.717	931.12
457.937	930.12
458.157	960.12
458.377	938.12
458.598	964.12
458.818	995.12
459.038	1017.12
459.258	1072.12
459.478	1087.12
459.698	1102.12
459.918	1122.12
460.138	1188.12
460.358	1212.12
460.578	1231.12
460.798	1216.12
461.018	1279.12
461.238	1256.12
461.458	1242.12
461.678	1236.12
461.898	1299.12
462.118	1284.12
462.338	1369.12
462.558	1380.12
462.777	1423.12
462.997	1526.12
463.217	1629.12
463.437	1652.12
463.657	1555.12
463.876	1479.12
464.096	1461.12
464.316	1470.12
464.536	1467.12
464.755	1421.12
464.975	1391.12
465.195	1280.12
465.414	1236.12
465.634	1166.12
465.854	1141.12
466.073	1103.12
466.293	1087.12
466.512	1044.12
466.732	1065.12
466.951	1064.12
467.171	1011.12
467.391	1024.12
467.61	1029.12
467.829	1059.12
468.049	1010.12
468.268	978.12
468.488	985.12
468.707	970.12
468.927	991.12
469.146	989.12
469.365	997.12
469.585	1017.12
469.804	1000.12
470.023	1023.12
470.243	1007.12
470.462	1064.12
470.681	1076.12
470.901	1070.12
471.12	1076.12
471.339	1024.12
471.558	1003.12
471.777	1001.12
471.997	996.12
472.216	986.12
472.435	966.12
472.654	948.12
472.873	932.12
473.092	966.12
473.311	975.12
473.53	985.12
473.749	962.12
473.968	989.12
474.187	940.12
474.406	954.12
474.625	950.12
474.844	1004.12
475.063	977.12
475.282	959.12
475.501	978.12
475.72	969.12
475.939	991.12
476.158	1024.12
476.377	1028.12
476.596	997.12
476.814	1026.12
477.033	1038.12
477.252	1060.12
477.471	1094.12
477.69	1092.12
477.908	1101.12
478.127	1146.12
478.346	1145.12
478.564	1168.12
478.783	1158.12
479.002	1211.12
479.22	1200.12
479.439	1205.12
479.658	1221.12
479.876	1251.12
480.095	1220.12
480.313	1239.12
480.532	1287.12
480.751	1307.12
480.969	1232.12
481.188	1214.12
481.406	1192.12
481.624	1195.12
481.843	1094.12
482.061	1102.12
482.28	1115.12
482.498	1094.12
482.717	1080.12
482.935	1103.12
483.153	1102.12
483.372	1108.12
483.59	1068.12
483.808	1128.12
484.027	1108.12
484.245	1126.12
484.463	1118.12
484.681	1150.12
484.9	1150.12
485.118	1150.12
485.336	1168.12
485.554	1172.12
485.772	1189.12
485.99	1177.12
486.209	1184.12
486.427	1178.12
486.645	1163.12
486.863	1173.12
487.081	1174.12
487.299	1194.12
487.517	1176.12
487.735	1191.12
487.953	1171.12
488.171	1183.12
488.389	1172.12
488.607	1154.12
488.825	1148.12
489.043	1130.12
489.261	1160.12
489.479	1164.12
489.696	1152.12
489.914	1139.12
490.132	1181.12
490.35	1178.12
490.568	1203.12
490.786	1174.12
491.003	1172.12
491.221	1193.12
491.439	1190.12
491.657	1184.12
491.874	1185.12
492.092	1197.12
492.31	1197.12
492.527	1199.12
492.745	1183.12
492.963	1198.12
493.18	1216.12
493.398	1232.12
493.615	1221.12
493.833	1253.12
494.05	1222.12
494.268	1239.12
494.485	1234.12
494.703	1263.12
494.92	1256.12
495.138	1280.12
495.355	1243.12
495.573	1254.12
495.79	1286.12
496.008	1289.12
496.225	1317.12
