Data from NiCl2@0.125M.TitratingCurve.Agarose3%dH2O.NegLispCup.LampEnergy10.LIBS07252019_HRD10591_18-30-10-575.txt Node
Date: Thu Jul 25 18:30:10 EDT 2019
User: cochatt
Spectrometer: HR+D1059
Trigger mode: 1
Integration Time (sec): 1.000000E-1
Scans to average: 1
Electric dark correction enabled: true
Nonlinearity correction enabled: false
Boxcar width: 0
XAxis mode: Wavelengths
Number of Pixels in Spectrum: 2048
>>>>>Begin Spectral Data<<<<<
223.165	-1.44
223.4	-1.44
223.635	-1.44
223.869	-27.44
224.104	-21.44
224.338	-20.44
224.573	-20.44
224.808	-18.44
225.042	-2.44
225.277	-3.44
225.511	-3.44
225.746	-8.44
225.98	11.56
226.215	15.56
226.449	20.56
226.683	22.56
226.918	35.56
227.152	21.56
227.387	26.56
227.621	39.56
227.856	32.56
228.09	44.56
228.324	47.56
228.559	43.56
228.793	60.56
229.027	103.56
229.262	123.56
229.496	138.56
229.73	130.56
229.964	134.56
230.199	134.56
230.433	141.56
230.667	137.56
230.901	138.56
231.136	162.56
231.37	135.56
231.604	139.56
231.838	144.56
232.072	148.56
232.306	158.56
232.541	154.56
232.775	154.56
233.009	176.56
233.243	156.56
233.477	154.56
233.711	152.56
233.945	177.56
234.179	150.56
234.413	150.56
234.647	153.56
234.881	172.56
235.115	181.56
235.349	162.56
235.583	168.56
235.817	158.56
236.051	165.56
236.285	175.56
236.519	161.56
236.753	172.56
236.987	171.56
237.221	177.56
237.455	178.56
237.689	165.56
237.922	161.56
238.156	205.56
238.39	173.56
238.624	188.56
238.858	166.56
239.091	181.56
239.325	186.56
239.559	187.56
239.793	192.56
240.027	201.56
240.26	193.56
240.494	194.56
240.728	198.56
240.961	198.56
241.195	205.56
241.429	198.56
241.662	203.56
241.896	204.56
242.13	195.56
242.363	220.56
242.597	212.56
242.83	224.56
243.064	214.56
243.298	220.56
243.531	220.56
243.765	235.56
243.998	214.56
244.232	217.56
244.465	219.56
244.699	228.56
244.932	237.56
245.166	252.56
245.399	233.56
245.633	258.56
245.866	237.56
246.099	245.56
246.333	245.56
246.566	260.56
246.8	228.56
247.033	241.56
247.266	240.56
247.5	244.56
247.733	245.56
247.966	228.56
248.2	240.56
248.433	266.56
248.666	253.56
248.899	276.56
249.133	269.56
249.366	264.56
249.599	257.56
249.832	267.56
250.066	271.56
250.299	279.56
250.532	269.56
250.765	276.56
250.998	256.56
251.231	265.56
251.465	279.56
251.698	284.56
251.931	274.56
252.164	278.56
252.397	280.56
252.63	284.56
252.863	296.56
253.096	285.56
253.329	289.56
253.562	307.56
253.795	303.56
254.028	297.56
254.261	306.56
254.494	299.56
254.727	312.56
254.96	312.56
255.193	298.56
255.426	313.56
255.659	304.56
255.892	304.56
256.124	299.56
256.357	308.56
256.59	304.56
256.823	316.56
257.056	323.56
257.289	320.56
257.521	332.56
257.754	328.56
257.987	337.56
258.22	318.56
258.452	329.56
258.685	347.56
258.918	341.56
259.151	316.56
259.383	342.56
259.616	317.56
259.849	340.56
260.081	347.56
260.314	348.56
260.547	328.56
260.779	350.56
261.012	338.56
261.244	335.56
261.477	353.56
261.71	363.56
261.942	358.56
262.175	366.56
262.407	361.56
262.64	339.56
262.872	361.56
263.105	373.56
263.337	378.56
263.57	364.56
263.802	360.56
264.035	369.56
264.267	354.56
264.499	361.56
264.732	398.56
264.964	386.56
265.197	378.56
265.429	372.56
265.661	375.56
265.894	393.56
266.126	394.56
266.358	394.56
266.591	375.56
266.823	398.56
267.055	381.56
267.287	407.56
267.52	398.56
267.752	412.56
267.984	393.56
268.216	396.56
268.448	404.56
268.681	411.56
268.913	390.56
269.145	390.56
269.377	401.56
269.609	420.56
269.841	397.56
270.073	412.56
270.306	412.56
270.538	381.56
270.77	406.56
271.002	404.56
271.234	416.56
271.466	428.56
271.698	433.56
271.93	433.56
272.162	415.56
272.394	433.56
272.626	425.56
272.858	439.56
273.09	434.56
273.322	441.56
273.553	421.56
273.785	445.56
274.017	441.56
274.249	445.56
274.481	441.56
274.713	454.56
274.945	429.56
275.176	463.56
275.408	455.56
275.64	463.56
275.872	443.56
276.104	449.56
276.335	464.56
276.567	452.56
276.799	463.56
277.031	437.56
277.262	474.56
277.494	455.56
277.726	462.56
277.957	456.56
278.189	465.56
278.421	498.56
278.652	474.56
278.884	479.56
279.115	480.56
279.347	472.56
279.579	485.56
279.81	486.56
280.042	493.56
280.273	484.56
280.505	468.56
280.736	503.56
280.968	492.56
281.199	512.56
281.431	501.56
281.662	513.56
281.894	476.56
282.125	507.56
282.356	498.56
282.588	539.56
282.819	496.56
283.051	491.56
283.282	517.56
283.513	513.56
283.745	523.56
283.976	537.56
284.207	516.56
284.439	530.56
284.67	526.56
284.901	565.56
285.132	529.56
285.364	525.56
285.595	531.56
285.826	529.56
286.057	543.56
286.288	541.56
286.52	546.56
286.751	550.56
286.982	554.56
287.213	565.56
287.444	538.56
287.675	559.56
287.906	570.56
288.138	571.56
288.369	544.56
288.6	565.56
288.831	557.56
289.062	580.56
289.293	582.56
289.524	569.56
289.755	554.56
289.986	562.56
290.217	568.56
290.448	554.56
290.679	580.56
290.91	555.56
291.141	557.56
291.371	575.56
291.602	581.56
291.833	560.56
292.064	566.56
292.295	587.56
292.526	580.56
292.757	578.56
292.987	588.56
293.218	568.56
293.449	594.56
293.68	571.56
293.91	597.56
294.141	585.56
294.372	583.56
294.603	575.56
294.833	600.56
295.064	577.56
295.295	584.56
295.525	572.56
295.756	616.56
295.987	578.56
296.217	577.56
296.448	602.56
296.679	613.56
296.909	605.56
297.14	619.56
297.37	613.56
297.601	606.56
297.831	609.56
298.062	601.56
298.292	637.56
298.523	629.56
298.753	654.56
298.984	616.56
299.214	628.56
299.445	601.56
299.675	636.56
299.905	638.56
300.136	648.56
300.366	632.56
300.597	640.56
300.827	666.56
301.057	655.56
301.288	658.56
301.518	669.56
301.748	680.56
301.979	657.56
302.209	658.56
302.439	664.56
302.669	645.56
302.9	640.56
303.13	633.56
303.36	636.56
303.59	655.56
303.82	650.56
304.051	660.56
304.281	665.56
304.511	667.56
304.741	637.56
304.971	638.56
305.201	634.56
305.431	632.56
305.661	631.56
305.891	622.56
306.121	642.56
306.352	640.56
306.582	654.56
306.812	633.56
307.042	633.56
307.272	662.56
307.502	616.56
307.731	638.56
307.961	640.56
308.191	650.56
308.421	645.56
308.651	619.56
308.881	633.56
309.111	624.56
309.341	630.56
309.571	640.56
309.8	647.56
310.03	653.56
310.26	632.56
310.49	626.56
310.72	673.56
310.949	648.56
311.179	622.56
311.409	655.56
311.639	666.56
311.868	663.56
312.098	654.56
312.328	648.56
312.557	676.56
312.787	658.56
313.017	676.56
313.246	678.56
313.476	690.56
313.706	680.56
313.935	672.56
314.165	675.56
314.394	681.56
314.624	681.56
314.853	700.56
315.083	682.56
315.312	664.56
315.542	679.56
315.771	684.56
316.001	660.56
316.23	658.56
316.46	681.56
316.689	690.56
316.919	699.56
317.148	676.56
317.377	679.56
317.607	650.56
317.836	656.56
318.065	658.56
318.295	678.56
318.524	674.56
318.753	679.56
318.983	663.56
319.212	646.56
319.441	666.56
319.67	660.56
319.9	686.56
320.129	688.56
320.358	684.56
320.587	696.56
320.816	671.56
321.046	658.56
321.275	695.56
321.504	681.56
321.733	672.56
321.962	673.56
322.191	684.56
322.42	668.56
322.649	690.56
322.878	699.56
323.108	663.56
323.337	688.56
323.566	686.56
323.795	688.56
324.024	674.56
324.253	676.56
324.482	698.56
324.71	681.56
324.939	703.56
325.168	711.56
325.397	718.56
325.626	723.56
325.855	705.56
326.084	720.56
326.313	751.56
326.542	727.56
326.77	716.56
326.999	761.56
327.228	732.56
327.457	720.56
327.686	719.56
327.914	746.56
328.143	722.56
328.372	741.56
328.6	729.56
328.829	712.56
329.058	727.56
329.287	758.56
329.515	764.56
329.744	745.56
329.972	754.56
330.201	767.56
330.43	743.56
330.658	738.56
330.887	757.56
331.115	754.56
331.344	765.56
331.572	765.56
331.801	806.56
332.03	793.56
332.258	838.56
332.486	875.56
332.715	902.56
332.943	916.56
333.172	985.56
333.4	1012.56
333.629	1029.56
333.857	998.56
334.085	998.56
334.314	956.56
334.542	965.56
334.771	947.56
334.999	936.56
335.227	909.56
335.455	939.56
335.684	924.56
335.912	907.56
336.14	907.56
336.369	883.56
336.597	882.56
336.825	880.56
337.053	890.56
337.281	857.56
337.51	835.56
337.738	864.56
337.966	818.56
338.194	791.56
338.422	842.56
338.65	809.56
338.878	784.56
339.106	813.56
339.334	809.56
339.562	804.56
339.79	753.56
340.018	788.56
340.246	760.56
340.474	750.56
340.702	752.56
340.93	774.56
341.158	766.56
341.386	764.56
341.614	769.56
341.842	778.56
342.07	761.56
342.298	736.56
342.526	741.56
342.754	738.56
342.981	759.56
343.209	784.56
343.437	825.56
343.665	847.56
343.893	925.56
344.12	966.56
344.348	914.56
344.576	864.56
344.804	822.56
345.031	820.56
345.259	814.56
345.487	780.56
345.714	778.56
345.942	758.56
346.17	742.56
346.397	749.56
346.625	757.56
346.853	785.56
347.08	742.56
347.308	772.56
347.535	762.56
347.763	738.56
347.99	758.56
348.218	780.56
348.445	744.56
348.673	733.56
348.9	733.56
349.128	733.56
349.355	750.56
349.583	756.56
349.81	729.56
350.037	731.56
350.265	727.56
350.492	705.56
350.72	718.56
350.947	726.56
351.174	713.56
351.402	716.56
351.629	700.56
351.856	707.56
352.083	730.56
352.311	710.56
352.538	712.56
352.765	701.56
352.992	698.56
353.22	694.56
353.447	691.56
353.674	710.56
353.901	702.56
354.128	693.56
354.355	722.56
354.583	716.56
354.81	702.56
355.037	736.56
355.264	712.56
355.491	713.56
355.718	728.56
355.945	732.56
356.172	729.56
356.399	738.56
356.626	738.56
356.853	727.56
357.08	714.56
357.307	710.56
357.534	727.56
357.761	752.56
357.988	710.56
358.215	706.56
358.441	715.56
358.668	675.56
358.895	707.56
359.122	714.56
359.349	737.56
359.576	708.56
359.802	727.56
360.029	710.56
360.256	709.56
360.483	718.56
360.709	708.56
360.936	715.56
361.163	737.56
361.39	724.56
361.616	729.56
361.843	720.56
362.07	724.56
362.296	703.56
362.523	723.56
362.749	744.56
362.976	706.56
363.203	698.56
363.429	720.56
363.656	718.56
363.882	726.56
364.109	720.56
364.335	715.56
364.562	709.56
364.788	717.56
365.015	732.56
365.241	720.56
365.468	706.56
365.694	697.56
365.92	722.56
366.147	708.56
366.373	706.56
366.599	731.56
366.826	724.56
367.052	694.56
367.278	714.56
367.505	717.56
367.731	715.56
367.957	748.56
368.184	710.56
368.41	730.56
368.636	705.56
368.862	754.56
369.089	736.56
369.315	724.56
369.541	746.56
369.767	734.56
369.993	747.56
370.219	755.56
370.445	727.56
370.672	740.56
370.898	771.56
371.124	782.56
371.35	778.56
371.576	781.56
371.802	756.56
372.028	774.56
372.254	788.56
372.48	789.56
372.706	799.56
372.932	833.56
373.158	801.56
373.384	797.56
373.61	773.56
373.835	787.56
374.061	809.56
374.287	804.56
374.513	824.56
374.739	811.56
374.965	840.56
375.191	876.56
375.416	877.56
375.642	846.56
375.868	833.56
376.094	826.56
376.319	816.56
376.545	804.56
376.771	770.56
376.997	788.56
377.222	782.56
377.448	769.56
377.674	792.56
377.899	746.56
378.125	771.56
378.35	828.56
378.576	791.56
378.802	758.56
379.027	790.56
379.253	780.56
379.478	772.56
379.704	801.56
379.929	777.56
380.155	757.56
380.38	781.56
380.606	762.56
380.831	780.56
381.057	788.56
381.282	749.56
381.507	796.56
381.733	805.56
381.958	794.56
382.184	816.56
382.409	808.56
382.634	798.56
382.86	802.56
383.085	843.56
383.31	852.56
383.535	866.56
383.761	884.56
383.986	864.56
384.211	910.56
384.436	918.56
384.662	916.56
384.887	937.56
385.112	972.56
385.337	956.56
385.562	947.56
385.787	945.56
386.013	969.56
386.238	981.56
386.463	950.56
386.688	940.56
386.913	924.56
387.138	914.56
387.363	928.56
387.588	919.56
387.813	927.56
388.038	900.56
388.263	932.56
388.488	953.56
388.713	968.56
388.938	906.56
389.163	917.56
389.387	900.56
389.612	916.56
389.837	909.56
390.062	897.56
390.287	930.56
390.512	904.56
390.736	921.56
390.961	955.56
391.186	969.56
391.411	997.56
391.636	1044.56
391.86	1075.56
392.085	1079.56
392.31	1067.56
392.534	1024.56
392.759	1051.56
392.984	1003.56
393.208	970.56
393.433	1001.56
393.658	992.56
393.882	1018.56
394.107	1018.56
394.331	1022.56
394.556	1005.56
394.78	1008.56
395.005	1013.56
395.229	1057.56
395.454	1040.56
395.678	1050.56
395.903	1079.56
396.127	1025.56
396.352	1028.56
396.576	966.56
396.801	954.56
397.025	992.56
397.249	1027.56
397.474	1048.56
397.698	1044.56
397.922	1083.56
398.147	1062.56
398.371	1062.56
398.595	1122.56
398.82	1147.56
399.044	1250.56
399.268	1349.56
399.492	1641.56
399.717	1902.56
399.941	1808.56
400.165	1605.56
400.389	1391.56
400.613	1326.56
400.837	1277.56
401.062	1218.56
401.286	1193.56
401.51	1189.56
401.734	1149.56
401.958	1181.56
402.182	1182.56
402.406	1217.56
402.63	1212.56
402.854	1258.56
403.078	1300.56
403.302	1312.56
403.526	1348.56
403.75	1389.56
403.974	1394.56
404.198	1414.56
404.422	1428.56
404.645	1408.56
404.869	1352.56
405.093	1344.56
405.317	1339.56
405.541	1310.56
405.765	1324.56
405.988	1315.56
406.212	1300.56
406.436	1303.56
406.66	1342.56
406.883	1327.56
407.107	1441.56
407.331	1512.56
407.555	1601.56
407.778	1581.56
408.002	1524.56
408.226	1484.56
408.449	1420.56
408.673	1393.56
408.896	1358.56
409.12	1339.56
409.344	1332.56
409.567	1357.56
409.791	1328.56
410.014	1360.56
410.238	1366.56
410.461	1314.56
410.685	1334.56
410.908	1284.56
411.132	1252.56
411.355	1233.56
411.578	1253.56
411.802	1255.56
412.025	1227.56
412.249	1272.56
412.472	1247.56
412.695	1234.56
412.919	1174.56
413.142	1187.56
413.365	1202.56
413.589	1199.56
413.812	1172.56
414.035	1157.56
414.258	1147.56
414.482	1172.56
414.705	1226.56
414.928	1184.56
415.151	1208.56
415.374	1188.56
415.597	1208.56
415.821	1158.56
416.044	1155.56
416.267	1142.56
416.49	1162.56
416.713	1154.56
416.936	1150.56
417.159	1129.56
417.382	1152.56
417.605	1154.56
417.828	1193.56
418.051	1156.56
418.274	1189.56
418.497	1202.56
418.72	1213.56
418.943	1222.56
419.166	1310.56
419.389	1369.56
419.611	1335.56
419.834	1257.56
420.057	1224.56
420.28	1192.56
420.503	1168.56
420.726	1169.56
420.948	1140.56
421.171	1162.56
421.394	1185.56
421.617	1146.56
421.839	1189.56
422.062	1192.56
422.285	1154.56
422.507	1212.56
422.73	1157.56
422.953	1186.56
423.175	1240.56
423.398	1236.56
423.621	1234.56
423.843	1230.56
424.066	1267.56
424.288	1266.56
424.511	1264.56
424.733	1221.56
424.956	1204.56
425.178	1219.56
425.401	1204.56
425.623	1194.56
425.846	1176.56
426.068	1115.56
426.291	1104.56
426.513	1113.56
426.735	1108.56
426.958	1114.56
427.18	1054.56
427.402	1113.56
427.625	1072.56
427.847	1058.56
428.069	1073.56
428.292	1037.56
428.514	1024.56
428.736	1013.56
428.958	1057.56
429.181	1028.56
429.403	1009.56
429.625	1031.56
429.847	1032.56
430.069	993.56
430.292	1003.56
430.514	1028.56
430.736	1024.56
430.958	1043.56
431.18	1017.56
431.402	1016.56
431.624	1014.56
431.846	1008.56
432.068	1026.56
432.29	1062.56
432.512	1025.56
432.734	1038.56
432.956	1036.56
433.178	1062.56
433.4	1052.56
433.622	1086.56
433.844	1074.56
434.066	1075.56
434.287	1086.56
434.509	1123.56
434.731	1137.56
434.953	1172.56
435.175	1207.56
435.397	1180.56
435.618	1159.56
435.84	1068.56
436.062	1065.56
436.284	1066.56
436.505	1042.56
436.727	1054.56
436.949	1064.56
437.17	1079.56
437.392	1032.56
437.614	1032.56
437.835	1006.56
438.057	1033.56
438.278	1008.56
438.5	980.56
438.721	997.56
438.943	1012.56
439.165	982.56
439.386	1028.56
439.608	1037.56
439.829	1069.56
440.05	1040.56
440.272	1046.56
440.493	1077.56
440.715	1084.56
440.936	1069.56
441.158	1087.56
441.379	1141.56
441.6	1182.56
441.822	1196.56
442.043	1196.56
442.264	1180.56
442.486	1145.56
442.707	1182.56
442.928	1166.56
443.149	1168.56
443.371	1159.56
443.592	1197.56
443.813	1175.56
444.034	1207.56
444.255	1243.56
444.476	1287.56
444.698	1371.56
444.919	1454.56
445.14	1530.56
445.361	1339.56
445.582	1241.56
445.803	1177.56
446.024	1102.56
446.245	1100.56
446.466	1074.56
446.687	1045.56
446.908	1041.56
447.129	1035.56
447.35	1024.56
447.571	1027.56
447.792	968.56
448.013	982.56
448.234	948.56
448.455	981.56
448.675	986.56
448.896	944.56
449.117	961.56
449.338	947.56
449.559	943.56
449.779	942.56
450	942.56
450.221	977.56
450.442	985.56
450.662	986.56
450.883	996.56
451.104	1024.56
451.324	980.56
451.545	964.56
451.766	985.56
451.986	954.56
452.207	977.56
452.428	939.56
452.648	970.56
452.869	938.56
453.089	945.56
453.31	944.56
453.53	933.56
453.751	937.56
453.971	926.56
454.192	911.56
454.412	896.56
454.633	922.56
454.853	934.56
455.073	948.56
455.294	932.56
455.514	882.56
455.734	932.56
455.955	896.56
456.175	894.56
456.395	888.56
456.616	891.56
456.836	895.56
457.056	884.56
457.276	890.56
457.497	908.56
457.717	890.56
457.937	917.56
458.157	930.56
458.377	912.56
458.598	931.56
458.818	997.56
459.038	987.56
459.258	1037.56
459.478	1080.56
459.698	1065.56
459.918	1123.56
460.138	1150.56
460.358	1247.56
460.578	1250.56
460.798	1252.56
461.018	1255.56
461.238	1246.56
461.458	1209.56
461.678	1236.56
461.898	1232.56
462.118	1278.56
462.338	1317.56
462.558	1347.56
462.777	1370.56
462.997	1527.56
463.217	1692.56
463.437	1696.56
463.657	1559.56
463.876	1472.56
464.096	1483.56
464.316	1447.56
464.536	1478.56
464.755	1420.56
464.975	1359.56
465.195	1302.56
465.414	1235.56
465.634	1149.56
465.854	1095.56
466.073	1068.56
466.293	1064.56
466.512	1041.56
466.732	1045.56
466.951	1018.56
467.171	989.56
467.391	968.56
467.61	1015.56
467.829	1013.56
468.049	1000.56
468.268	952.56
468.488	948.56
468.707	946.56
468.927	991.56
469.146	957.56
469.365	984.56
469.585	973.56
469.804	992.56
470.023	1028.56
470.243	1032.56
470.462	1074.56
470.681	1054.56
470.901	1018.56
471.12	1027.56
471.339	995.56
471.558	981.56
471.777	979.56
471.997	947.56
472.216	967.56
472.435	946.56
472.654	929.56
472.873	918.56
473.092	946.56
473.311	970.56
473.53	945.56
473.749	942.56
473.968	942.56
474.187	918.56
474.406	932.56
474.625	925.56
474.844	938.56
475.063	931.56
475.282	905.56
475.501	919.56
475.72	954.56
475.939	944.56
476.158	951.56
476.377	988.56
476.596	952.56
476.814	968.56
477.033	1024.56
477.252	997.56
477.471	1036.56
477.69	1058.56
477.908	1054.56
478.127	1115.56
478.346	1129.56
478.564	1141.56
478.783	1141.56
479.002	1191.56
479.22	1176.56
479.439	1173.56
479.658	1140.56
479.876	1205.56
480.095	1177.56
480.313	1227.56
480.532	1284.56
480.751	1300.56
480.969	1196.56
481.188	1167.56
481.406	1130.56
481.624	1078.56
481.843	1101.56
482.061	1084.56
482.28	1052.56
482.498	1048.56
482.717	1061.56
482.935	1059.56
483.153	1071.56
483.372	1041.56
483.59	1073.56
483.808	1078.56
484.027	1058.56
484.245	1096.56
484.463	1064.56
484.681	1101.56
484.9	1127.56
485.118	1117.56
485.336	1122.56
485.554	1117.56
485.772	1127.56
485.99	1099.56
486.209	1144.56
486.427	1138.56
486.645	1139.56
486.863	1122.56
487.081	1142.56
487.299	1135.56
487.517	1111.56
487.735	1141.56
487.953	1108.56
488.171	1120.56
488.389	1082.56
488.607	1092.56
488.825	1086.56
489.043	1087.56
489.261	1102.56
489.479	1106.56
489.696	1113.56
489.914	1131.56
490.132	1102.56
490.35	1116.56
490.568	1118.56
490.786	1154.56
491.003	1098.56
491.221	1150.56
491.439	1126.56
491.657	1119.56
491.874	1118.56
492.092	1106.56
492.31	1119.56
492.527	1140.56
492.745	1142.56
492.963	1157.56
493.18	1155.56
493.398	1167.56
493.615	1178.56
493.833	1167.56
494.05	1150.56
494.268	1188.56
494.485	1181.56
494.703	1186.56
494.92	1188.56
495.138	1165.56
495.355	1186.56
495.573	1176.56
495.79	1172.56
496.008	1168.56
496.225	1185.56
496.442	1188.56
