Data from NiCl2@0.5M.TitratingCurve.Agarose3%dH2O.NegLispCup.LampEnergy10.LIBS07252019_HRD10591_18-20-55-572.txt Node
Date: Thu Jul 25 18:20:55 EDT 2019
User: cochatt
Spectrometer: HR+D1059
Trigger mode: 1
Integration Time (sec): 1.000000E-1
Scans to average: 1
Electric dark correction enabled: true
Nonlinearity correction enabled: false
Boxcar width: 0
XAxis mode: Wavelengths
Number of Pixels in Spectrum: 2048
>>>>>Begin Spectral Data<<<<<
223.165	-17.88
223.4	-17.88
223.635	-17.88
223.869	-17.88
224.104	-1.88
224.338	-9.88
224.573	-12.88
224.808	-13.88
225.042	-5.88
225.277	-10.88
225.511	-3.88
225.746	8.12
225.98	8.12
226.215	1.12
226.449	18.12
226.683	9.12
226.918	29.12
227.152	21.12
227.387	27.12
227.621	41.12
227.856	56.12
228.09	47.12
228.324	62.12
228.559	62.12
228.793	79.12
229.027	90.12
229.262	106.12
229.496	119.12
229.73	109.12
229.964	117.12
230.199	139.12
230.433	145.12
230.667	153.12
230.901	137.12
231.136	120.12
231.37	123.12
231.604	139.12
231.838	138.12
232.072	141.12
232.306	137.12
232.541	134.12
232.775	134.12
233.009	135.12
233.243	137.12
233.477	140.12
233.711	147.12
233.945	134.12
234.179	133.12
234.413	138.12
234.647	143.12
234.881	134.12
235.115	133.12
235.349	137.12
235.583	136.12
235.817	138.12
236.051	140.12
236.285	150.12
236.519	160.12
236.753	161.12
236.987	163.12
237.221	147.12
237.455	138.12
237.689	156.12
237.922	169.12
238.156	154.12
238.39	150.12
238.624	158.12
238.858	149.12
239.091	160.12
239.325	148.12
239.559	170.12
239.793	173.12
240.027	170.12
240.26	180.12
240.494	157.12
240.728	172.12
240.961	150.12
241.195	172.12
241.429	171.12
241.662	177.12
241.896	195.12
242.13	183.12
242.363	183.12
242.597	186.12
242.83	190.12
243.064	181.12
243.298	194.12
243.531	185.12
243.765	197.12
243.998	201.12
244.232	192.12
244.465	202.12
244.699	214.12
244.932	188.12
245.166	193.12
245.399	200.12
245.633	194.12
245.866	202.12
246.099	200.12
246.333	203.12
246.566	204.12
246.8	201.12
247.033	210.12
247.266	213.12
247.5	210.12
247.733	218.12
247.966	214.12
248.2	217.12
248.433	221.12
248.666	210.12
248.899	233.12
249.133	230.12
249.366	228.12
249.599	229.12
249.832	235.12
250.066	215.12
250.299	221.12
250.532	235.12
250.765	244.12
250.998	243.12
251.231	238.12
251.465	256.12
251.698	244.12
251.931	235.12
252.164	241.12
252.397	247.12
252.63	247.12
252.863	245.12
253.096	259.12
253.329	248.12
253.562	221.12
253.795	242.12
254.028	264.12
254.261	228.12
254.494	252.12
254.727	256.12
254.96	256.12
255.193	250.12
255.426	260.12
255.659	255.12
255.892	264.12
256.124	259.12
256.357	278.12
256.59	279.12
256.823	278.12
257.056	271.12
257.289	264.12
257.521	269.12
257.754	291.12
257.987	269.12
258.22	250.12
258.452	267.12
258.685	301.12
258.918	280.12
259.151	279.12
259.383	291.12
259.616	279.12
259.849	294.12
260.081	307.12
260.314	294.12
260.547	290.12
260.779	309.12
261.012	295.12
261.244	292.12
261.477	297.12
261.71	299.12
261.942	297.12
262.175	295.12
262.407	305.12
262.64	289.12
262.872	278.12
263.105	288.12
263.337	314.12
263.57	298.12
263.802	316.12
264.035	308.12
264.267	307.12
264.499	323.12
264.732	307.12
264.964	304.12
265.197	313.12
265.429	323.12
265.661	319.12
265.894	316.12
266.126	330.12
266.358	334.12
266.591	319.12
266.823	338.12
267.055	330.12
267.287	312.12
267.52	325.12
267.752	324.12
267.984	348.12
268.216	338.12
268.448	345.12
268.681	338.12
268.913	328.12
269.145	354.12
269.377	339.12
269.609	340.12
269.841	356.12
270.073	356.12
270.306	347.12
270.538	354.12
270.77	344.12
271.002	356.12
271.234	343.12
271.466	346.12
271.698	338.12
271.93	355.12
272.162	368.12
272.394	366.12
272.626	373.12
272.858	370.12
273.09	370.12
273.322	350.12
273.553	362.12
273.785	355.12
274.017	380.12
274.249	382.12
274.481	356.12
274.713	356.12
274.945	380.12
275.176	383.12
275.408	388.12
275.64	384.12
275.872	391.12
276.104	370.12
276.335	376.12
276.567	376.12
276.799	397.12
277.031	382.12
277.262	392.12
277.494	396.12
277.726	400.12
277.957	412.12
278.189	392.12
278.421	396.12
278.652	398.12
278.884	401.12
279.115	406.12
279.347	399.12
279.579	413.12
279.81	421.12
280.042	419.12
280.273	397.12
280.505	429.12
280.736	429.12
280.968	417.12
281.199	412.12
281.431	410.12
281.662	449.12
281.894	429.12
282.125	430.12
282.356	456.12
282.588	429.12
282.819	434.12
283.051	427.12
283.282	439.12
283.513	429.12
283.745	432.12
283.976	444.12
284.207	436.12
284.439	450.12
284.67	440.12
284.901	449.12
285.132	433.12
285.364	448.12
285.595	430.12
285.826	450.12
286.057	457.12
286.288	439.12
286.52	450.12
286.751	445.12
286.982	448.12
287.213	450.12
287.444	447.12
287.675	467.12
287.906	469.12
288.138	460.12
288.369	470.12
288.6	465.12
288.831	452.12
289.062	452.12
289.293	476.12
289.524	484.12
289.755	481.12
289.986	468.12
290.217	474.12
290.448	483.12
290.679	490.12
290.91	483.12
291.141	477.12
291.371	464.12
291.602	498.12
291.833	463.12
292.064	481.12
292.295	492.12
292.526	516.12
292.757	491.12
292.987	480.12
293.218	484.12
293.449	473.12
293.68	501.12
293.91	485.12
294.141	487.12
294.372	499.12
294.603	489.12
294.833	497.12
295.064	490.12
295.295	486.12
295.525	497.12
295.756	498.12
295.987	488.12
296.217	487.12
296.448	507.12
296.679	526.12
296.909	526.12
297.14	520.12
297.37	517.12
297.601	489.12
297.831	507.12
298.062	528.12
298.292	543.12
298.523	520.12
298.753	542.12
298.984	523.12
299.214	561.12
299.445	550.12
299.675	552.12
299.905	536.12
300.136	541.12
300.366	549.12
300.597	545.12
300.827	541.12
301.057	546.12
301.288	562.12
301.518	565.12
301.748	524.12
301.979	574.12
302.209	557.12
302.439	546.12
302.669	564.12
302.9	564.12
303.13	520.12
303.36	533.12
303.59	557.12
303.82	570.12
304.051	579.12
304.281	572.12
304.511	550.12
304.741	558.12
304.971	578.12
305.201	577.12
305.431	560.12
305.661	568.12
305.891	545.12
306.121	567.12
306.352	552.12
306.582	532.12
306.812	539.12
307.042	548.12
307.272	543.12
307.502	525.12
307.731	545.12
307.961	538.12
308.191	552.12
308.421	544.12
308.651	549.12
308.881	561.12
309.111	568.12
309.341	545.12
309.571	538.12
309.8	582.12
310.03	561.12
310.26	562.12
310.49	581.12
310.72	578.12
310.949	538.12
311.179	566.12
311.409	552.12
311.639	567.12
311.868	574.12
312.098	576.12
312.328	590.12
312.557	578.12
312.787	570.12
313.017	567.12
313.246	596.12
313.476	603.12
313.706	604.12
313.935	588.12
314.165	590.12
314.394	600.12
314.624	577.12
314.853	589.12
315.083	608.12
315.312	590.12
315.542	597.12
315.771	578.12
316.001	589.12
316.23	590.12
316.46	587.12
316.689	586.12
316.919	593.12
317.148	600.12
317.377	610.12
317.607	590.12
317.836	596.12
318.065	588.12
318.295	589.12
318.524	597.12
318.753	573.12
318.983	583.12
319.212	579.12
319.441	601.12
319.67	592.12
319.9	601.12
320.129	602.12
320.358	580.12
320.587	576.12
320.816	564.12
321.046	596.12
321.275	577.12
321.504	620.12
321.733	606.12
321.962	613.12
322.191	603.12
322.42	597.12
322.649	597.12
322.878	595.12
323.108	590.12
323.337	628.12
323.566	628.12
323.795	617.12
324.024	580.12
324.253	610.12
324.482	598.12
324.71	599.12
324.939	621.12
325.168	619.12
325.397	600.12
325.626	617.12
325.855	628.12
326.084	632.12
326.313	647.12
326.542	644.12
326.77	644.12
326.999	645.12
327.228	638.12
327.457	625.12
327.686	646.12
327.914	645.12
328.143	638.12
328.372	662.12
328.6	644.12
328.829	629.12
329.058	651.12
329.287	664.12
329.515	676.12
329.744	667.12
329.972	672.12
330.201	645.12
330.43	666.12
330.658	654.12
330.887	675.12
331.115	666.12
331.344	681.12
331.572	698.12
331.801	678.12
332.03	705.12
332.258	724.12
332.486	730.12
332.715	760.12
332.943	774.12
333.172	790.12
333.4	824.12
333.629	824.12
333.857	809.12
334.085	823.12
334.314	821.12
334.542	830.12
334.771	798.12
334.999	812.12
335.227	776.12
335.455	772.12
335.684	776.12
335.912	786.12
336.14	783.12
336.369	760.12
336.597	778.12
336.825	778.12
337.053	774.12
337.281	756.12
337.51	739.12
337.738	749.12
337.966	728.12
338.194	744.12
338.422	737.12
338.65	717.12
338.878	719.12
339.106	730.12
339.334	716.12
339.562	708.12
339.79	685.12
340.018	654.12
340.246	668.12
340.474	687.12
340.702	642.12
340.93	678.12
341.158	692.12
341.386	696.12
341.614	707.12
341.842	707.12
342.07	657.12
342.298	672.12
342.526	673.12
342.754	669.12
342.981	668.12
343.209	672.12
343.437	725.12
343.665	757.12
343.893	773.12
344.12	780.12
344.348	759.12
344.576	747.12
344.804	710.12
345.031	723.12
345.259	698.12
345.487	682.12
345.714	688.12
345.942	680.12
346.17	696.12
346.397	679.12
346.625	677.12
346.853	629.12
347.08	639.12
347.308	658.12
347.535	653.12
347.763	667.12
347.99	660.12
348.218	654.12
348.445	650.12
348.673	640.12
348.9	651.12
349.128	620.12
349.355	652.12
349.583	656.12
349.81	642.12
350.037	633.12
350.265	619.12
350.492	634.12
350.72	620.12
350.947	615.12
351.174	632.12
351.402	646.12
351.629	653.12
351.856	644.12
352.083	613.12
352.311	628.12
352.538	644.12
352.765	663.12
352.992	621.12
353.22	636.12
353.447	634.12
353.674	631.12
353.901	621.12
354.128	605.12
354.355	605.12
354.583	615.12
354.81	618.12
355.037	618.12
355.264	614.12
355.491	621.12
355.718	620.12
355.945	614.12
356.172	630.12
356.399	640.12
356.626	630.12
356.853	631.12
357.08	624.12
357.307	619.12
357.534	634.12
357.761	625.12
357.988	639.12
358.215	615.12
358.441	614.12
358.668	612.12
358.895	609.12
359.122	601.12
359.349	619.12
359.576	618.12
359.802	625.12
360.029	642.12
360.256	652.12
360.483	611.12
360.709	612.12
360.936	641.12
361.163	618.12
361.39	618.12
361.616	596.12
361.843	630.12
362.07	654.12
362.296	648.12
362.523	592.12
362.749	615.12
362.976	608.12
363.203	609.12
363.429	601.12
363.656	619.12
363.882	621.12
364.109	609.12
364.335	600.12
364.562	585.12
364.788	614.12
365.015	624.12
365.241	612.12
365.468	595.12
365.694	607.12
365.92	622.12
366.147	612.12
366.373	600.12
366.599	619.12
366.826	600.12
367.052	620.12
367.278	630.12
367.505	632.12
367.731	628.12
367.957	602.12
368.184	621.12
368.41	618.12
368.636	620.12
368.862	624.12
369.089	618.12
369.315	634.12
369.541	614.12
369.767	607.12
369.993	600.12
370.219	615.12
370.445	657.12
370.672	643.12
370.898	634.12
371.124	638.12
371.35	649.12
371.576	660.12
371.802	662.12
372.028	682.12
372.254	659.12
372.48	659.12
372.706	657.12
372.932	661.12
373.158	665.12
373.384	691.12
373.61	650.12
373.835	654.12
374.061	667.12
374.287	650.12
374.513	661.12
374.739	677.12
374.965	711.12
375.191	710.12
375.416	721.12
375.642	689.12
375.868	690.12
376.094	643.12
376.319	672.12
376.545	658.12
376.771	661.12
376.997	650.12
377.222	644.12
377.448	640.12
377.674	633.12
377.899	648.12
378.125	634.12
378.35	641.12
378.576	651.12
378.802	650.12
379.027	660.12
379.253	637.12
379.478	622.12
379.704	621.12
379.929	636.12
380.155	634.12
380.38	612.12
380.606	607.12
380.831	612.12
381.057	644.12
381.282	633.12
381.507	646.12
381.733	640.12
381.958	653.12
382.184	650.12
382.409	668.12
382.634	673.12
382.86	672.12
383.085	683.12
383.31	655.12
383.535	685.12
383.761	686.12
383.986	679.12
384.211	733.12
384.436	728.12
384.662	736.12
384.887	733.12
385.112	733.12
385.337	744.12
385.562	741.12
385.787	763.12
386.013	778.12
386.238	766.12
386.463	770.12
386.688	761.12
386.913	756.12
387.138	720.12
387.363	749.12
387.588	723.12
387.813	747.12
388.038	741.12
388.263	736.12
388.488	752.12
388.713	774.12
388.938	748.12
389.163	741.12
389.387	764.12
389.612	740.12
389.837	743.12
390.062	741.12
390.287	776.12
390.512	742.12
390.736	736.12
390.961	756.12
391.186	766.12
391.411	789.12
391.636	821.12
391.86	801.12
392.085	851.12
392.31	840.12
392.534	806.12
392.759	814.12
392.984	798.12
393.208	817.12
393.433	773.12
393.658	798.12
393.882	821.12
394.107	797.12
394.331	818.12
394.556	824.12
394.78	806.12
395.005	829.12
395.229	797.12
395.454	835.12
395.678	840.12
395.903	846.12
396.127	837.12
396.352	810.12
396.576	804.12
396.801	826.12
397.025	816.12
397.249	840.12
397.474	860.12
397.698	865.12
397.922	843.12
398.147	859.12
398.371	866.12
398.595	902.12
398.82	932.12
399.044	978.12
399.268	1062.12
399.492	1206.12
399.717	1285.12
399.941	1291.12
400.165	1209.12
400.389	1106.12
400.613	1024.12
400.837	979.12
401.062	973.12
401.286	942.12
401.51	935.12
401.734	940.12
401.958	940.12
402.182	931.12
402.406	970.12
402.63	950.12
402.854	986.12
403.078	993.12
403.302	974.12
403.526	1052.12
403.75	1023.12
403.974	1052.12
404.198	1046.12
404.422	1069.12
404.645	1069.12
404.869	1012.12
405.093	1035.12
405.317	1011.12
405.541	1018.12
405.765	1022.12
405.988	1033.12
406.212	1039.12
406.436	1024.12
406.66	1059.12
406.883	1064.12
407.107	1103.12
407.331	1135.12
407.555	1213.12
407.778	1167.12
408.002	1178.12
408.226	1113.12
408.449	1114.12
408.673	1097.12
408.896	1085.12
409.12	1061.12
409.344	1062.12
409.567	1060.12
409.791	1085.12
410.014	1066.12
410.238	1062.12
410.461	1048.12
410.685	1063.12
410.908	1026.12
411.132	1028.12
411.355	952.12
411.578	961.12
411.802	960.12
412.025	984.12
412.249	1003.12
412.472	1000.12
412.695	958.12
412.919	952.12
413.142	946.12
413.365	977.12
413.589	960.12
413.812	939.12
414.035	954.12
414.258	967.12
414.482	960.12
414.705	967.12
414.928	967.12
415.151	981.12
415.374	946.12
415.597	958.12
415.821	932.12
416.044	938.12
416.267	913.12
416.49	932.12
416.713	938.12
416.936	933.12
417.159	926.12
417.382	936.12
417.605	936.12
417.828	952.12
418.051	945.12
418.274	949.12
418.497	921.12
418.72	941.12
418.943	971.12
419.166	1013.12
419.389	1074.12
419.611	1056.12
419.834	1008.12
420.057	986.12
420.28	959.12
420.503	947.12
420.726	919.12
420.948	952.12
421.171	967.12
421.394	950.12
421.617	930.12
421.839	922.12
422.062	946.12
422.285	949.12
422.507	955.12
422.73	952.12
422.953	982.12
423.175	984.12
423.398	994.12
423.621	985.12
423.843	978.12
424.066	998.12
424.288	968.12
424.511	973.12
424.733	965.12
424.956	956.12
425.178	949.12
425.401	941.12
425.623	938.12
425.846	932.12
426.068	926.12
426.291	920.12
426.513	897.12
426.735	912.12
426.958	871.12
427.18	888.12
427.402	894.12
427.625	876.12
427.847	886.12
428.069	861.12
428.292	870.12
428.514	885.12
428.736	882.12
428.958	876.12
429.181	853.12
429.403	836.12
429.625	847.12
429.847	838.12
430.069	874.12
430.292	859.12
430.514	873.12
430.736	840.12
430.958	861.12
431.18	846.12
431.402	871.12
431.624	835.12
431.846	854.12
432.068	860.12
432.29	883.12
432.512	862.12
432.734	876.12
432.956	896.12
433.178	904.12
433.4	885.12
433.622	883.12
433.844	865.12
434.066	874.12
434.287	858.12
434.509	932.12
434.731	938.12
434.953	967.12
435.175	938.12
435.397	952.12
435.618	934.12
435.84	896.12
436.062	877.12
436.284	874.12
436.505	845.12
436.727	853.12
436.949	864.12
437.17	856.12
437.392	861.12
437.614	856.12
437.835	847.12
438.057	845.12
438.278	829.12
438.5	831.12
438.721	836.12
438.943	837.12
439.165	850.12
439.386	851.12
439.608	889.12
439.829	887.12
440.05	888.12
440.272	885.12
440.493	875.12
440.715	900.12
440.936	900.12
441.158	938.12
441.379	918.12
441.6	955.12
441.822	988.12
442.043	949.12
442.264	936.12
442.486	976.12
442.707	939.12
442.928	973.12
443.149	962.12
443.371	951.12
443.592	977.12
443.813	989.12
444.034	981.12
444.255	1003.12
444.476	1071.12
444.698	1092.12
444.919	1099.12
445.14	1200.12
445.361	1070.12
445.582	1017.12
445.803	956.12
446.024	928.12
446.245	927.12
446.466	897.12
446.687	870.12
446.908	895.12
447.129	880.12
447.35	870.12
447.571	875.12
447.792	846.12
448.013	852.12
448.234	822.12
448.455	838.12
448.675	827.12
448.896	846.12
449.117	838.12
449.338	810.12
449.559	805.12
449.779	819.12
450	806.12
450.221	822.12
450.442	829.12
450.662	822.12
450.883	826.12
451.104	823.12
451.324	816.12
451.545	820.12
451.766	833.12
451.986	811.12
452.207	810.12
452.428	835.12
452.648	799.12
452.869	793.12
453.089	810.12
453.31	802.12
453.53	817.12
453.751	771.12
453.971	782.12
454.192	767.12
454.412	786.12
454.633	778.12
454.853	778.12
455.073	775.12
455.294	783.12
455.514	758.12
455.734	773.12
455.955	752.12
456.175	746.12
456.395	746.12
456.616	751.12
456.836	775.12
457.056	771.12
457.276	760.12
457.497	768.12
457.717	737.12
457.937	770.12
458.157	786.12
458.377	788.12
458.598	809.12
458.818	829.12
459.038	823.12
459.258	854.12
459.478	908.12
459.698	924.12
459.918	943.12
460.138	962.12
460.358	977.12
460.578	1011.12
460.798	1034.12
461.018	1050.12
461.238	1024.12
461.458	1037.12
461.678	997.12
461.898	1029.12
462.118	1029.12
462.338	1102.12
462.558	1126.12
462.777	1153.12
462.997	1252.12
463.217	1296.12
463.437	1340.12
463.657	1236.12
463.876	1186.12
464.096	1196.12
464.316	1182.12
464.536	1150.12
464.755	1115.12
464.975	1101.12
465.195	1032.12
465.414	999.12
465.634	959.12
465.854	932.12
466.073	922.12
466.293	908.12
466.512	885.12
466.732	846.12
466.951	887.12
467.171	863.12
467.391	865.12
467.61	860.12
467.829	829.12
468.049	824.12
468.268	828.12
468.488	787.12
468.707	800.12
468.927	834.12
469.146	858.12
469.365	818.12
469.585	822.12
469.804	845.12
470.023	883.12
470.243	894.12
470.462	888.12
470.681	876.12
470.901	910.12
471.12	931.12
471.339	839.12
471.558	854.12
471.777	859.12
471.997	849.12
472.216	814.12
472.435	813.12
472.654	817.12
472.873	829.12
473.092	799.12
473.311	810.12
473.53	826.12
473.749	816.12
473.968	823.12
474.187	811.12
474.406	824.12
474.625	820.12
474.844	814.12
475.063	828.12
475.282	820.12
475.501	827.12
475.72	820.12
475.939	846.12
476.158	849.12
476.377	869.12
476.596	857.12
476.814	866.12
477.033	864.12
477.252	861.12
477.471	870.12
477.69	955.12
477.908	914.12
478.127	950.12
478.346	963.12
478.564	974.12
478.783	986.12
479.002	998.12
479.22	1035.12
479.439	1039.12
479.658	1028.12
479.876	1004.12
480.095	1012.12
480.313	1038.12
480.532	1069.12
480.751	1057.12
480.969	1030.12
481.188	998.12
481.406	1008.12
481.624	974.12
481.843	981.12
482.061	931.12
482.28	930.12
482.498	922.12
482.717	921.12
482.935	938.12
483.153	956.12
483.372	957.12
483.59	936.12
483.808	916.12
484.027	961.12
484.245	962.12
484.463	980.12
484.681	939.12
484.9	941.12
485.118	983.12
485.336	968.12
485.554	930.12
485.772	964.12
485.99	956.12
486.209	982.12
486.427	983.12
486.645	930.12
486.863	966.12
487.081	992.12
487.299	944.12
487.517	962.12
487.735	977.12
487.953	982.12
488.171	1004.12
488.389	977.12
488.607	976.12
488.825	926.12
489.043	968.12
489.261	938.12
489.479	950.12
489.696	977.12
489.914	982.12
490.132	976.12
490.35	1037.12
490.568	994.12
490.786	987.12
491.003	994.12
491.221	995.12
491.439	1016.12
491.657	1021.12
491.874	993.12
492.092	1008.12
492.31	1038.12
492.527	1043.12
492.745	1023.12
492.963	1020.12
493.18	1036.12
493.398	1037.12
493.615	1034.12
493.833	1031.12
494.05	1026.12
494.268	1050.12
494.485	1052.12
494.703	1054.12
494.92	1059.12
495.138	1028.12
495.355	1057.12
495.573	1082.12
495.79	1079.12
496.008	1091.12
496.225	1088.12
496.442	1091.12
496.66	1078.12
496.877	1106.12
497.094	1145.12
497.312	1168.12
497.529	1166.12
497.746	1199.12
497.963	1224.12
498.181	1230.12
498.398	1297.12
498.615	1390.12
498.832	1482.12
499.049	1564.12
499.267	1706.12
499.484	1831.12
499.701	1957.12
499.918	2136.12
