Data from NiCl2@0.0625M.TitratingCurve.Agarose3%dH2O.NegLispCup.LampEnergy10.LIBS07252019_HRD10591_18-32-28-576.txt Node
Date: Thu Jul 25 18:32:28 EDT 2019
User: cochatt
Spectrometer: HR+D1059
Trigger mode: 1
Integration Time (sec): 1.000000E-1
Scans to average: 1
Electric dark correction enabled: true
Nonlinearity correction enabled: false
Boxcar width: 0
XAxis mode: Wavelengths
Number of Pixels in Spectrum: 2048
>>>>>Begin Spectral Data<<<<<
223.165	-17.69
223.4	-17.69
223.635	-17.69
223.869	-22.69
224.104	-24.69
224.338	-30.69
224.573	-19.69
224.808	-7.69
225.042	-6.69
225.277	-0.69
225.511	7.31
225.746	-0.69
225.98	12.31
226.215	13.31
226.449	4.31
226.683	23.31
226.918	21.31
227.152	49.31
227.387	34.31
227.621	38.31
227.856	57.31
228.09	52.31
228.324	45.31
228.559	67.31
228.793	98.31
229.027	150.31
229.262	169.31
229.496	167.31
229.73	194.31
229.964	190.31
230.199	180.31
230.433	205.31
230.667	202.31
230.901	199.31
231.136	194.31
231.37	214.31
231.604	212.31
231.838	214.31
232.072	214.31
232.306	230.31
232.541	222.31
232.775	211.31
233.009	219.31
233.243	229.31
233.477	229.31
233.711	223.31
233.945	213.31
234.179	233.31
234.413	219.31
234.647	232.31
234.881	215.31
235.115	241.31
235.349	238.31
235.583	244.31
235.817	229.31
236.051	221.31
236.285	240.31
236.519	239.31
236.753	249.31
236.987	261.31
237.221	250.31
237.455	250.31
237.689	241.31
237.922	257.31
238.156	274.31
238.39	254.31
238.624	253.31
238.858	263.31
239.091	268.31
239.325	278.31
239.559	286.31
239.793	305.31
240.027	308.31
240.26	298.31
240.494	289.31
240.728	290.31
240.961	315.31
241.195	310.31
241.429	301.31
241.662	310.31
241.896	320.31
242.13	332.31
242.363	320.31
242.597	330.31
242.83	334.31
243.064	324.31
243.298	333.31
243.531	334.31
243.765	342.31
243.998	342.31
244.232	337.31
244.465	341.31
244.699	357.31
244.932	373.31
245.166	379.31
245.399	388.31
245.633	384.31
245.866	363.31
246.099	366.31
246.333	384.31
246.566	382.31
246.8	362.31
247.033	380.31
247.266	392.31
247.5	396.31
247.733	388.31
247.966	409.31
248.2	447.31
248.433	431.31
248.666	417.31
248.899	398.31
249.133	407.31
249.366	414.31
249.599	401.31
249.832	449.31
250.066	443.31
250.299	426.31
250.532	427.31
250.765	433.31
250.998	452.31
251.231	440.31
251.465	457.31
251.698	460.31
251.931	467.31
252.164	478.31
252.397	450.31
252.63	473.31
252.863	466.31
253.096	484.31
253.329	488.31
253.562	474.31
253.795	482.31
254.028	503.31
254.261	494.31
254.494	494.31
254.727	490.31
254.96	472.31
255.193	503.31
255.426	482.31
255.659	488.31
255.892	515.31
256.124	500.31
256.357	520.31
256.59	495.31
256.823	538.31
257.056	513.31
257.289	524.31
257.521	535.31
257.754	544.31
257.987	522.31
258.22	536.31
258.452	525.31
258.685	540.31
258.918	533.31
259.151	533.31
259.383	561.31
259.616	526.31
259.849	542.31
260.081	561.31
260.314	576.31
260.547	586.31
260.779	549.31
261.012	568.31
261.244	562.31
261.477	570.31
261.71	579.31
261.942	573.31
262.175	603.31
262.407	576.31
262.64	585.31
262.872	613.31
263.105	586.31
263.337	608.31
263.57	634.31
263.802	624.31
264.035	600.31
264.267	611.31
264.499	609.31
264.732	606.31
264.964	615.31
265.197	608.31
265.429	625.31
265.661	614.31
265.894	620.31
266.126	623.31
266.358	640.31
266.591	640.31
266.823	647.31
267.055	660.31
267.287	644.31
267.52	657.31
267.752	640.31
267.984	648.31
268.216	684.31
268.448	655.31
268.681	663.31
268.913	667.31
269.145	658.31
269.377	684.31
269.609	708.31
269.841	653.31
270.073	662.31
270.306	682.31
270.538	694.31
270.77	696.31
271.002	665.31
271.234	686.31
271.466	719.31
271.698	664.31
271.93	728.31
272.162	701.31
272.394	714.31
272.626	709.31
272.858	726.31
273.09	703.31
273.322	699.31
273.553	702.31
273.785	735.31
274.017	732.31
274.249	745.31
274.481	742.31
274.713	739.31
274.945	758.31
275.176	752.31
275.408	777.31
275.64	794.31
275.872	765.31
276.104	787.31
276.335	774.31
276.567	784.31
276.799	776.31
277.031	782.31
277.262	770.31
277.494	790.31
277.726	795.31
277.957	774.31
278.189	810.31
278.421	798.31
278.652	805.31
278.884	796.31
279.115	815.31
279.347	829.31
279.579	853.31
279.81	845.31
280.042	856.31
280.273	850.31
280.505	840.31
280.736	839.31
280.968	841.31
281.199	877.31
281.431	857.31
281.662	845.31
281.894	857.31
282.125	835.31
282.356	843.31
282.588	887.31
282.819	857.31
283.051	855.31
283.282	865.31
283.513	860.31
283.745	887.31
283.976	862.31
284.207	893.31
284.439	900.31
284.67	891.31
284.901	881.31
285.132	914.31
285.364	912.31
285.595	898.31
285.826	914.31
286.057	920.31
286.288	920.31
286.52	905.31
286.751	902.31
286.982	935.31
287.213	904.31
287.444	917.31
287.675	919.31
287.906	910.31
288.138	920.31
288.369	936.31
288.6	935.31
288.831	933.31
289.062	940.31
289.293	926.31
289.524	955.31
289.755	944.31
289.986	940.31
290.217	945.31
290.448	958.31
290.679	964.31
290.91	943.31
291.141	947.31
291.371	936.31
291.602	934.31
291.833	949.31
292.064	976.31
292.295	940.31
292.526	963.31
292.757	936.31
292.987	951.31
293.218	959.31
293.449	955.31
293.68	960.31
293.91	957.31
294.141	963.31
294.372	946.31
294.603	986.31
294.833	992.31
295.064	976.31
295.295	984.31
295.525	945.31
295.756	981.31
295.987	975.31
296.217	995.31
296.448	957.31
296.679	986.31
296.909	1003.31
297.14	1003.31
297.37	1044.31
297.601	1038.31
297.831	1004.31
298.062	1009.31
298.292	1031.31
298.523	1052.31
298.753	1056.31
298.984	1030.31
299.214	1035.31
299.445	1046.31
299.675	1007.31
299.905	1037.31
300.136	1033.31
300.366	1054.31
300.597	1050.31
300.827	1069.31
301.057	1069.31
301.288	1088.31
301.518	1100.31
301.748	1087.31
301.979	1097.31
302.209	1095.31
302.439	1098.31
302.669	1098.31
302.9	1087.31
303.13	1093.31
303.36	1080.31
303.59	1102.31
303.82	1092.31
304.051	1117.31
304.281	1098.31
304.511	1077.31
304.741	1081.31
304.971	1109.31
305.201	1111.31
305.431	1127.31
305.661	1112.31
305.891	1099.31
306.121	1091.31
306.352	1090.31
306.582	1078.31
306.812	1102.31
307.042	1054.31
307.272	1086.31
307.502	1066.31
307.731	1072.31
307.961	1068.31
308.191	1090.31
308.421	1101.31
308.651	1101.31
308.881	1061.31
309.111	1072.31
309.341	1122.31
309.571	1107.31
309.8	1086.31
310.03	1065.31
310.26	1085.31
310.49	1068.31
310.72	1091.31
310.949	1099.31
311.179	1110.31
311.409	1080.31
311.639	1119.31
311.868	1124.31
312.098	1105.31
312.328	1148.31
312.557	1149.31
312.787	1112.31
313.017	1158.31
313.246	1154.31
313.476	1130.31
313.706	1178.31
313.935	1165.31
314.165	1144.31
314.394	1161.31
314.624	1173.31
314.853	1139.31
315.083	1164.31
315.312	1184.31
315.542	1155.31
315.771	1157.31
316.001	1223.31
316.23	1206.31
316.46	1130.31
316.689	1178.31
316.919	1150.31
317.148	1149.31
317.377	1127.31
317.607	1138.31
317.836	1150.31
318.065	1176.31
318.295	1193.31
318.524	1162.31
318.753	1154.31
318.983	1142.31
319.212	1144.31
319.441	1167.31
319.67	1162.31
319.9	1148.31
320.129	1142.31
320.358	1202.31
320.587	1161.31
320.816	1156.31
321.046	1164.31
321.275	1150.31
321.504	1159.31
321.733	1196.31
321.962	1180.31
322.191	1155.31
322.42	1200.31
322.649	1178.31
322.878	1193.31
323.108	1176.31
323.337	1190.31
323.566	1175.31
323.795	1220.31
324.024	1212.31
324.253	1210.31
324.482	1193.31
324.71	1217.31
324.939	1230.31
325.168	1251.31
325.397	1249.31
325.626	1225.31
325.855	1254.31
326.084	1234.31
326.313	1262.31
326.542	1281.31
326.77	1290.31
326.999	1249.31
327.228	1224.31
327.457	1230.31
327.686	1248.31
327.914	1247.31
328.143	1236.31
328.372	1261.31
328.6	1284.31
328.829	1269.31
329.058	1269.31
329.287	1257.31
329.515	1294.31
329.744	1263.31
329.972	1286.31
330.201	1265.31
330.43	1300.31
330.658	1269.31
330.887	1315.31
331.115	1321.31
331.344	1328.31
331.572	1317.31
331.801	1368.31
332.03	1366.31
332.258	1403.31
332.486	1414.31
332.715	1477.31
332.943	1473.31
333.172	1508.31
333.4	1618.31
333.629	1618.31
333.857	1641.31
334.085	1617.31
334.314	1600.31
334.542	1605.31
334.771	1568.31
334.999	1574.31
335.227	1587.31
335.455	1594.31
335.684	1526.31
335.912	1571.31
336.14	1536.31
336.369	1556.31
336.597	1510.31
336.825	1509.31
337.053	1467.31
337.281	1502.31
337.51	1450.31
337.738	1457.31
337.966	1444.31
338.194	1434.31
338.422	1407.31
338.65	1357.31
338.878	1381.31
339.106	1373.31
339.334	1410.31
339.562	1408.31
339.79	1358.31
340.018	1365.31
340.246	1330.31
340.474	1340.31
340.702	1340.31
340.93	1337.31
341.158	1349.31
341.386	1377.31
341.614	1342.31
341.842	1303.31
342.07	1304.31
342.298	1340.31
342.526	1336.31
342.754	1325.31
342.981	1336.31
343.209	1354.31
343.437	1412.31
343.665	1462.31
343.893	1554.31
344.12	1544.31
344.348	1542.31
344.576	1516.31
344.804	1479.31
345.031	1408.31
345.259	1370.31
345.487	1330.31
345.714	1318.31
345.942	1310.31
346.17	1325.31
346.397	1320.31
346.625	1307.31
346.853	1292.31
347.08	1281.31
347.308	1281.31
347.535	1269.31
347.763	1265.31
347.99	1256.31
348.218	1262.31
348.445	1281.31
348.673	1262.31
348.9	1273.31
349.128	1271.31
349.355	1239.31
349.583	1271.31
349.81	1294.31
350.037	1248.31
350.265	1261.31
350.492	1240.31
350.72	1243.31
350.947	1224.31
351.174	1207.31
351.402	1255.31
351.629	1238.31
351.856	1198.31
352.083	1239.31
352.311	1214.31
352.538	1214.31
352.765	1225.31
352.992	1194.31
353.22	1231.31
353.447	1213.31
353.674	1226.31
353.901	1225.31
354.128	1232.31
354.355	1205.31
354.583	1198.31
354.81	1216.31
355.037	1213.31
355.264	1193.31
355.491	1232.31
355.718	1264.31
355.945	1227.31
356.172	1261.31
356.399	1204.31
356.626	1242.31
356.853	1270.31
357.08	1218.31
357.307	1231.31
357.534	1241.31
357.761	1249.31
357.988	1265.31
358.215	1228.31
358.441	1236.31
358.668	1208.31
358.895	1224.31
359.122	1199.31
359.349	1269.31
359.576	1217.31
359.802	1255.31
360.029	1209.31
360.256	1216.31
360.483	1226.31
360.709	1238.31
360.936	1238.31
361.163	1249.31
361.39	1232.31
361.616	1221.31
361.843	1238.31
362.07	1230.31
362.296	1230.31
362.523	1228.31
362.749	1235.31
362.976	1248.31
363.203	1206.31
363.429	1208.31
363.656	1204.31
363.882	1254.31
364.109	1259.31
364.335	1224.31
364.562	1231.31
364.788	1218.31
365.015	1253.31
365.241	1233.31
365.468	1214.31
365.694	1236.31
365.92	1264.31
366.147	1213.31
366.373	1193.31
366.599	1233.31
366.826	1193.31
367.052	1260.31
367.278	1260.31
367.505	1211.31
367.731	1272.31
367.957	1254.31
368.184	1254.31
368.41	1249.31
368.636	1231.31
368.862	1255.31
369.089	1243.31
369.315	1250.31
369.541	1266.31
369.767	1269.31
369.993	1288.31
370.219	1275.31
370.445	1286.31
370.672	1304.31
370.898	1295.31
371.124	1306.31
371.35	1348.31
371.576	1330.31
371.802	1326.31
372.028	1313.31
372.254	1309.31
372.48	1339.31
372.706	1364.31
372.932	1381.31
373.158	1366.31
373.384	1361.31
373.61	1348.31
373.835	1390.31
374.061	1356.31
374.287	1376.31
374.513	1361.31
374.739	1410.31
374.965	1455.31
375.191	1467.31
375.416	1492.31
375.642	1420.31
375.868	1403.31
376.094	1389.31
376.319	1395.31
376.545	1371.31
376.771	1350.31
376.997	1321.31
377.222	1329.31
377.448	1318.31
377.674	1361.31
377.899	1326.31
378.125	1317.31
378.35	1314.31
378.576	1340.31
378.802	1362.31
379.027	1312.31
379.253	1347.31
379.478	1319.31
379.704	1294.31
379.929	1330.31
380.155	1321.31
380.38	1325.31
380.606	1330.31
380.831	1324.31
381.057	1319.31
381.282	1334.31
381.507	1313.31
381.733	1361.31
381.958	1353.31
382.184	1375.31
382.409	1340.31
382.634	1353.31
382.86	1386.31
383.085	1408.31
383.31	1401.31
383.535	1438.31
383.761	1445.31
383.986	1493.31
384.211	1511.31
384.436	1508.31
384.662	1545.31
384.887	1547.31
385.112	1517.31
385.337	1566.31
385.562	1578.31
385.787	1575.31
386.013	1615.31
386.238	1581.31
386.463	1595.31
386.688	1626.31
386.913	1585.31
387.138	1564.31
387.363	1560.31
387.588	1577.31
387.813	1591.31
388.038	1565.31
388.263	1600.31
388.488	1592.31
388.713	1569.31
388.938	1520.31
389.163	1556.31
389.387	1581.31
389.612	1590.31
389.837	1550.31
390.062	1584.31
390.287	1582.31
390.512	1554.31
390.736	1597.31
390.961	1608.31
391.186	1610.31
391.411	1650.31
391.636	1707.31
391.86	1753.31
392.085	1736.31
392.31	1762.31
392.534	1706.31
392.759	1737.31
392.984	1743.31
393.208	1817.31
393.433	2032.31
393.658	2170.31
393.882	1802.31
394.107	1708.31
394.331	1718.31
394.556	1674.31
394.78	1664.31
395.005	1740.31
395.229	1719.31
395.454	1738.31
395.678	1729.31
395.903	1776.31
396.127	1746.31
396.352	1750.31
396.576	1726.31
396.801	1827.31
397.025	2022.31
397.249	1902.31
397.474	1833.31
397.698	1761.31
397.922	1764.31
398.147	1817.31
398.371	1837.31
398.595	1844.31
398.82	1986.31
399.044	2070.31
399.268	2224.31
399.492	2486.31
399.717	2708.31
399.941	2710.31
400.165	2540.31
400.389	2334.31
400.613	2220.31
400.837	2085.31
401.062	2049.31
401.286	2005.31
401.51	1972.31
401.734	1969.31
401.958	2028.31
402.182	1956.31
402.406	2047.31
402.63	2045.31
402.854	2056.31
403.078	2023.31
403.302	2077.31
403.526	2098.31
403.75	2157.31
403.974	2166.31
404.198	2143.31
404.422	2177.31
404.645	2135.31
404.869	2103.31
405.093	2116.31
405.317	2127.31
405.541	2129.31
405.765	2064.31
405.988	2120.31
406.212	2117.31
406.436	2147.31
406.66	2207.31
406.883	2205.31
407.107	2328.31
407.331	2351.31
407.555	2458.31
407.778	2422.31
408.002	2394.31
408.226	2334.31
408.449	2297.31
408.673	2262.31
408.896	2186.31
409.12	2161.31
409.344	2180.31
409.567	2122.31
409.791	2178.31
410.014	2126.31
410.238	2125.31
410.461	2089.31
410.685	2108.31
410.908	2066.31
411.132	2066.31
411.355	2065.31
411.578	2032.31
411.802	2034.31
412.025	2031.31
412.249	2079.31
412.472	2073.31
412.695	2030.31
412.919	2017.31
413.142	1960.31
413.365	1956.31
413.589	1999.31
413.812	1926.31
414.035	1979.31
414.258	1972.31
414.482	1966.31
414.705	1971.31
414.928	1988.31
415.151	1943.31
415.374	1966.31
415.597	1905.31
415.821	1870.31
416.044	1860.31
416.267	1841.31
416.49	1853.31
416.713	1911.31
416.936	1886.31
417.159	1928.31
417.382	1872.31
417.605	1861.31
417.828	1844.31
418.051	1896.31
418.274	1894.31
418.497	1871.31
418.72	1905.31
418.943	1935.31
419.166	2003.31
419.389	2194.31
419.611	2120.31
419.834	2032.31
420.057	2005.31
420.28	1918.31
420.503	1909.31
420.726	1900.31
420.948	1886.31
421.171	1913.31
421.394	1904.31
421.617	1863.31
421.839	1905.31
422.062	1884.31
422.285	1914.31
422.507	1910.31
422.73	1934.31
422.953	1994.31
423.175	1966.31
423.398	1938.31
423.621	1913.31
423.843	1952.31
424.066	1925.31
424.288	1929.31
424.511	1948.31
424.733	1915.31
424.956	1916.31
425.178	1854.31
425.401	1859.31
425.623	1913.31
425.846	1846.31
426.068	1879.31
426.291	1833.31
426.513	1824.31
426.735	1785.31
426.958	1777.31
427.18	1768.31
427.402	1764.31
427.625	1787.31
427.847	1745.31
428.069	1729.31
428.292	1697.31
428.514	1693.31
428.736	1736.31
428.958	1741.31
429.181	1711.31
429.403	1683.31
429.625	1688.31
429.847	1700.31
430.069	1679.31
430.292	1714.31
430.514	1683.31
430.736	1719.31
430.958	1718.31
431.18	1730.31
431.402	1725.31
431.624	1681.31
431.846	1722.31
432.068	1739.31
432.29	1738.31
432.512	1719.31
432.734	1734.31
432.956	1757.31
433.178	1744.31
433.4	1748.31
433.622	1718.31
433.844	1727.31
434.066	1764.31
434.287	1776.31
434.509	1821.31
434.731	1863.31
434.953	1899.31
435.175	1881.31
435.397	1872.31
435.618	1805.31
435.84	1772.31
436.062	1731.31
436.284	1741.31
436.505	1727.31
436.727	1726.31
436.949	1717.31
437.17	1764.31
437.392	1712.31
437.614	1657.31
437.835	1632.31
438.057	1622.31
438.278	1626.31
438.5	1647.31
438.721	1608.31
438.943	1680.31
439.165	1686.31
439.386	1662.31
439.608	1698.31
439.829	1685.31
440.05	1665.31
440.272	1709.31
440.493	1708.31
440.715	1730.31
440.936	1773.31
441.158	1779.31
441.379	1757.31
441.6	1870.31
441.822	1885.31
442.043	1849.31
442.264	1790.31
442.486	1808.31
442.707	1821.31
442.928	1845.31
443.149	1865.31
443.371	1817.31
443.592	1854.31
443.813	1859.31
444.034	1867.31
444.255	1901.31
444.476	2022.31
444.698	2060.31
444.919	2070.31
445.14	2137.31
445.361	2031.31
445.582	1914.31
445.803	1839.31
446.024	1788.31
446.245	1792.31
446.466	1754.31
446.687	1732.31
446.908	1708.31
447.129	1663.31
447.35	1667.31
447.571	1642.31
447.792	1606.31
448.013	1597.31
448.234	1570.31
448.455	1564.31
448.675	1557.31
448.896	1560.31
449.117	1542.31
449.338	1531.31
449.559	1530.31
449.779	1520.31
450	1509.31
450.221	1521.31
450.442	1552.31
450.662	1532.31
450.883	1537.31
451.104	1576.31
451.324	1576.31
451.545	1524.31
451.766	1547.31
451.986	1552.31
452.207	1544.31
452.428	1498.31
452.648	1538.31
452.869	1546.31
453.089	1496.31
453.31	1497.31
453.53	1451.31
453.751	1473.31
453.971	1484.31
454.192	1467.31
454.412	1511.31
454.633	1463.31
454.853	1439.31
455.073	1440.31
455.294	1451.31
455.514	1466.31
455.734	1460.31
455.955	1447.31
456.175	1436.31
456.395	1439.31
456.616	1419.31
456.836	1449.31
457.056	1448.31
457.276	1422.31
457.497	1461.31
457.717	1463.31
457.937	1462.31
458.157	1472.31
458.377	1482.31
458.598	1533.31
458.818	1552.31
459.038	1620.31
459.258	1637.31
459.478	1700.31
459.698	1766.31
459.918	1783.31
460.138	1810.31
460.358	1895.31
460.578	1901.31
460.798	1933.31
461.018	1950.31
461.238	1942.31
461.458	1935.31
461.678	1930.31
461.898	1982.31
462.118	1959.31
462.338	2051.31
462.558	2120.31
462.777	2187.31
462.997	2318.31
463.217	2384.31
463.437	2467.31
463.657	2318.31
463.876	2241.31
464.096	2208.31
464.316	2216.31
464.536	2205.31
464.755	2191.31
464.975	2060.31
465.195	1990.31
465.414	1924.31
465.634	1776.31
465.854	1749.31
466.073	1732.31
466.293	1696.31
466.512	1669.31
466.732	1599.31
466.951	1654.31
467.171	1616.31
467.391	1634.31
467.61	1588.31
467.829	1574.31
468.049	1599.31
468.268	1563.31
468.488	1588.31
468.707	1556.31
468.927	1586.31
469.146	1566.31
469.365	1595.31
469.585	1602.31
469.804	1592.31
470.023	1640.31
470.243	1644.31
470.462	1679.31
470.681	1692.31
470.901	1637.31
471.12	1652.31
471.339	1636.31
471.558	1597.31
471.777	1603.31
471.997	1575.31
472.216	1552.31
472.435	1562.31
472.654	1553.31
472.873	1526.31
473.092	1528.31
473.311	1561.31
473.53	1528.31
473.749	1531.31
473.968	1563.31
474.187	1519.31
474.406	1544.31
474.625	1540.31
474.844	1538.31
475.063	1527.31
475.282	1592.31
475.501	1588.31
475.72	1581.31
475.939	1550.31
476.158	1631.31
476.377	1608.31
476.596	1624.31
476.814	1612.31
477.033	1632.31
477.252	1677.31
477.471	1680.31
477.69	1739.31
477.908	1774.31
478.127	1818.31
478.346	1788.31
478.564	1871.31
478.783	1868.31
479.002	1905.31
479.22	1916.31
479.439	1942.31
479.658	1922.31
479.876	1928.31
480.095	1958.31
480.313	1998.31
480.532	2041.31
480.751	2024.31
480.969	2000.31
481.188	1959.31
481.406	1915.31
481.624	1873.31
481.843	1873.31
482.061	1848.31
482.28	1831.31
482.498	1858.31
482.717	1865.31
482.935	1908.31
483.153	1854.31
483.372	1872.31
483.59	1856.31
483.808	1885.31
484.027	1930.31
484.245	1923.31
484.463	1888.31
484.681	1941.31
484.9	1940.31
485.118	1944.31
485.336	1913.31
485.554	1936.31
485.772	1976.31
485.99	1930.31
486.209	1959.31
486.427	1964.31
486.645	1941.31
486.863	1955.31
487.081	1987.31
487.299	1934.31
487.517	1956.31
487.735	1934.31
487.953	1920.31
488.171	1898.31
488.389	1938.31
488.607	1948.31
488.825	1924.31
489.043	1863.31
489.261	1911.31
489.479	1918.31
489.696	1924.31
