Data from NiCl2@0.25M.TitratingCurve.Agarose3%dH2O.NegLispCup.LampEnergy10.LIBS07252019_HRD10591_18-25-14-573.txt Node
Date: Thu Jul 25 18:25:14 EDT 2019
User: cochatt
Spectrometer: HR+D1059
Trigger mode: 1
Integration Time (sec): 1.000000E-1
Scans to average: 1
Electric dark correction enabled: true
Nonlinearity correction enabled: false
Boxcar width: 0
XAxis mode: Wavelengths
Number of Pixels in Spectrum: 2048
>>>>>Begin Spectral Data<<<<<
223.165	-10.06
223.4	-10.06
223.635	-10.06
223.869	-22.06
224.104	-20.06
224.338	-15.06
224.573	-23.06
224.808	-4.06
225.042	1.94
225.277	-11.06
225.511	-7.06
225.746	18.94
225.98	4.94
226.215	0.94
226.449	5.94
226.683	26.94
226.918	23.94
227.152	28.94
227.387	38.94
227.621	25.94
227.856	48.94
228.09	49.94
228.324	41.94
228.559	65.94
228.793	77.94
229.027	97.94
229.262	101.94
229.496	108.94
229.73	102.94
229.964	122.94
230.199	131.94
230.433	112.94
230.667	111.94
230.901	136.94
231.136	125.94
231.37	120.94
231.604	128.94
231.838	114.94
232.072	133.94
232.306	137.94
232.541	139.94
232.775	124.94
233.009	147.94
233.243	131.94
233.477	145.94
233.711	126.94
233.945	139.94
234.179	131.94
234.413	131.94
234.647	151.94
234.881	138.94
235.115	154.94
235.349	134.94
235.583	134.94
235.817	143.94
236.051	127.94
236.285	147.94
236.519	149.94
236.753	153.94
236.987	147.94
237.221	154.94
237.455	161.94
237.689	142.94
237.922	179.94
238.156	152.94
238.39	160.94
238.624	156.94
238.858	164.94
239.091	150.94
239.325	145.94
239.559	156.94
239.793	151.94
240.027	170.94
240.26	145.94
240.494	173.94
240.728	165.94
240.961	176.94
241.195	163.94
241.429	163.94
241.662	192.94
241.896	172.94
242.13	169.94
242.363	176.94
242.597	169.94
242.83	167.94
243.064	176.94
243.298	182.94
243.531	197.94
243.765	185.94
243.998	179.94
244.232	180.94
244.465	186.94
244.699	185.94
244.932	194.94
245.166	192.94
245.399	218.94
245.633	209.94
245.866	195.94
246.099	196.94
246.333	212.94
246.566	197.94
246.8	189.94
247.033	195.94
247.266	197.94
247.5	199.94
247.733	228.94
247.966	220.94
248.2	210.94
248.433	199.94
248.666	217.94
248.899	225.94
249.133	205.94
249.366	217.94
249.599	235.94
249.832	209.94
250.066	219.94
250.299	204.94
250.532	206.94
250.765	229.94
250.998	224.94
251.231	235.94
251.465	243.94
251.698	236.94
251.931	228.94
252.164	245.94
252.397	223.94
252.63	239.94
252.863	215.94
253.096	235.94
253.329	242.94
253.562	245.94
253.795	235.94
254.028	253.94
254.261	263.94
254.494	265.94
254.727	257.94
254.96	240.94
255.193	235.94
255.426	253.94
255.659	260.94
255.892	236.94
256.124	248.94
256.357	265.94
256.59	243.94
256.823	257.94
257.056	267.94
257.289	273.94
257.521	276.94
257.754	271.94
257.987	272.94
258.22	273.94
258.452	272.94
258.685	279.94
258.918	258.94
259.151	268.94
259.383	277.94
259.616	279.94
259.849	279.94
260.081	274.94
260.314	269.94
260.547	283.94
260.779	295.94
261.012	282.94
261.244	288.94
261.477	272.94
261.71	286.94
261.942	284.94
262.175	300.94
262.407	298.94
262.64	286.94
262.872	288.94
263.105	305.94
263.337	298.94
263.57	291.94
263.802	283.94
264.035	312.94
264.267	286.94
264.499	298.94
264.732	308.94
264.964	307.94
265.197	311.94
265.429	300.94
265.661	312.94
265.894	317.94
266.126	322.94
266.358	311.94
266.591	319.94
266.823	322.94
267.055	313.94
267.287	325.94
267.52	332.94
267.752	337.94
267.984	307.94
268.216	301.94
268.448	335.94
268.681	316.94
268.913	327.94
269.145	319.94
269.377	328.94
269.609	336.94
269.841	325.94
270.073	318.94
270.306	319.94
270.538	320.94
270.77	341.94
271.002	328.94
271.234	342.94
271.466	362.94
271.698	351.94
271.93	320.94
272.162	327.94
272.394	337.94
272.626	332.94
272.858	335.94
273.09	355.94
273.322	356.94
273.553	372.94
273.785	360.94
274.017	363.94
274.249	348.94
274.481	371.94
274.713	357.94
274.945	350.94
275.176	368.94
275.408	378.94
275.64	361.94
275.872	381.94
276.104	379.94
276.335	388.94
276.567	370.94
276.799	359.94
277.031	375.94
277.262	371.94
277.494	385.94
277.726	357.94
277.957	388.94
278.189	401.94
278.421	386.94
278.652	363.94
278.884	413.94
279.115	397.94
279.347	392.94
279.579	383.94
279.81	390.94
280.042	404.94
280.273	385.94
280.505	409.94
280.736	399.94
280.968	403.94
281.199	388.94
281.431	400.94
281.662	403.94
281.894	408.94
282.125	412.94
282.356	422.94
282.588	427.94
282.819	428.94
283.051	419.94
283.282	404.94
283.513	423.94
283.745	434.94
283.976	408.94
284.207	438.94
284.439	417.94
284.67	433.94
284.901	421.94
285.132	440.94
285.364	413.94
285.595	426.94
285.826	427.94
286.057	419.94
286.288	445.94
286.52	421.94
286.751	423.94
286.982	450.94
287.213	451.94
287.444	435.94
287.675	452.94
287.906	437.94
288.138	455.94
288.369	444.94
288.6	447.94
288.831	445.94
289.062	453.94
289.293	448.94
289.524	450.94
289.755	444.94
289.986	437.94
290.217	453.94
290.448	444.94
290.679	475.94
290.91	447.94
291.141	455.94
291.371	473.94
291.602	468.94
291.833	476.94
292.064	492.94
292.295	471.94
292.526	469.94
292.757	455.94
292.987	475.94
293.218	456.94
293.449	470.94
293.68	452.94
293.91	470.94
294.141	490.94
294.372	476.94
294.603	470.94
294.833	467.94
295.064	482.94
295.295	475.94
295.525	469.94
295.756	454.94
295.987	481.94
296.217	482.94
296.448	472.94
296.679	480.94
296.909	479.94
297.14	498.94
297.37	506.94
297.601	487.94
297.831	495.94
298.062	513.94
298.292	490.94
298.523	518.94
298.753	518.94
298.984	500.94
299.214	495.94
299.445	507.94
299.675	502.94
299.905	495.94
300.136	512.94
300.366	525.94
300.597	525.94
300.827	520.94
301.057	516.94
301.288	539.94
301.518	560.94
301.748	541.94
301.979	545.94
302.209	528.94
302.439	544.94
302.669	520.94
302.9	538.94
303.13	534.94
303.36	550.94
303.59	536.94
303.82	518.94
304.051	544.94
304.281	544.94
304.511	523.94
304.741	529.94
304.971	525.94
305.201	561.94
305.431	520.94
305.661	526.94
305.891	539.94
306.121	514.94
306.352	506.94
306.582	503.94
306.812	530.94
307.042	520.94
307.272	527.94
307.502	515.94
307.731	528.94
307.961	523.94
308.191	529.94
308.421	538.94
308.651	519.94
308.881	528.94
309.111	513.94
309.341	529.94
309.571	512.94
309.8	532.94
310.03	512.94
310.26	518.94
310.49	519.94
310.72	512.94
310.949	522.94
311.179	539.94
311.409	524.94
311.639	514.94
311.868	540.94
312.098	562.94
312.328	545.94
312.557	538.94
312.787	535.94
313.017	560.94
313.246	556.94
313.476	560.94
313.706	558.94
313.935	547.94
314.165	544.94
314.394	587.94
314.624	570.94
314.853	576.94
315.083	572.94
315.312	566.94
315.542	569.94
315.771	542.94
316.001	563.94
316.23	525.94
316.46	534.94
316.689	554.94
316.919	531.94
317.148	565.94
317.377	555.94
317.607	545.94
317.836	545.94
318.065	545.94
318.295	548.94
318.524	531.94
318.753	523.94
318.983	532.94
319.212	556.94
319.441	545.94
319.67	537.94
319.9	546.94
320.129	553.94
320.358	543.94
320.587	579.94
320.816	561.94
321.046	549.94
321.275	549.94
321.504	553.94
321.733	572.94
321.962	581.94
322.191	579.94
322.42	553.94
322.649	567.94
322.878	546.94
323.108	571.94
323.337	567.94
323.566	571.94
323.795	552.94
324.024	579.94
324.253	574.94
324.482	587.94
324.71	575.94
324.939	589.94
325.168	603.94
325.397	578.94
325.626	575.94
325.855	596.94
326.084	591.94
326.313	616.94
326.542	608.94
326.77	597.94
326.999	609.94
327.228	619.94
327.457	609.94
327.686	612.94
327.914	621.94
328.143	607.94
328.372	572.94
328.6	609.94
328.829	593.94
329.058	610.94
329.287	617.94
329.515	627.94
329.744	627.94
329.972	625.94
330.201	626.94
330.43	628.94
330.658	623.94
330.887	659.94
331.115	622.94
331.344	636.94
331.572	633.94
331.801	667.94
332.03	678.94
332.258	686.94
332.486	692.94
332.715	705.94
332.943	729.94
333.172	759.94
333.4	776.94
333.629	792.94
333.857	800.94
334.085	780.94
334.314	787.94
334.542	783.94
334.771	781.94
334.999	760.94
335.227	771.94
335.455	752.94
335.684	755.94
335.912	732.94
336.14	747.94
336.369	741.94
336.597	739.94
336.825	722.94
337.053	731.94
337.281	719.94
337.51	711.94
337.738	697.94
337.966	696.94
338.194	677.94
338.422	689.94
338.65	663.94
338.878	670.94
339.106	645.94
339.334	675.94
339.562	633.94
339.79	627.94
340.018	648.94
340.246	663.94
340.474	674.94
340.702	641.94
340.93	635.94
341.158	631.94
341.386	646.94
341.614	629.94
341.842	615.94
342.07	612.94
342.298	642.94
342.526	653.94
342.754	614.94
342.981	644.94
343.209	648.94
343.437	697.94
343.665	713.94
343.893	769.94
344.12	776.94
344.348	748.94
344.576	682.94
344.804	670.94
345.031	694.94
345.259	679.94
345.487	647.94
345.714	635.94
345.942	666.94
346.17	612.94
346.397	612.94
346.625	623.94
346.853	617.94
347.08	611.94
347.308	618.94
347.535	597.94
347.763	648.94
347.99	625.94
348.218	620.94
348.445	631.94
348.673	621.94
348.9	639.94
349.128	605.94
349.355	618.94
349.583	599.94
349.81	595.94
350.037	592.94
350.265	597.94
350.492	612.94
350.72	598.94
350.947	584.94
351.174	602.94
351.402	618.94
351.629	588.94
351.856	581.94
352.083	590.94
352.311	606.94
352.538	592.94
352.765	600.94
352.992	604.94
353.22	578.94
353.447	589.94
353.674	584.94
353.901	570.94
354.128	596.94
354.355	582.94
354.583	587.94
354.81	592.94
355.037	601.94
355.264	598.94
355.491	587.94
355.718	609.94
355.945	603.94
356.172	600.94
356.399	581.94
356.626	577.94
356.853	636.94
357.08	589.94
357.307	597.94
357.534	598.94
357.761	601.94
357.988	619.94
358.215	596.94
358.441	598.94
358.668	582.94
358.895	592.94
359.122	609.94
359.349	604.94
359.576	609.94
359.802	609.94
360.029	613.94
360.256	603.94
360.483	596.94
360.709	606.94
360.936	615.94
361.163	592.94
361.39	597.94
361.616	604.94
361.843	603.94
362.07	587.94
362.296	599.94
362.523	638.94
362.749	610.94
362.976	587.94
363.203	577.94
363.429	599.94
363.656	593.94
363.882	588.94
364.109	603.94
364.335	589.94
364.562	593.94
364.788	615.94
365.015	590.94
365.241	617.94
365.468	586.94
365.694	636.94
365.92	618.94
366.147	617.94
366.373	591.94
366.599	586.94
366.826	617.94
367.052	619.94
367.278	585.94
367.505	607.94
367.731	641.94
367.957	616.94
368.184	591.94
368.41	601.94
368.636	606.94
368.862	623.94
369.089	628.94
369.315	620.94
369.541	649.94
369.767	648.94
369.993	620.94
370.219	632.94
370.445	607.94
370.672	635.94
370.898	628.94
371.124	658.94
371.35	660.94
371.576	655.94
371.802	661.94
372.028	639.94
372.254	657.94
372.48	681.94
372.706	688.94
372.932	675.94
373.158	671.94
373.384	679.94
373.61	640.94
373.835	648.94
374.061	651.94
374.287	678.94
374.513	689.94
374.739	709.94
374.965	711.94
375.191	736.94
375.416	714.94
375.642	692.94
375.868	698.94
376.094	697.94
376.319	664.94
376.545	669.94
376.771	674.94
376.997	655.94
377.222	669.94
377.448	639.94
377.674	645.94
377.899	651.94
378.125	655.94
378.35	633.94
378.576	668.94
378.802	654.94
379.027	666.94
379.253	637.94
379.478	650.94
379.704	648.94
379.929	636.94
380.155	649.94
380.38	647.94
380.606	663.94
380.831	647.94
381.057	658.94
381.282	649.94
381.507	652.94
381.733	651.94
381.958	663.94
382.184	667.94
382.409	682.94
382.634	671.94
382.86	680.94
383.085	703.94
383.31	702.94
383.535	692.94
383.761	709.94
383.986	747.94
384.211	747.94
384.436	739.94
384.662	771.94
384.887	777.94
385.112	785.94
385.337	800.94
385.562	793.94
385.787	780.94
386.013	809.94
386.238	803.94
386.463	800.94
386.688	801.94
386.913	764.94
387.138	778.94
387.363	773.94
387.588	772.94
387.813	776.94
388.038	780.94
388.263	786.94
388.488	791.94
388.713	793.94
388.938	801.94
389.163	764.94
389.387	780.94
389.612	752.94
389.837	768.94
390.062	769.94
390.287	767.94
390.512	794.94
390.736	777.94
390.961	793.94
391.186	806.94
391.411	865.94
391.636	843.94
391.86	866.94
392.085	884.94
392.31	868.94
392.534	884.94
392.759	855.94
392.984	851.94
393.208	836.94
393.433	813.94
393.658	828.94
393.882	861.94
394.107	815.94
394.331	843.94
394.556	849.94
394.78	849.94
395.005	845.94
395.229	852.94
395.454	855.94
395.678	872.94
395.903	903.94
396.127	880.94
396.352	873.94
396.576	820.94
396.801	837.94
397.025	848.94
397.249	865.94
397.474	891.94
397.698	879.94
397.922	904.94
398.147	893.94
398.371	909.94
398.595	931.94
398.82	977.94
399.044	1040.94
399.268	1127.94
399.492	1306.94
399.717	1471.94
399.941	1451.94
400.165	1294.94
400.389	1171.94
400.613	1073.94
400.837	1029.94
401.062	1021.94
401.286	977.94
401.51	996.94
401.734	975.94
401.958	1002.94
402.182	1008.94
402.406	1037.94
402.63	1055.94
402.854	1051.94
403.078	1048.94
403.302	1074.94
403.526	1079.94
403.75	1110.94
403.974	1112.94
404.198	1125.94
404.422	1149.94
404.645	1113.94
404.869	1099.94
405.093	1138.94
405.317	1099.94
405.541	1082.94
405.765	1050.94
405.988	1073.94
406.212	1079.94
406.436	1094.94
406.66	1093.94
406.883	1082.94
407.107	1183.94
407.331	1194.94
407.555	1285.94
407.778	1277.94
408.002	1223.94
408.226	1172.94
408.449	1165.94
408.673	1144.94
408.896	1107.94
409.12	1113.94
409.344	1103.94
409.567	1087.94
409.791	1131.94
410.014	1109.94
410.238	1080.94
410.461	1106.94
410.685	1076.94
410.908	1042.94
411.132	1042.94
411.355	1051.94
411.578	1045.94
411.802	1052.94
412.025	1033.94
412.249	1056.94
412.472	1039.94
412.695	1014.94
412.919	989.94
413.142	999.94
413.365	961.94
413.589	992.94
413.812	975.94
414.035	978.94
414.258	965.94
414.482	978.94
414.705	993.94
414.928	1006.94
415.151	1013.94
415.374	1002.94
415.597	1019.94
415.821	1003.94
416.044	999.94
416.267	949.94
416.49	969.94
416.713	948.94
416.936	972.94
417.159	965.94
417.382	946.94
417.605	953.94
417.828	961.94
418.051	956.94
418.274	1006.94
418.497	970.94
418.72	1003.94
418.943	1003.94
419.166	1064.94
419.389	1108.94
419.611	1064.94
419.834	1023.94
420.057	1015.94
420.28	994.94
420.503	939.94
420.726	943.94
420.948	927.94
421.171	946.94
421.394	979.94
421.617	966.94
421.839	980.94
422.062	994.94
422.285	954.94
422.507	999.94
422.73	1003.94
422.953	967.94
423.175	997.94
423.398	1004.94
423.621	1016.94
423.843	1038.94
424.066	1047.94
424.288	1017.94
424.511	986.94
424.733	1002.94
424.956	973.94
425.178	959.94
425.401	974.94
425.623	981.94
425.846	928.94
426.068	936.94
426.291	941.94
426.513	939.94
426.735	907.94
426.958	902.94
427.18	887.94
427.402	882.94
427.625	888.94
427.847	861.94
428.069	894.94
428.292	883.94
428.514	880.94
428.736	864.94
428.958	878.94
429.181	841.94
429.403	855.94
429.625	836.94
429.847	833.94
430.069	856.94
430.292	863.94
430.514	805.94
430.736	880.94
430.958	868.94
431.18	845.94
431.402	873.94
431.624	870.94
431.846	894.94
432.068	851.94
432.29	889.94
432.512	867.94
432.734	861.94
432.956	859.94
433.178	861.94
433.4	870.94
433.622	913.94
433.844	880.94
434.066	899.94
434.287	896.94
434.509	919.94
434.731	941.94
434.953	938.94
435.175	982.94
435.397	967.94
435.618	908.94
435.84	916.94
436.062	881.94
436.284	887.94
436.505	869.94
436.727	881.94
436.949	860.94
437.17	859.94
437.392	850.94
437.614	854.94
437.835	831.94
438.057	844.94
438.278	833.94
438.5	815.94
438.721	821.94
438.943	851.94
439.165	836.94
439.386	850.94
439.608	871.94
439.829	889.94
440.05	859.94
440.272	851.94
440.493	827.94
440.715	866.94
440.936	866.94
441.158	887.94
441.379	913.94
441.6	956.94
441.822	986.94
442.043	944.94
442.264	978.94
442.486	947.94
442.707	951.94
442.928	959.94
443.149	944.94
443.371	917.94
443.592	946.94
443.813	979.94
444.034	995.94
444.255	1009.94
444.476	1025.94
444.698	1088.94
444.919	1130.94
445.14	1201.94
445.361	1103.94
445.582	988.94
445.803	953.94
446.024	924.94
446.245	896.94
446.466	875.94
446.687	868.94
446.908	857.94
447.129	843.94
447.35	823.94
447.571	815.94
447.792	793.94
448.013	831.94
448.234	787.94
448.455	809.94
448.675	803.94
448.896	796.94
449.117	769.94
449.338	797.94
449.559	795.94
449.779	785.94
450	769.94
450.221	808.94
450.442	798.94
450.662	817.94
450.883	799.94
451.104	835.94
451.324	790.94
451.545	815.94
451.766	796.94
451.986	778.94
452.207	781.94
452.428	773.94
452.648	797.94
452.869	784.94
453.089	772.94
453.31	778.94
453.53	755.94
453.751	743.94
453.971	745.94
454.192	735.94
454.412	764.94
454.633	727.94
454.853	736.94
455.073	744.94
455.294	748.94
455.514	766.94
455.734	749.94
455.955	724.94
456.175	736.94
456.395	758.94
456.616	745.94
456.836	762.94
457.056	732.94
457.276	751.94
457.497	730.94
457.717	760.94
457.937	743.94
458.157	757.94
458.377	768.94
458.598	774.94
458.818	835.94
459.038	831.94
459.258	852.94
459.478	880.94
459.698	878.94
459.918	930.94
460.138	921.94
460.358	986.94
460.578	1028.94
460.798	1021.94
461.018	1031.94
461.238	1003.94
461.458	1025.94
461.678	986.94
461.898	1043.94
462.118	1050.94
462.338	1097.94
462.558	1099.94
462.777	1159.94
462.997	1227.94
463.217	1331.94
463.437	1357.94
463.657	1243.94
463.876	1165.94
464.096	1173.94
464.316	1179.94
464.536	1186.94
464.755	1120.94
464.975	1092.94
465.195	1016.94
465.414	973.94
465.634	945.94
465.854	927.94
466.073	905.94
466.293	870.94
466.512	872.94
466.732	852.94
466.951	840.94
467.171	836.94
467.391	849.94
467.61	831.94
467.829	809.94
468.049	822.94
468.268	804.94
468.488	790.94
468.707	818.94
468.927	818.94
469.146	799.94
469.365	809.94
469.585	798.94
469.804	810.94
470.023	845.94
470.243	858.94
470.462	845.94
470.681	850.94
470.901	878.94
471.12	844.94
471.339	841.94
471.558	819.94
471.777	825.94
471.997	809.94
472.216	824.94
472.435	789.94
472.654	805.94
472.873	796.94
473.092	795.94
473.311	786.94
473.53	809.94
473.749	791.94
473.968	776.94
474.187	799.94
474.406	784.94
474.625	792.94
474.844	775.94
475.063	807.94
475.282	781.94
475.501	784.94
475.72	800.94
475.939	793.94
476.158	833.94
476.377	850.94
476.596	839.94
476.814	840.94
477.033	823.94
477.252	852.94
477.471	831.94
477.69	872.94
477.908	900.94
478.127	934.94
478.346	964.94
478.564	949.94
478.783	952.94
479.002	977.94
479.22	985.94
479.439	1009.94
479.658	968.94
479.876	976.94
480.095	979.94
480.313	1002.94
480.532	1037.94
480.751	1055.94
480.969	974.94
481.188	950.94
481.406	935.94
481.624	949.94
481.843	924.94
482.061	905.94
482.28	919.94
482.498	906.94
482.717	909.94
482.935	902.94
483.153	901.94
483.372	905.94
483.59	903.94
483.808	944.94
484.027	899.94
484.245	927.94
484.463	925.94
484.681	917.94
484.9	954.94
485.118	940.94
485.336	959.94
485.554	919.94
485.772	925.94
485.99	955.94
486.209	981.94
486.427	949.94
486.645	958.94
486.863	959.94
487.081	959.94
487.299	946.94
487.517	927.94
487.735	935.94
487.953	962.94
488.171	967.94
488.389	955.94
488.607	939.94
488.825	941.94
489.043	966.94
489.261	952.94
489.479	953.94
489.696	983.94
489.914	939.94
490.132	940.94
490.35	954.94
490.568	930.94
490.786	956.94
491.003	991.94
491.221	975.94
491.439	966.94
491.657	975.94
491.874	998.94
492.092	1009.94
492.31	987.94
492.527	963.94
492.745	985.94
492.963	985.94
493.18	990.94
493.398	1018.94
493.615	1015.94
493.833	996.94
494.05	1008.94
494.268	1011.94
494.485	1010.94
494.703	1012.94
494.92	1035.94
495.138	1009.94
495.355	1017.94
495.573	1035.94
495.79	1007.94
496.008	1043.94
496.225	1031.94
496.442	1042.94
496.66	1086.94
496.877	1090.94
497.094	1109.94
497.312	1104.94
497.529	1170.94
497.746	1140.94
497.963	1166.94
498.181	1228.94
498.398	1323.94
498.615	1348.94
498.832	1429.94
499.049	1535.94
499.267	1655.94
499.484	1820.94
499.701	1960.94
