Data from NiCl2@0.25M.TitratingCurve.Agarose3%dH2O.NegLispCup.LampEnergy10.LIBS07252019_HRD10591_18-23-45-572.txt Node
Date: Thu Jul 25 18:23:45 EDT 2019
User: cochatt
Spectrometer: HR+D1059
Trigger mode: 1
Integration Time (sec): 1.000000E-1
Scans to average: 1
Electric dark correction enabled: true
Nonlinearity correction enabled: false
Boxcar width: 0
XAxis mode: Wavelengths
Number of Pixels in Spectrum: 2048
>>>>>Begin Spectral Data<<<<<
223.165	-9.94
223.4	-9.94
223.635	-9.94
223.869	-2.94
224.104	-23.94
224.338	-6.94
224.573	-14.94
224.808	-9.94
225.042	-0.94
225.277	-2.94
225.511	-13.94
225.746	-0.94
225.98	-2.94
226.215	7.06
226.449	7.06
226.683	32.06
226.918	20.06
227.152	24.06
227.387	28.06
227.621	37.06
227.856	45.06
228.09	41.06
228.324	46.06
228.559	53.06
228.793	75.06
229.027	112.06
229.262	139.06
229.496	131.06
229.73	128.06
229.964	149.06
230.199	149.06
230.433	154.06
230.667	154.06
230.901	167.06
231.136	151.06
231.37	151.06
231.604	167.06
231.838	160.06
232.072	177.06
232.306	184.06
232.541	178.06
232.775	186.06
233.009	167.06
233.243	181.06
233.477	177.06
233.711	160.06
233.945	175.06
234.179	177.06
234.413	157.06
234.647	169.06
234.881	194.06
235.115	180.06
235.349	177.06
235.583	173.06
235.817	182.06
236.051	161.06
236.285	193.06
236.519	187.06
236.753	189.06
236.987	194.06
237.221	200.06
237.455	177.06
237.689	195.06
237.922	190.06
238.156	193.06
238.39	189.06
238.624	198.06
238.858	210.06
239.091	216.06
239.325	198.06
239.559	208.06
239.793	209.06
240.027	208.06
240.26	206.06
240.494	202.06
240.728	216.06
240.961	219.06
241.195	217.06
241.429	226.06
241.662	230.06
241.896	210.06
242.13	244.06
242.363	234.06
242.597	249.06
242.83	266.06
243.064	254.06
243.298	249.06
243.531	266.06
243.765	243.06
243.998	258.06
244.232	254.06
244.465	243.06
244.699	262.06
244.932	282.06
245.166	289.06
245.399	260.06
245.633	269.06
245.866	252.06
246.099	276.06
246.333	263.06
246.566	259.06
246.8	270.06
247.033	281.06
247.266	277.06
247.5	283.06
247.733	285.06
247.966	294.06
248.2	275.06
248.433	317.06
248.666	291.06
248.899	296.06
249.133	295.06
249.366	297.06
249.599	307.06
249.832	313.06
250.066	307.06
250.299	326.06
250.532	331.06
250.765	313.06
250.998	312.06
251.231	308.06
251.465	322.06
251.698	302.06
251.931	331.06
252.164	341.06
252.397	350.06
252.63	345.06
252.863	330.06
253.096	342.06
253.329	335.06
253.562	331.06
253.795	356.06
254.028	347.06
254.261	355.06
254.494	368.06
254.727	359.06
254.96	342.06
255.193	359.06
255.426	371.06
255.659	341.06
255.892	359.06
256.124	345.06
256.357	354.06
256.59	377.06
256.823	369.06
257.056	401.06
257.289	368.06
257.521	370.06
257.754	382.06
257.987	376.06
258.22	385.06
258.452	399.06
258.685	374.06
258.918	373.06
259.151	375.06
259.383	393.06
259.616	387.06
259.849	405.06
260.081	375.06
260.314	397.06
260.547	391.06
260.779	364.06
261.012	414.06
261.244	402.06
261.477	402.06
261.71	413.06
261.942	418.06
262.175	409.06
262.407	415.06
262.64	416.06
262.872	401.06
263.105	418.06
263.337	442.06
263.57	407.06
263.802	453.06
264.035	406.06
264.267	430.06
264.499	432.06
264.732	437.06
264.964	439.06
265.197	451.06
265.429	446.06
265.661	443.06
265.894	439.06
266.126	454.06
266.358	459.06
266.591	449.06
266.823	480.06
267.055	465.06
267.287	451.06
267.52	447.06
267.752	445.06
267.984	454.06
268.216	469.06
268.448	493.06
268.681	472.06
268.913	483.06
269.145	485.06
269.377	472.06
269.609	475.06
269.841	471.06
270.073	480.06
270.306	483.06
270.538	478.06
270.77	485.06
271.002	474.06
271.234	477.06
271.466	497.06
271.698	481.06
271.93	495.06
272.162	493.06
272.394	509.06
272.626	502.06
272.858	511.06
273.09	505.06
273.322	510.06
273.553	520.06
273.785	520.06
274.017	494.06
274.249	515.06
274.481	530.06
274.713	508.06
274.945	532.06
275.176	532.06
275.408	544.06
275.64	514.06
275.872	530.06
276.104	551.06
276.335	521.06
276.567	536.06
276.799	509.06
277.031	528.06
277.262	570.06
277.494	533.06
277.726	545.06
277.957	563.06
278.189	558.06
278.421	534.06
278.652	555.06
278.884	587.06
279.115	575.06
279.347	567.06
279.579	589.06
279.81	563.06
280.042	589.06
280.273	577.06
280.505	584.06
280.736	588.06
280.968	572.06
281.199	579.06
281.431	586.06
281.662	581.06
281.894	587.06
282.125	606.06
282.356	598.06
282.588	592.06
282.819	598.06
283.051	607.06
283.282	609.06
283.513	629.06
283.745	623.06
283.976	621.06
284.207	619.06
284.439	619.06
284.67	635.06
284.901	619.06
285.132	621.06
285.364	623.06
285.595	657.06
285.826	634.06
286.057	645.06
286.288	657.06
286.52	652.06
286.751	635.06
286.982	647.06
287.213	663.06
287.444	640.06
287.675	680.06
287.906	657.06
288.138	665.06
288.369	660.06
288.6	657.06
288.831	662.06
289.062	661.06
289.293	654.06
289.524	673.06
289.755	667.06
289.986	680.06
290.217	694.06
290.448	693.06
290.679	669.06
290.91	651.06
291.141	667.06
291.371	681.06
291.602	682.06
291.833	675.06
292.064	675.06
292.295	690.06
292.526	687.06
292.757	658.06
292.987	674.06
293.218	679.06
293.449	663.06
293.68	673.06
293.91	683.06
294.141	682.06
294.372	695.06
294.603	699.06
294.833	686.06
295.064	665.06
295.295	691.06
295.525	660.06
295.756	702.06
295.987	705.06
296.217	714.06
296.448	701.06
296.679	697.06
296.909	690.06
297.14	725.06
297.37	737.06
297.601	743.06
297.831	738.06
298.062	736.06
298.292	745.06
298.523	761.06
298.753	753.06
298.984	745.06
299.214	744.06
299.445	741.06
299.675	758.06
299.905	754.06
300.136	741.06
300.366	793.06
300.597	767.06
300.827	749.06
301.057	776.06
301.288	773.06
301.518	794.06
301.748	789.06
301.979	792.06
302.209	802.06
302.439	778.06
302.669	794.06
302.9	783.06
303.13	768.06
303.36	773.06
303.59	778.06
303.82	799.06
304.051	799.06
304.281	802.06
304.511	782.06
304.741	795.06
304.971	779.06
305.201	776.06
305.431	776.06
305.661	761.06
305.891	765.06
306.121	769.06
306.352	769.06
306.582	746.06
306.812	735.06
307.042	740.06
307.272	770.06
307.502	751.06
307.731	752.06
307.961	763.06
308.191	775.06
308.421	760.06
308.651	753.06
308.881	739.06
309.111	736.06
309.341	765.06
309.571	758.06
309.8	757.06
310.03	770.06
310.26	750.06
310.49	788.06
310.72	772.06
310.949	763.06
311.179	756.06
311.409	764.06
311.639	785.06
311.868	778.06
312.098	797.06
312.328	827.06
312.557	797.06
312.787	810.06
313.017	793.06
313.246	827.06
313.476	798.06
313.706	817.06
313.935	830.06
314.165	817.06
314.394	845.06
314.624	823.06
314.853	847.06
315.083	837.06
315.312	824.06
315.542	780.06
315.771	820.06
316.001	821.06
316.23	824.06
316.46	805.06
316.689	810.06
316.919	801.06
317.148	788.06
317.377	797.06
317.607	821.06
317.836	823.06
318.065	813.06
318.295	814.06
318.524	832.06
318.753	778.06
318.983	806.06
319.212	775.06
319.441	790.06
319.67	807.06
319.9	784.06
320.129	792.06
320.358	814.06
320.587	810.06
320.816	819.06
321.046	800.06
321.275	811.06
321.504	798.06
321.733	839.06
321.962	811.06
322.191	801.06
322.42	825.06
322.649	793.06
322.878	842.06
323.108	822.06
323.337	823.06
323.566	834.06
323.795	817.06
324.024	817.06
324.253	837.06
324.482	841.06
324.71	820.06
324.939	874.06
325.168	861.06
325.397	839.06
325.626	869.06
325.855	855.06
326.084	860.06
326.313	890.06
326.542	900.06
326.77	907.06
326.999	889.06
327.228	886.06
327.457	886.06
327.686	910.06
327.914	885.06
328.143	894.06
328.372	890.06
328.6	890.06
328.829	908.06
329.058	907.06
329.287	894.06
329.515	881.06
329.744	901.06
329.972	906.06
330.201	922.06
330.43	927.06
330.658	900.06
330.887	937.06
331.115	934.06
331.344	928.06
331.572	960.06
331.801	991.06
332.03	965.06
332.258	1011.06
332.486	1042.06
332.715	1037.06
332.943	1125.06
333.172	1139.06
333.4	1185.06
333.629	1231.06
333.857	1179.06
334.085	1194.06
334.314	1204.06
334.542	1178.06
334.771	1190.06
334.999	1123.06
335.227	1156.06
335.455	1126.06
335.684	1116.06
335.912	1108.06
336.14	1130.06
336.369	1079.06
336.597	1125.06
336.825	1099.06
337.053	1054.06
337.281	1073.06
337.51	1037.06
337.738	1047.06
337.966	1023.06
338.194	1015.06
338.422	986.06
338.65	957.06
338.878	977.06
339.106	975.06
339.334	977.06
339.562	945.06
339.79	948.06
340.018	962.06
340.246	917.06
340.474	909.06
340.702	938.06
340.93	924.06
341.158	968.06
341.386	938.06
341.614	957.06
341.842	943.06
342.07	933.06
342.298	933.06
342.526	899.06
342.754	905.06
342.981	962.06
343.209	952.06
343.437	980.06
343.665	1057.06
343.893	1106.06
344.12	1215.06
344.348	1149.06
344.576	1061.06
344.804	1039.06
345.031	971.06
345.259	954.06
345.487	912.06
345.714	921.06
345.942	920.06
346.17	918.06
346.397	913.06
346.625	920.06
346.853	910.06
347.08	867.06
347.308	902.06
347.535	915.06
347.763	918.06
347.99	886.06
348.218	912.06
348.445	901.06
348.673	877.06
348.9	907.06
349.128	882.06
349.355	883.06
349.583	906.06
349.81	872.06
350.037	864.06
350.265	835.06
350.492	849.06
350.72	883.06
350.947	847.06
351.174	870.06
351.402	844.06
351.629	851.06
351.856	869.06
352.083	833.06
352.311	859.06
352.538	880.06
352.765	866.06
352.992	873.06
353.22	835.06
353.447	835.06
353.674	839.06
353.901	845.06
354.128	853.06
354.355	826.06
354.583	849.06
354.81	863.06
355.037	851.06
355.264	857.06
355.491	857.06
355.718	863.06
355.945	857.06
356.172	863.06
356.399	861.06
356.626	859.06
356.853	888.06
357.08	850.06
357.307	875.06
357.534	849.06
357.761	855.06
357.988	856.06
358.215	839.06
358.441	866.06
358.668	852.06
358.895	869.06
359.122	842.06
359.349	862.06
359.576	857.06
359.802	832.06
360.029	865.06
360.256	861.06
360.483	878.06
360.709	840.06
360.936	851.06
361.163	856.06
361.39	871.06
361.616	850.06
361.843	865.06
362.07	880.06
362.296	901.06
362.523	866.06
362.749	867.06
362.976	827.06
363.203	838.06
363.429	864.06
363.656	862.06
363.882	856.06
364.109	873.06
364.335	831.06
364.562	848.06
364.788	843.06
365.015	854.06
365.241	858.06
365.468	870.06
365.694	825.06
365.92	876.06
366.147	852.06
366.373	862.06
366.599	859.06
366.826	868.06
367.052	856.06
367.278	871.06
367.505	854.06
367.731	858.06
367.957	871.06
368.184	867.06
368.41	839.06
368.636	873.06
368.862	875.06
369.089	883.06
369.315	903.06
369.541	891.06
369.767	875.06
369.993	858.06
370.219	887.06
370.445	884.06
370.672	908.06
370.898	933.06
371.124	911.06
371.35	934.06
371.576	930.06
371.802	919.06
372.028	904.06
372.254	919.06
372.48	927.06
372.706	945.06
372.932	957.06
373.158	983.06
373.384	965.06
373.61	917.06
373.835	923.06
374.061	931.06
374.287	995.06
374.513	953.06
374.739	999.06
374.965	1015.06
375.191	1057.06
375.416	1023.06
375.642	1005.06
375.868	990.06
376.094	957.06
376.319	943.06
376.545	920.06
376.771	949.06
376.997	934.06
377.222	919.06
377.448	939.06
377.674	919.06
377.899	913.06
378.125	923.06
378.35	927.06
378.576	952.06
378.802	901.06
379.027	933.06
379.253	909.06
379.478	917.06
379.704	874.06
379.929	939.06
380.155	916.06
380.38	927.06
380.606	945.06
380.831	941.06
381.057	951.06
381.282	935.06
381.507	928.06
381.733	928.06
381.958	922.06
382.184	927.06
382.409	945.06
382.634	961.06
382.86	968.06
383.085	1001.06
383.31	1023.06
383.535	1000.06
383.761	1037.06
383.986	1045.06
384.211	1082.06
384.436	1088.06
384.662	1082.06
384.887	1128.06
385.112	1156.06
385.337	1154.06
385.562	1163.06
385.787	1140.06
386.013	1173.06
386.238	1140.06
386.463	1134.06
386.688	1148.06
386.913	1157.06
387.138	1142.06
387.363	1147.06
387.588	1118.06
387.813	1107.06
388.038	1122.06
388.263	1124.06
388.488	1145.06
388.713	1123.06
388.938	1081.06
389.163	1077.06
389.387	1099.06
389.612	1089.06
389.837	1128.06
390.062	1107.06
390.287	1107.06
390.512	1094.06
390.736	1125.06
390.961	1134.06
391.186	1164.06
391.411	1184.06
391.636	1191.06
391.86	1247.06
392.085	1291.06
392.31	1269.06
392.534	1277.06
392.759	1243.06
392.984	1208.06
393.208	1202.06
393.433	1176.06
393.658	1169.06
393.882	1193.06
394.107	1198.06
394.331	1230.06
394.556	1184.06
394.78	1231.06
395.005	1216.06
395.229	1206.06
395.454	1259.06
395.678	1285.06
395.903	1291.06
396.127	1285.06
396.352	1226.06
396.576	1193.06
396.801	1206.06
397.025	1215.06
397.249	1236.06
397.474	1296.06
397.698	1277.06
397.922	1273.06
398.147	1264.06
398.371	1303.06
398.595	1348.06
398.82	1430.06
399.044	1517.06
399.268	1694.06
399.492	1973.06
399.717	2154.06
399.941	2223.06
400.165	1993.06
400.389	1816.06
400.613	1653.06
400.837	1560.06
401.062	1503.06
401.286	1461.06
401.51	1434.06
401.734	1420.06
401.958	1467.06
402.182	1501.06
402.406	1499.06
402.63	1535.06
402.854	1556.06
403.078	1579.06
403.302	1615.06
403.526	1611.06
403.75	1657.06
403.974	1663.06
404.198	1670.06
404.422	1658.06
404.645	1676.06
404.869	1654.06
405.093	1623.06
405.317	1632.06
405.541	1630.06
405.765	1602.06
405.988	1539.06
406.212	1603.06
406.436	1623.06
406.66	1651.06
406.883	1643.06
407.107	1730.06
407.331	1814.06
407.555	1878.06
407.778	1854.06
408.002	1843.06
408.226	1777.06
408.449	1726.06
408.673	1658.06
408.896	1646.06
409.12	1607.06
409.344	1636.06
409.567	1650.06
409.791	1613.06
410.014	1619.06
410.238	1553.06
410.461	1590.06
410.685	1546.06
410.908	1539.06
411.132	1480.06
411.355	1465.06
411.578	1481.06
411.802	1464.06
412.025	1496.06
412.249	1558.06
412.472	1509.06
412.695	1453.06
412.919	1443.06
413.142	1423.06
413.365	1448.06
413.589	1431.06
413.812	1426.06
414.035	1429.06
414.258	1397.06
414.482	1428.06
414.705	1444.06
414.928	1441.06
415.151	1426.06
415.374	1423.06
415.597	1401.06
415.821	1381.06
416.044	1405.06
416.267	1374.06
416.49	1381.06
416.713	1386.06
416.936	1399.06
417.159	1404.06
417.382	1399.06
417.605	1389.06
417.828	1413.06
418.051	1441.06
418.274	1414.06
418.497	1425.06
418.72	1427.06
418.943	1441.06
419.166	1557.06
419.389	1666.06
419.611	1597.06
419.834	1556.06
420.057	1482.06
420.28	1418.06
420.503	1371.06
420.726	1395.06
420.948	1393.06
421.171	1395.06
421.394	1377.06
421.617	1399.06
421.839	1399.06
422.062	1401.06
422.285	1390.06
422.507	1437.06
422.73	1455.06
422.953	1429.06
423.175	1459.06
423.398	1506.06
423.621	1488.06
423.843	1483.06
424.066	1502.06
424.288	1481.06
424.511	1455.06
424.733	1443.06
424.956	1483.06
425.178	1460.06
425.401	1429.06
425.623	1401.06
425.846	1346.06
426.068	1384.06
426.291	1328.06
426.513	1330.06
426.735	1325.06
426.958	1306.06
427.18	1303.06
427.402	1283.06
427.625	1303.06
427.847	1247.06
428.069	1246.06
428.292	1267.06
428.514	1237.06
428.736	1245.06
428.958	1250.06
429.181	1226.06
429.403	1176.06
429.625	1227.06
429.847	1209.06
430.069	1191.06
430.292	1221.06
430.514	1193.06
430.736	1206.06
430.958	1171.06
431.18	1206.06
431.402	1214.06
431.624	1193.06
431.846	1224.06
432.068	1251.06
432.29	1265.06
432.512	1226.06
432.734	1239.06
432.956	1205.06
433.178	1269.06
433.4	1250.06
433.622	1261.06
433.844	1256.06
434.066	1279.06
434.287	1281.06
434.509	1317.06
434.731	1396.06
434.953	1387.06
435.175	1415.06
435.397	1386.06
435.618	1303.06
435.84	1291.06
436.062	1278.06
436.284	1218.06
436.505	1232.06
436.727	1249.06
436.949	1242.06
437.17	1219.06
437.392	1242.06
437.614	1194.06
437.835	1169.06
438.057	1172.06
438.278	1161.06
438.5	1161.06
438.721	1163.06
438.943	1197.06
439.165	1178.06
439.386	1185.06
439.608	1182.06
439.829	1222.06
440.05	1220.06
440.272	1239.06
440.493	1229.06
440.715	1256.06
440.936	1281.06
441.158	1302.06
441.379	1342.06
441.6	1415.06
441.822	1399.06
442.043	1415.06
442.264	1379.06
442.486	1334.06
442.707	1344.06
442.928	1376.06
443.149	1375.06
443.371	1391.06
443.592	1415.06
443.813	1434.06
444.034	1419.06
444.255	1433.06
444.476	1505.06
444.698	1666.06
444.919	1664.06
445.14	1785.06
445.361	1557.06
445.582	1439.06
445.803	1384.06
446.024	1339.06
446.245	1299.06
446.466	1259.06
446.687	1236.06
446.908	1234.06
447.129	1220.06
447.35	1181.06
447.571	1174.06
447.792	1185.06
448.013	1155.06
448.234	1149.06
448.455	1131.06
448.675	1150.06
448.896	1115.06
449.117	1105.06
449.338	1124.06
449.559	1123.06
449.779	1103.06
450	1111.06
450.221	1112.06
450.442	1130.06
450.662	1118.06
450.883	1147.06
451.104	1150.06
451.324	1140.06
451.545	1133.06
451.766	1157.06
451.986	1135.06
452.207	1127.06
452.428	1133.06
452.648	1131.06
452.869	1112.06
453.089	1063.06
453.31	1111.06
453.53	1097.06
453.751	1064.06
453.971	1078.06
454.192	1095.06
454.412	1077.06
454.633	1081.06
454.853	1081.06
455.073	1054.06
455.294	1076.06
455.514	1069.06
455.734	1057.06
455.955	1033.06
456.175	1043.06
456.395	1042.06
456.616	1032.06
456.836	1060.06
457.056	1025.06
457.276	1019.06
457.497	1087.06
457.717	1044.06
457.937	1063.06
458.157	1089.06
458.377	1086.06
458.598	1130.06
458.818	1139.06
459.038	1177.06
459.258	1172.06
459.478	1247.06
459.698	1275.06
459.918	1330.06
460.138	1367.06
460.358	1440.06
460.578	1480.06
460.798	1513.06
461.018	1506.06
461.238	1450.06
461.458	1478.06
461.678	1450.06
461.898	1479.06
462.118	1490.06
462.338	1597.06
462.558	1635.06
462.777	1713.06
462.997	1838.06
463.217	1982.06
463.437	1953.06
463.657	1859.06
463.876	1754.06
464.096	1751.06
464.316	1714.06
464.536	1723.06
464.755	1685.06
464.975	1619.06
465.195	1522.06
465.414	1429.06
465.634	1383.06
465.854	1323.06
466.073	1268.06
466.293	1237.06
466.512	1197.06
466.732	1206.06
466.951	1215.06
467.171	1203.06
467.391	1217.06
467.61	1181.06
467.829	1180.06
468.049	1162.06
468.268	1125.06
468.488	1116.06
468.707	1103.06
468.927	1132.06
469.146	1169.06
469.365	1153.06
469.585	1174.06
469.804	1181.06
470.023	1235.06
470.243	1231.06
470.462	1203.06
470.681	1198.06
470.901	1209.06
471.12	1201.06
471.339	1187.06
471.558	1157.06
471.777	1159.06
471.997	1160.06
472.216	1114.06
472.435	1121.06
472.654	1095.06
472.873	1105.06
473.092	1117.06
473.311	1100.06
473.53	1070.06
473.749	1109.06
473.968	1095.06
474.187	1081.06
474.406	1082.06
474.625	1069.06
474.844	1093.06
475.063	1095.06
475.282	1121.06
475.501	1101.06
475.72	1128.06
475.939	1147.06
476.158	1165.06
476.377	1142.06
476.596	1160.06
476.814	1168.06
477.033	1187.06
477.252	1215.06
477.471	1210.06
477.69	1252.06
477.908	1277.06
478.127	1322.06
478.346	1319.06
478.564	1335.06
478.783	1364.06
479.002	1455.06
479.22	1425.06
479.439	1407.06
479.658	1366.06
479.876	1367.06
480.095	1401.06
480.313	1464.06
480.532	1505.06
480.751	1497.06
480.969	1434.06
481.188	1392.06
481.406	1343.06
481.624	1361.06
481.843	1295.06
482.061	1259.06
482.28	1245.06
482.498	1271.06
482.717	1281.06
482.935	1246.06
483.153	1269.06
483.372	1254.06
483.59	1251.06
483.808	1242.06
484.027	1258.06
484.245	1254.06
484.463	1254.06
484.681	1312.06
484.9	1297.06
485.118	1306.06
485.336	1310.06
485.554	1341.06
485.772	1350.06
485.99	1319.06
486.209	1349.06
486.427	1347.06
486.645	1349.06
486.863	1341.06
487.081	1321.06
487.299	1304.06
487.517	1339.06
487.735	1317.06
487.953	1337.06
488.171	1328.06
488.389	1295.06
488.607	1309.06
488.825	1291.06
489.043	1308.06
489.261	1321.06
489.479	1269.06
489.696	1339.06
489.914	1363.06
490.132	1316.06
490.35	1342.06
490.568	1309.06
490.786	1348.06
491.003	1329.06
491.221	1346.06
491.439	1347.06
491.657	1351.06
491.874	1327.06
492.092	1346.06
492.31	1358.06
492.527	1391.06
492.745	1325.06
492.963	1373.06
493.18	1365.06
493.398	1394.06
493.615	1380.06
493.833	1345.06
494.05	1424.06
494.268	1411.06
