Data from NiCl2@0.125M.TitratingCurve.Agarose3%dH2O.NegLispCup.LampEnergy10.LIBS07252019_HRD10591_18-29-10-574.txt Node
Date: Thu Jul 25 18:29:10 EDT 2019
User: cochatt
Spectrometer: HR+D1059
Trigger mode: 1
Integration Time (sec): 1.000000E-1
Scans to average: 1
Electric dark correction enabled: true
Nonlinearity correction enabled: false
Boxcar width: 0
XAxis mode: Wavelengths
Number of Pixels in Spectrum: 2048
>>>>>Begin Spectral Data<<<<<
223.165	-9.88
223.4	-9.88
223.635	-9.88
223.869	-18.88
224.104	-25.88
224.338	-12.88
224.573	-4.88
224.808	-18.88
225.042	-20.88
225.277	-9.88
225.511	-0.88
225.746	8.12
225.98	17.12
226.215	7.12
226.449	20.12
226.683	22.12
226.918	21.12
227.152	27.12
227.387	54.12
227.621	45.12
227.856	31.12
228.09	54.12
228.324	57.12
228.559	55.12
228.793	68.12
229.027	117.12
229.262	103.12
229.496	111.12
229.73	104.12
229.964	124.12
230.199	126.12
230.433	124.12
230.667	139.12
230.901	132.12
231.136	131.12
231.37	138.12
231.604	137.12
231.838	128.12
232.072	151.12
232.306	144.12
232.541	144.12
232.775	136.12
233.009	141.12
233.243	150.12
233.477	155.12
233.711	145.12
233.945	155.12
234.179	140.12
234.413	140.12
234.647	145.12
234.881	151.12
235.115	157.12
235.349	139.12
235.583	143.12
235.817	147.12
236.051	143.12
236.285	165.12
236.519	168.12
236.753	167.12
236.987	152.12
237.221	163.12
237.455	172.12
237.689	158.12
237.922	170.12
238.156	150.12
238.39	161.12
238.624	171.12
238.858	174.12
239.091	172.12
239.325	175.12
239.559	176.12
239.793	172.12
240.027	169.12
240.26	154.12
240.494	186.12
240.728	196.12
240.961	188.12
241.195	196.12
241.429	171.12
241.662	174.12
241.896	185.12
242.13	198.12
242.363	186.12
242.597	198.12
242.83	207.12
243.064	190.12
243.298	201.12
243.531	203.12
243.765	203.12
243.998	203.12
244.232	190.12
244.465	196.12
244.699	200.12
244.932	217.12
245.166	210.12
245.399	214.12
245.633	225.12
245.866	218.12
246.099	207.12
246.333	213.12
246.566	230.12
246.8	230.12
247.033	214.12
247.266	223.12
247.5	208.12
247.733	222.12
247.966	247.12
248.2	229.12
248.433	237.12
248.666	238.12
248.899	240.12
249.133	258.12
249.366	250.12
249.599	255.12
249.832	249.12
250.066	258.12
250.299	247.12
250.532	260.12
250.765	233.12
250.998	242.12
251.231	264.12
251.465	236.12
251.698	255.12
251.931	260.12
252.164	254.12
252.397	263.12
252.63	278.12
252.863	271.12
253.096	259.12
253.329	262.12
253.562	281.12
253.795	287.12
254.028	261.12
254.261	259.12
254.494	248.12
254.727	249.12
254.96	277.12
255.193	276.12
255.426	274.12
255.659	291.12
255.892	284.12
256.124	274.12
256.357	296.12
256.59	310.12
256.823	278.12
257.056	284.12
257.289	294.12
257.521	283.12
257.754	304.12
257.987	282.12
258.22	291.12
258.452	303.12
258.685	280.12
258.918	286.12
259.151	307.12
259.383	313.12
259.616	317.12
259.849	319.12
260.081	311.12
260.314	294.12
260.547	316.12
260.779	348.12
261.012	320.12
261.244	328.12
261.477	329.12
261.71	315.12
261.942	310.12
262.175	324.12
262.407	317.12
262.64	326.12
262.872	327.12
263.105	361.12
263.337	335.12
263.57	324.12
263.802	356.12
264.035	341.12
264.267	319.12
264.499	303.12
264.732	327.12
264.964	332.12
265.197	327.12
265.429	329.12
265.661	337.12
265.894	326.12
266.126	349.12
266.358	339.12
266.591	352.12
266.823	360.12
267.055	376.12
267.287	370.12
267.52	344.12
267.752	354.12
267.984	368.12
268.216	377.12
268.448	353.12
268.681	354.12
268.913	359.12
269.145	358.12
269.377	360.12
269.609	370.12
269.841	369.12
270.073	366.12
270.306	356.12
270.538	347.12
270.77	371.12
271.002	388.12
271.234	361.12
271.466	368.12
271.698	377.12
271.93	382.12
272.162	376.12
272.394	382.12
272.626	371.12
272.858	383.12
273.09	379.12
273.322	384.12
273.553	376.12
273.785	390.12
274.017	366.12
274.249	367.12
274.481	385.12
274.713	405.12
274.945	395.12
275.176	420.12
275.408	401.12
275.64	410.12
275.872	393.12
276.104	407.12
276.335	412.12
276.567	415.12
276.799	401.12
277.031	411.12
277.262	407.12
277.494	412.12
277.726	422.12
277.957	408.12
278.189	406.12
278.421	413.12
278.652	414.12
278.884	430.12
279.115	395.12
279.347	424.12
279.579	429.12
279.81	430.12
280.042	427.12
280.273	430.12
280.505	422.12
280.736	429.12
280.968	426.12
281.199	454.12
281.431	441.12
281.662	451.12
281.894	457.12
282.125	459.12
282.356	458.12
282.588	447.12
282.819	454.12
283.051	460.12
283.282	456.12
283.513	451.12
283.745	462.12
283.976	471.12
284.207	474.12
284.439	480.12
284.67	481.12
284.901	459.12
285.132	472.12
285.364	475.12
285.595	487.12
285.826	479.12
286.057	461.12
286.288	474.12
286.52	482.12
286.751	477.12
286.982	491.12
287.213	477.12
287.444	477.12
287.675	498.12
287.906	475.12
288.138	495.12
288.369	488.12
288.6	503.12
288.831	488.12
289.062	476.12
289.293	512.12
289.524	492.12
289.755	491.12
289.986	499.12
290.217	512.12
290.448	498.12
290.679	505.12
290.91	514.12
291.141	508.12
291.371	508.12
291.602	506.12
291.833	491.12
292.064	510.12
292.295	510.12
292.526	499.12
292.757	520.12
292.987	515.12
293.218	519.12
293.449	530.12
293.68	506.12
293.91	532.12
294.141	519.12
294.372	519.12
294.603	525.12
294.833	521.12
295.064	526.12
295.295	523.12
295.525	527.12
295.756	546.12
295.987	508.12
296.217	532.12
296.448	527.12
296.679	534.12
296.909	538.12
297.14	547.12
297.37	537.12
297.601	555.12
297.831	570.12
298.062	554.12
298.292	534.12
298.523	589.12
298.753	592.12
298.984	559.12
299.214	570.12
299.445	579.12
299.675	590.12
299.905	566.12
300.136	576.12
300.366	581.12
300.597	586.12
300.827	581.12
301.057	596.12
301.288	599.12
301.518	619.12
301.748	603.12
301.979	597.12
302.209	601.12
302.439	590.12
302.669	583.12
302.9	592.12
303.13	572.12
303.36	552.12
303.59	555.12
303.82	574.12
304.051	562.12
304.281	575.12
304.511	558.12
304.741	570.12
304.971	568.12
305.201	574.12
305.431	584.12
305.661	549.12
305.891	547.12
306.121	574.12
306.352	558.12
306.582	560.12
306.812	560.12
307.042	571.12
307.272	559.12
307.502	568.12
307.731	551.12
307.961	581.12
308.191	548.12
308.421	558.12
308.651	566.12
308.881	548.12
309.111	555.12
309.341	560.12
309.571	554.12
309.8	557.12
310.03	563.12
310.26	578.12
310.49	563.12
310.72	556.12
310.949	558.12
311.179	575.12
311.409	564.12
311.639	579.12
311.868	586.12
312.098	565.12
312.328	582.12
312.557	592.12
312.787	583.12
313.017	571.12
313.246	611.12
313.476	571.12
313.706	591.12
313.935	599.12
314.165	596.12
314.394	612.12
314.624	594.12
314.853	592.12
315.083	581.12
315.312	612.12
315.542	594.12
315.771	590.12
316.001	585.12
316.23	595.12
316.46	605.12
316.689	591.12
316.919	565.12
317.148	570.12
317.377	572.12
317.607	553.12
317.836	571.12
318.065	577.12
318.295	563.12
318.524	567.12
318.753	585.12
318.983	576.12
319.212	564.12
319.441	565.12
319.67	590.12
319.9	567.12
320.129	569.12
320.358	564.12
320.587	600.12
320.816	588.12
321.046	590.12
321.275	575.12
321.504	591.12
321.733	582.12
321.962	576.12
322.191	586.12
322.42	589.12
322.649	576.12
322.878	592.12
323.108	604.12
323.337	599.12
323.566	601.12
323.795	613.12
324.024	597.12
324.253	594.12
324.482	592.12
324.71	597.12
324.939	615.12
325.168	589.12
325.397	602.12
325.626	615.12
325.855	608.12
326.084	644.12
326.313	658.12
326.542	645.12
326.77	650.12
326.999	640.12
327.228	632.12
327.457	638.12
327.686	639.12
327.914	636.12
328.143	655.12
328.372	652.12
328.6	644.12
328.829	608.12
329.058	651.12
329.287	637.12
329.515	637.12
329.744	663.12
329.972	654.12
330.201	622.12
330.43	628.12
330.658	635.12
330.887	652.12
331.115	684.12
331.344	660.12
331.572	651.12
331.801	661.12
332.03	709.12
332.258	724.12
332.486	747.12
332.715	743.12
332.943	770.12
333.172	823.12
333.4	862.12
333.629	878.12
333.857	873.12
334.085	885.12
334.314	850.12
334.542	828.12
334.771	821.12
334.999	797.12
335.227	793.12
335.455	799.12
335.684	792.12
335.912	793.12
336.14	775.12
336.369	761.12
336.597	761.12
336.825	768.12
337.053	754.12
337.281	751.12
337.51	726.12
337.738	732.12
337.966	725.12
338.194	698.12
338.422	696.12
338.65	700.12
338.878	696.12
339.106	709.12
339.334	680.12
339.562	660.12
339.79	656.12
340.018	638.12
340.246	649.12
340.474	662.12
340.702	682.12
340.93	662.12
341.158	685.12
341.386	666.12
341.614	674.12
341.842	648.12
342.07	640.12
342.298	646.12
342.526	637.12
342.754	669.12
342.981	656.12
343.209	704.12
343.437	738.12
343.665	736.12
343.893	799.12
344.12	829.12
344.348	807.12
344.576	739.12
344.804	712.12
345.031	699.12
345.259	672.12
345.487	678.12
345.714	656.12
345.942	667.12
346.17	676.12
346.397	641.12
346.625	655.12
346.853	638.12
347.08	647.12
347.308	648.12
347.535	664.12
347.763	662.12
347.99	661.12
348.218	659.12
348.445	664.12
348.673	636.12
348.9	653.12
349.128	628.12
349.355	622.12
349.583	607.12
349.81	610.12
350.037	610.12
350.265	628.12
350.492	619.12
350.72	634.12
350.947	611.12
351.174	617.12
351.402	636.12
351.629	604.12
351.856	634.12
352.083	616.12
352.311	601.12
352.538	626.12
352.765	613.12
352.992	622.12
353.22	608.12
353.447	603.12
353.674	594.12
353.901	612.12
354.128	606.12
354.355	600.12
354.583	638.12
354.81	603.12
355.037	611.12
355.264	627.12
355.491	611.12
355.718	626.12
355.945	607.12
356.172	617.12
356.399	648.12
356.626	617.12
356.853	624.12
357.08	603.12
357.307	614.12
357.534	631.12
357.761	608.12
357.988	608.12
358.215	596.12
358.441	587.12
358.668	621.12
358.895	623.12
359.122	611.12
359.349	604.12
359.576	634.12
359.802	643.12
360.029	610.12
360.256	630.12
360.483	613.12
360.709	619.12
360.936	598.12
361.163	605.12
361.39	613.12
361.616	608.12
361.843	616.12
362.07	608.12
362.296	621.12
362.523	618.12
362.749	607.12
362.976	603.12
363.203	606.12
363.429	605.12
363.656	597.12
363.882	602.12
364.109	607.12
364.335	591.12
364.562	601.12
364.788	608.12
365.015	609.12
365.241	580.12
365.468	600.12
365.694	610.12
365.92	636.12
366.147	600.12
366.373	617.12
366.599	591.12
366.826	596.12
367.052	621.12
367.278	635.12
367.505	628.12
367.731	602.12
367.957	620.12
368.184	618.12
368.41	613.12
368.636	623.12
368.862	614.12
369.089	622.12
369.315	602.12
369.541	623.12
369.767	640.12
369.993	640.12
370.219	644.12
370.445	638.12
370.672	651.12
370.898	673.12
371.124	659.12
371.35	663.12
371.576	682.12
371.802	686.12
372.028	664.12
372.254	669.12
372.48	685.12
372.706	719.12
372.932	705.12
373.158	704.12
373.384	658.12
373.61	689.12
373.835	683.12
374.061	685.12
374.287	687.12
374.513	686.12
374.739	709.12
374.965	754.12
375.191	744.12
375.416	769.12
375.642	717.12
375.868	711.12
376.094	723.12
376.319	710.12
376.545	694.12
376.771	718.12
376.997	673.12
377.222	675.12
377.448	679.12
377.674	680.12
377.899	679.12
378.125	661.12
378.35	651.12
378.576	644.12
378.802	645.12
379.027	662.12
379.253	653.12
379.478	650.12
379.704	658.12
379.929	648.12
380.155	675.12
380.38	678.12
380.606	677.12
380.831	648.12
381.057	665.12
381.282	670.12
381.507	656.12
381.733	667.12
381.958	649.12
382.184	682.12
382.409	703.12
382.634	707.12
382.86	685.12
383.085	702.12
383.31	740.12
383.535	737.12
383.761	734.12
383.986	766.12
384.211	778.12
384.436	785.12
384.662	791.12
384.887	811.12
385.112	781.12
385.337	818.12
385.562	823.12
385.787	829.12
386.013	829.12
386.238	840.12
386.463	804.12
386.688	814.12
386.913	808.12
387.138	778.12
387.363	805.12
387.588	784.12
387.813	802.12
388.038	795.12
388.263	788.12
388.488	786.12
388.713	794.12
388.938	799.12
389.163	786.12
389.387	790.12
389.612	752.12
389.837	788.12
390.062	770.12
390.287	781.12
390.512	786.12
390.736	790.12
390.961	811.12
391.186	818.12
391.411	823.12
391.636	845.12
391.86	883.12
392.085	902.12
392.31	942.12
392.534	900.12
392.759	854.12
392.984	870.12
393.208	859.12
393.433	853.12
393.658	870.12
393.882	884.12
394.107	871.12
394.331	867.12
394.556	867.12
394.78	849.12
395.005	854.12
395.229	873.12
395.454	947.12
395.678	893.12
395.903	903.12
396.127	891.12
396.352	860.12
396.576	852.12
396.801	852.12
397.025	844.12
397.249	858.12
397.474	906.12
397.698	916.12
397.922	891.12
398.147	920.12
398.371	893.12
398.595	929.12
398.82	993.12
399.044	1068.12
399.268	1190.12
399.492	1374.12
399.717	1574.12
399.941	1632.12
400.165	1435.12
400.389	1242.12
400.613	1140.12
400.837	1046.12
401.062	1031.12
401.286	1011.12
401.51	998.12
401.734	1000.12
401.958	1032.12
402.182	1043.12
402.406	1024.12
402.63	1052.12
402.854	1081.12
403.078	1103.12
403.302	1156.12
403.526	1156.12
403.75	1189.12
403.974	1218.12
404.198	1194.12
404.422	1230.12
404.645	1202.12
404.869	1178.12
405.093	1170.12
405.317	1150.12
405.541	1144.12
405.765	1156.12
405.988	1087.12
406.212	1131.12
406.436	1111.12
406.66	1131.12
406.883	1134.12
407.107	1224.12
407.331	1280.12
407.555	1358.12
407.778	1348.12
408.002	1307.12
408.226	1232.12
408.449	1191.12
408.673	1169.12
408.896	1140.12
409.12	1136.12
409.344	1161.12
409.567	1162.12
409.791	1169.12
410.014	1163.12
410.238	1155.12
410.461	1137.12
410.685	1129.12
410.908	1098.12
411.132	1057.12
411.355	1029.12
411.578	1029.12
411.802	1033.12
412.025	1048.12
412.249	1071.12
412.472	1056.12
412.695	1034.12
412.919	1001.12
413.142	1032.12
413.365	994.12
413.589	1049.12
413.812	996.12
414.035	1025.12
414.258	1027.12
414.482	1014.12
414.705	994.12
414.928	1044.12
415.151	1024.12
415.374	1018.12
415.597	1033.12
415.821	1013.12
416.044	992.12
416.267	976.12
416.49	1009.12
416.713	991.12
416.936	983.12
417.159	1001.12
417.382	986.12
417.605	972.12
417.828	1026.12
418.051	1003.12
418.274	1039.12
418.497	1000.12
418.72	1031.12
418.943	1035.12
419.166	1144.12
419.389	1186.12
419.611	1165.12
419.834	1086.12
420.057	1086.12
420.28	1044.12
420.503	1035.12
420.726	1010.12
420.948	995.12
421.171	1012.12
421.394	1014.12
421.617	988.12
421.839	1035.12
422.062	1046.12
422.285	1018.12
422.507	1052.12
422.73	1034.12
422.953	1047.12
423.175	1058.12
423.398	1094.12
423.621	1085.12
423.843	1112.12
424.066	1082.12
424.288	1123.12
424.511	1093.12
424.733	1090.12
424.956	1059.12
425.178	1045.12
425.401	1040.12
425.623	1031.12
425.846	976.12
426.068	976.12
426.291	965.12
426.513	932.12
426.735	950.12
426.958	958.12
427.18	942.12
427.402	934.12
427.625	917.12
427.847	935.12
428.069	871.12
428.292	917.12
428.514	891.12
428.736	898.12
428.958	900.12
429.181	887.12
429.403	904.12
429.625	885.12
429.847	901.12
430.069	875.12
430.292	878.12
430.514	857.12
430.736	884.12
430.958	879.12
431.18	895.12
431.402	901.12
431.624	891.12
431.846	920.12
432.068	904.12
432.29	908.12
432.512	894.12
432.734	905.12
432.956	932.12
433.178	892.12
433.4	890.12
433.622	898.12
433.844	907.12
434.066	931.12
434.287	935.12
434.509	952.12
434.731	1002.12
434.953	1010.12
435.175	1021.12
435.397	1001.12
435.618	964.12
435.84	916.12
436.062	914.12
436.284	919.12
436.505	926.12
436.727	901.12
436.949	900.12
437.17	919.12
437.392	897.12
437.614	907.12
437.835	864.12
438.057	891.12
438.278	868.12
438.5	897.12
438.721	898.12
438.943	909.12
439.165	839.12
439.386	901.12
439.608	938.12
439.829	890.12
440.05	900.12
440.272	926.12
440.493	932.12
440.715	951.12
440.936	962.12
441.158	974.12
441.379	977.12
441.6	1048.12
441.822	1061.12
442.043	1040.12
442.264	1031.12
442.486	1022.12
442.707	1011.12
442.928	1004.12
443.149	998.12
443.371	1008.12
443.592	1030.12
443.813	1008.12
444.034	1037.12
444.255	1093.12
444.476	1138.12
444.698	1216.12
444.919	1284.12
445.14	1334.12
445.361	1237.12
445.582	1080.12
445.803	1046.12
446.024	985.12
446.245	982.12
446.466	962.12
446.687	931.12
446.908	908.12
447.129	919.12
447.35	921.12
447.571	894.12
447.792	837.12
448.013	877.12
448.234	866.12
448.455	873.12
448.675	863.12
448.896	824.12
449.117	804.12
449.338	833.12
449.559	826.12
449.779	839.12
450	845.12
450.221	830.12
450.442	831.12
450.662	860.12
450.883	866.12
451.104	870.12
451.324	898.12
451.545	902.12
451.766	896.12
451.986	867.12
452.207	871.12
452.428	868.12
452.648	845.12
452.869	824.12
453.089	842.12
453.31	811.12
453.53	794.12
453.751	838.12
453.971	812.12
454.192	796.12
454.412	808.12
454.633	818.12
454.853	822.12
455.073	790.12
455.294	772.12
455.514	767.12
455.734	794.12
455.955	778.12
456.175	778.12
456.395	778.12
456.616	774.12
456.836	787.12
457.056	804.12
457.276	777.12
457.497	801.12
457.717	766.12
457.937	803.12
458.157	795.12
458.377	836.12
458.598	852.12
458.818	843.12
459.038	893.12
459.258	874.12
459.478	919.12
459.698	964.12
459.918	973.12
460.138	1018.12
460.358	1067.12
460.578	1089.12
460.798	1110.12
461.018	1101.12
461.238	1092.12
461.458	1090.12
461.678	1093.12
461.898	1093.12
462.118	1080.12
462.338	1164.12
462.558	1190.12
462.777	1266.12
462.997	1354.12
463.217	1475.12
463.437	1516.12
463.657	1371.12
463.876	1306.12
464.096	1284.12
464.316	1291.12
464.536	1307.12
464.755	1234.12
464.975	1177.12
465.195	1110.12
465.414	1047.12
465.634	992.12
465.854	970.12
466.073	920.12
466.293	928.12
466.512	915.12
466.732	874.12
466.951	881.12
467.171	875.12
467.391	892.12
467.61	851.12
467.829	887.12
468.049	878.12
468.268	828.12
468.488	848.12
468.707	825.12
468.927	827.12
469.146	807.12
469.365	850.12
469.585	844.12
469.804	874.12
470.023	891.12
470.243	911.12
470.462	943.12
470.681	920.12
470.901	918.12
471.12	913.12
471.339	871.12
471.558	862.12
471.777	845.12
471.997	836.12
472.216	822.12
472.435	838.12
472.654	808.12
472.873	788.12
473.092	829.12
473.311	814.12
473.53	838.12
473.749	823.12
473.968	824.12
474.187	825.12
474.406	811.12
474.625	834.12
474.844	788.12
475.063	818.12
475.282	786.12
475.501	824.12
475.72	826.12
475.939	816.12
476.158	815.12
476.377	843.12
476.596	830.12
476.814	834.12
477.033	862.12
477.252	857.12
477.471	899.12
477.69	906.12
477.908	925.12
478.127	948.12
478.346	990.12
478.564	987.12
478.783	967.12
479.002	994.12
479.22	1040.12
479.439	1022.12
479.658	1021.12
479.876	1040.12
480.095	1034.12
480.313	1067.12
480.532	1108.12
480.751	1109.12
480.969	1070.12
481.188	986.12
481.406	965.12
481.624	933.12
481.843	932.12
482.061	905.12
482.28	904.12
482.498	917.12
482.717	903.12
482.935	904.12
483.153	916.12
483.372	920.12
483.59	916.12
483.808	905.12
484.027	922.12
484.245	927.12
484.463	937.12
484.681	930.12
484.9	965.12
485.118	958.12
485.336	934.12
485.554	951.12
485.772	987.12
485.99	1007.12
486.209	991.12
486.427	1000.12
486.645	994.12
486.863	988.12
487.081	966.12
487.299	979.12
487.517	935.12
487.735	962.12
487.953	941.12
488.171	955.12
488.389	962.12
488.607	949.12
488.825	920.12
489.043	947.12
489.261	930.12
489.479	934.12
489.696	963.12
489.914	974.12
490.132	955.12
490.35	951.12
490.568	944.12
490.786	948.12
491.003	973.12
491.221	955.12
491.439	961.12
491.657	983.12
491.874	998.12
492.092	999.12
492.31	976.12
492.527	971.12
492.745	991.12
492.963	983.12
493.18	986.12
493.398	1003.12
493.615	1021.12
493.833	1004.12
494.05	1033.12
494.268	1021.12
494.485	1004.12
494.703	1005.12
494.92	1014.12
495.138	1006.12
495.355	1025.12
495.573	999.12
495.79	1001.12
496.008	1040.12
496.225	1062.12
496.442	1050.12
496.66	1050.12
496.877	1050.12
497.094	1096.12
497.312	1121.12
497.529	1130.12
497.746	1135.12
497.963	1174.12
498.181	1226.12
498.398	1269.12
498.615	1328.12
498.832	1449.12
499.049	1555.12
