Data from NiCl2@0.125M.TitratingCurve.Agarose3%dH2O.NegLispCup.LampEnergy10.LIBS07252019_HRD10591_18-27-12-574.txt Node
Date: Thu Jul 25 18:27:12 EDT 2019
User: cochatt
Spectrometer: HR+D1059
Trigger mode: 1
Integration Time (sec): 1.000000E-1
Scans to average: 1
Electric dark correction enabled: true
Nonlinearity correction enabled: false
Boxcar width: 0
XAxis mode: Wavelengths
Number of Pixels in Spectrum: 2048
>>>>>Begin Spectral Data<<<<<
223.165	-19.44
223.4	-19.44
223.635	-19.44
223.869	1.56
224.104	-19.44
224.338	-28.44
224.573	-8.44
224.808	-14.44
225.042	-7.44
225.277	-2.44
225.511	9.56
225.746	1.56
225.98	5.56
226.215	2.56
226.449	21.56
226.683	17.56
226.918	18.56
227.152	21.56
227.387	32.56
227.621	32.56
227.856	36.56
228.09	34.56
228.324	47.56
228.559	54.56
228.793	64.56
229.027	127.56
229.262	138.56
229.496	153.56
229.73	156.56
229.964	163.56
230.199	146.56
230.433	179.56
230.667	177.56
230.901	180.56
231.136	162.56
231.37	172.56
231.604	180.56
231.838	193.56
232.072	188.56
232.306	196.56
232.541	200.56
232.775	176.56
233.009	187.56
233.243	191.56
233.477	177.56
233.711	191.56
233.945	183.56
234.179	203.56
234.413	200.56
234.647	204.56
234.881	202.56
235.115	204.56
235.349	189.56
235.583	184.56
235.817	188.56
236.051	187.56
236.285	192.56
236.519	213.56
236.753	211.56
236.987	204.56
237.221	221.56
237.455	207.56
237.689	226.56
237.922	222.56
238.156	216.56
238.39	222.56
238.624	224.56
238.858	224.56
239.091	221.56
239.325	234.56
239.559	232.56
239.793	245.56
240.027	237.56
240.26	253.56
240.494	247.56
240.728	253.56
240.961	247.56
241.195	260.56
241.429	262.56
241.662	277.56
241.896	278.56
242.13	246.56
242.363	264.56
242.597	269.56
242.83	257.56
243.064	267.56
243.298	280.56
243.531	300.56
243.765	297.56
243.998	292.56
244.232	283.56
244.465	295.56
244.699	280.56
244.932	293.56
245.166	297.56
245.399	314.56
245.633	301.56
245.866	311.56
246.099	313.56
246.333	309.56
246.566	312.56
246.8	321.56
247.033	326.56
247.266	308.56
247.5	319.56
247.733	341.56
247.966	337.56
248.2	358.56
248.433	349.56
248.666	341.56
248.899	347.56
249.133	333.56
249.366	352.56
249.599	349.56
249.832	359.56
250.066	352.56
250.299	339.56
250.532	337.56
250.765	359.56
250.998	354.56
251.231	370.56
251.465	379.56
251.698	386.56
251.931	383.56
252.164	384.56
252.397	394.56
252.63	375.56
252.863	381.56
253.096	376.56
253.329	389.56
253.562	410.56
253.795	398.56
254.028	390.56
254.261	403.56
254.494	408.56
254.727	405.56
254.96	407.56
255.193	396.56
255.426	403.56
255.659	403.56
255.892	432.56
256.124	427.56
256.357	426.56
256.59	438.56
256.823	439.56
257.056	428.56
257.289	440.56
257.521	442.56
257.754	433.56
257.987	437.56
258.22	451.56
258.452	423.56
258.685	455.56
258.918	459.56
259.151	461.56
259.383	461.56
259.616	459.56
259.849	455.56
260.081	453.56
260.314	463.56
260.547	471.56
260.779	475.56
261.012	469.56
261.244	476.56
261.477	480.56
261.71	461.56
261.942	471.56
262.175	470.56
262.407	489.56
262.64	480.56
262.872	504.56
263.105	497.56
263.337	496.56
263.57	477.56
263.802	497.56
264.035	500.56
264.267	487.56
264.499	491.56
264.732	517.56
264.964	518.56
265.197	507.56
265.429	516.56
265.661	531.56
265.894	517.56
266.126	528.56
266.358	520.56
266.591	520.56
266.823	552.56
267.055	524.56
267.287	547.56
267.52	513.56
267.752	555.56
267.984	528.56
268.216	556.56
268.448	573.56
268.681	564.56
268.913	565.56
269.145	560.56
269.377	578.56
269.609	547.56
269.841	563.56
270.073	547.56
270.306	580.56
270.538	569.56
270.77	567.56
271.002	566.56
271.234	587.56
271.466	567.56
271.698	571.56
271.93	574.56
272.162	599.56
272.394	589.56
272.626	590.56
272.858	604.56
273.09	591.56
273.322	610.56
273.553	590.56
273.785	617.56
274.017	624.56
274.249	623.56
274.481	609.56
274.713	604.56
274.945	639.56
275.176	623.56
275.408	630.56
275.64	652.56
275.872	644.56
276.104	641.56
276.335	639.56
276.567	634.56
276.799	626.56
277.031	644.56
277.262	649.56
277.494	641.56
277.726	664.56
277.957	635.56
278.189	669.56
278.421	661.56
278.652	661.56
278.884	658.56
279.115	683.56
279.347	668.56
279.579	673.56
279.81	668.56
280.042	675.56
280.273	677.56
280.505	696.56
280.736	695.56
280.968	693.56
281.199	677.56
281.431	698.56
281.662	701.56
281.894	710.56
282.125	717.56
282.356	720.56
282.588	715.56
282.819	698.56
283.051	717.56
283.282	705.56
283.513	735.56
283.745	711.56
283.976	733.56
284.207	717.56
284.439	733.56
284.67	739.56
284.901	730.56
285.132	741.56
285.364	730.56
285.595	749.56
285.826	747.56
286.057	744.56
286.288	753.56
286.52	757.56
286.751	759.56
286.982	762.56
287.213	763.56
287.444	776.56
287.675	780.56
287.906	777.56
288.138	786.56
288.369	751.56
288.6	775.56
288.831	776.56
289.062	762.56
289.293	775.56
289.524	787.56
289.755	769.56
289.986	781.56
290.217	791.56
290.448	789.56
290.679	778.56
290.91	801.56
291.141	803.56
291.371	816.56
291.602	796.56
291.833	799.56
292.064	781.56
292.295	795.56
292.526	778.56
292.757	806.56
292.987	780.56
293.218	801.56
293.449	822.56
293.68	787.56
293.91	796.56
294.141	804.56
294.372	799.56
294.603	796.56
294.833	852.56
295.064	825.56
295.295	827.56
295.525	819.56
295.756	810.56
295.987	812.56
296.217	823.56
296.448	802.56
296.679	837.56
296.909	825.56
297.14	836.56
297.37	838.56
297.601	823.56
297.831	880.56
298.062	857.56
298.292	847.56
298.523	899.56
298.753	887.56
298.984	863.56
299.214	846.56
299.445	877.56
299.675	852.56
299.905	901.56
300.136	901.56
300.366	861.56
300.597	877.56
300.827	909.56
301.057	903.56
301.288	928.56
301.518	889.56
301.748	907.56
301.979	907.56
302.209	937.56
302.439	913.56
302.669	929.56
302.9	913.56
303.13	885.56
303.36	916.56
303.59	930.56
303.82	897.56
304.051	925.56
304.281	914.56
304.511	927.56
304.741	913.56
304.971	927.56
305.201	874.56
305.431	908.56
305.661	932.56
305.891	876.56
306.121	896.56
306.352	879.56
306.582	904.56
306.812	880.56
307.042	909.56
307.272	897.56
307.502	845.56
307.731	905.56
307.961	909.56
308.191	913.56
308.421	892.56
308.651	885.56
308.881	900.56
309.111	898.56
309.341	896.56
309.571	927.56
309.8	904.56
310.03	907.56
310.26	925.56
310.49	884.56
310.72	911.56
310.949	927.56
311.179	934.56
311.409	895.56
311.639	912.56
311.868	936.56
312.098	949.56
312.328	935.56
312.557	951.56
312.787	924.56
313.017	933.56
313.246	943.56
313.476	956.56
313.706	985.56
313.935	948.56
314.165	972.56
314.394	973.56
314.624	948.56
314.853	969.56
315.083	973.56
315.312	969.56
315.542	965.56
315.771	937.56
316.001	972.56
316.23	974.56
316.46	946.56
316.689	984.56
316.919	959.56
317.148	968.56
317.377	967.56
317.607	960.56
317.836	933.56
318.065	949.56
318.295	978.56
318.524	940.56
318.753	917.56
318.983	953.56
319.212	922.56
319.441	967.56
319.67	965.56
319.9	947.56
320.129	962.56
320.358	931.56
320.587	954.56
320.816	935.56
321.046	962.56
321.275	951.56
321.504	975.56
321.733	991.56
321.962	965.56
322.191	983.56
322.42	973.56
322.649	986.56
322.878	978.56
323.108	963.56
323.337	965.56
323.566	1003.56
323.795	998.56
324.024	1023.56
324.253	982.56
324.482	968.56
324.71	1005.56
324.939	995.56
325.168	1032.56
325.397	1008.56
325.626	1009.56
325.855	992.56
326.084	1043.56
326.313	1058.56
326.542	1024.56
326.77	1093.56
326.999	1031.56
327.228	1027.56
327.457	1008.56
327.686	1030.56
327.914	1053.56
328.143	1045.56
328.372	1024.56
328.6	1061.56
328.829	1072.56
329.058	1059.56
329.287	1065.56
329.515	1075.56
329.744	1063.56
329.972	1063.56
330.201	1076.56
330.43	1077.56
330.658	1046.56
330.887	1096.56
331.115	1092.56
331.344	1107.56
331.572	1120.56
331.801	1122.56
332.03	1165.56
332.258	1172.56
332.486	1215.56
332.715	1239.56
332.943	1243.56
333.172	1325.56
333.4	1352.56
333.629	1360.56
333.857	1415.56
334.085	1387.56
334.314	1391.56
334.542	1348.56
334.771	1346.56
334.999	1357.56
335.227	1330.56
335.455	1291.56
335.684	1331.56
335.912	1340.56
336.14	1290.56
336.369	1293.56
336.597	1294.56
336.825	1247.56
337.053	1233.56
337.281	1234.56
337.51	1229.56
337.738	1225.56
337.966	1208.56
338.194	1180.56
338.422	1169.56
338.65	1164.56
338.878	1173.56
339.106	1160.56
339.334	1154.56
339.562	1161.56
339.79	1098.56
340.018	1111.56
340.246	1114.56
340.474	1098.56
340.702	1100.56
340.93	1112.56
341.158	1104.56
341.386	1090.56
341.614	1123.56
341.842	1093.56
342.07	1089.56
342.298	1081.56
342.526	1138.56
342.754	1131.56
342.981	1091.56
343.209	1138.56
343.437	1178.56
343.665	1259.56
343.893	1336.56
344.12	1354.56
344.348	1316.56
344.576	1266.56
344.804	1216.56
345.031	1187.56
345.259	1136.56
345.487	1131.56
345.714	1122.56
345.942	1074.56
346.17	1080.56
346.397	1083.56
346.625	1061.56
346.853	1066.56
347.08	1072.56
347.308	1052.56
347.535	1066.56
347.763	1077.56
347.99	1050.56
348.218	1091.56
348.445	1049.56
348.673	1060.56
348.9	1045.56
349.128	1055.56
349.355	1036.56
349.583	1056.56
349.81	1052.56
350.037	1034.56
350.265	1051.56
350.492	1042.56
350.72	1027.56
350.947	1047.56
351.174	1035.56
351.402	1038.56
351.629	1020.56
351.856	1031.56
352.083	1011.56
352.311	1007.56
352.538	1029.56
352.765	1063.56
352.992	1038.56
353.22	1032.56
353.447	1036.56
353.674	1005.56
353.901	1006.56
354.128	1037.56
354.355	992.56
354.583	1020.56
354.81	1036.56
355.037	1031.56
355.264	1043.56
355.491	1047.56
355.718	1040.56
355.945	1052.56
356.172	1051.56
356.399	1020.56
356.626	1018.56
356.853	1021.56
357.08	1025.56
357.307	1033.56
357.534	1015.56
357.761	1035.56
357.988	1039.56
358.215	1061.56
358.441	1043.56
358.668	1033.56
358.895	1061.56
359.122	1011.56
359.349	1030.56
359.576	1072.56
359.802	1024.56
360.029	1022.56
360.256	1024.56
360.483	1052.56
360.709	1052.56
360.936	1025.56
361.163	1026.56
361.39	1025.56
361.616	1046.56
361.843	1049.56
362.07	1056.56
362.296	1048.56
362.523	1003.56
362.749	1039.56
362.976	1043.56
363.203	1059.56
363.429	1028.56
363.656	1041.56
363.882	1035.56
364.109	1060.56
364.335	1036.56
364.562	1015.56
364.788	1048.56
365.015	1005.56
365.241	1041.56
365.468	1010.56
365.694	1044.56
365.92	1051.56
366.147	1049.56
366.373	1046.56
366.599	1047.56
366.826	1023.56
367.052	992.56
367.278	1045.56
367.505	1021.56
367.731	1040.56
367.957	1061.56
368.184	1068.56
368.41	1059.56
368.636	1049.56
368.862	1067.56
369.089	1071.56
369.315	1065.56
369.541	1067.56
369.767	1112.56
369.993	1101.56
370.219	1093.56
370.445	1072.56
370.672	1098.56
370.898	1075.56
371.124	1098.56
371.35	1136.56
371.576	1112.56
371.802	1120.56
372.028	1133.56
372.254	1112.56
372.48	1125.56
372.706	1151.56
372.932	1141.56
373.158	1181.56
373.384	1165.56
373.61	1145.56
373.835	1141.56
374.061	1113.56
374.287	1130.56
374.513	1162.56
374.739	1195.56
374.965	1256.56
375.191	1234.56
375.416	1220.56
375.642	1221.56
375.868	1169.56
376.094	1159.56
376.319	1121.56
376.545	1145.56
376.771	1147.56
376.997	1122.56
377.222	1131.56
377.448	1125.56
377.674	1135.56
377.899	1129.56
378.125	1127.56
378.35	1127.56
378.576	1118.56
378.802	1140.56
379.027	1111.56
379.253	1143.56
379.478	1099.56
379.704	1107.56
379.929	1103.56
380.155	1120.56
380.38	1116.56
380.606	1102.56
380.831	1119.56
381.057	1123.56
381.282	1120.56
381.507	1121.56
381.733	1149.56
381.958	1124.56
382.184	1128.56
382.409	1168.56
382.634	1203.56
382.86	1150.56
383.085	1201.56
383.31	1186.56
383.535	1191.56
383.761	1238.56
383.986	1258.56
384.211	1255.56
384.436	1307.56
384.662	1253.56
384.887	1329.56
385.112	1332.56
385.337	1317.56
385.562	1359.56
385.787	1335.56
386.013	1373.56
386.238	1373.56
386.463	1370.56
386.688	1372.56
386.913	1376.56
387.138	1341.56
387.363	1353.56
387.588	1367.56
387.813	1347.56
388.038	1351.56
388.263	1331.56
388.488	1347.56
388.713	1335.56
388.938	1306.56
389.163	1337.56
389.387	1329.56
389.612	1299.56
389.837	1337.56
390.062	1312.56
390.287	1319.56
390.512	1382.56
390.736	1341.56
390.961	1373.56
391.186	1381.56
391.411	1415.56
391.636	1415.56
391.86	1491.56
392.085	1506.56
392.31	1498.56
392.534	1461.56
392.759	1487.56
392.984	1439.56
393.208	1421.56
393.433	1437.56
393.658	1452.56
393.882	1429.56
394.107	1421.56
394.331	1431.56
394.556	1423.56
394.78	1434.56
395.005	1470.56
395.229	1468.56
395.454	1484.56
395.678	1500.56
395.903	1501.56
396.127	1495.56
396.352	1461.56
396.576	1426.56
396.801	1455.56
397.025	1475.56
397.249	1477.56
397.474	1534.56
397.698	1553.56
397.922	1529.56
398.147	1498.56
398.371	1539.56
398.595	1567.56
398.82	1666.56
399.044	1743.56
399.268	1930.56
399.492	2205.56
399.717	2357.56
399.941	2385.56
400.165	2186.56
400.389	2047.56
400.613	1894.56
400.837	1822.56
401.062	1740.56
401.286	1724.56
401.51	1717.56
401.734	1700.56
401.958	1675.56
402.182	1669.56
402.406	1676.56
402.63	1695.56
402.854	1773.56
403.078	1746.56
403.302	1803.56
403.526	1835.56
403.75	1849.56
403.974	1868.56
404.198	1898.56
404.422	1864.56
404.645	1868.56
404.869	1856.56
405.093	1822.56
405.317	1836.56
405.541	1833.56
405.765	1855.56
405.988	1783.56
406.212	1851.56
406.436	1820.56
406.66	1875.56
406.883	1901.56
407.107	1969.56
407.331	2088.56
407.555	2153.56
407.778	2113.56
408.002	2037.56
408.226	2028.56
408.449	2028.56
408.673	1924.56
408.896	1897.56
409.12	1872.56
409.344	1882.56
409.567	1874.56
409.791	1892.56
410.014	1856.56
410.238	1810.56
410.461	1821.56
410.685	1821.56
410.908	1795.56
411.132	1760.56
411.355	1727.56
411.578	1768.56
411.802	1736.56
412.025	1747.56
412.249	1791.56
412.472	1766.56
412.695	1734.56
412.919	1682.56
413.142	1677.56
413.365	1683.56
413.589	1718.56
413.812	1700.56
414.035	1619.56
414.258	1671.56
414.482	1657.56
414.705	1695.56
414.928	1703.56
415.151	1687.56
415.374	1672.56
415.597	1694.56
415.821	1681.56
416.044	1607.56
416.267	1605.56
416.49	1597.56
416.713	1631.56
416.936	1663.56
417.159	1640.56
417.382	1628.56
417.605	1616.56
417.828	1628.56
418.051	1677.56
418.274	1647.56
418.497	1628.56
418.72	1666.56
418.943	1650.56
419.166	1800.56
419.389	1905.56
419.611	1865.56
419.834	1758.56
420.057	1716.56
420.28	1625.56
420.503	1610.56
420.726	1626.56
420.948	1632.56
421.171	1621.56
421.394	1632.56
421.617	1618.56
421.839	1660.56
422.062	1635.56
422.285	1649.56
422.507	1650.56
422.73	1648.56
422.953	1659.56
423.175	1700.56
423.398	1702.56
423.621	1706.56
423.843	1707.56
424.066	1726.56
424.288	1716.56
424.511	1675.56
424.733	1673.56
424.956	1668.56
425.178	1626.56
425.401	1631.56
425.623	1636.56
425.846	1593.56
426.068	1608.56
426.291	1580.56
426.513	1589.56
426.735	1562.56
426.958	1569.56
427.18	1511.56
427.402	1537.56
427.625	1548.56
427.847	1473.56
428.069	1493.56
428.292	1488.56
428.514	1474.56
428.736	1490.56
428.958	1476.56
429.181	1436.56
429.403	1447.56
429.625	1459.56
429.847	1466.56
430.069	1455.56
430.292	1458.56
430.514	1444.56
430.736	1470.56
430.958	1476.56
431.18	1462.56
431.402	1461.56
431.624	1488.56
431.846	1441.56
432.068	1516.56
432.29	1497.56
432.512	1469.56
432.734	1459.56
432.956	1461.56
433.178	1497.56
433.4	1505.56
433.622	1539.56
433.844	1517.56
434.066	1510.56
434.287	1525.56
434.509	1545.56
434.731	1600.56
434.953	1636.56
435.175	1632.56
435.397	1628.56
435.618	1562.56
435.84	1538.56
436.062	1501.56
436.284	1470.56
436.505	1494.56
436.727	1479.56
436.949	1496.56
437.17	1472.56
437.392	1433.56
437.614	1447.56
437.835	1407.56
438.057	1384.56
438.278	1395.56
438.5	1409.56
438.721	1390.56
438.943	1402.56
439.165	1404.56
439.386	1421.56
439.608	1454.56
439.829	1463.56
440.05	1476.56
440.272	1460.56
440.493	1465.56
440.715	1491.56
440.936	1506.56
441.158	1544.56
441.379	1567.56
441.6	1608.56
441.822	1619.56
442.043	1626.56
442.264	1652.56
442.486	1573.56
442.707	1619.56
442.928	1607.56
443.149	1614.56
443.371	1625.56
443.592	1600.56
443.813	1630.56
444.034	1628.56
444.255	1715.56
444.476	1770.56
444.698	1854.56
444.919	1887.56
445.14	1953.56
445.361	1793.56
445.582	1644.56
445.803	1569.56
446.024	1542.56
446.245	1564.56
446.466	1494.56
446.687	1471.56
446.908	1481.56
447.129	1471.56
447.35	1413.56
447.571	1419.56
447.792	1374.56
448.013	1410.56
448.234	1371.56
448.455	1343.56
448.675	1359.56
448.896	1349.56
449.117	1329.56
449.338	1337.56
449.559	1355.56
449.779	1327.56
450	1308.56
450.221	1325.56
450.442	1355.56
450.662	1345.56
450.883	1331.56
451.104	1366.56
451.324	1319.56
451.545	1338.56
451.766	1352.56
451.986	1311.56
452.207	1323.56
452.428	1330.56
452.648	1324.56
452.869	1289.56
453.089	1298.56
453.31	1288.56
453.53	1281.56
453.751	1268.56
453.971	1263.56
454.192	1299.56
454.412	1287.56
454.633	1269.56
454.853	1285.56
455.073	1254.56
455.294	1257.56
455.514	1237.56
455.734	1249.56
455.955	1227.56
456.175	1220.56
456.395	1265.56
456.616	1248.56
456.836	1253.56
457.056	1238.56
457.276	1222.56
457.497	1237.56
457.717	1263.56
457.937	1289.56
458.157	1297.56
458.377	1309.56
458.598	1305.56
458.818	1366.56
459.038	1379.56
459.258	1398.56
459.478	1477.56
459.698	1539.56
459.918	1558.56
460.138	1618.56
460.358	1675.56
460.578	1671.56
460.798	1711.56
461.018	1673.56
461.238	1688.56
461.458	1667.56
461.678	1654.56
461.898	1672.56
462.118	1714.56
462.338	1834.56
462.558	1835.56
462.777	1911.56
462.997	2034.56
463.217	2175.56
463.437	2168.56
463.657	2041.56
463.876	1966.56
464.096	1925.56
464.316	1912.56
464.536	1931.56
464.755	1856.56
464.975	1801.56
465.195	1755.56
465.414	1672.56
465.634	1551.56
465.854	1543.56
466.073	1478.56
466.293	1457.56
466.512	1443.56
466.732	1423.56
466.951	1416.56
467.171	1388.56
467.391	1395.56
467.61	1375.56
467.829	1388.56
468.049	1385.56
468.268	1359.56
468.488	1323.56
468.707	1343.56
468.927	1365.56
469.146	1341.56
469.365	1369.56
469.585	1394.56
469.804	1386.56
470.023	1411.56
470.243	1405.56
470.462	1455.56
470.681	1412.56
470.901	1448.56
471.12	1441.56
471.339	1404.56
471.558	1393.56
471.777	1407.56
471.997	1387.56
472.216	1364.56
472.435	1340.56
472.654	1346.56
472.873	1312.56
473.092	1347.56
473.311	1336.56
473.53	1349.56
473.749	1320.56
473.968	1335.56
474.187	1314.56
474.406	1303.56
474.625	1315.56
474.844	1297.56
475.063	1343.56
475.282	1357.56
475.501	1340.56
475.72	1354.56
475.939	1383.56
476.158	1380.56
476.377	1420.56
476.596	1401.56
476.814	1435.56
477.033	1402.56
477.252	1402.56
477.471	1455.56
477.69	1533.56
477.908	1547.56
478.127	1595.56
478.346	1570.56
478.564	1610.56
478.783	1590.56
479.002	1659.56
479.22	1707.56
479.439	1672.56
479.658	1676.56
479.876	1677.56
480.095	1707.56
480.313	1733.56
480.532	1792.56
480.751	1759.56
480.969	1731.56
481.188	1661.56
481.406	1649.56
481.624	1602.56
481.843	1611.56
482.061	1574.56
482.28	1548.56
482.498	1560.56
482.717	1553.56
482.935	1581.56
483.153	1579.56
483.372	1589.56
483.59	1608.56
483.808	1566.56
484.027	1569.56
484.245	1594.56
484.463	1619.56
484.681	1612.56
484.9	1627.56
485.118	1656.56
485.336	1627.56
485.554	1653.56
485.772	1660.56
485.99	1635.56
486.209	1641.56
486.427	1652.56
486.645	1654.56
486.863	1655.56
487.081	1632.56
487.299	1623.56
487.517	1636.56
487.735	1637.56
487.953	1648.56
488.171	1685.56
488.389	1660.56
488.607	1605.56
488.825	1642.56
489.043	1612.56
489.261	1663.56
489.479	1661.56
489.696	1656.56
489.914	1596.56
490.132	1622.56
490.35	1635.56
490.568	1627.56
490.786	1657.56
491.003	1655.56
491.221	1656.56
491.439	1679.56
