Data from NiCl2@0.0625M.TitratingCurve.Agarose3%dH2O.NegLispCup.LampEnergy10.LIBS07252019_HRD10591_18-33-02-576.txt Node
Date: Thu Jul 25 18:33:02 EDT 2019
User: cochatt
Spectrometer: HR+D1059
Trigger mode: 1
Integration Time (sec): 1.000000E-1
Scans to average: 1
Electric dark correction enabled: true
Nonlinearity correction enabled: false
Boxcar width: 0
XAxis mode: Wavelengths
Number of Pixels in Spectrum: 2048
>>>>>Begin Spectral Data<<<<<
223.165	-16.56
223.4	-16.56
223.635	-16.56
223.869	-17.56
224.104	-4.56
224.338	-24.56
224.573	-14.56
224.808	-12.56
225.042	-2.56
225.277	-20.56
225.511	9.44
225.746	0.44
225.98	8.44
226.215	21.44
226.449	10.44
226.683	29.44
226.918	13.44
227.152	20.44
227.387	34.44
227.621	45.44
227.856	33.44
228.09	44.44
228.324	47.44
228.559	69.44
228.793	81.44
229.027	151.44
229.262	159.44
229.496	154.44
229.73	169.44
229.964	178.44
230.199	190.44
230.433	193.44
230.667	190.44
230.901	195.44
231.136	185.44
231.37	198.44
231.604	215.44
231.838	224.44
232.072	218.44
232.306	206.44
232.541	209.44
232.775	207.44
233.009	227.44
233.243	210.44
233.477	218.44
233.711	231.44
233.945	213.44
234.179	227.44
234.413	215.44
234.647	237.44
234.881	218.44
235.115	216.44
235.349	227.44
235.583	243.44
235.817	228.44
236.051	229.44
236.285	242.44
236.519	249.44
236.753	250.44
236.987	257.44
237.221	236.44
237.455	244.44
237.689	247.44
237.922	260.44
238.156	249.44
238.39	272.44
238.624	268.44
238.858	278.44
239.091	262.44
239.325	268.44
239.559	282.44
239.793	286.44
240.027	289.44
240.26	272.44
240.494	292.44
240.728	293.44
240.961	289.44
241.195	293.44
241.429	309.44
241.662	301.44
241.896	313.44
242.13	315.44
242.363	319.44
242.597	310.44
242.83	323.44
243.064	317.44
243.298	329.44
243.531	327.44
243.765	328.44
243.998	329.44
244.232	340.44
244.465	345.44
244.699	365.44
244.932	349.44
245.166	350.44
245.399	379.44
245.633	380.44
245.866	366.44
246.099	353.44
246.333	359.44
246.566	367.44
246.8	370.44
247.033	373.44
247.266	376.44
247.5	367.44
247.733	393.44
247.966	399.44
248.2	423.44
248.433	395.44
248.666	421.44
248.899	402.44
249.133	402.44
249.366	414.44
249.599	429.44
249.832	414.44
250.066	426.44
250.299	427.44
250.532	437.44
250.765	441.44
250.998	429.44
251.231	458.44
251.465	453.44
251.698	439.44
251.931	448.44
252.164	477.44
252.397	441.44
252.63	469.44
252.863	477.44
253.096	493.44
253.329	492.44
253.562	467.44
253.795	484.44
254.028	481.44
254.261	488.44
254.494	475.44
254.727	477.44
254.96	477.44
255.193	494.44
255.426	498.44
255.659	471.44
255.892	514.44
256.124	498.44
256.357	496.44
256.59	524.44
256.823	514.44
257.056	500.44
257.289	527.44
257.521	519.44
257.754	546.44
257.987	513.44
258.22	522.44
258.452	558.44
258.685	511.44
258.918	535.44
259.151	542.44
259.383	545.44
259.616	561.44
259.849	537.44
260.081	540.44
260.314	550.44
260.547	566.44
260.779	559.44
261.012	582.44
261.244	556.44
261.477	571.44
261.71	585.44
261.942	573.44
262.175	582.44
262.407	573.44
262.64	567.44
262.872	580.44
263.105	594.44
263.337	586.44
263.57	615.44
263.802	599.44
264.035	605.44
264.267	606.44
264.499	606.44
264.732	626.44
264.964	634.44
265.197	629.44
265.429	636.44
265.661	617.44
265.894	620.44
266.126	632.44
266.358	625.44
266.591	622.44
266.823	639.44
267.055	641.44
267.287	641.44
267.52	661.44
267.752	653.44
267.984	640.44
268.216	651.44
268.448	657.44
268.681	661.44
268.913	664.44
269.145	667.44
269.377	658.44
269.609	672.44
269.841	665.44
270.073	671.44
270.306	677.44
270.538	654.44
270.77	681.44
271.002	692.44
271.234	694.44
271.466	697.44
271.698	694.44
271.93	703.44
272.162	710.44
272.394	715.44
272.626	741.44
272.858	685.44
273.09	709.44
273.322	717.44
273.553	685.44
273.785	722.44
274.017	732.44
274.249	741.44
274.481	748.44
274.713	740.44
274.945	737.44
275.176	769.44
275.408	725.44
275.64	764.44
275.872	762.44
276.104	759.44
276.335	771.44
276.567	766.44
276.799	787.44
277.031	784.44
277.262	803.44
277.494	798.44
277.726	787.44
277.957	793.44
278.189	800.44
278.421	794.44
278.652	788.44
278.884	791.44
279.115	809.44
279.347	790.44
279.579	796.44
279.81	809.44
280.042	789.44
280.273	814.44
280.505	843.44
280.736	831.44
280.968	844.44
281.199	845.44
281.431	841.44
281.662	854.44
281.894	863.44
282.125	849.44
282.356	858.44
282.588	849.44
282.819	830.44
283.051	856.44
283.282	861.44
283.513	866.44
283.745	873.44
283.976	878.44
284.207	874.44
284.439	867.44
284.67	886.44
284.901	927.44
285.132	902.44
285.364	888.44
285.595	879.44
285.826	886.44
286.057	887.44
286.288	901.44
286.52	907.44
286.751	928.44
286.982	919.44
287.213	933.44
287.444	925.44
287.675	929.44
287.906	900.44
288.138	942.44
288.369	944.44
288.6	940.44
288.831	955.44
289.062	915.44
289.293	929.44
289.524	937.44
289.755	947.44
289.986	951.44
290.217	923.44
290.448	955.44
290.679	964.44
290.91	947.44
291.141	946.44
291.371	959.44
291.602	955.44
291.833	951.44
292.064	971.44
292.295	972.44
292.526	974.44
292.757	968.44
292.987	969.44
293.218	933.44
293.449	960.44
293.68	956.44
293.91	940.44
294.141	959.44
294.372	984.44
294.603	969.44
294.833	980.44
295.064	993.44
295.295	962.44
295.525	971.44
295.756	982.44
295.987	981.44
296.217	1021.44
296.448	1002.44
296.679	993.44
296.909	1013.44
297.14	1054.44
297.37	1031.44
297.601	1036.44
297.831	1024.44
298.062	1037.44
298.292	1014.44
298.523	1027.44
298.753	1035.44
298.984	1056.44
299.214	1066.44
299.445	1067.44
299.675	1003.44
299.905	1043.44
300.136	1030.44
300.366	1044.44
300.597	1054.44
300.827	1070.44
301.057	1086.44
301.288	1073.44
301.518	1092.44
301.748	1073.44
301.979	1091.44
302.209	1084.44
302.439	1121.44
302.669	1092.44
302.9	1100.44
303.13	1067.44
303.36	1085.44
303.59	1097.44
303.82	1064.44
304.051	1097.44
304.281	1097.44
304.511	1079.44
304.741	1094.44
304.971	1101.44
305.201	1118.44
305.431	1107.44
305.661	1078.44
305.891	1081.44
306.121	1055.44
306.352	1106.44
306.582	1076.44
306.812	1078.44
307.042	1101.44
307.272	1083.44
307.502	1109.44
307.731	1077.44
307.961	1077.44
308.191	1082.44
308.421	1052.44
308.651	1110.44
308.881	1065.44
309.111	1060.44
309.341	1055.44
309.571	1082.44
309.8	1099.44
310.03	1094.44
310.26	1110.44
310.49	1087.44
310.72	1097.44
310.949	1086.44
311.179	1112.44
311.409	1094.44
311.639	1121.44
311.868	1115.44
312.098	1119.44
312.328	1151.44
312.557	1165.44
312.787	1155.44
313.017	1146.44
313.246	1159.44
313.476	1131.44
313.706	1159.44
313.935	1163.44
314.165	1176.44
314.394	1178.44
314.624	1157.44
314.853	1175.44
315.083	1176.44
315.312	1195.44
315.542	1183.44
315.771	1181.44
316.001	1149.44
316.23	1163.44
316.46	1185.44
316.689	1151.44
316.919	1150.44
317.148	1160.44
317.377	1189.44
317.607	1175.44
317.836	1121.44
318.065	1139.44
318.295	1165.44
318.524	1175.44
318.753	1167.44
318.983	1173.44
319.212	1171.44
319.441	1165.44
319.67	1177.44
319.9	1155.44
320.129	1143.44
320.358	1141.44
320.587	1157.44
320.816	1199.44
321.046	1178.44
321.275	1156.44
321.504	1182.44
321.733	1149.44
321.962	1162.44
322.191	1214.44
322.42	1195.44
322.649	1179.44
322.878	1197.44
323.108	1190.44
323.337	1223.44
323.566	1189.44
323.795	1182.44
324.024	1210.44
324.253	1199.44
324.482	1217.44
324.71	1221.44
324.939	1195.44
325.168	1212.44
325.397	1225.44
325.626	1205.44
325.855	1235.44
326.084	1270.44
326.313	1255.44
326.542	1263.44
326.77	1256.44
326.999	1257.44
327.228	1266.44
327.457	1250.44
327.686	1269.44
327.914	1270.44
328.143	1265.44
328.372	1274.44
328.6	1266.44
328.829	1266.44
329.058	1281.44
329.287	1252.44
329.515	1292.44
329.744	1293.44
329.972	1325.44
330.201	1283.44
330.43	1278.44
330.658	1274.44
330.887	1318.44
331.115	1322.44
331.344	1364.44
331.572	1345.44
331.801	1366.44
332.03	1366.44
332.258	1397.44
332.486	1469.44
332.715	1482.44
332.943	1498.44
333.172	1540.44
333.4	1556.44
333.629	1656.44
333.857	1672.44
334.085	1640.44
334.314	1621.44
334.542	1590.44
334.771	1597.44
334.999	1579.44
335.227	1577.44
335.455	1564.44
335.684	1592.44
335.912	1566.44
336.14	1545.44
336.369	1542.44
336.597	1493.44
336.825	1510.44
337.053	1507.44
337.281	1501.44
337.51	1477.44
337.738	1491.44
337.966	1442.44
338.194	1434.44
338.422	1391.44
338.65	1395.44
338.878	1370.44
339.106	1399.44
339.334	1435.44
339.562	1386.44
339.79	1360.44
340.018	1344.44
340.246	1316.44
340.474	1354.44
340.702	1318.44
340.93	1340.44
341.158	1329.44
341.386	1331.44
341.614	1363.44
341.842	1333.44
342.07	1317.44
342.298	1321.44
342.526	1300.44
342.754	1324.44
342.981	1342.44
343.209	1378.44
343.437	1391.44
343.665	1487.44
343.893	1552.44
344.12	1567.44
344.348	1534.44
344.576	1475.44
344.804	1457.44
345.031	1381.44
345.259	1375.44
345.487	1357.44
345.714	1315.44
345.942	1336.44
346.17	1323.44
346.397	1308.44
346.625	1276.44
346.853	1290.44
347.08	1291.44
347.308	1293.44
347.535	1259.44
347.763	1295.44
347.99	1272.44
348.218	1283.44
348.445	1263.44
348.673	1239.44
348.9	1260.44
349.128	1266.44
349.355	1248.44
349.583	1243.44
349.81	1227.44
350.037	1222.44
350.265	1279.44
350.492	1229.44
350.72	1220.44
350.947	1254.44
351.174	1243.44
351.402	1249.44
351.629	1225.44
351.856	1261.44
352.083	1195.44
352.311	1230.44
352.538	1221.44
352.765	1253.44
352.992	1234.44
353.22	1214.44
353.447	1231.44
353.674	1223.44
353.901	1242.44
354.128	1209.44
354.355	1192.44
354.583	1222.44
354.81	1260.44
355.037	1226.44
355.264	1223.44
355.491	1231.44
355.718	1222.44
355.945	1209.44
356.172	1227.44
356.399	1229.44
356.626	1228.44
356.853	1250.44
357.08	1234.44
357.307	1240.44
357.534	1250.44
357.761	1229.44
357.988	1261.44
358.215	1230.44
358.441	1213.44
358.668	1254.44
358.895	1222.44
359.122	1229.44
359.349	1203.44
359.576	1245.44
359.802	1281.44
360.029	1237.44
360.256	1247.44
360.483	1230.44
360.709	1239.44
360.936	1230.44
361.163	1219.44
361.39	1239.44
361.616	1274.44
361.843	1289.44
362.07	1271.44
362.296	1256.44
362.523	1217.44
362.749	1252.44
362.976	1223.44
363.203	1242.44
363.429	1235.44
363.656	1243.44
363.882	1245.44
364.109	1241.44
364.335	1228.44
364.562	1213.44
364.788	1238.44
365.015	1209.44
365.241	1209.44
365.468	1234.44
365.694	1239.44
365.92	1235.44
366.147	1252.44
366.373	1233.44
366.599	1230.44
366.826	1261.44
367.052	1245.44
367.278	1236.44
367.505	1262.44
367.731	1267.44
367.957	1245.44
368.184	1243.44
368.41	1254.44
368.636	1239.44
368.862	1262.44
369.089	1276.44
369.315	1273.44
369.541	1264.44
369.767	1314.44
369.993	1277.44
370.219	1287.44
370.445	1297.44
370.672	1313.44
370.898	1326.44
371.124	1299.44
371.35	1380.44
371.576	1347.44
371.802	1357.44
372.028	1364.44
372.254	1363.44
372.48	1379.44
372.706	1346.44
372.932	1407.44
373.158	1378.44
373.384	1374.44
373.61	1342.44
373.835	1354.44
374.061	1354.44
374.287	1349.44
374.513	1381.44
374.739	1388.44
374.965	1461.44
375.191	1453.44
375.416	1452.44
375.642	1382.44
375.868	1411.44
376.094	1383.44
376.319	1350.44
376.545	1390.44
376.771	1366.44
376.997	1346.44
377.222	1343.44
377.448	1349.44
377.674	1341.44
377.899	1340.44
378.125	1323.44
378.35	1331.44
378.576	1317.44
378.802	1312.44
379.027	1352.44
379.253	1305.44
379.478	1317.44
379.704	1332.44
379.929	1322.44
380.155	1331.44
380.38	1333.44
380.606	1305.44
380.831	1311.44
381.057	1332.44
381.282	1345.44
381.507	1317.44
381.733	1342.44
381.958	1365.44
382.184	1355.44
382.409	1411.44
382.634	1406.44
382.86	1403.44
383.085	1409.44
383.31	1417.44
383.535	1446.44
383.761	1433.44
383.986	1493.44
384.211	1500.44
384.436	1509.44
384.662	1535.44
384.887	1558.44
385.112	1557.44
385.337	1592.44
385.562	1583.44
385.787	1588.44
386.013	1595.44
386.238	1621.44
386.463	1625.44
386.688	1633.44
386.913	1583.44
387.138	1599.44
387.363	1614.44
387.588	1553.44
387.813	1588.44
388.038	1606.44
388.263	1589.44
388.488	1607.44
388.713	1576.44
388.938	1591.44
389.163	1606.44
389.387	1599.44
389.612	1560.44
389.837	1586.44
390.062	1527.44
390.287	1570.44
390.512	1612.44
390.736	1592.44
390.961	1642.44
391.186	1671.44
391.411	1654.44
391.636	1741.44
391.86	1789.44
392.085	1791.44
392.31	1752.44
392.534	1743.44
392.759	1725.44
392.984	1681.44
393.208	1685.44
393.433	1716.44
393.658	1772.44
393.882	1693.44
394.107	1685.44
394.331	1673.44
394.556	1699.44
394.78	1705.44
395.005	1724.44
395.229	1709.44
395.454	1748.44
395.678	1773.44
395.903	1748.44
396.127	1756.44
396.352	1730.44
396.576	1715.44
396.801	1716.44
397.025	1764.44
397.249	1770.44
397.474	1747.44
397.698	1787.44
397.922	1807.44
398.147	1829.44
398.371	1875.44
398.595	1907.44
398.82	2009.44
399.044	2089.44
399.268	2270.44
399.492	2483.44
399.717	2702.44
399.941	2750.44
400.165	2561.44
400.389	2350.44
400.613	2186.44
400.837	2126.44
401.062	2070.44
401.286	2002.44
401.51	2023.44
401.734	1968.44
401.958	1981.44
402.182	1983.44
402.406	1991.44
402.63	2017.44
402.854	2061.44
403.078	2102.44
403.302	2100.44
403.526	2117.44
403.75	2106.44
403.974	2177.44
404.198	2178.44
404.422	2171.44
404.645	2103.44
404.869	2122.44
405.093	2151.44
405.317	2072.44
405.541	2122.44
405.765	2142.44
405.988	2129.44
406.212	2185.44
406.436	2151.44
406.66	2209.44
406.883	2167.44
407.107	2367.44
407.331	2381.44
407.555	2479.44
407.778	2495.44
408.002	2423.44
408.226	2403.44
408.449	2379.44
408.673	2226.44
408.896	2253.44
409.12	2203.44
409.344	2233.44
409.567	2184.44
409.791	2220.44
410.014	2182.44
410.238	2174.44
410.461	2157.44
410.685	2140.44
410.908	2092.44
411.132	2095.44
411.355	2030.44
411.578	2106.44
411.802	2058.44
412.025	2067.44
412.249	2068.44
412.472	2077.44
412.695	2021.44
412.919	1982.44
413.142	2011.44
413.365	1993.44
413.589	2010.44
413.812	1959.44
414.035	1963.44
414.258	1979.44
414.482	1958.44
414.705	1984.44
414.928	1988.44
415.151	1966.44
415.374	1945.44
415.597	1940.44
415.821	1913.44
416.044	1919.44
416.267	1897.44
416.49	1913.44
416.713	1905.44
416.936	1896.44
417.159	1906.44
417.382	1917.44
417.605	1875.44
417.828	1877.44
418.051	1924.44
418.274	1925.44
418.497	1913.44
418.72	1986.44
418.943	1940.44
419.166	2080.44
419.389	2186.44
419.611	2163.44
419.834	2053.44
420.057	1982.44
420.28	1927.44
420.503	1908.44
420.726	1865.44
420.948	1877.44
421.171	1874.44
421.394	1888.44
421.617	1906.44
421.839	1865.44
422.062	1900.44
422.285	1902.44
422.507	1939.44
422.73	1932.44
422.953	1947.44
423.175	1955.44
423.398	1927.44
423.621	1919.44
423.843	1961.44
424.066	1988.44
424.288	1945.44
424.511	1961.44
424.733	1906.44
424.956	1938.44
425.178	1915.44
425.401	1918.44
425.623	1905.44
425.846	1832.44
426.068	1853.44
426.291	1882.44
426.513	1874.44
426.735	1829.44
426.958	1834.44
427.18	1794.44
427.402	1766.44
427.625	1793.44
427.847	1717.44
428.069	1735.44
428.292	1773.44
428.514	1744.44
428.736	1717.44
428.958	1739.44
429.181	1700.44
429.403	1685.44
429.625	1709.44
429.847	1681.44
430.069	1701.44
430.292	1705.44
430.514	1723.44
430.736	1686.44
430.958	1738.44
431.18	1695.44
431.402	1710.44
431.624	1721.44
431.846	1687.44
432.068	1753.44
432.29	1783.44
432.512	1729.44
432.734	1766.44
432.956	1705.44
433.178	1783.44
433.4	1770.44
433.622	1766.44
433.844	1796.44
434.066	1812.44
434.287	1805.44
434.509	1849.44
434.731	1891.44
434.953	1934.44
435.175	1923.44
435.397	1894.44
435.618	1868.44
435.84	1779.44
436.062	1774.44
436.284	1755.44
436.505	1772.44
436.727	1754.44
436.949	1714.44
437.17	1713.44
437.392	1687.44
437.614	1706.44
437.835	1628.44
438.057	1674.44
438.278	1639.44
438.5	1636.44
438.721	1647.44
438.943	1665.44
439.165	1641.44
439.386	1631.44
439.608	1713.44
439.829	1721.44
440.05	1661.44
440.272	1706.44
440.493	1716.44
440.715	1739.44
440.936	1770.44
441.158	1792.44
441.379	1798.44
441.6	1853.44
441.822	1891.44
442.043	1889.44
442.264	1846.44
442.486	1834.44
442.707	1825.44
442.928	1806.44
443.149	1837.44
443.371	1886.44
443.592	1851.44
443.813	1883.44
444.034	1902.44
444.255	1947.44
444.476	2019.44
444.698	2061.44
444.919	2148.44
445.14	2207.44
445.361	2011.44
445.582	1941.44
445.803	1869.44
446.024	1806.44
446.245	1803.44
446.466	1770.44
446.687	1710.44
446.908	1747.44
447.129	1620.44
447.35	1665.44
447.571	1660.44
447.792	1625.44
448.013	1611.44
448.234	1573.44
448.455	1611.44
448.675	1589.44
448.896	1555.44
449.117	1526.44
449.338	1572.44
449.559	1543.44
449.779	1550.44
450	1542.44
450.221	1523.44
450.442	1514.44
450.662	1524.44
450.883	1537.44
451.104	1552.44
451.324	1558.44
451.545	1558.44
451.766	1547.44
451.986	1579.44
452.207	1534.44
452.428	1540.44
452.648	1504.44
452.869	1521.44
453.089	1490.44
453.31	1499.44
453.53	1473.44
453.751	1475.44
453.971	1470.44
454.192	1492.44
454.412	1494.44
454.633	1445.44
454.853	1477.44
455.073	1464.44
455.294	1448.44
455.514	1442.44
455.734	1429.44
455.955	1387.44
456.175	1445.44
456.395	1444.44
456.616	1475.44
456.836	1451.44
457.056	1432.44
457.276	1428.44
457.497	1457.44
457.717	1468.44
457.937	1514.44
458.157	1526.44
458.377	1489.44
458.598	1543.44
458.818	1536.44
459.038	1575.44
459.258	1638.44
459.478	1721.44
459.698	1776.44
459.918	1794.44
460.138	1812.44
460.358	1884.44
460.578	1891.44
460.798	1927.44
461.018	1931.44
461.238	1951.44
461.458	1935.44
461.678	1900.44
461.898	1961.44
462.118	1962.44
462.338	2049.44
462.558	2104.44
462.777	2166.44
462.997	2350.44
463.217	2433.44
463.437	2469.44
463.657	2318.44
463.876	2261.44
464.096	2286.44
464.316	2205.44
464.536	2218.44
464.755	2148.44
464.975	2068.44
465.195	2015.44
465.414	1943.44
465.634	1823.44
465.854	1778.44
466.073	1749.44
466.293	1652.44
466.512	1697.44
466.732	1661.44
466.951	1629.44
467.171	1649.44
467.391	1658.44
467.61	1622.44
467.829	1625.44
468.049	1610.44
468.268	1549.44
468.488	1571.44
468.707	1535.44
468.927	1547.44
469.146	1579.44
469.365	1612.44
469.585	1567.44
469.804	1604.44
470.023	1705.44
470.243	1633.44
470.462	1665.44
470.681	1653.44
470.901	1695.44
471.12	1611.44
471.339	1656.44
471.558	1594.44
471.777	1590.44
471.997	1615.44
472.216	1597.44
472.435	1585.44
472.654	1552.44
472.873	1550.44
473.092	1564.44
473.311	1558.44
473.53	1562.44
473.749	1565.44
473.968	1569.44
474.187	1539.44
474.406	1537.44
474.625	1571.44
474.844	1575.44
475.063	1525.44
475.282	1578.44
475.501	1569.44
475.72	1610.44
475.939	1605.44
476.158	1622.44
476.377	1649.44
476.596	1623.44
476.814	1682.44
477.033	1652.44
477.252	1719.44
477.471	1719.44
477.69	1755.44
477.908	1759.44
478.127	1794.44
478.346	1841.44
478.564	1894.44
478.783	1909.44
479.002	1936.44
479.22	1955.44
479.439	1949.44
479.658	1927.44
479.876	1966.44
480.095	1969.44
480.313	2038.44
480.532	2076.44
480.751	2085.44
480.969	2019.44
481.188	1970.44
481.406	1927.44
481.624	1917.44
481.843	1925.44
482.061	1884.44
482.28	1907.44
482.498	1895.44
482.717	1889.44
482.935	1871.44
483.153	1899.44
483.372	1885.44
483.59	1880.44
483.808	1961.44
484.027	1955.44
484.245	1998.44
484.463	1934.44
484.681	2033.44
484.9	1983.44
485.118	1994.44
485.336	2020.44
485.554	2021.44
485.772	2069.44
485.99	2065.44
486.209	2066.44
486.427	2071.44
486.645	2045.44
486.863	2071.44
487.081	2040.44
487.299	2026.44
487.517	2012.44
487.735	1980.44
487.953	2045.44
488.171	2056.44
488.389	2012.44
488.607	1959.44
488.825	1938.44
489.043	1946.44
489.261	1974.44
489.479	1966.44
489.696	1976.44
