Data from NiCl2@0.0625M.TitratingCurve.Agarose3%dH2O.NegLispCup.LampEnergy10.LIBS07252019_HRD10591_18-33-29-576.txt Node
Date: Thu Jul 25 18:33:29 EDT 2019
User: cochatt
Spectrometer: HR+D1059
Trigger mode: 1
Integration Time (sec): 1.000000E-1
Scans to average: 1
Electric dark correction enabled: true
Nonlinearity correction enabled: false
Boxcar width: 0
XAxis mode: Wavelengths
Number of Pixels in Spectrum: 2048
>>>>>Begin Spectral Data<<<<<
223.165	-19.81
223.4	-19.81
223.635	-19.81
223.869	-24.81
224.104	-27.81
224.338	-26.81
224.573	-5.81
224.808	-13.81
225.042	-3.81
225.277	10.19
225.511	15.19
225.746	12.19
225.98	0.19
226.215	10.19
226.449	16.19
226.683	16.19
226.918	26.19
227.152	16.19
227.387	39.19
227.621	38.19
227.856	52.19
228.09	45.19
228.324	51.19
228.559	64.19
228.793	86.19
229.027	148.19
229.262	163.19
229.496	172.19
229.73	161.19
229.964	196.19
230.199	201.19
230.433	177.19
230.667	198.19
230.901	176.19
231.136	181.19
231.37	194.19
231.604	200.19
231.838	206.19
232.072	199.19
232.306	206.19
232.541	221.19
232.775	221.19
233.009	220.19
233.243	215.19
233.477	211.19
233.711	222.19
233.945	206.19
234.179	222.19
234.413	208.19
234.647	217.19
234.881	218.19
235.115	224.19
235.349	224.19
235.583	241.19
235.817	212.19
236.051	215.19
236.285	228.19
236.519	251.19
236.753	229.19
236.987	229.19
237.221	242.19
237.455	242.19
237.689	225.19
237.922	262.19
238.156	223.19
238.39	249.19
238.624	261.19
238.858	257.19
239.091	273.19
239.325	261.19
239.559	265.19
239.793	262.19
240.027	308.19
240.26	274.19
240.494	280.19
240.728	295.19
240.961	274.19
241.195	290.19
241.429	314.19
241.662	298.19
241.896	300.19
242.13	297.19
242.363	308.19
242.597	301.19
242.83	318.19
243.064	309.19
243.298	329.19
243.531	326.19
243.765	352.19
243.998	340.19
244.232	328.19
244.465	330.19
244.699	323.19
244.932	340.19
245.166	359.19
245.399	360.19
245.633	356.19
245.866	350.19
246.099	352.19
246.333	346.19
246.566	343.19
246.8	353.19
247.033	368.19
247.266	394.19
247.5	378.19
247.733	395.19
247.966	378.19
248.2	406.19
248.433	424.19
248.666	397.19
248.899	393.19
249.133	386.19
249.366	395.19
249.599	407.19
249.832	408.19
250.066	401.19
250.299	401.19
250.532	422.19
250.765	428.19
250.998	422.19
251.231	421.19
251.465	436.19
251.698	461.19
251.931	447.19
252.164	426.19
252.397	432.19
252.63	438.19
252.863	441.19
253.096	451.19
253.329	456.19
253.562	451.19
253.795	449.19
254.028	449.19
254.261	472.19
254.494	462.19
254.727	463.19
254.96	450.19
255.193	442.19
255.426	472.19
255.659	467.19
255.892	495.19
256.124	465.19
256.357	496.19
256.59	492.19
256.823	498.19
257.056	485.19
257.289	514.19
257.521	514.19
257.754	528.19
257.987	509.19
258.22	513.19
258.452	530.19
258.685	522.19
258.918	530.19
259.151	525.19
259.383	543.19
259.616	540.19
259.849	556.19
260.081	525.19
260.314	554.19
260.547	545.19
260.779	542.19
261.012	537.19
261.244	562.19
261.477	568.19
261.71	561.19
261.942	574.19
262.175	552.19
262.407	546.19
262.64	551.19
262.872	569.19
263.105	584.19
263.337	582.19
263.57	590.19
263.802	602.19
264.035	574.19
264.267	587.19
264.499	609.19
264.732	621.19
264.964	607.19
265.197	630.19
265.429	590.19
265.661	590.19
265.894	612.19
266.126	624.19
266.358	622.19
266.591	620.19
266.823	630.19
267.055	660.19
267.287	629.19
267.52	638.19
267.752	624.19
267.984	636.19
268.216	645.19
268.448	643.19
268.681	623.19
268.913	641.19
269.145	645.19
269.377	628.19
269.609	654.19
269.841	655.19
270.073	646.19
270.306	668.19
270.538	677.19
270.77	658.19
271.002	667.19
271.234	656.19
271.466	673.19
271.698	688.19
271.93	709.19
272.162	683.19
272.394	687.19
272.626	696.19
272.858	700.19
273.09	709.19
273.322	716.19
273.553	712.19
273.785	724.19
274.017	723.19
274.249	728.19
274.481	710.19
274.713	711.19
274.945	756.19
275.176	720.19
275.408	744.19
275.64	765.19
275.872	749.19
276.104	751.19
276.335	756.19
276.567	763.19
276.799	754.19
277.031	751.19
277.262	744.19
277.494	760.19
277.726	751.19
277.957	768.19
278.189	773.19
278.421	757.19
278.652	801.19
278.884	783.19
279.115	773.19
279.347	792.19
279.579	812.19
279.81	809.19
280.042	777.19
280.273	792.19
280.505	814.19
280.736	816.19
280.968	805.19
281.199	789.19
281.431	812.19
281.662	831.19
281.894	837.19
282.125	828.19
282.356	848.19
282.588	853.19
282.819	845.19
283.051	838.19
283.282	825.19
283.513	864.19
283.745	855.19
283.976	859.19
284.207	889.19
284.439	859.19
284.67	871.19
284.901	909.19
285.132	863.19
285.364	884.19
285.595	894.19
285.826	884.19
286.057	886.19
286.288	858.19
286.52	878.19
286.751	916.19
286.982	921.19
287.213	914.19
287.444	912.19
287.675	915.19
287.906	923.19
288.138	911.19
288.369	924.19
288.6	918.19
288.831	924.19
289.062	940.19
289.293	922.19
289.524	949.19
289.755	921.19
289.986	929.19
290.217	941.19
290.448	932.19
290.679	951.19
290.91	969.19
291.141	945.19
291.371	951.19
291.602	944.19
291.833	935.19
292.064	928.19
292.295	925.19
292.526	976.19
292.757	952.19
292.987	941.19
293.218	921.19
293.449	947.19
293.68	954.19
293.91	960.19
294.141	966.19
294.372	937.19
294.603	985.19
294.833	971.19
295.064	972.19
295.295	958.19
295.525	944.19
295.756	969.19
295.987	950.19
296.217	973.19
296.448	978.19
296.679	981.19
296.909	988.19
297.14	974.19
297.37	1008.19
297.601	1032.19
297.831	986.19
298.062	977.19
298.292	1012.19
298.523	1046.19
298.753	1052.19
298.984	1018.19
299.214	1038.19
299.445	1024.19
299.675	999.19
299.905	1004.19
300.136	1044.19
300.366	1060.19
300.597	1036.19
300.827	1048.19
301.057	1077.19
301.288	1065.19
301.518	1086.19
301.748	1064.19
301.979	1102.19
302.209	1076.19
302.439	1100.19
302.669	1068.19
302.9	1078.19
303.13	1065.19
303.36	1101.19
303.59	1053.19
303.82	1088.19
304.051	1072.19
304.281	1092.19
304.511	1102.19
304.741	1066.19
304.971	1112.19
305.201	1098.19
305.431	1093.19
305.661	1072.19
305.891	1108.19
306.121	1064.19
306.352	1069.19
306.582	1102.19
306.812	1056.19
307.042	1066.19
307.272	1073.19
307.502	1078.19
307.731	1038.19
307.961	1073.19
308.191	1068.19
308.421	1086.19
308.651	1067.19
308.881	1030.19
309.111	1064.19
309.341	1085.19
309.571	1091.19
309.8	1077.19
310.03	1073.19
310.26	1055.19
310.49	1082.19
310.72	1060.19
310.949	1074.19
311.179	1071.19
311.409	1064.19
311.639	1116.19
311.868	1090.19
312.098	1129.19
312.328	1101.19
312.557	1141.19
312.787	1119.19
313.017	1129.19
313.246	1148.19
313.476	1102.19
313.706	1163.19
313.935	1140.19
314.165	1141.19
314.394	1127.19
314.624	1151.19
314.853	1126.19
315.083	1170.19
315.312	1155.19
315.542	1174.19
315.771	1139.19
316.001	1156.19
316.23	1128.19
316.46	1144.19
316.689	1139.19
316.919	1154.19
317.148	1119.19
317.377	1114.19
317.607	1157.19
317.836	1113.19
318.065	1108.19
318.295	1125.19
318.524	1158.19
318.753	1156.19
318.983	1166.19
319.212	1108.19
319.441	1135.19
319.67	1132.19
319.9	1148.19
320.129	1127.19
320.358	1144.19
320.587	1123.19
320.816	1141.19
321.046	1158.19
321.275	1190.19
321.504	1155.19
321.733	1152.19
321.962	1154.19
322.191	1180.19
322.42	1158.19
322.649	1162.19
322.878	1164.19
323.108	1168.19
323.337	1184.19
323.566	1181.19
323.795	1204.19
324.024	1198.19
324.253	1182.19
324.482	1177.19
324.71	1166.19
324.939	1198.19
325.168	1229.19
325.397	1211.19
325.626	1207.19
325.855	1214.19
326.084	1244.19
326.313	1227.19
326.542	1237.19
326.77	1279.19
326.999	1216.19
327.228	1237.19
327.457	1242.19
327.686	1250.19
327.914	1247.19
328.143	1252.19
328.372	1202.19
328.6	1264.19
328.829	1241.19
329.058	1260.19
329.287	1261.19
329.515	1256.19
329.744	1256.19
329.972	1268.19
330.201	1252.19
330.43	1280.19
330.658	1295.19
330.887	1317.19
331.115	1299.19
331.344	1289.19
331.572	1350.19
331.801	1354.19
332.03	1365.19
332.258	1362.19
332.486	1397.19
332.715	1426.19
332.943	1516.19
333.172	1546.19
333.4	1542.19
333.629	1560.19
333.857	1607.19
334.085	1581.19
334.314	1592.19
334.542	1573.19
334.771	1573.19
334.999	1555.19
335.227	1566.19
335.455	1565.19
335.684	1526.19
335.912	1546.19
336.14	1532.19
336.369	1528.19
336.597	1498.19
336.825	1513.19
337.053	1474.19
337.281	1479.19
337.51	1460.19
337.738	1416.19
337.966	1393.19
338.194	1393.19
338.422	1386.19
338.65	1364.19
338.878	1362.19
339.106	1403.19
339.334	1389.19
339.562	1369.19
339.79	1324.19
340.018	1327.19
340.246	1294.19
340.474	1319.19
340.702	1326.19
340.93	1341.19
341.158	1330.19
341.386	1296.19
341.614	1328.19
341.842	1314.19
342.07	1336.19
342.298	1311.19
342.526	1321.19
342.754	1294.19
342.981	1313.19
343.209	1329.19
343.437	1415.19
343.665	1445.19
343.893	1532.19
344.12	1548.19
344.348	1550.19
344.576	1477.19
344.804	1445.19
345.031	1391.19
345.259	1380.19
345.487	1315.19
345.714	1317.19
345.942	1293.19
346.17	1286.19
346.397	1274.19
346.625	1273.19
346.853	1305.19
347.08	1276.19
347.308	1248.19
347.535	1282.19
347.763	1266.19
347.99	1249.19
348.218	1251.19
348.445	1245.19
348.673	1261.19
348.9	1255.19
349.128	1272.19
349.355	1242.19
349.583	1250.19
349.81	1249.19
350.037	1223.19
350.265	1207.19
350.492	1213.19
350.72	1222.19
350.947	1231.19
351.174	1208.19
351.402	1229.19
351.629	1221.19
351.856	1236.19
352.083	1214.19
352.311	1217.19
352.538	1212.19
352.765	1241.19
352.992	1192.19
353.22	1175.19
353.447	1196.19
353.674	1216.19
353.901	1176.19
354.128	1181.19
354.355	1198.19
354.583	1202.19
354.81	1212.19
355.037	1232.19
355.264	1217.19
355.491	1240.19
355.718	1222.19
355.945	1224.19
356.172	1237.19
356.399	1244.19
356.626	1260.19
356.853	1232.19
357.08	1223.19
357.307	1209.19
357.534	1238.19
357.761	1212.19
357.988	1226.19
358.215	1215.19
358.441	1243.19
358.668	1207.19
358.895	1211.19
359.122	1208.19
359.349	1168.19
359.576	1225.19
359.802	1246.19
360.029	1229.19
360.256	1255.19
360.483	1221.19
360.709	1219.19
360.936	1218.19
361.163	1203.19
361.39	1232.19
361.616	1219.19
361.843	1191.19
362.07	1215.19
362.296	1225.19
362.523	1234.19
362.749	1257.19
362.976	1225.19
363.203	1178.19
363.429	1235.19
363.656	1226.19
363.882	1211.19
364.109	1223.19
364.335	1209.19
364.562	1224.19
364.788	1184.19
365.015	1185.19
365.241	1213.19
365.468	1232.19
365.694	1204.19
365.92	1229.19
366.147	1186.19
366.373	1222.19
366.599	1272.19
366.826	1206.19
367.052	1257.19
367.278	1241.19
367.505	1205.19
367.731	1208.19
367.957	1229.19
368.184	1246.19
368.41	1226.19
368.636	1232.19
368.862	1249.19
369.089	1260.19
369.315	1238.19
369.541	1250.19
369.767	1273.19
369.993	1261.19
370.219	1289.19
370.445	1311.19
370.672	1310.19
370.898	1284.19
371.124	1317.19
371.35	1331.19
371.576	1302.19
371.802	1346.19
372.028	1304.19
372.254	1321.19
372.48	1328.19
372.706	1360.19
372.932	1365.19
373.158	1374.19
373.384	1348.19
373.61	1350.19
373.835	1337.19
374.061	1325.19
374.287	1331.19
374.513	1375.19
374.739	1408.19
374.965	1433.19
375.191	1458.19
375.416	1428.19
375.642	1418.19
375.868	1408.19
376.094	1379.19
376.319	1365.19
376.545	1309.19
376.771	1337.19
376.997	1323.19
377.222	1332.19
377.448	1318.19
377.674	1321.19
377.899	1348.19
378.125	1328.19
378.35	1297.19
378.576	1274.19
378.802	1314.19
379.027	1346.19
379.253	1341.19
379.478	1308.19
379.704	1327.19
379.929	1310.19
380.155	1324.19
380.38	1325.19
380.606	1300.19
380.831	1303.19
381.057	1332.19
381.282	1299.19
381.507	1334.19
381.733	1338.19
381.958	1361.19
382.184	1344.19
382.409	1333.19
382.634	1369.19
382.86	1386.19
383.085	1404.19
383.31	1412.19
383.535	1424.19
383.761	1437.19
383.986	1469.19
384.211	1485.19
384.436	1476.19
384.662	1483.19
384.887	1556.19
385.112	1520.19
385.337	1568.19
385.562	1568.19
385.787	1604.19
386.013	1604.19
386.238	1578.19
386.463	1658.19
386.688	1614.19
386.913	1534.19
387.138	1580.19
387.363	1601.19
387.588	1588.19
387.813	1566.19
388.038	1569.19
388.263	1570.19
388.488	1597.19
388.713	1599.19
388.938	1578.19
389.163	1577.19
389.387	1566.19
389.612	1558.19
389.837	1562.19
390.062	1549.19
390.287	1542.19
390.512	1573.19
390.736	1564.19
390.961	1613.19
391.186	1617.19
391.411	1653.19
391.636	1698.19
391.86	1728.19
392.085	1729.19
392.31	1767.19
392.534	1721.19
392.759	1713.19
392.984	1665.19
393.208	1686.19
393.433	1711.19
393.658	1743.19
393.882	1669.19
394.107	1637.19
394.331	1657.19
394.556	1669.19
394.78	1684.19
395.005	1717.19
395.229	1701.19
395.454	1728.19
395.678	1756.19
395.903	1769.19
396.127	1752.19
396.352	1721.19
396.576	1701.19
396.801	1705.19
397.025	1815.19
397.249	1800.19
397.474	1783.19
397.698	1772.19
397.922	1818.19
398.147	1809.19
398.371	1825.19
398.595	1870.19
398.82	1931.19
399.044	2048.19
399.268	2238.19
399.492	2483.19
399.717	2724.19
399.941	2684.19
400.165	2529.19
400.389	2344.19
400.613	2208.19
400.837	2092.19
401.062	2064.19
401.286	1970.19
401.51	1964.19
401.734	1972.19
401.958	2024.19
402.182	1950.19
402.406	1962.19
402.63	2036.19
402.854	2048.19
403.078	2048.19
403.302	2085.19
403.526	2084.19
403.75	2086.19
403.974	2128.19
404.198	2121.19
404.422	2160.19
404.645	2133.19
404.869	2110.19
405.093	2111.19
405.317	2116.19
405.541	2131.19
405.765	2127.19
405.988	2095.19
406.212	2130.19
406.436	2148.19
406.66	2201.19
406.883	2203.19
407.107	2361.19
407.331	2420.19
407.555	2506.19
407.778	2482.19
408.002	2495.19
408.226	2350.19
408.449	2331.19
408.673	2224.19
408.896	2225.19
409.12	2158.19
409.344	2204.19
409.567	2155.19
409.791	2199.19
410.014	2156.19
410.238	2114.19
410.461	2162.19
410.685	2155.19
410.908	2106.19
411.132	2137.19
411.355	2022.19
411.578	2043.19
411.802	2044.19
412.025	2045.19
412.249	2042.19
412.472	2052.19
412.695	2007.19
412.919	1984.19
413.142	1946.19
413.365	2002.19
413.589	1965.19
413.812	1980.19
414.035	1948.19
414.258	1892.19
414.482	1984.19
414.705	1998.19
414.928	1978.19
415.151	1968.19
415.374	1940.19
415.597	1938.19
415.821	1924.19
416.044	1903.19
416.267	1879.19
416.49	1867.19
416.713	1882.19
416.936	1903.19
417.159	1882.19
417.382	1849.19
417.605	1906.19
417.828	1881.19
418.051	1874.19
418.274	1885.19
418.497	1870.19
418.72	1930.19
418.943	1938.19
419.166	2004.19
419.389	2177.19
419.611	2127.19
419.834	2054.19
420.057	1974.19
420.28	1915.19
420.503	1878.19
420.726	1873.19
420.948	1876.19
421.171	1884.19
421.394	1867.19
421.617	1844.19
421.839	1874.19
422.062	1873.19
422.285	1853.19
422.507	1917.19
422.73	1928.19
422.953	1914.19
423.175	1930.19
423.398	1945.19
423.621	1912.19
423.843	1978.19
424.066	1965.19
424.288	1917.19
424.511	1924.19
424.733	1921.19
424.956	1902.19
425.178	1891.19
425.401	1940.19
425.623	1889.19
425.846	1842.19
426.068	1829.19
426.291	1842.19
426.513	1837.19
426.735	1808.19
426.958	1806.19
427.18	1749.19
427.402	1765.19
427.625	1756.19
427.847	1758.19
428.069	1747.19
428.292	1761.19
428.514	1706.19
428.736	1738.19
428.958	1717.19
429.181	1644.19
429.403	1703.19
429.625	1668.19
429.847	1701.19
430.069	1704.19
430.292	1687.19
430.514	1665.19
430.736	1699.19
430.958	1703.19
431.18	1701.19
431.402	1709.19
431.624	1734.19
431.846	1723.19
432.068	1737.19
432.29	1766.19
432.512	1706.19
432.734	1731.19
432.956	1741.19
433.178	1740.19
433.4	1716.19
433.622	1758.19
433.844	1756.19
434.066	1810.19
434.287	1782.19
434.509	1860.19
434.731	1884.19
434.953	1935.19
435.175	1898.19
435.397	1904.19
435.618	1826.19
435.84	1805.19
436.062	1770.19
436.284	1758.19
436.505	1730.19
436.727	1667.19
436.949	1758.19
437.17	1762.19
437.392	1658.19
437.614	1673.19
437.835	1631.19
438.057	1684.19
438.278	1628.19
438.5	1620.19
438.721	1666.19
438.943	1672.19
439.165	1625.19
439.386	1652.19
439.608	1698.19
439.829	1667.19
440.05	1676.19
440.272	1704.19
440.493	1677.19
440.715	1709.19
440.936	1738.19
441.158	1792.19
441.379	1810.19
441.6	1885.19
441.822	1877.19
442.043	1886.19
442.264	1832.19
442.486	1790.19
442.707	1836.19
442.928	1812.19
443.149	1838.19
443.371	1818.19
443.592	1851.19
443.813	1897.19
444.034	1877.19
444.255	1927.19
444.476	1984.19
444.698	2077.19
444.919	2133.19
445.14	2177.19
445.361	2078.19
445.582	1916.19
445.803	1843.19
446.024	1796.19
446.245	1746.19
446.466	1724.19
446.687	1690.19
446.908	1692.19
447.129	1675.19
447.35	1630.19
447.571	1650.19
447.792	1566.19
448.013	1589.19
448.234	1572.19
448.455	1543.19
448.675	1565.19
448.896	1511.19
449.117	1535.19
449.338	1518.19
449.559	1534.19
449.779	1498.19
450	1482.19
450.221	1529.19
450.442	1513.19
450.662	1522.19
450.883	1508.19
451.104	1533.19
451.324	1524.19
451.545	1520.19
451.766	1551.19
451.986	1537.19
452.207	1505.19
452.428	1535.19
452.648	1505.19
452.869	1511.19
453.089	1441.19
453.31	1508.19
453.53	1459.19
453.751	1454.19
453.971	1452.19
454.192	1470.19
454.412	1453.19
454.633	1468.19
454.853	1431.19
455.073	1454.19
455.294	1414.19
455.514	1412.19
455.734	1443.19
455.955	1386.19
456.175	1390.19
456.395	1400.19
456.616	1394.19
456.836	1433.19
457.056	1439.19
457.276	1427.19
457.497	1478.19
457.717	1456.19
457.937	1468.19
458.157	1484.19
458.377	1513.19
458.598	1548.19
458.818	1572.19
459.038	1564.19
459.258	1605.19
459.478	1705.19
459.698	1745.19
459.918	1760.19
460.138	1790.19
460.358	1884.19
460.578	1880.19
460.798	1922.19
461.018	1948.19
461.238	1901.19
461.458	1922.19
461.678	1888.19
461.898	1898.19
462.118	1923.19
462.338	2061.19
462.558	2078.19
462.777	2163.19
462.997	2335.19
463.217	2487.19
463.437	2497.19
463.657	2322.19
463.876	2226.19
464.096	2226.19
464.316	2190.19
464.536	2185.19
464.755	2176.19
464.975	2119.19
465.195	2001.19
465.414	1917.19
465.634	1799.19
465.854	1767.19
466.073	1712.19
466.293	1672.19
466.512	1681.19
466.732	1607.19
466.951	1602.19
467.171	1618.19
467.391	1631.19
467.61	1605.19
467.829	1623.19
468.049	1584.19
468.268	1563.19
468.488	1525.19
468.707	1565.19
468.927	1523.19
469.146	1557.19
469.365	1633.19
469.585	1571.19
469.804	1598.19
470.023	1632.19
470.243	1625.19
470.462	1618.19
470.681	1668.19
470.901	1664.19
471.12	1620.19
471.339	1591.19
471.558	1605.19
471.777	1608.19
471.997	1554.19
472.216	1566.19
472.435	1539.19
472.654	1567.19
472.873	1517.19
473.092	1546.19
473.311	1555.19
473.53	1526.19
473.749	1541.19
473.968	1526.19
474.187	1516.19
474.406	1509.19
474.625	1554.19
474.844	1544.19
475.063	1541.19
475.282	1544.19
475.501	1596.19
475.72	1591.19
475.939	1599.19
476.158	1585.19
476.377	1607.19
476.596	1624.19
476.814	1621.19
477.033	1649.19
477.252	1662.19
477.471	1709.19
477.69	1740.19
477.908	1782.19
478.127	1810.19
478.346	1851.19
478.564	1877.19
478.783	1896.19
479.002	1947.19
479.22	1986.19
479.439	1944.19
479.658	1943.19
479.876	1952.19
480.095	1940.19
480.313	2001.19
480.532	2053.19
480.751	2033.19
480.969	2004.19
481.188	1948.19
481.406	1964.19
481.624	1880.19
481.843	1826.19
482.061	1864.19
482.28	1879.19
482.498	1870.19
482.717	1837.19
482.935	1871.19
483.153	1870.19
483.372	1878.19
483.59	1893.19
483.808	1917.19
484.027	1926.19
484.245	1939.19
484.463	1942.19
484.681	1972.19
484.9	2012.19
485.118	2025.19
485.336	2021.19
485.554	2103.19
485.772	2057.19
485.99	2064.19
486.209	2078.19
486.427	2074.19
486.645	2063.19
486.863	2071.19
487.081	2045.19
487.299	2054.19
487.517	2017.19
487.735	2018.19
487.953	2033.19
488.171	2001.19
488.389	1980.19
488.607	2024.19
488.825	1993.19
489.043	1972.19
489.261	1951.19
489.479	1928.19
489.696	1975.19
489.914	1903.19
