Data from NiCl2@0.125M.TitratingCurve.Agarose3%dH2O.NegLispCup.LampEnergy10.LIBS07252019_HRD10591_18-27-47-574.txt Node
Date: Thu Jul 25 18:27:47 EDT 2019
User: cochatt
Spectrometer: HR+D1059
Trigger mode: 1
Integration Time (sec): 1.000000E-1
Scans to average: 1
Electric dark correction enabled: true
Nonlinearity correction enabled: false
Boxcar width: 0
XAxis mode: Wavelengths
Number of Pixels in Spectrum: 2048
>>>>>Begin Spectral Data<<<<<
223.165	-22.88
223.4	-22.88
223.635	-22.88
223.869	-19.88
224.104	-17.88
224.338	-22.88
224.573	-5.88
224.808	0.12
225.042	-14.88
225.277	2.12
225.511	3.12
225.746	9.12
225.98	9.12
226.215	7.12
226.449	11.12
226.683	19.12
226.918	14.12
227.152	29.12
227.387	20.12
227.621	13.12
227.856	31.12
228.09	46.12
228.324	55.12
228.559	61.12
228.793	88.12
229.027	106.12
229.262	118.12
229.496	124.12
229.73	139.12
229.964	135.12
230.199	141.12
230.433	134.12
230.667	155.12
230.901	151.12
231.136	159.12
231.37	147.12
231.604	138.12
231.838	145.12
232.072	159.12
232.306	126.12
232.541	165.12
232.775	174.12
233.009	167.12
233.243	165.12
233.477	164.12
233.711	169.12
233.945	156.12
234.179	169.12
234.413	174.12
234.647	170.12
234.881	185.12
235.115	175.12
235.349	160.12
235.583	171.12
235.817	149.12
236.051	158.12
236.285	151.12
236.519	185.12
236.753	177.12
236.987	180.12
237.221	178.12
237.455	177.12
237.689	173.12
237.922	181.12
238.156	186.12
238.39	194.12
238.624	185.12
238.858	187.12
239.091	186.12
239.325	190.12
239.559	201.12
239.793	190.12
240.027	198.12
240.26	207.12
240.494	196.12
240.728	202.12
240.961	218.12
241.195	205.12
241.429	207.12
241.662	204.12
241.896	217.12
242.13	210.12
242.363	217.12
242.597	221.12
242.83	227.12
243.064	232.12
243.298	220.12
243.531	225.12
243.765	237.12
243.998	237.12
244.232	223.12
244.465	226.12
244.699	253.12
244.932	242.12
245.166	250.12
245.399	249.12
245.633	251.12
245.866	248.12
246.099	227.12
246.333	238.12
246.566	244.12
246.8	254.12
247.033	250.12
247.266	269.12
247.5	262.12
247.733	257.12
247.966	272.12
248.2	283.12
248.433	266.12
248.666	264.12
248.899	279.12
249.133	285.12
249.366	274.12
249.599	270.12
249.832	283.12
250.066	287.12
250.299	269.12
250.532	286.12
250.765	279.12
250.998	274.12
251.231	294.12
251.465	312.12
251.698	291.12
251.931	299.12
252.164	291.12
252.397	309.12
252.63	333.12
252.863	306.12
253.096	309.12
253.329	297.12
253.562	314.12
253.795	325.12
254.028	325.12
254.261	318.12
254.494	326.12
254.727	316.12
254.96	306.12
255.193	330.12
255.426	347.12
255.659	337.12
255.892	320.12
256.124	325.12
256.357	334.12
256.59	333.12
256.823	338.12
257.056	363.12
257.289	328.12
257.521	329.12
257.754	345.12
257.987	353.12
258.22	355.12
258.452	358.12
258.685	337.12
258.918	341.12
259.151	354.12
259.383	356.12
259.616	362.12
259.849	363.12
260.081	366.12
260.314	360.12
260.547	365.12
260.779	362.12
261.012	346.12
261.244	367.12
261.477	369.12
261.71	379.12
261.942	370.12
262.175	385.12
262.407	377.12
262.64	393.12
262.872	373.12
263.105	389.12
263.337	382.12
263.57	399.12
263.802	386.12
264.035	381.12
264.267	385.12
264.499	382.12
264.732	392.12
264.964	395.12
265.197	410.12
265.429	398.12
265.661	409.12
265.894	427.12
266.126	431.12
266.358	405.12
266.591	409.12
266.823	413.12
267.055	426.12
267.287	413.12
267.52	410.12
267.752	435.12
267.984	429.12
268.216	417.12
268.448	413.12
268.681	425.12
268.913	443.12
269.145	416.12
269.377	447.12
269.609	451.12
269.841	438.12
270.073	406.12
270.306	433.12
270.538	437.12
270.77	424.12
271.002	429.12
271.234	422.12
271.466	436.12
271.698	453.12
271.93	463.12
272.162	429.12
272.394	439.12
272.626	455.12
272.858	441.12
273.09	453.12
273.322	439.12
273.553	434.12
273.785	455.12
274.017	474.12
274.249	467.12
274.481	467.12
274.713	466.12
274.945	482.12
275.176	492.12
275.408	482.12
275.64	469.12
275.872	450.12
276.104	481.12
276.335	472.12
276.567	476.12
276.799	491.12
277.031	481.12
277.262	481.12
277.494	477.12
277.726	497.12
277.957	481.12
278.189	497.12
278.421	479.12
278.652	506.12
278.884	511.12
279.115	522.12
279.347	517.12
279.579	525.12
279.81	501.12
280.042	513.12
280.273	533.12
280.505	511.12
280.736	522.12
280.968	516.12
281.199	510.12
281.431	519.12
281.662	510.12
281.894	533.12
282.125	546.12
282.356	545.12
282.588	518.12
282.819	543.12
283.051	551.12
283.282	548.12
283.513	567.12
283.745	579.12
283.976	546.12
284.207	538.12
284.439	556.12
284.67	554.12
284.901	567.12
285.132	574.12
285.364	587.12
285.595	568.12
285.826	570.12
286.057	589.12
286.288	574.12
286.52	592.12
286.751	580.12
286.982	567.12
287.213	575.12
287.444	586.12
287.675	588.12
287.906	597.12
288.138	600.12
288.369	607.12
288.6	607.12
288.831	580.12
289.062	613.12
289.293	613.12
289.524	613.12
289.755	590.12
289.986	600.12
290.217	602.12
290.448	607.12
290.679	589.12
290.91	604.12
291.141	591.12
291.371	602.12
291.602	604.12
291.833	605.12
292.064	614.12
292.295	606.12
292.526	595.12
292.757	614.12
292.987	631.12
293.218	588.12
293.449	613.12
293.68	596.12
293.91	590.12
294.141	590.12
294.372	606.12
294.603	630.12
294.833	645.12
295.064	620.12
295.295	618.12
295.525	635.12
295.756	617.12
295.987	627.12
296.217	647.12
296.448	642.12
296.679	648.12
296.909	632.12
297.14	653.12
297.37	661.12
297.601	647.12
297.831	636.12
298.062	637.12
298.292	646.12
298.523	708.12
298.753	676.12
298.984	661.12
299.214	633.12
299.445	647.12
299.675	662.12
299.905	641.12
300.136	645.12
300.366	650.12
300.597	674.12
300.827	696.12
301.057	677.12
301.288	699.12
301.518	718.12
301.748	719.12
301.979	701.12
302.209	711.12
302.439	698.12
302.669	693.12
302.9	659.12
303.13	657.12
303.36	685.12
303.59	677.12
303.82	685.12
304.051	690.12
304.281	693.12
304.511	679.12
304.741	688.12
304.971	693.12
305.201	670.12
305.431	714.12
305.661	698.12
305.891	667.12
306.121	690.12
306.352	700.12
306.582	682.12
306.812	684.12
307.042	669.12
307.272	686.12
307.502	680.12
307.731	661.12
307.961	667.12
308.191	670.12
308.421	686.12
308.651	651.12
308.881	661.12
309.111	677.12
309.341	659.12
309.571	671.12
309.8	691.12
310.03	696.12
310.26	689.12
310.49	666.12
310.72	653.12
310.949	652.12
311.179	691.12
311.409	697.12
311.639	707.12
311.868	694.12
312.098	690.12
312.328	712.12
312.557	726.12
312.787	706.12
313.017	706.12
313.246	717.12
313.476	727.12
313.706	715.12
313.935	724.12
314.165	725.12
314.394	724.12
314.624	721.12
314.853	731.12
315.083	752.12
315.312	700.12
315.542	718.12
315.771	723.12
316.001	713.12
316.23	739.12
316.46	682.12
316.689	721.12
316.919	714.12
317.148	741.12
317.377	704.12
317.607	733.12
317.836	705.12
318.065	715.12
318.295	702.12
318.524	729.12
318.753	675.12
318.983	685.12
319.212	708.12
319.441	709.12
319.67	685.12
319.9	718.12
320.129	723.12
320.358	705.12
320.587	722.12
320.816	723.12
321.046	738.12
321.275	705.12
321.504	685.12
321.733	702.12
321.962	717.12
322.191	705.12
322.42	724.12
322.649	726.12
322.878	731.12
323.108	691.12
323.337	727.12
323.566	734.12
323.795	723.12
324.024	723.12
324.253	734.12
324.482	723.12
324.71	725.12
324.939	750.12
325.168	740.12
325.397	730.12
325.626	745.12
325.855	753.12
326.084	765.12
326.313	768.12
326.542	793.12
326.77	758.12
326.999	765.12
327.228	759.12
327.457	755.12
327.686	790.12
327.914	775.12
328.143	757.12
328.372	801.12
328.6	771.12
328.829	779.12
329.058	765.12
329.287	794.12
329.515	790.12
329.744	778.12
329.972	779.12
330.201	810.12
330.43	794.12
330.658	792.12
330.887	810.12
331.115	805.12
331.344	843.12
331.572	794.12
331.801	825.12
332.03	878.12
332.258	873.12
332.486	916.12
332.715	917.12
332.943	959.12
333.172	977.12
333.4	1054.12
333.629	1082.12
333.857	1064.12
334.085	1051.12
334.314	1028.12
334.542	1013.12
334.771	1016.12
334.999	978.12
335.227	1015.12
335.455	972.12
335.684	965.12
335.912	959.12
336.14	953.12
336.369	905.12
336.597	956.12
336.825	925.12
337.053	931.12
337.281	904.12
337.51	923.12
337.738	887.12
337.966	883.12
338.194	868.12
338.422	845.12
338.65	841.12
338.878	814.12
339.106	860.12
339.334	874.12
339.562	823.12
339.79	801.12
340.018	791.12
340.246	788.12
340.474	803.12
340.702	819.12
340.93	822.12
341.158	793.12
341.386	819.12
341.614	831.12
341.842	807.12
342.07	810.12
342.298	820.12
342.526	797.12
342.754	810.12
342.981	795.12
343.209	814.12
343.437	867.12
343.665	923.12
343.893	963.12
344.12	1014.12
344.348	951.12
344.576	904.12
344.804	863.12
345.031	843.12
345.259	850.12
345.487	831.12
345.714	829.12
345.942	798.12
346.17	802.12
346.397	803.12
346.625	773.12
346.853	791.12
347.08	782.12
347.308	765.12
347.535	790.12
347.763	789.12
347.99	785.12
348.218	798.12
348.445	784.12
348.673	787.12
348.9	797.12
349.128	759.12
349.355	781.12
349.583	756.12
349.81	779.12
350.037	754.12
350.265	756.12
350.492	767.12
350.72	748.12
350.947	759.12
351.174	734.12
351.402	743.12
351.629	757.12
351.856	756.12
352.083	749.12
352.311	754.12
352.538	727.12
352.765	778.12
352.992	746.12
353.22	753.12
353.447	761.12
353.674	713.12
353.901	745.12
354.128	732.12
354.355	746.12
354.583	756.12
354.81	739.12
355.037	771.12
355.264	747.12
355.491	769.12
355.718	759.12
355.945	735.12
356.172	730.12
356.399	748.12
356.626	741.12
356.853	777.12
357.08	767.12
357.307	760.12
357.534	753.12
357.761	761.12
357.988	762.12
358.215	760.12
358.441	720.12
358.668	720.12
358.895	772.12
359.122	756.12
359.349	767.12
359.576	745.12
359.802	747.12
360.029	737.12
360.256	746.12
360.483	750.12
360.709	746.12
360.936	775.12
361.163	759.12
361.39	755.12
361.616	747.12
361.843	744.12
362.07	752.12
362.296	739.12
362.523	746.12
362.749	753.12
362.976	758.12
363.203	721.12
363.429	730.12
363.656	755.12
363.882	723.12
364.109	735.12
364.335	758.12
364.562	725.12
364.788	746.12
365.015	747.12
365.241	755.12
365.468	740.12
365.694	757.12
365.92	734.12
366.147	763.12
366.373	729.12
366.599	719.12
366.826	746.12
367.052	773.12
367.278	731.12
367.505	757.12
367.731	777.12
367.957	766.12
368.184	751.12
368.41	766.12
368.636	761.12
368.862	783.12
369.089	754.12
369.315	768.12
369.541	758.12
369.767	770.12
369.993	789.12
370.219	769.12
370.445	805.12
370.672	795.12
370.898	782.12
371.124	807.12
371.35	851.12
371.576	811.12
371.802	812.12
372.028	818.12
372.254	806.12
372.48	840.12
372.706	857.12
372.932	847.12
373.158	846.12
373.384	842.12
373.61	824.12
373.835	827.12
374.061	802.12
374.287	854.12
374.513	831.12
374.739	851.12
374.965	893.12
375.191	894.12
375.416	909.12
375.642	862.12
375.868	890.12
376.094	845.12
376.319	825.12
376.545	834.12
376.771	842.12
376.997	837.12
377.222	841.12
377.448	839.12
377.674	832.12
377.899	813.12
378.125	800.12
378.35	794.12
378.576	798.12
378.802	775.12
379.027	817.12
379.253	819.12
379.478	796.12
379.704	794.12
379.929	822.12
380.155	798.12
380.38	804.12
380.606	814.12
380.831	824.12
381.057	825.12
381.282	812.12
381.507	824.12
381.733	823.12
381.958	819.12
382.184	822.12
382.409	826.12
382.634	856.12
382.86	854.12
383.085	851.12
383.31	874.12
383.535	891.12
383.761	913.12
383.986	920.12
384.211	948.12
384.436	956.12
384.662	961.12
384.887	961.12
385.112	972.12
385.337	995.12
385.562	991.12
385.787	961.12
386.013	983.12
386.238	1011.12
386.463	1018.12
386.688	991.12
386.913	997.12
387.138	979.12
387.363	982.12
387.588	982.12
387.813	975.12
388.038	961.12
388.263	975.12
388.488	977.12
388.713	987.12
388.938	950.12
389.163	947.12
389.387	966.12
389.612	950.12
389.837	963.12
390.062	965.12
390.287	939.12
390.512	941.12
390.736	964.12
390.961	994.12
391.186	978.12
391.411	1025.12
391.636	1073.12
391.86	1098.12
392.085	1114.12
392.31	1108.12
392.534	1117.12
392.759	1100.12
392.984	1052.12
393.208	1068.12
393.433	1061.12
393.658	1043.12
393.882	1027.12
394.107	1054.12
394.331	1067.12
394.556	1025.12
394.78	1059.12
395.005	1060.12
395.229	1082.12
395.454	1089.12
395.678	1131.12
395.903	1117.12
396.127	1084.12
396.352	1051.12
396.576	1031.12
396.801	1055.12
397.025	1036.12
397.249	1081.12
397.474	1106.12
397.698	1113.12
397.922	1105.12
398.147	1115.12
398.371	1115.12
398.595	1150.12
398.82	1224.12
399.044	1288.12
399.268	1440.12
399.492	1689.12
399.717	1892.12
399.941	1886.12
400.165	1704.12
400.389	1530.12
400.613	1409.12
400.837	1311.12
401.062	1277.12
401.286	1256.12
401.51	1238.12
401.734	1256.12
401.958	1261.12
402.182	1259.12
402.406	1291.12
402.63	1301.12
402.854	1313.12
403.078	1340.12
403.302	1390.12
403.526	1413.12
403.75	1415.12
403.974	1481.12
404.198	1470.12
404.422	1421.12
404.645	1417.12
404.869	1455.12
405.093	1448.12
405.317	1362.12
405.541	1339.12
405.765	1395.12
405.988	1337.12
406.212	1366.12
406.436	1351.12
406.66	1377.12
406.883	1409.12
407.107	1497.12
407.331	1579.12
407.555	1651.12
407.778	1641.12
408.002	1581.12
408.226	1551.12
408.449	1490.12
408.673	1460.12
408.896	1393.12
409.12	1372.12
409.344	1419.12
409.567	1413.12
409.791	1433.12
410.014	1398.12
410.238	1379.12
410.461	1396.12
410.685	1338.12
410.908	1347.12
411.132	1310.12
411.355	1261.12
411.578	1321.12
411.802	1247.12
412.025	1314.12
412.249	1323.12
412.472	1305.12
412.695	1271.12
412.919	1279.12
413.142	1206.12
413.365	1235.12
413.589	1260.12
413.812	1237.12
414.035	1209.12
414.258	1229.12
414.482	1241.12
414.705	1288.12
414.928	1241.12
415.151	1246.12
415.374	1244.12
415.597	1188.12
415.821	1217.12
416.044	1227.12
416.267	1197.12
416.49	1221.12
416.713	1181.12
416.936	1242.12
417.159	1225.12
417.382	1217.12
417.605	1244.12
417.828	1234.12
418.051	1227.12
418.274	1237.12
418.497	1236.12
418.72	1314.12
418.943	1292.12
419.166	1374.12
419.389	1428.12
419.611	1402.12
419.834	1365.12
420.057	1313.12
420.28	1277.12
420.503	1253.12
420.726	1224.12
420.948	1232.12
421.171	1211.12
421.394	1238.12
421.617	1209.12
421.839	1255.12
422.062	1279.12
422.285	1178.12
422.507	1265.12
422.73	1262.12
422.953	1279.12
423.175	1271.12
423.398	1305.12
423.621	1294.12
423.843	1315.12
424.066	1337.12
424.288	1309.12
424.511	1324.12
424.733	1280.12
424.956	1251.12
425.178	1254.12
425.401	1224.12
425.623	1247.12
425.846	1228.12
426.068	1179.12
426.291	1182.12
426.513	1161.12
426.735	1159.12
426.958	1174.12
427.18	1121.12
427.402	1133.12
427.625	1133.12
427.847	1103.12
428.069	1126.12
428.292	1118.12
428.514	1097.12
428.736	1089.12
428.958	1122.12
429.181	1056.12
429.403	1035.12
429.625	1070.12
429.847	1061.12
430.069	1096.12
430.292	1077.12
430.514	1065.12
430.736	1068.12
430.958	1083.12
431.18	1075.12
431.402	1099.12
431.624	1079.12
431.846	1078.12
432.068	1131.12
432.29	1120.12
432.512	1069.12
432.734	1118.12
432.956	1110.12
433.178	1122.12
433.4	1106.12
433.622	1129.12
433.844	1118.12
434.066	1107.12
434.287	1101.12
434.509	1153.12
434.731	1187.12
434.953	1259.12
435.175	1250.12
435.397	1258.12
435.618	1167.12
435.84	1134.12
436.062	1107.12
436.284	1122.12
436.505	1083.12
436.727	1087.12
436.949	1133.12
437.17	1098.12
437.392	1081.12
437.614	1097.12
437.835	1030.12
438.057	1033.12
438.278	1047.12
438.5	1030.12
438.721	1050.12
438.943	1051.12
439.165	1053.12
439.386	1116.12
439.608	1083.12
439.829	1095.12
440.05	1110.12
440.272	1103.12
440.493	1098.12
440.715	1140.12
440.936	1137.12
441.158	1167.12
441.379	1178.12
441.6	1254.12
441.822	1235.12
442.043	1286.12
442.264	1239.12
442.486	1197.12
442.707	1214.12
442.928	1232.12
443.149	1240.12
443.371	1223.12
443.592	1208.12
443.813	1250.12
444.034	1248.12
444.255	1303.12
444.476	1353.12
444.698	1441.12
444.919	1526.12
445.14	1609.12
445.361	1430.12
445.582	1320.12
445.803	1179.12
446.024	1161.12
446.245	1174.12
446.466	1138.12
446.687	1111.12
446.908	1127.12
447.129	1099.12
447.35	1079.12
447.571	1073.12
447.792	1065.12
448.013	1055.12
448.234	1025.12
448.455	1025.12
448.675	1011.12
448.896	1037.12
449.117	1000.12
449.338	989.12
449.559	993.12
449.779	976.12
450	988.12
450.221	1012.12
450.442	1023.12
450.662	1027.12
450.883	1011.12
451.104	1060.12
451.324	1040.12
451.545	1035.12
451.766	1035.12
451.986	1014.12
452.207	994.12
452.428	1006.12
452.648	1015.12
452.869	989.12
453.089	968.12
453.31	1007.12
453.53	975.12
453.751	961.12
453.971	953.12
454.192	967.12
454.412	981.12
454.633	973.12
454.853	969.12
455.073	947.12
455.294	973.12
455.514	951.12
455.734	942.12
455.955	899.12
456.175	937.12
456.395	942.12
456.616	919.12
456.836	951.12
457.056	904.12
457.276	942.12
457.497	935.12
457.717	918.12
457.937	951.12
458.157	962.12
458.377	978.12
458.598	993.12
458.818	1005.12
459.038	1044.12
459.258	1047.12
459.478	1108.12
459.698	1157.12
459.918	1151.12
460.138	1216.12
460.358	1293.12
460.578	1302.12
460.798	1352.12
461.018	1329.12
461.238	1314.12
461.458	1278.12
461.678	1301.12
461.898	1294.12
462.118	1311.12
462.338	1377.12
462.558	1447.12
462.777	1468.12
462.997	1624.12
463.217	1726.12
463.437	1770.12
463.657	1631.12
463.876	1537.12
464.096	1546.12
464.316	1508.12
464.536	1524.12
464.755	1478.12
464.975	1429.12
465.195	1346.12
465.414	1284.12
465.634	1181.12
465.854	1141.12
466.073	1139.12
466.293	1146.12
466.512	1087.12
466.732	1082.12
466.951	1087.12
467.171	1053.12
467.391	1046.12
467.61	1065.12
467.829	1052.12
468.049	1040.12
468.268	1007.12
468.488	992.12
468.707	999.12
468.927	1006.12
469.146	1011.12
469.365	1016.12
469.585	1013.12
469.804	1049.12
470.023	1064.12
470.243	1075.12
470.462	1095.12
470.681	1102.12
470.901	1089.12
471.12	1086.12
471.339	1044.12
471.558	1054.12
471.777	1038.12
471.997	998.12
472.216	998.12
472.435	974.12
472.654	995.12
472.873	992.12
473.092	986.12
473.311	966.12
473.53	966.12
473.749	974.12
473.968	995.12
474.187	983.12
474.406	953.12
474.625	964.12
474.844	980.12
475.063	997.12
475.282	994.12
475.501	986.12
475.72	966.12
475.939	1010.12
476.158	1021.12
476.377	1024.12
476.596	1014.12
476.814	1042.12
477.033	1031.12
477.252	1091.12
477.471	1061.12
477.69	1109.12
477.908	1126.12
478.127	1188.12
478.346	1185.12
478.564	1221.12
478.783	1238.12
479.002	1218.12
479.22	1235.12
479.439	1265.12
479.658	1198.12
479.876	1212.12
480.095	1230.12
480.313	1312.12
480.532	1337.12
480.751	1330.12
480.969	1299.12
481.188	1219.12
481.406	1189.12
481.624	1135.12
481.843	1143.12
482.061	1132.12
482.28	1139.12
482.498	1133.12
482.717	1100.12
482.935	1119.12
483.153	1130.12
483.372	1079.12
483.59	1126.12
483.808	1127.12
484.027	1110.12
484.245	1112.12
484.463	1144.12
484.681	1169.12
484.9	1144.12
485.118	1149.12
485.336	1139.12
485.554	1167.12
485.772	1192.12
485.99	1225.12
486.209	1206.12
486.427	1193.12
486.645	1168.12
486.863	1168.12
487.081	1184.12
487.299	1187.12
487.517	1201.12
487.735	1172.12
487.953	1165.12
488.171	1187.12
488.389	1175.12
488.607	1152.12
488.825	1140.12
489.043	1146.12
489.261	1133.12
489.479	1166.12
489.696	1172.12
489.914	1175.12
490.132	1171.12
490.35	1188.12
490.568	1178.12
490.786	1180.12
491.003	1175.12
491.221	1192.12
491.439	1207.12
491.657	1182.12
491.874	1189.12
492.092	1169.12
492.31	1186.12
492.527	1210.12
492.745	1201.12
492.963	1236.12
493.18	1191.12
493.398	1229.12
493.615	1215.12
493.833	1208.12
494.05	1230.12
494.268	1259.12
494.485	1270.12
494.703	1254.12
494.92	1255.12
495.138	1219.12
495.355	1210.12
495.573	1269.12
495.79	1240.12
