Data from NiCl2@0.0625M.TitratingCurve.Agarose3%dH2O.NegLispCup.LampEnergy10.LIBS07252019_HRD10591_18-33-26-577.txt Node
Date: Thu Jul 25 18:33:26 EDT 2019
User: cochatt
Spectrometer: HR+D1059
Trigger mode: 1
Integration Time (sec): 1.000000E-1
Scans to average: 1
Electric dark correction enabled: true
Nonlinearity correction enabled: false
Boxcar width: 0
XAxis mode: Wavelengths
Number of Pixels in Spectrum: 2048
>>>>>Begin Spectral Data<<<<<
223.165	-15.06
223.4	-15.06
223.635	-15.06
223.869	-26.06
224.104	-29.06
224.338	-13.06
224.573	-9.06
224.808	-7.06
225.042	-19.06
225.277	-3.06
225.511	-5.06
225.746	-11.06
225.98	12.94
226.215	28.94
226.449	6.94
226.683	17.94
226.918	35.94
227.152	34.94
227.387	28.94
227.621	50.94
227.856	52.94
228.09	51.94
228.324	51.94
228.559	43.94
228.793	68.94
229.027	149.94
229.262	166.94
229.496	153.94
229.73	182.94
229.964	184.94
230.199	196.94
230.433	187.94
230.667	195.94
230.901	209.94
231.136	189.94
231.37	189.94
231.604	188.94
231.838	192.94
232.072	191.94
232.306	210.94
232.541	233.94
232.775	208.94
233.009	211.94
233.243	217.94
233.477	217.94
233.711	224.94
233.945	239.94
234.179	233.94
234.413	222.94
234.647	230.94
234.881	222.94
235.115	225.94
235.349	244.94
235.583	241.94
235.817	225.94
236.051	241.94
236.285	244.94
236.519	230.94
236.753	228.94
236.987	235.94
237.221	249.94
237.455	241.94
237.689	244.94
237.922	251.94
238.156	244.94
238.39	272.94
238.624	272.94
238.858	266.94
239.091	264.94
239.325	259.94
239.559	273.94
239.793	275.94
240.027	273.94
240.26	280.94
240.494	291.94
240.728	298.94
240.961	282.94
241.195	285.94
241.429	294.94
241.662	304.94
241.896	294.94
242.13	318.94
242.363	291.94
242.597	306.94
242.83	326.94
243.064	332.94
243.298	330.94
243.531	335.94
243.765	338.94
243.998	346.94
244.232	355.94
244.465	354.94
244.699	348.94
244.932	355.94
245.166	360.94
245.399	375.94
245.633	349.94
245.866	343.94
246.099	368.94
246.333	345.94
246.566	359.94
246.8	363.94
247.033	371.94
247.266	392.94
247.5	384.94
247.733	394.94
247.966	380.94
248.2	390.94
248.433	393.94
248.666	408.94
248.899	404.94
249.133	385.94
249.366	415.94
249.599	422.94
249.832	424.94
250.066	422.94
250.299	421.94
250.532	436.94
250.765	434.94
250.998	427.94
251.231	430.94
251.465	450.94
251.698	449.94
251.931	434.94
252.164	440.94
252.397	454.94
252.63	486.94
252.863	466.94
253.096	457.94
253.329	466.94
253.562	464.94
253.795	480.94
254.028	481.94
254.261	460.94
254.494	478.94
254.727	483.94
254.96	460.94
255.193	498.94
255.426	476.94
255.659	498.94
255.892	508.94
256.124	475.94
256.357	495.94
256.59	490.94
256.823	489.94
257.056	525.94
257.289	499.94
257.521	527.94
257.754	506.94
257.987	535.94
258.22	518.94
258.452	501.94
258.685	539.94
258.918	542.94
259.151	525.94
259.383	534.94
259.616	530.94
259.849	537.94
260.081	546.94
260.314	558.94
260.547	566.94
260.779	553.94
261.012	554.94
261.244	537.94
261.477	574.94
261.71	558.94
261.942	552.94
262.175	554.94
262.407	575.94
262.64	582.94
262.872	575.94
263.105	583.94
263.337	592.94
263.57	591.94
263.802	567.94
264.035	600.94
264.267	602.94
264.499	587.94
264.732	569.94
264.964	598.94
265.197	613.94
265.429	632.94
265.661	608.94
265.894	615.94
266.126	599.94
266.358	646.94
266.591	644.94
266.823	619.94
267.055	627.94
267.287	652.94
267.52	634.94
267.752	647.94
267.984	648.94
268.216	644.94
268.448	624.94
268.681	650.94
268.913	652.94
269.145	660.94
269.377	652.94
269.609	694.94
269.841	662.94
270.073	665.94
270.306	670.94
270.538	657.94
270.77	664.94
271.002	675.94
271.234	676.94
271.466	682.94
271.698	699.94
271.93	675.94
272.162	675.94
272.394	722.94
272.626	685.94
272.858	702.94
273.09	687.94
273.322	712.94
273.553	697.94
273.785	728.94
274.017	710.94
274.249	714.94
274.481	726.94
274.713	724.94
274.945	756.94
275.176	743.94
275.408	756.94
275.64	732.94
275.872	755.94
276.104	738.94
276.335	746.94
276.567	753.94
276.799	752.94
277.031	750.94
277.262	746.94
277.494	757.94
277.726	777.94
277.957	768.94
278.189	795.94
278.421	750.94
278.652	794.94
278.884	763.94
279.115	778.94
279.347	812.94
279.579	808.94
279.81	806.94
280.042	783.94
280.273	823.94
280.505	832.94
280.736	828.94
280.968	823.94
281.199	826.94
281.431	819.94
281.662	841.94
281.894	828.94
282.125	841.94
282.356	853.94
282.588	851.94
282.819	837.94
283.051	858.94
283.282	871.94
283.513	863.94
283.745	846.94
283.976	879.94
284.207	896.94
284.439	884.94
284.67	885.94
284.901	869.94
285.132	886.94
285.364	882.94
285.595	890.94
285.826	886.94
286.057	881.94
286.288	910.94
286.52	909.94
286.751	898.94
286.982	897.94
287.213	896.94
287.444	919.94
287.675	916.94
287.906	899.94
288.138	926.94
288.369	928.94
288.6	938.94
288.831	937.94
289.062	913.94
289.293	902.94
289.524	946.94
289.755	937.94
289.986	916.94
290.217	916.94
290.448	931.94
290.679	954.94
290.91	947.94
291.141	917.94
291.371	910.94
291.602	955.94
291.833	946.94
292.064	948.94
292.295	954.94
292.526	960.94
292.757	917.94
292.987	934.94
293.218	969.94
293.449	952.94
293.68	939.94
293.91	961.94
294.141	947.94
294.372	942.94
294.603	949.94
294.833	946.94
295.064	1000.94
295.295	960.94
295.525	986.94
295.756	937.94
295.987	952.94
296.217	955.94
296.448	951.94
296.679	985.94
296.909	976.94
297.14	985.94
297.37	1018.94
297.601	1004.94
297.831	984.94
298.062	1027.94
298.292	1030.94
298.523	1039.94
298.753	1049.94
298.984	1024.94
299.214	1009.94
299.445	1059.94
299.675	1026.94
299.905	1052.94
300.136	1024.94
300.366	1054.94
300.597	1067.94
300.827	1077.94
301.057	1072.94
301.288	1056.94
301.518	1086.94
301.748	1108.94
301.979	1111.94
302.209	1131.94
302.439	1092.94
302.669	1101.94
302.9	1067.94
303.13	1071.94
303.36	1097.94
303.59	1075.94
303.82	1068.94
304.051	1076.94
304.281	1079.94
304.511	1076.94
304.741	1068.94
304.971	1095.94
305.201	1089.94
305.431	1087.94
305.661	1106.94
305.891	1078.94
306.121	1092.94
306.352	1080.94
306.582	1088.94
306.812	1080.94
307.042	1084.94
307.272	1066.94
307.502	1087.94
307.731	1094.94
307.961	1090.94
308.191	1075.94
308.421	1068.94
308.651	1054.94
308.881	1044.94
309.111	1067.94
309.341	1081.94
309.571	1078.94
309.8	1088.94
310.03	1098.94
310.26	1072.94
310.49	1057.94
310.72	1093.94
310.949	1081.94
311.179	1106.94
311.409	1073.94
311.639	1108.94
311.868	1111.94
312.098	1123.94
312.328	1139.94
312.557	1119.94
312.787	1127.94
313.017	1098.94
313.246	1108.94
313.476	1134.94
313.706	1117.94
313.935	1146.94
314.165	1162.94
314.394	1157.94
314.624	1163.94
314.853	1167.94
315.083	1200.94
315.312	1188.94
315.542	1170.94
315.771	1164.94
316.001	1146.94
316.23	1170.94
316.46	1137.94
316.689	1145.94
316.919	1132.94
317.148	1148.94
317.377	1165.94
317.607	1133.94
317.836	1132.94
318.065	1144.94
318.295	1159.94
318.524	1154.94
318.753	1131.94
318.983	1147.94
319.212	1142.94
319.441	1136.94
319.67	1143.94
319.9	1144.94
320.129	1170.94
320.358	1124.94
320.587	1156.94
320.816	1151.94
321.046	1162.94
321.275	1155.94
321.504	1170.94
321.733	1156.94
321.962	1201.94
322.191	1184.94
322.42	1188.94
322.649	1174.94
322.878	1176.94
323.108	1190.94
323.337	1156.94
323.566	1179.94
323.795	1194.94
324.024	1187.94
324.253	1180.94
324.482	1176.94
324.71	1212.94
324.939	1206.94
325.168	1195.94
325.397	1202.94
325.626	1198.94
325.855	1224.94
326.084	1272.94
326.313	1256.94
326.542	1237.94
326.77	1275.94
326.999	1273.94
327.228	1255.94
327.457	1251.94
327.686	1239.94
327.914	1245.94
328.143	1254.94
328.372	1246.94
328.6	1288.94
328.829	1268.94
329.058	1262.94
329.287	1247.94
329.515	1266.94
329.744	1258.94
329.972	1296.94
330.201	1259.94
330.43	1289.94
330.658	1293.94
330.887	1317.94
331.115	1310.94
331.344	1333.94
331.572	1321.94
331.801	1368.94
332.03	1346.94
332.258	1383.94
332.486	1397.94
332.715	1446.94
332.943	1478.94
333.172	1507.94
333.4	1579.94
333.629	1636.94
333.857	1627.94
334.085	1584.94
334.314	1624.94
334.542	1588.94
334.771	1598.94
334.999	1565.94
335.227	1577.94
335.455	1569.94
335.684	1570.94
335.912	1564.94
336.14	1522.94
336.369	1539.94
336.597	1540.94
336.825	1500.94
337.053	1520.94
337.281	1472.94
337.51	1485.94
337.738	1423.94
337.966	1425.94
338.194	1403.94
338.422	1397.94
338.65	1382.94
338.878	1348.94
339.106	1428.94
339.334	1402.94
339.562	1376.94
339.79	1326.94
340.018	1335.94
340.246	1299.94
340.474	1354.94
340.702	1318.94
340.93	1361.94
341.158	1330.94
341.386	1319.94
341.614	1341.94
341.842	1328.94
342.07	1303.94
342.298	1298.94
342.526	1301.94
342.754	1310.94
342.981	1320.94
343.209	1351.94
343.437	1424.94
343.665	1440.94
343.893	1560.94
344.12	1575.94
344.348	1534.94
344.576	1498.94
344.804	1442.94
345.031	1386.94
345.259	1353.94
345.487	1331.94
345.714	1329.94
345.942	1295.94
346.17	1295.94
346.397	1258.94
346.625	1319.94
346.853	1282.94
347.08	1274.94
347.308	1291.94
347.535	1289.94
347.763	1282.94
347.99	1290.94
348.218	1267.94
348.445	1252.94
348.673	1267.94
348.9	1270.94
349.128	1243.94
349.355	1262.94
349.583	1243.94
349.81	1232.94
350.037	1250.94
350.265	1241.94
350.492	1244.94
350.72	1222.94
350.947	1259.94
351.174	1239.94
351.402	1265.94
351.629	1222.94
351.856	1186.94
352.083	1201.94
352.311	1233.94
352.538	1210.94
352.765	1216.94
352.992	1240.94
353.22	1206.94
353.447	1215.94
353.674	1210.94
353.901	1216.94
354.128	1223.94
354.355	1199.94
354.583	1213.94
354.81	1218.94
355.037	1219.94
355.264	1242.94
355.491	1220.94
355.718	1209.94
355.945	1218.94
356.172	1240.94
356.399	1230.94
356.626	1250.94
356.853	1228.94
357.08	1227.94
357.307	1195.94
357.534	1236.94
357.761	1230.94
357.988	1246.94
358.215	1243.94
358.441	1214.94
358.668	1213.94
358.895	1228.94
359.122	1193.94
359.349	1227.94
359.576	1214.94
359.802	1254.94
360.029	1218.94
360.256	1246.94
360.483	1232.94
360.709	1222.94
360.936	1215.94
361.163	1236.94
361.39	1227.94
361.616	1214.94
361.843	1233.94
362.07	1259.94
362.296	1222.94
362.523	1246.94
362.749	1205.94
362.976	1218.94
363.203	1241.94
363.429	1212.94
363.656	1217.94
363.882	1219.94
364.109	1211.94
364.335	1220.94
364.562	1207.94
364.788	1238.94
365.015	1223.94
365.241	1202.94
365.468	1234.94
365.694	1234.94
365.92	1211.94
366.147	1189.94
366.373	1234.94
366.599	1257.94
366.826	1283.94
367.052	1237.94
367.278	1244.94
367.505	1232.94
367.731	1251.94
367.957	1237.94
368.184	1265.94
368.41	1249.94
368.636	1209.94
368.862	1280.94
369.089	1255.94
369.315	1264.94
369.541	1280.94
369.767	1282.94
369.993	1278.94
370.219	1251.94
370.445	1306.94
370.672	1302.94
370.898	1303.94
371.124	1342.94
371.35	1330.94
371.576	1307.94
371.802	1362.94
372.028	1364.94
372.254	1382.94
372.48	1354.94
372.706	1365.94
372.932	1364.94
373.158	1398.94
373.384	1359.94
373.61	1374.94
373.835	1331.94
374.061	1340.94
374.287	1360.94
374.513	1400.94
374.739	1418.94
374.965	1462.94
375.191	1446.94
375.416	1439.94
375.642	1421.94
375.868	1421.94
376.094	1381.94
376.319	1348.94
376.545	1335.94
376.771	1318.94
376.997	1312.94
377.222	1318.94
377.448	1297.94
377.674	1335.94
377.899	1311.94
378.125	1299.94
378.35	1317.94
378.576	1312.94
378.802	1315.94
379.027	1311.94
379.253	1324.94
379.478	1337.94
379.704	1316.94
379.929	1347.94
380.155	1334.94
380.38	1309.94
380.606	1329.94
380.831	1306.94
381.057	1319.94
381.282	1319.94
381.507	1326.94
381.733	1372.94
381.958	1338.94
382.184	1368.94
382.409	1374.94
382.634	1369.94
382.86	1404.94
383.085	1412.94
383.31	1401.94
383.535	1417.94
383.761	1440.94
383.986	1467.94
384.211	1500.94
384.436	1519.94
384.662	1562.94
384.887	1547.94
385.112	1546.94
385.337	1601.94
385.562	1579.94
385.787	1566.94
386.013	1569.94
386.238	1622.94
386.463	1620.94
386.688	1616.94
386.913	1568.94
387.138	1582.94
387.363	1584.94
387.588	1557.94
387.813	1573.94
388.038	1576.94
388.263	1574.94
388.488	1587.94
388.713	1582.94
388.938	1572.94
389.163	1573.94
389.387	1605.94
389.612	1575.94
389.837	1537.94
390.062	1591.94
390.287	1602.94
390.512	1577.94
390.736	1602.94
390.961	1596.94
391.186	1677.94
391.411	1708.94
391.636	1698.94
391.86	1687.94
392.085	1800.94
392.31	1786.94
392.534	1724.94
392.759	1733.94
392.984	1734.94
393.208	1737.94
393.433	1676.94
393.658	1724.94
393.882	1696.94
394.107	1676.94
394.331	1720.94
394.556	1696.94
394.78	1703.94
395.005	1754.94
395.229	1690.94
395.454	1749.94
395.678	1740.94
395.903	1776.94
396.127	1744.94
396.352	1699.94
396.576	1698.94
396.801	1671.94
397.025	1736.94
397.249	1798.94
397.474	1798.94
397.698	1790.94
397.922	1815.94
398.147	1812.94
398.371	1822.94
398.595	1898.94
398.82	1975.94
399.044	2068.94
399.268	2204.94
399.492	2504.94
399.717	2689.94
399.941	2736.94
400.165	2504.94
400.389	2374.94
400.613	2183.94
400.837	2113.94
401.062	2061.94
401.286	1994.94
401.51	1970.94
401.734	1965.94
401.958	1984.94
402.182	1984.94
402.406	2002.94
402.63	2036.94
402.854	2034.94
403.078	2048.94
403.302	2076.94
403.526	2103.94
403.75	2140.94
403.974	2139.94
404.198	2165.94
404.422	2142.94
404.645	2139.94
404.869	2145.94
405.093	2153.94
405.317	2149.94
405.541	2127.94
405.765	2125.94
405.988	2111.94
406.212	2137.94
406.436	2160.94
406.66	2208.94
406.883	2235.94
407.107	2316.94
407.331	2397.94
407.555	2433.94
407.778	2461.94
408.002	2387.94
408.226	2420.94
408.449	2366.94
408.673	2230.94
408.896	2264.94
409.12	2242.94
409.344	2228.94
409.567	2209.94
409.791	2218.94
410.014	2168.94
410.238	2174.94
410.461	2148.94
410.685	2154.94
410.908	2138.94
411.132	2130.94
411.355	2061.94
411.578	2063.94
411.802	2080.94
412.025	2094.94
412.249	2094.94
412.472	2088.94
412.695	2046.94
412.919	1938.94
413.142	1999.94
413.365	1945.94
413.589	1990.94
413.812	1993.94
414.035	1961.94
414.258	1963.94
414.482	1985.94
414.705	2005.94
414.928	1960.94
415.151	1996.94
415.374	1985.94
415.597	1967.94
415.821	1883.94
416.044	1888.94
416.267	1883.94
416.49	1895.94
416.713	1855.94
416.936	1908.94
417.159	1849.94
417.382	1862.94
417.605	1894.94
417.828	1910.94
418.051	1916.94
418.274	1931.94
418.497	1883.94
418.72	1941.94
418.943	1913.94
419.166	2077.94
419.389	2154.94
419.611	2130.94
419.834	2059.94
420.057	1980.94
420.28	1951.94
420.503	1874.94
420.726	1854.94
420.948	1861.94
421.171	1894.94
421.394	1849.94
421.617	1869.94
421.839	1922.94
422.062	1913.94
422.285	1884.94
422.507	1949.94
422.73	1938.94
422.953	1920.94
423.175	1921.94
423.398	1963.94
423.621	1919.94
423.843	2000.94
424.066	1966.94
424.288	1942.94
424.511	1939.94
424.733	1954.94
424.956	1918.94
425.178	1934.94
425.401	1915.94
425.623	1906.94
425.846	1859.94
426.068	1824.94
426.291	1808.94
426.513	1855.94
426.735	1828.94
426.958	1801.94
427.18	1737.94
427.402	1785.94
427.625	1775.94
427.847	1729.94
428.069	1744.94
428.292	1745.94
428.514	1694.94
428.736	1672.94
428.958	1769.94
429.181	1670.94
429.403	1675.94
429.625	1744.94
429.847	1680.94
430.069	1678.94
430.292	1695.94
430.514	1667.94
430.736	1701.94
430.958	1714.94
431.18	1736.94
431.402	1727.94
431.624	1754.94
431.846	1731.94
432.068	1718.94
432.29	1758.94
432.512	1752.94
432.734	1761.94
432.956	1760.94
433.178	1752.94
433.4	1734.94
433.622	1775.94
433.844	1730.94
434.066	1808.94
434.287	1811.94
434.509	1853.94
434.731	1895.94
434.953	1919.94
435.175	1897.94
435.397	1913.94
435.618	1829.94
435.84	1798.94
436.062	1763.94
436.284	1750.94
436.505	1718.94
436.727	1694.94
436.949	1752.94
437.17	1737.94
437.392	1716.94
437.614	1702.94
437.835	1634.94
438.057	1664.94
438.278	1617.94
438.5	1627.94
438.721	1642.94
438.943	1679.94
439.165	1651.94
439.386	1654.94
439.608	1682.94
439.829	1667.94
440.05	1678.94
440.272	1696.94
440.493	1679.94
440.715	1712.94
440.936	1711.94
441.158	1760.94
441.379	1778.94
441.6	1876.94
441.822	1896.94
442.043	1867.94
442.264	1865.94
442.486	1814.94
442.707	1792.94
442.928	1822.94
443.149	1831.94
443.371	1847.94
443.592	1876.94
443.813	1876.94
444.034	1877.94
444.255	1954.94
444.476	2016.94
444.698	2080.94
444.919	2082.94
445.14	2204.94
445.361	2058.94
445.582	1931.94
445.803	1820.94
446.024	1783.94
446.245	1782.94
446.466	1769.94
446.687	1697.94
446.908	1691.94
447.129	1669.94
447.35	1674.94
447.571	1637.94
447.792	1597.94
448.013	1615.94
448.234	1578.94
448.455	1537.94
448.675	1562.94
448.896	1551.94
449.117	1524.94
449.338	1524.94
449.559	1528.94
449.779	1543.94
450	1515.94
450.221	1505.94
450.442	1534.94
450.662	1534.94
450.883	1542.94
451.104	1527.94
451.324	1511.94
451.545	1558.94
451.766	1532.94
451.986	1534.94
452.207	1498.94
452.428	1504.94
452.648	1507.94
452.869	1523.94
453.089	1487.94
453.31	1534.94
453.53	1494.94
453.751	1483.94
453.971	1443.94
454.192	1473.94
454.412	1434.94
454.633	1422.94
454.853	1448.94
455.073	1439.94
455.294	1462.94
455.514	1415.94
455.734	1468.94
455.955	1398.94
456.175	1464.94
456.395	1396.94
456.616	1409.94
456.836	1448.94
457.056	1461.94
457.276	1414.94
457.497	1470.94
457.717	1451.94
457.937	1482.94
458.157	1470.94
458.377	1495.94
458.598	1557.94
458.818	1557.94
459.038	1599.94
459.258	1660.94
459.478	1696.94
459.698	1767.94
459.918	1777.94
460.138	1820.94
460.358	1855.94
460.578	1897.94
460.798	1907.94
461.018	1951.94
461.238	1962.94
461.458	1945.94
461.678	1975.94
461.898	1957.94
462.118	2010.94
462.338	2065.94
462.558	2121.94
462.777	2188.94
462.997	2343.94
463.217	2426.94
463.437	2477.94
463.657	2315.94
463.876	2275.94
464.096	2206.94
464.316	2206.94
464.536	2192.94
464.755	2150.94
464.975	2073.94
465.195	1993.94
465.414	1924.94
465.634	1801.94
465.854	1846.94
466.073	1742.94
466.293	1676.94
466.512	1618.94
466.732	1625.94
466.951	1611.94
467.171	1626.94
467.391	1622.94
467.61	1633.94
467.829	1582.94
468.049	1610.94
468.268	1575.94
468.488	1558.94
468.707	1567.94
468.927	1562.94
469.146	1574.94
469.365	1605.94
469.585	1576.94
469.804	1583.94
470.023	1636.94
470.243	1623.94
470.462	1629.94
470.681	1659.94
470.901	1678.94
471.12	1658.94
471.339	1646.94
471.558	1619.94
471.777	1596.94
471.997	1592.94
472.216	1566.94
472.435	1551.94
472.654	1553.94
472.873	1569.94
473.092	1573.94
473.311	1538.94
473.53	1544.94
473.749	1551.94
473.968	1559.94
474.187	1515.94
474.406	1544.94
474.625	1583.94
474.844	1538.94
475.063	1585.94
475.282	1553.94
475.501	1581.94
475.72	1580.94
475.939	1610.94
476.158	1609.94
476.377	1605.94
476.596	1620.94
476.814	1652.94
477.033	1662.94
477.252	1681.94
477.471	1722.94
477.69	1730.94
477.908	1816.94
478.127	1840.94
478.346	1842.94
478.564	1874.94
478.783	1877.94
479.002	1915.94
479.22	1964.94
479.439	1932.94
479.658	1943.94
479.876	1920.94
480.095	1943.94
480.313	2032.94
480.532	2061.94
480.751	2028.94
480.969	1986.94
481.188	1984.94
481.406	1954.94
481.624	1886.94
481.843	1878.94
482.061	1873.94
482.28	1887.94
482.498	1889.94
482.717	1865.94
482.935	1858.94
483.153	1956.94
483.372	1926.94
483.59	1956.94
483.808	1947.94
484.027	1945.94
484.245	1949.94
484.463	1971.94
484.681	2016.94
484.9	1981.94
485.118	2035.94
485.336	2026.94
485.554	2014.94
485.772	2073.94
485.99	2047.94
486.209	2053.94
486.427	2070.94
486.645	2070.94
486.863	2059.94
487.081	2035.94
487.299	2063.94
487.517	2056.94
487.735	2045.94
487.953	2048.94
488.171	2020.94
488.389	2015.94
488.607	1996.94
488.825	1971.94
489.043	1978.94
489.261	1950.94
489.479	1962.94
489.696	1933.94
