Data from NiCl2@0.5M.TitratingCurve.Agarose3%dH2O.NegLispCup.LampEnergy10.LIBS07252019_HRD10591_18-19-08-571.txt Node
Date: Thu Jul 25 18:19:08 EDT 2019
User: cochatt
Spectrometer: HR+D1059
Trigger mode: 1
Integration Time (sec): 1.000000E-1
Scans to average: 1
Electric dark correction enabled: true
Nonlinearity correction enabled: false
Boxcar width: 0
XAxis mode: Wavelengths
Number of Pixels in Spectrum: 2048
>>>>>Begin Spectral Data<<<<<
223.165	-26.06
223.4	-26.06
223.635	-26.06
223.869	-20.06
224.104	-22.06
224.338	-15.06
224.573	-13.06
224.808	-12.06
225.042	0.94
225.277	1.94
225.511	-1.06
225.746	9.94
225.98	10.94
226.215	9.94
226.449	8.94
226.683	8.94
226.918	21.94
227.152	35.94
227.387	35.94
227.621	32.94
227.856	36.94
228.09	42.94
228.324	55.94
228.559	58.94
228.793	67.94
229.027	92.94
229.262	103.94
229.496	112.94
229.73	100.94
229.964	120.94
230.199	114.94
230.433	126.94
230.667	132.94
230.901	134.94
231.136	135.94
231.37	123.94
231.604	136.94
231.838	132.94
232.072	133.94
232.306	134.94
232.541	122.94
232.775	141.94
233.009	142.94
233.243	138.94
233.477	141.94
233.711	143.94
233.945	142.94
234.179	141.94
234.413	148.94
234.647	123.94
234.881	145.94
235.115	142.94
235.349	142.94
235.583	141.94
235.817	131.94
236.051	147.94
236.285	130.94
236.519	124.94
236.753	141.94
236.987	135.94
237.221	141.94
237.455	132.94
237.689	148.94
237.922	142.94
238.156	154.94
238.39	151.94
238.624	159.94
238.858	152.94
239.091	141.94
239.325	140.94
239.559	158.94
239.793	157.94
240.027	154.94
240.26	154.94
240.494	152.94
240.728	166.94
240.961	153.94
241.195	164.94
241.429	170.94
241.662	158.94
241.896	171.94
242.13	169.94
242.363	150.94
242.597	165.94
242.83	168.94
243.064	168.94
243.298	153.94
243.531	174.94
243.765	180.94
243.998	173.94
244.232	178.94
244.465	170.94
244.699	165.94
244.932	183.94
245.166	194.94
245.399	181.94
245.633	184.94
245.866	182.94
246.099	187.94
246.333	198.94
246.566	200.94
246.8	196.94
247.033	195.94
247.266	198.94
247.5	180.94
247.733	190.94
247.966	220.94
248.2	205.94
248.433	201.94
248.666	196.94
248.899	193.94
249.133	224.94
249.366	201.94
249.599	209.94
249.832	198.94
250.066	217.94
250.299	222.94
250.532	221.94
250.765	218.94
250.998	199.94
251.231	229.94
251.465	224.94
251.698	210.94
251.931	228.94
252.164	229.94
252.397	226.94
252.63	227.94
252.863	229.94
253.096	228.94
253.329	227.94
253.562	233.94
253.795	224.94
254.028	237.94
254.261	241.94
254.494	222.94
254.727	228.94
254.96	238.94
255.193	219.94
255.426	228.94
255.659	240.94
255.892	243.94
256.124	257.94
256.357	252.94
256.59	245.94
256.823	243.94
257.056	237.94
257.289	240.94
257.521	248.94
257.754	265.94
257.987	257.94
258.22	260.94
258.452	258.94
258.685	256.94
258.918	246.94
259.151	259.94
259.383	263.94
259.616	268.94
259.849	288.94
260.081	261.94
260.314	279.94
260.547	276.94
260.779	262.94
261.012	255.94
261.244	286.94
261.477	288.94
261.71	276.94
261.942	276.94
262.175	280.94
262.407	277.94
262.64	272.94
262.872	275.94
263.105	284.94
263.337	293.94
263.57	285.94
263.802	285.94
264.035	283.94
264.267	292.94
264.499	276.94
264.732	291.94
264.964	295.94
265.197	288.94
265.429	297.94
265.661	286.94
265.894	293.94
266.126	299.94
266.358	285.94
266.591	299.94
266.823	296.94
267.055	313.94
267.287	298.94
267.52	296.94
267.752	298.94
267.984	299.94
268.216	325.94
268.448	297.94
268.681	323.94
268.913	307.94
269.145	312.94
269.377	300.94
269.609	346.94
269.841	307.94
270.073	317.94
270.306	322.94
270.538	329.94
270.77	312.94
271.002	335.94
271.234	332.94
271.466	331.94
271.698	324.94
271.93	316.94
272.162	329.94
272.394	340.94
272.626	336.94
272.858	328.94
273.09	327.94
273.322	344.94
273.553	332.94
273.785	335.94
274.017	343.94
274.249	344.94
274.481	359.94
274.713	353.94
274.945	337.94
275.176	343.94
275.408	369.94
275.64	349.94
275.872	358.94
276.104	337.94
276.335	348.94
276.567	355.94
276.799	339.94
277.031	340.94
277.262	355.94
277.494	363.94
277.726	365.94
277.957	351.94
278.189	361.94
278.421	366.94
278.652	353.94
278.884	347.94
279.115	372.94
279.347	364.94
279.579	353.94
279.81	380.94
280.042	376.94
280.273	380.94
280.505	382.94
280.736	378.94
280.968	373.94
281.199	380.94
281.431	389.94
281.662	371.94
281.894	394.94
282.125	394.94
282.356	386.94
282.588	399.94
282.819	385.94
283.051	390.94
283.282	423.94
283.513	404.94
283.745	392.94
283.976	396.94
284.207	385.94
284.439	407.94
284.67	411.94
284.901	402.94
285.132	406.94
285.364	411.94
285.595	401.94
285.826	402.94
286.057	405.94
286.288	404.94
286.52	398.94
286.751	400.94
286.982	425.94
287.213	414.94
287.444	422.94
287.675	410.94
287.906	434.94
288.138	423.94
288.369	430.94
288.6	424.94
288.831	424.94
289.062	433.94
289.293	412.94
289.524	424.94
289.755	414.94
289.986	440.94
290.217	416.94
290.448	452.94
290.679	420.94
290.91	446.94
291.141	417.94
291.371	441.94
291.602	450.94
291.833	420.94
292.064	412.94
292.295	433.94
292.526	441.94
292.757	462.94
292.987	421.94
293.218	442.94
293.449	448.94
293.68	438.94
293.91	465.94
294.141	443.94
294.372	462.94
294.603	438.94
294.833	475.94
295.064	445.94
295.295	424.94
295.525	454.94
295.756	459.94
295.987	464.94
296.217	438.94
296.448	470.94
296.679	457.94
296.909	476.94
297.14	460.94
297.37	443.94
297.601	476.94
297.831	453.94
298.062	458.94
298.292	467.94
298.523	482.94
298.753	471.94
298.984	461.94
299.214	487.94
299.445	481.94
299.675	469.94
299.905	512.94
300.136	472.94
300.366	498.94
300.597	509.94
300.827	519.94
301.057	527.94
301.288	498.94
301.518	515.94
301.748	514.94
301.979	514.94
302.209	513.94
302.439	490.94
302.669	502.94
302.9	494.94
303.13	481.94
303.36	497.94
303.59	510.94
303.82	507.94
304.051	524.94
304.281	501.94
304.511	504.94
304.741	527.94
304.971	517.94
305.201	482.94
305.431	522.94
305.661	499.94
305.891	499.94
306.121	510.94
306.352	511.94
306.582	488.94
306.812	524.94
307.042	516.94
307.272	515.94
307.502	516.94
307.731	501.94
307.961	486.94
308.191	513.94
308.421	495.94
308.651	491.94
308.881	512.94
309.111	500.94
309.341	491.94
309.571	510.94
309.8	490.94
310.03	507.94
310.26	504.94
310.49	526.94
310.72	528.94
310.949	525.94
311.179	508.94
311.409	506.94
311.639	516.94
311.868	534.94
312.098	524.94
312.328	523.94
312.557	523.94
312.787	533.94
313.017	538.94
313.246	540.94
313.476	520.94
313.706	570.94
313.935	526.94
314.165	524.94
314.394	545.94
314.624	533.94
314.853	557.94
315.083	555.94
315.312	541.94
315.542	529.94
315.771	530.94
316.001	543.94
316.23	515.94
316.46	511.94
316.689	553.94
316.919	538.94
317.148	524.94
317.377	543.94
317.607	513.94
317.836	523.94
318.065	523.94
318.295	557.94
318.524	557.94
318.753	539.94
318.983	534.94
319.212	528.94
319.441	548.94
319.67	552.94
319.9	530.94
320.129	518.94
320.358	537.94
320.587	526.94
320.816	554.94
321.046	536.94
321.275	538.94
321.504	536.94
321.733	551.94
321.962	540.94
322.191	546.94
322.42	539.94
322.649	541.94
322.878	537.94
323.108	557.94
323.337	560.94
323.566	542.94
323.795	548.94
324.024	549.94
324.253	566.94
324.482	557.94
324.71	538.94
324.939	562.94
325.168	573.94
325.397	568.94
325.626	575.94
325.855	588.94
326.084	567.94
326.313	574.94
326.542	567.94
326.77	580.94
326.999	590.94
327.228	578.94
327.457	561.94
327.686	568.94
327.914	597.94
328.143	579.94
328.372	620.94
328.6	588.94
328.829	578.94
329.058	594.94
329.287	577.94
329.515	570.94
329.744	601.94
329.972	570.94
330.201	589.94
330.43	602.94
330.658	585.94
330.887	618.94
331.115	596.94
331.344	597.94
331.572	632.94
331.801	626.94
332.03	618.94
332.258	629.94
332.486	629.94
332.715	677.94
332.943	677.94
333.172	704.94
333.4	712.94
333.629	752.94
333.857	749.94
334.085	747.94
334.314	730.94
334.542	718.94
334.771	721.94
334.999	690.94
335.227	707.94
335.455	712.94
335.684	698.94
335.912	712.94
336.14	698.94
336.369	690.94
336.597	706.94
336.825	694.94
337.053	672.94
337.281	690.94
337.51	674.94
337.738	655.94
337.966	680.94
338.194	662.94
338.422	660.94
338.65	644.94
338.878	647.94
339.106	614.94
339.334	638.94
339.562	640.94
339.79	626.94
340.018	614.94
340.246	597.94
340.474	613.94
340.702	602.94
340.93	600.94
341.158	618.94
341.386	632.94
341.614	616.94
341.842	621.94
342.07	612.94
342.298	602.94
342.526	624.94
342.754	625.94
342.981	626.94
343.209	615.94
343.437	678.94
343.665	692.94
343.893	717.94
344.12	731.94
344.348	690.94
344.576	666.94
344.804	660.94
345.031	668.94
345.259	633.94
345.487	627.94
345.714	604.94
345.942	603.94
346.17	592.94
346.397	614.94
346.625	579.94
346.853	590.94
347.08	590.94
347.308	605.94
347.535	599.94
347.763	579.94
347.99	600.94
348.218	591.94
348.445	568.94
348.673	592.94
348.9	609.94
349.128	584.94
349.355	583.94
349.583	593.94
349.81	594.94
350.037	574.94
350.265	568.94
350.492	557.94
350.72	556.94
350.947	550.94
351.174	590.94
351.402	588.94
351.629	589.94
351.856	573.94
352.083	558.94
352.311	569.94
352.538	577.94
352.765	577.94
352.992	567.94
353.22	577.94
353.447	564.94
353.674	548.94
353.901	567.94
354.128	562.94
354.355	554.94
354.583	578.94
354.81	568.94
355.037	557.94
355.264	552.94
355.491	587.94
355.718	558.94
355.945	570.94
356.172	571.94
356.399	579.94
356.626	568.94
356.853	587.94
357.08	581.94
357.307	584.94
357.534	549.94
357.761	547.94
357.988	572.94
358.215	578.94
358.441	557.94
358.668	558.94
358.895	549.94
359.122	562.94
359.349	572.94
359.576	540.94
359.802	555.94
360.029	568.94
360.256	566.94
360.483	558.94
360.709	560.94
360.936	576.94
361.163	561.94
361.39	556.94
361.616	553.94
361.843	567.94
362.07	564.94
362.296	586.94
362.523	541.94
362.749	564.94
362.976	554.94
363.203	565.94
363.429	570.94
363.656	572.94
363.882	529.94
364.109	534.94
364.335	559.94
364.562	546.94
364.788	541.94
365.015	544.94
365.241	555.94
365.468	554.94
365.694	566.94
365.92	569.94
366.147	564.94
366.373	560.94
366.599	534.94
366.826	543.94
367.052	531.94
367.278	564.94
367.505	560.94
367.731	562.94
367.957	578.94
368.184	580.94
368.41	552.94
368.636	569.94
368.862	568.94
369.089	546.94
369.315	580.94
369.541	580.94
369.767	581.94
369.993	553.94
370.219	589.94
370.445	565.94
370.672	564.94
370.898	578.94
371.124	579.94
371.35	585.94
371.576	616.94
371.802	582.94
372.028	613.94
372.254	608.94
372.48	608.94
372.706	598.94
372.932	608.94
373.158	613.94
373.384	601.94
373.61	598.94
373.835	590.94
374.061	609.94
374.287	608.94
374.513	611.94
374.739	617.94
374.965	627.94
375.191	654.94
375.416	650.94
375.642	621.94
375.868	615.94
376.094	613.94
376.319	585.94
376.545	603.94
376.771	569.94
376.997	582.94
377.222	585.94
377.448	595.94
377.674	600.94
377.899	580.94
378.125	584.94
378.35	618.94
378.576	587.94
378.802	592.94
379.027	570.94
379.253	570.94
379.478	587.94
379.704	572.94
379.929	596.94
380.155	569.94
380.38	585.94
380.606	586.94
380.831	589.94
381.057	606.94
381.282	591.94
381.507	601.94
381.733	580.94
381.958	584.94
382.184	591.94
382.409	584.94
382.634	593.94
382.86	582.94
383.085	594.94
383.31	632.94
383.535	624.94
383.761	611.94
383.986	634.94
384.211	645.94
384.436	650.94
384.662	668.94
384.887	676.94
385.112	679.94
385.337	665.94
385.562	698.94
385.787	681.94
386.013	709.94
386.238	664.94
386.463	680.94
386.688	701.94
386.913	676.94
387.138	674.94
387.363	710.94
387.588	684.94
387.813	654.94
388.038	685.94
388.263	697.94
388.488	673.94
388.713	676.94
388.938	682.94
389.163	653.94
389.387	659.94
389.612	676.94
389.837	664.94
390.062	691.94
390.287	666.94
390.512	658.94
390.736	676.94
390.961	700.94
391.186	690.94
391.411	705.94
391.636	692.94
391.86	768.94
392.085	738.94
392.31	724.94
392.534	733.94
392.759	735.94
392.984	716.94
393.208	714.94
393.433	737.94
393.658	712.94
393.882	723.94
394.107	725.94
394.331	721.94
394.556	690.94
394.78	755.94
395.005	760.94
395.229	731.94
395.454	750.94
395.678	770.94
395.903	741.94
396.127	733.94
396.352	730.94
396.576	700.94
396.801	704.94
397.025	747.94
397.249	746.94
397.474	734.94
397.698	755.94
397.922	765.94
398.147	761.94
398.371	793.94
398.595	794.94
398.82	839.94
399.044	855.94
399.268	941.94
399.492	1060.94
399.717	1148.94
399.941	1126.94
400.165	1069.94
400.389	974.94
400.613	894.94
400.837	875.94
401.062	860.94
401.286	837.94
401.51	861.94
401.734	855.94
401.958	856.94
402.182	857.94
402.406	842.94
402.63	876.94
402.854	862.94
403.078	874.94
403.302	876.94
403.526	922.94
403.75	916.94
403.974	935.94
404.198	937.94
404.422	923.94
404.645	933.94
404.869	961.94
405.093	929.94
405.317	880.94
405.541	903.94
405.765	892.94
405.988	928.94
406.212	932.94
406.436	897.94
406.66	934.94
406.883	923.94
407.107	1004.94
407.331	1016.94
407.555	1070.94
407.778	1054.94
408.002	1023.94
408.226	1010.94
408.449	966.94
408.673	966.94
408.896	977.94
409.12	933.94
409.344	950.94
409.567	964.94
409.791	947.94
410.014	929.94
410.238	905.94
410.461	920.94
410.685	907.94
410.908	904.94
411.132	880.94
411.355	877.94
411.578	888.94
411.802	891.94
412.025	875.94
412.249	878.94
412.472	883.94
412.695	884.94
412.919	856.94
413.142	854.94
413.365	866.94
413.589	825.94
413.812	848.94
414.035	848.94
414.258	846.94
414.482	877.94
414.705	857.94
414.928	851.94
415.151	850.94
415.374	849.94
415.597	846.94
415.821	848.94
416.044	840.94
416.267	840.94
416.49	813.94
416.713	836.94
416.936	842.94
417.159	829.94
417.382	844.94
417.605	828.94
417.828	838.94
418.051	841.94
418.274	828.94
418.497	827.94
418.72	859.94
418.943	858.94
419.166	899.94
419.389	952.94
419.611	935.94
419.834	878.94
420.057	880.94
420.28	829.94
420.503	832.94
420.726	814.94
420.948	856.94
421.171	844.94
421.394	833.94
421.617	837.94
421.839	841.94
422.062	850.94
422.285	834.94
422.507	858.94
422.73	849.94
422.953	875.94
423.175	841.94
423.398	892.94
423.621	883.94
423.843	888.94
424.066	868.94
424.288	870.94
424.511	906.94
424.733	846.94
424.956	877.94
425.178	864.94
425.401	865.94
425.623	848.94
425.846	834.94
426.068	821.94
426.291	829.94
426.513	835.94
426.735	816.94
426.958	810.94
427.18	784.94
427.402	797.94
427.625	804.94
427.847	809.94
428.069	801.94
428.292	777.94
428.514	769.94
428.736	772.94
428.958	778.94
429.181	778.94
429.403	786.94
429.625	781.94
429.847	770.94
430.069	772.94
430.292	805.94
430.514	771.94
430.736	775.94
430.958	766.94
431.18	802.94
431.402	803.94
431.624	800.94
431.846	770.94
432.068	786.94
432.29	784.94
432.512	781.94
432.734	811.94
432.956	790.94
433.178	804.94
433.4	810.94
433.622	813.94
433.844	777.94
434.066	845.94
434.287	831.94
434.509	812.94
434.731	855.94
434.953	854.94
435.175	881.94
435.397	880.94
435.618	811.94
435.84	808.94
436.062	816.94
436.284	775.94
436.505	781.94
436.727	780.94
436.949	811.94
437.17	806.94
437.392	780.94
437.614	761.94
437.835	752.94
438.057	755.94
438.278	747.94
438.5	776.94
438.721	769.94
438.943	778.94
439.165	766.94
439.386	793.94
439.608	770.94
439.829	792.94
440.05	803.94
440.272	805.94
440.493	798.94
440.715	830.94
440.936	816.94
441.158	825.94
441.379	858.94
441.6	867.94
441.822	876.94
442.043	854.94
442.264	859.94
442.486	857.94
442.707	849.94
442.928	865.94
443.149	865.94
443.371	875.94
443.592	887.94
443.813	848.94
444.034	902.94
444.255	932.94
444.476	928.94
444.698	973.94
444.919	1000.94
445.14	1083.94
445.361	983.94
445.582	893.94
445.803	869.94
446.024	849.94
446.245	829.94
446.466	830.94
446.687	792.94
446.908	836.94
447.129	791.94
447.35	790.94
447.571	794.94
447.792	789.94
448.013	776.94
448.234	776.94
448.455	769.94
448.675	781.94
448.896	750.94
449.117	743.94
449.338	748.94
449.559	719.94
449.779	719.94
450	730.94
450.221	735.94
450.442	732.94
450.662	747.94
450.883	747.94
451.104	765.94
451.324	756.94
451.545	756.94
451.766	748.94
451.986	740.94
452.207	733.94
452.428	726.94
452.648	737.94
452.869	726.94
453.089	744.94
453.31	732.94
453.53	721.94
453.751	722.94
453.971	713.94
454.192	738.94
454.412	708.94
454.633	709.94
454.853	729.94
455.073	717.94
455.294	723.94
455.514	687.94
455.734	707.94
455.955	710.94
456.175	713.94
456.395	691.94
456.616	716.94
456.836	673.94
457.056	707.94
457.276	666.94
457.497	710.94
457.717	724.94
457.937	696.94
458.157	740.94
458.377	711.94
458.598	749.94
458.818	749.94
459.038	793.94
459.258	788.94
459.478	802.94
459.698	828.94
459.918	843.94
460.138	873.94
460.358	893.94
460.578	926.94
460.798	923.94
461.018	956.94
461.238	912.94
461.458	937.94
461.678	922.94
461.898	918.94
462.118	952.94
462.338	1004.94
462.558	1024.94
462.777	1032.94
462.997	1093.94
463.217	1164.94
463.437	1136.94
463.657	1108.94
463.876	1066.94
464.096	1057.94
464.316	1044.94
464.536	1062.94
464.755	1056.94
464.975	993.94
465.195	939.94
465.414	921.94
465.634	874.94
465.854	844.94
466.073	823.94
466.293	840.94
466.512	824.94
466.732	782.94
466.951	802.94
467.171	803.94
467.391	803.94
467.61	789.94
467.829	771.94
468.049	796.94
468.268	741.94
468.488	784.94
468.707	765.94
468.927	756.94
469.146	753.94
469.365	770.94
469.585	768.94
469.804	773.94
470.023	827.94
470.243	799.94
470.462	832.94
470.681	821.94
470.901	806.94
471.12	805.94
471.339	801.94
471.558	789.94
471.777	812.94
471.997	772.94
472.216	769.94
472.435	724.94
472.654	754.94
472.873	744.94
473.092	760.94
473.311	754.94
473.53	779.94
473.749	744.94
473.968	762.94
474.187	755.94
474.406	744.94
474.625	768.94
474.844	785.94
475.063	755.94
475.282	769.94
475.501	749.94
475.72	757.94
475.939	775.94
476.158	784.94
476.377	787.94
476.596	809.94
476.814	789.94
477.033	760.94
477.252	829.94
477.471	833.94
477.69	830.94
477.908	878.94
478.127	896.94
478.346	914.94
478.564	886.94
478.783	909.94
479.002	922.94
479.22	946.94
479.439	901.94
479.658	906.94
479.876	932.94
480.095	936.94
480.313	934.94
480.532	949.94
480.751	977.94
480.969	923.94
481.188	912.94
481.406	910.94
481.624	873.94
481.843	876.94
482.061	883.94
482.28	874.94
482.498	870.94
482.717	866.94
482.935	852.94
483.153	877.94
483.372	882.94
483.59	882.94
483.808	885.94
484.027	869.94
484.245	862.94
484.463	892.94
484.681	906.94
484.9	874.94
485.118	914.94
485.336	916.94
485.554	909.94
485.772	894.94
485.99	882.94
486.209	909.94
486.427	914.94
486.645	920.94
486.863	947.94
487.081	944.94
487.299	900.94
487.517	896.94
487.735	942.94
487.953	954.94
488.171	934.94
488.389	924.94
488.607	906.94
488.825	888.94
489.043	896.94
489.261	891.94
489.479	906.94
489.696	928.94
489.914	908.94
490.132	958.94
490.35	939.94
490.568	940.94
490.786	944.94
491.003	922.94
491.221	939.94
491.439	917.94
491.657	964.94
491.874	954.94
492.092	981.94
492.31	946.94
492.527	968.94
492.745	945.94
492.963	955.94
493.18	978.94
493.398	987.94
493.615	954.94
493.833	985.94
494.05	994.94
494.268	986.94
494.485	986.94
494.703	989.94
494.92	968.94
495.138	980.94
495.355	995.94
495.573	997.94
495.79	984.94
496.008	977.94
496.225	1005.94
496.442	1030.94
496.66	1016.94
496.877	1056.94
497.094	1052.94
497.312	1050.94
497.529	1092.94
497.746	1133.94
497.963	1146.94
498.181	1144.94
498.398	1160.94
498.615	1245.94
498.832	1337.94
499.049	1400.94
499.267	1486.94
499.484	1617.94
499.701	1757.94
499.918	1923.94
500.135	2131.94
500.352	2291.94
500.569	2422.94
500.786	2344.94
501.003	2250.94
