Data from NiCl2@0.25M.TitratingCurve.Agarose3%dH2O.NegLispCup.LampEnergy10.LIBS07252019_HRD10591_18-23-30-572.txt Node
Date: Thu Jul 25 18:23:30 EDT 2019
User: cochatt
Spectrometer: HR+D1059
Trigger mode: 1
Integration Time (sec): 1.000000E-1
Scans to average: 1
Electric dark correction enabled: true
Nonlinearity correction enabled: false
Boxcar width: 0
XAxis mode: Wavelengths
Number of Pixels in Spectrum: 2048
>>>>>Begin Spectral Data<<<<<
223.165	-21.12
223.4	-21.12
223.635	-21.12
223.869	-22.12
224.104	-12.12
224.338	-21.12
224.573	-17.12
224.808	-0.12
225.042	-14.12
225.277	-0.12
225.511	-5.12
225.746	-1.12
225.98	8.88
226.215	17.88
226.449	12.88
226.683	18.88
226.918	22.88
227.152	32.88
227.387	28.88
227.621	38.88
227.856	53.88
228.09	39.88
228.324	58.88
228.559	56.88
228.793	79.88
229.027	92.88
229.262	105.88
229.496	103.88
229.73	122.88
229.964	104.88
230.199	122.88
230.433	130.88
230.667	143.88
230.901	126.88
231.136	121.88
231.37	127.88
231.604	129.88
231.838	140.88
232.072	143.88
232.306	134.88
232.541	126.88
232.775	138.88
233.009	135.88
233.243	146.88
233.477	144.88
233.711	139.88
233.945	131.88
234.179	146.88
234.413	139.88
234.647	154.88
234.881	136.88
235.115	151.88
235.349	136.88
235.583	134.88
235.817	155.88
236.051	146.88
236.285	148.88
236.519	143.88
236.753	164.88
236.987	141.88
237.221	148.88
237.455	158.88
237.689	147.88
237.922	144.88
238.156	151.88
238.39	160.88
238.624	162.88
238.858	158.88
239.091	174.88
239.325	149.88
239.559	159.88
239.793	167.88
240.027	191.88
240.26	186.88
240.494	164.88
240.728	180.88
240.961	178.88
241.195	170.88
241.429	187.88
241.662	170.88
241.896	192.88
242.13	178.88
242.363	187.88
242.597	176.88
242.83	182.88
243.064	187.88
243.298	186.88
243.531	186.88
243.765	192.88
243.998	196.88
244.232	189.88
244.465	190.88
244.699	199.88
244.932	199.88
245.166	206.88
245.399	204.88
245.633	208.88
245.866	210.88
246.099	198.88
246.333	206.88
246.566	201.88
246.8	196.88
247.033	201.88
247.266	212.88
247.5	202.88
247.733	208.88
247.966	232.88
248.2	212.88
248.433	222.88
248.666	222.88
248.899	229.88
249.133	229.88
249.366	222.88
249.599	237.88
249.832	223.88
250.066	230.88
250.299	238.88
250.532	233.88
250.765	236.88
250.998	241.88
251.231	246.88
251.465	255.88
251.698	252.88
251.931	248.88
252.164	247.88
252.397	260.88
252.63	246.88
252.863	260.88
253.096	254.88
253.329	259.88
253.562	261.88
253.795	238.88
254.028	258.88
254.261	258.88
254.494	264.88
254.727	257.88
254.96	267.88
255.193	253.88
255.426	260.88
255.659	276.88
255.892	274.88
256.124	275.88
256.357	306.88
256.59	269.88
256.823	268.88
257.056	272.88
257.289	282.88
257.521	285.88
257.754	279.88
257.987	290.88
258.22	280.88
258.452	299.88
258.685	272.88
258.918	284.88
259.151	283.88
259.383	287.88
259.616	283.88
259.849	291.88
260.081	294.88
260.314	281.88
260.547	297.88
260.779	293.88
261.012	312.88
261.244	312.88
261.477	295.88
261.71	314.88
261.942	311.88
262.175	303.88
262.407	311.88
262.64	304.88
262.872	300.88
263.105	303.88
263.337	310.88
263.57	318.88
263.802	320.88
264.035	310.88
264.267	328.88
264.499	304.88
264.732	324.88
264.964	318.88
265.197	318.88
265.429	316.88
265.661	324.88
265.894	310.88
266.126	342.88
266.358	311.88
266.591	328.88
266.823	338.88
267.055	332.88
267.287	332.88
267.52	339.88
267.752	346.88
267.984	336.88
268.216	340.88
268.448	336.88
268.681	343.88
268.913	347.88
269.145	348.88
269.377	364.88
269.609	358.88
269.841	365.88
270.073	358.88
270.306	351.88
270.538	356.88
270.77	338.88
271.002	346.88
271.234	380.88
271.466	367.88
271.698	363.88
271.93	361.88
272.162	364.88
272.394	371.88
272.626	376.88
272.858	359.88
273.09	368.88
273.322	376.88
273.553	375.88
273.785	383.88
274.017	380.88
274.249	375.88
274.481	389.88
274.713	384.88
274.945	386.88
275.176	384.88
275.408	387.88
275.64	382.88
275.872	388.88
276.104	388.88
276.335	411.88
276.567	370.88
276.799	396.88
277.031	382.88
277.262	400.88
277.494	384.88
277.726	412.88
277.957	402.88
278.189	411.88
278.421	396.88
278.652	414.88
278.884	410.88
279.115	405.88
279.347	414.88
279.579	404.88
279.81	428.88
280.042	434.88
280.273	416.88
280.505	417.88
280.736	427.88
280.968	425.88
281.199	422.88
281.431	431.88
281.662	436.88
281.894	406.88
282.125	427.88
282.356	438.88
282.588	452.88
282.819	430.88
283.051	448.88
283.282	431.88
283.513	426.88
283.745	435.88
283.976	452.88
284.207	446.88
284.439	443.88
284.67	436.88
284.901	441.88
285.132	447.88
285.364	475.88
285.595	455.88
285.826	455.88
286.057	452.88
286.288	468.88
286.52	470.88
286.751	484.88
286.982	479.88
287.213	458.88
287.444	476.88
287.675	486.88
287.906	464.88
288.138	475.88
288.369	484.88
288.6	478.88
288.831	487.88
289.062	468.88
289.293	487.88
289.524	455.88
289.755	474.88
289.986	483.88
290.217	471.88
290.448	474.88
290.679	466.88
290.91	475.88
291.141	482.88
291.371	495.88
291.602	488.88
291.833	491.88
292.064	473.88
292.295	486.88
292.526	508.88
292.757	491.88
292.987	499.88
293.218	463.88
293.449	502.88
293.68	484.88
293.91	481.88
294.141	496.88
294.372	496.88
294.603	482.88
294.833	483.88
295.064	487.88
295.295	481.88
295.525	512.88
295.756	507.88
295.987	497.88
296.217	496.88
296.448	501.88
296.679	518.88
296.909	491.88
297.14	534.88
297.37	513.88
297.601	524.88
297.831	516.88
298.062	533.88
298.292	522.88
298.523	543.88
298.753	536.88
298.984	531.88
299.214	514.88
299.445	542.88
299.675	532.88
299.905	522.88
300.136	550.88
300.366	544.88
300.597	559.88
300.827	562.88
301.057	563.88
301.288	568.88
301.518	538.88
301.748	566.88
301.979	561.88
302.209	583.88
302.439	562.88
302.669	531.88
302.9	571.88
303.13	563.88
303.36	572.88
303.59	559.88
303.82	564.88
304.051	582.88
304.281	555.88
304.511	535.88
304.741	574.88
304.971	576.88
305.201	578.88
305.431	552.88
305.661	542.88
305.891	540.88
306.121	560.88
306.352	536.88
306.582	553.88
306.812	548.88
307.042	545.88
307.272	552.88
307.502	536.88
307.731	554.88
307.961	551.88
308.191	567.88
308.421	562.88
308.651	529.88
308.881	532.88
309.111	564.88
309.341	572.88
309.571	553.88
309.8	534.88
310.03	540.88
310.26	537.88
310.49	568.88
310.72	537.88
310.949	590.88
311.179	559.88
311.409	568.88
311.639	582.88
311.868	575.88
312.098	576.88
312.328	571.88
312.557	571.88
312.787	586.88
313.017	579.88
313.246	591.88
313.476	596.88
313.706	571.88
313.935	581.88
314.165	605.88
314.394	598.88
314.624	575.88
314.853	594.88
315.083	600.88
315.312	589.88
315.542	583.88
315.771	575.88
316.001	577.88
316.23	575.88
316.46	556.88
316.689	578.88
316.919	587.88
317.148	574.88
317.377	587.88
317.607	587.88
317.836	567.88
318.065	576.88
318.295	583.88
318.524	572.88
318.753	585.88
318.983	564.88
319.212	560.88
319.441	600.88
319.67	573.88
319.9	587.88
320.129	569.88
320.358	585.88
320.587	577.88
320.816	556.88
321.046	580.88
321.275	610.88
321.504	598.88
321.733	583.88
321.962	591.88
322.191	568.88
322.42	582.88
322.649	583.88
322.878	595.88
323.108	603.88
323.337	635.88
323.566	591.88
323.795	600.88
324.024	630.88
324.253	606.88
324.482	595.88
324.71	595.88
324.939	613.88
325.168	611.88
325.397	599.88
325.626	631.88
325.855	613.88
326.084	640.88
326.313	629.88
326.542	636.88
326.77	640.88
326.999	632.88
327.228	631.88
327.457	608.88
327.686	613.88
327.914	632.88
328.143	656.88
328.372	628.88
328.6	624.88
328.829	628.88
329.058	624.88
329.287	647.88
329.515	652.88
329.744	641.88
329.972	628.88
330.201	681.88
330.43	678.88
330.658	672.88
330.887	658.88
331.115	644.88
331.344	666.88
331.572	670.88
331.801	667.88
332.03	702.88
332.258	704.88
332.486	738.88
332.715	734.88
332.943	774.88
333.172	818.88
333.4	834.88
333.629	830.88
333.857	849.88
334.085	847.88
334.314	845.88
334.542	818.88
334.771	809.88
334.999	824.88
335.227	818.88
335.455	813.88
335.684	778.88
335.912	797.88
336.14	777.88
336.369	779.88
336.597	780.88
336.825	791.88
337.053	771.88
337.281	755.88
337.51	751.88
337.738	741.88
337.966	701.88
338.194	722.88
338.422	720.88
338.65	682.88
338.878	708.88
339.106	712.88
339.334	722.88
339.562	682.88
339.79	667.88
340.018	683.88
340.246	667.88
340.474	670.88
340.702	682.88
340.93	683.88
341.158	690.88
341.386	692.88
341.614	700.88
341.842	678.88
342.07	676.88
342.298	661.88
342.526	674.88
342.754	667.88
342.981	687.88
343.209	693.88
343.437	727.88
343.665	773.88
343.893	790.88
344.12	804.88
344.348	802.88
344.576	738.88
344.804	739.88
345.031	715.88
345.259	689.88
345.487	685.88
345.714	689.88
345.942	676.88
346.17	658.88
346.397	665.88
346.625	667.88
346.853	652.88
347.08	627.88
347.308	651.88
347.535	627.88
347.763	665.88
347.99	657.88
348.218	641.88
348.445	634.88
348.673	635.88
348.9	657.88
349.128	666.88
349.355	647.88
349.583	656.88
349.81	643.88
350.037	598.88
350.265	656.88
350.492	628.88
350.72	647.88
350.947	647.88
351.174	620.88
351.402	628.88
351.629	643.88
351.856	636.88
352.083	643.88
352.311	631.88
352.538	640.88
352.765	640.88
352.992	634.88
353.22	608.88
353.447	624.88
353.674	619.88
353.901	612.88
354.128	606.88
354.355	636.88
354.583	629.88
354.81	611.88
355.037	643.88
355.264	619.88
355.491	628.88
355.718	631.88
355.945	617.88
356.172	619.88
356.399	624.88
356.626	626.88
356.853	633.88
357.08	636.88
357.307	643.88
357.534	651.88
357.761	618.88
357.988	632.88
358.215	631.88
358.441	623.88
358.668	622.88
358.895	634.88
359.122	644.88
359.349	622.88
359.576	654.88
359.802	640.88
360.029	648.88
360.256	635.88
360.483	630.88
360.709	632.88
360.936	621.88
361.163	641.88
361.39	638.88
361.616	608.88
361.843	611.88
362.07	633.88
362.296	631.88
362.523	616.88
362.749	649.88
362.976	634.88
363.203	631.88
363.429	619.88
363.656	609.88
363.882	644.88
364.109	636.88
364.335	627.88
364.562	624.88
364.788	605.88
365.015	638.88
365.241	611.88
365.468	636.88
365.694	631.88
365.92	617.88
366.147	626.88
366.373	611.88
366.599	632.88
366.826	632.88
367.052	655.88
367.278	626.88
367.505	636.88
367.731	643.88
367.957	636.88
368.184	634.88
368.41	651.88
368.636	644.88
368.862	643.88
369.089	627.88
369.315	657.88
369.541	656.88
369.767	659.88
369.993	655.88
370.219	680.88
370.445	653.88
370.672	676.88
370.898	682.88
371.124	682.88
371.35	703.88
371.576	670.88
371.802	688.88
372.028	708.88
372.254	693.88
372.48	695.88
372.706	655.88
372.932	703.88
373.158	715.88
373.384	718.88
373.61	675.88
373.835	687.88
374.061	649.88
374.287	702.88
374.513	716.88
374.739	738.88
374.965	727.88
375.191	768.88
375.416	745.88
375.642	764.88
375.868	721.88
376.094	714.88
376.319	689.88
376.545	696.88
376.771	680.88
376.997	684.88
377.222	678.88
377.448	728.88
377.674	706.88
377.899	687.88
378.125	688.88
378.35	690.88
378.576	674.88
378.802	665.88
379.027	670.88
379.253	702.88
379.478	675.88
379.704	649.88
379.929	668.88
380.155	654.88
380.38	684.88
380.606	700.88
380.831	689.88
381.057	684.88
381.282	695.88
381.507	691.88
381.733	678.88
381.958	693.88
382.184	658.88
382.409	699.88
382.634	714.88
382.86	706.88
383.085	701.88
383.31	734.88
383.535	754.88
383.761	746.88
383.986	747.88
384.211	771.88
384.436	775.88
384.662	784.88
384.887	814.88
385.112	801.88
385.337	811.88
385.562	823.88
385.787	828.88
386.013	842.88
386.238	813.88
386.463	819.88
386.688	808.88
386.913	798.88
387.138	788.88
387.363	815.88
387.588	792.88
387.813	791.88
388.038	831.88
388.263	823.88
388.488	801.88
388.713	799.88
388.938	775.88
389.163	792.88
389.387	801.88
389.612	791.88
389.837	817.88
390.062	780.88
390.287	810.88
390.512	810.88
390.736	814.88
390.961	850.88
391.186	860.88
391.411	863.88
391.636	896.88
391.86	903.88
392.085	922.88
392.31	888.88
392.534	900.88
392.759	890.88
392.984	857.88
393.208	855.88
393.433	852.88
393.658	859.88
393.882	867.88
394.107	873.88
394.331	866.88
394.556	886.88
394.78	852.88
395.005	878.88
395.229	895.88
395.454	903.88
395.678	916.88
395.903	895.88
396.127	903.88
396.352	884.88
396.576	843.88
396.801	866.88
397.025	871.88
397.249	925.88
397.474	909.88
397.698	895.88
397.922	903.88
398.147	926.88
398.371	924.88
398.595	984.88
398.82	996.88
399.044	1086.88
399.268	1182.88
399.492	1375.88
399.717	1454.88
399.941	1508.88
400.165	1378.88
400.389	1216.88
400.613	1151.88
400.837	1086.88
401.062	1054.88
401.286	1034.88
401.51	1029.88
401.734	1019.88
401.958	1046.88
402.182	1067.88
402.406	1056.88
402.63	1061.88
402.854	1082.88
403.078	1080.88
403.302	1111.88
403.526	1116.88
403.75	1157.88
403.974	1182.88
404.198	1160.88
404.422	1178.88
404.645	1158.88
404.869	1161.88
405.093	1161.88
405.317	1118.88
405.541	1116.88
405.765	1106.88
405.988	1105.88
406.212	1120.88
406.436	1142.88
406.66	1149.88
406.883	1160.88
407.107	1178.88
407.331	1241.88
407.555	1321.88
407.778	1300.88
408.002	1274.88
408.226	1241.88
408.449	1227.88
408.673	1203.88
408.896	1157.88
409.12	1160.88
409.344	1147.88
409.567	1113.88
409.791	1164.88
410.014	1094.88
410.238	1122.88
410.461	1099.88
410.685	1097.88
410.908	1099.88
411.132	1100.88
411.355	1047.88
411.578	1054.88
411.802	1068.88
412.025	1071.88
412.249	1087.88
412.472	1092.88
412.695	1042.88
412.919	1001.88
413.142	1016.88
413.365	1024.88
413.589	1029.88
413.812	1041.88
414.035	1023.88
414.258	990.88
414.482	1011.88
414.705	1050.88
414.928	1046.88
415.151	1034.88
415.374	1039.88
415.597	1025.88
415.821	1032.88
416.044	996.88
416.267	979.88
416.49	976.88
416.713	1002.88
416.936	986.88
417.159	1008.88
417.382	1018.88
417.605	983.88
417.828	1038.88
418.051	1003.88
418.274	1005.88
418.497	1018.88
418.72	1047.88
418.943	1015.88
419.166	1068.88
419.389	1149.88
419.611	1144.88
419.834	1079.88
420.057	1040.88
420.28	1027.88
420.503	1033.88
420.726	1000.88
420.948	993.88
421.171	1009.88
421.394	1040.88
421.617	1009.88
421.839	991.88
422.062	999.88
422.285	969.88
422.507	1033.88
422.73	1010.88
422.953	1030.88
423.175	1045.88
423.398	1048.88
423.621	1062.88
423.843	1063.88
424.066	1072.88
424.288	1027.88
424.511	1028.88
424.733	1023.88
424.956	1036.88
425.178	1008.88
425.401	1008.88
425.623	1006.88
425.846	961.88
426.068	964.88
426.291	963.88
426.513	927.88
426.735	963.88
426.958	943.88
427.18	933.88
427.402	920.88
427.625	914.88
427.847	918.88
428.069	904.88
428.292	905.88
428.514	889.88
428.736	915.88
428.958	912.88
429.181	878.88
429.403	878.88
429.625	904.88
429.847	879.88
430.069	852.88
430.292	862.88
430.514	831.88
430.736	890.88
430.958	884.88
431.18	910.88
431.402	870.88
431.624	871.88
431.846	896.88
432.068	891.88
432.29	916.88
432.512	899.88
432.734	909.88
432.956	887.88
433.178	934.88
433.4	914.88
433.622	918.88
433.844	912.88
434.066	923.88
434.287	944.88
434.509	933.88
434.731	969.88
434.953	991.88
435.175	1014.88
435.397	984.88
435.618	949.88
435.84	936.88
436.062	927.88
436.284	894.88
436.505	894.88
436.727	887.88
436.949	883.88
437.17	903.88
437.392	884.88
437.614	851.88
437.835	851.88
438.057	834.88
438.278	837.88
438.5	840.88
438.721	874.88
438.943	901.88
439.165	861.88
439.386	878.88
439.608	873.88
439.829	885.88
440.05	898.88
440.272	919.88
440.493	919.88
440.715	919.88
440.936	937.88
441.158	924.88
441.379	966.88
441.6	1016.88
441.822	1022.88
442.043	987.88
442.264	991.88
442.486	968.88
442.707	972.88
442.928	966.88
443.149	978.88
443.371	957.88
443.592	1003.88
443.813	1000.88
444.034	1007.88
444.255	1092.88
444.476	1086.88
444.698	1109.88
444.919	1170.88
445.14	1272.88
445.361	1157.88
445.582	1056.88
445.803	992.88
446.024	950.88
446.245	920.88
446.466	920.88
446.687	898.88
446.908	921.88
447.129	896.88
447.35	866.88
447.571	890.88
447.792	860.88
448.013	852.88
448.234	863.88
448.455	837.88
448.675	817.88
448.896	804.88
449.117	794.88
449.338	830.88
449.559	788.88
449.779	801.88
450	810.88
450.221	793.88
450.442	841.88
450.662	833.88
450.883	849.88
451.104	846.88
451.324	816.88
451.545	821.88
451.766	830.88
451.986	824.88
452.207	837.88
452.428	818.88
452.648	799.88
452.869	795.88
453.089	779.88
453.31	806.88
453.53	786.88
453.751	803.88
453.971	785.88
454.192	786.88
454.412	757.88
454.633	770.88
454.853	792.88
455.073	755.88
455.294	754.88
455.514	754.88
455.734	770.88
455.955	754.88
456.175	774.88
456.395	748.88
456.616	761.88
456.836	755.88
457.056	762.88
457.276	763.88
457.497	805.88
457.717	768.88
457.937	772.88
458.157	781.88
458.377	798.88
458.598	792.88
458.818	827.88
459.038	851.88
459.258	870.88
459.478	906.88
459.698	908.88
459.918	955.88
460.138	967.88
460.358	1031.88
460.578	1076.88
460.798	1060.88
461.018	1100.88
461.238	1048.88
461.458	1057.88
461.678	1054.88
461.898	1053.88
462.118	1062.88
462.338	1114.88
462.558	1147.88
462.777	1211.88
462.997	1280.88
463.217	1382.88
463.437	1383.88
463.657	1279.88
463.876	1225.88
464.096	1210.88
464.316	1207.88
464.536	1219.88
464.755	1191.88
464.975	1127.88
465.195	1070.88
465.414	1020.88
465.634	977.88
465.854	951.88
466.073	919.88
466.293	912.88
466.512	896.88
466.732	888.88
466.951	869.88
467.171	834.88
467.391	845.88
467.61	830.88
467.829	826.88
468.049	873.88
468.268	839.88
468.488	822.88
468.707	844.88
468.927	835.88
469.146	839.88
469.365	843.88
469.585	839.88
469.804	854.88
470.023	873.88
470.243	883.88
470.462	888.88
470.681	900.88
470.901	893.88
471.12	891.88
471.339	884.88
471.558	843.88
471.777	846.88
471.997	826.88
472.216	812.88
472.435	828.88
472.654	844.88
472.873	823.88
473.092	819.88
473.311	803.88
473.53	805.88
473.749	791.88
473.968	798.88
474.187	787.88
474.406	779.88
474.625	784.88
474.844	781.88
475.063	826.88
475.282	820.88
475.501	788.88
475.72	832.88
475.939	824.88
476.158	830.88
476.377	851.88
476.596	830.88
476.814	847.88
477.033	868.88
477.252	863.88
477.471	891.88
477.69	900.88
477.908	934.88
478.127	954.88
478.346	963.88
478.564	967.88
478.783	993.88
479.002	1020.88
479.22	998.88
479.439	1020.88
479.658	983.88
479.876	1011.88
480.095	1006.88
480.313	1051.88
480.532	1060.88
480.751	1073.88
480.969	992.88
481.188	988.88
481.406	990.88
481.624	927.88
481.843	960.88
482.061	941.88
482.28	916.88
482.498	939.88
482.717	931.88
482.935	934.88
483.153	915.88
483.372	944.88
483.59	950.88
483.808	943.88
484.027	951.88
484.245	948.88
484.463	970.88
484.681	972.88
484.9	955.88
485.118	969.88
485.336	943.88
485.554	989.88
485.772	964.88
485.99	951.88
486.209	952.88
486.427	991.88
486.645	972.88
486.863	982.88
487.081	999.88
487.299	949.88
487.517	971.88
487.735	970.88
487.953	984.88
488.171	996.88
488.389	971.88
488.607	986.88
488.825	952.88
489.043	960.88
489.261	965.88
489.479	977.88
489.696	986.88
489.914	1003.88
490.132	975.88
490.35	992.88
490.568	996.88
490.786	975.88
491.003	990.88
491.221	997.88
491.439	993.88
491.657	986.88
491.874	996.88
492.092	1022.88
492.31	1042.88
492.527	976.88
492.745	1014.88
492.963	1010.88
493.18	995.88
493.398	1031.88
493.615	997.88
493.833	1040.88
494.05	1043.88
494.268	1032.88
494.485	1046.88
494.703	1060.88
494.92	1034.88
495.138	1026.88
495.355	1063.88
495.573	1050.88
495.79	1049.88
496.008	1039.88
496.225	1064.88
496.442	1064.88
496.66	1074.88
496.877	1081.88
497.094	1128.88
497.312	1182.88
497.529	1148.88
497.746	1174.88
497.963	1208.88
498.181	1280.88
498.398	1305.88
498.615	1345.88
498.832	1452.88
499.049	1586.88
