Data from NiCl2@0.125M.TitratingCurve.Agarose3%dH2O.NegLispCup.LampEnergy10.LIBS07252019_HRD10591_18-27-37-574.txt Node
Date: Thu Jul 25 18:27:37 EDT 2019
User: cochatt
Spectrometer: HR+D1059
Trigger mode: 1
Integration Time (sec): 1.000000E-1
Scans to average: 1
Electric dark correction enabled: true
Nonlinearity correction enabled: false
Boxcar width: 0
XAxis mode: Wavelengths
Number of Pixels in Spectrum: 2048
>>>>>Begin Spectral Data<<<<<
223.165	-5.44
223.4	-5.44
223.635	-5.44
223.869	-33.44
224.104	-25.44
224.338	-17.44
224.573	-7.44
224.808	-8.44
225.042	-3.44
225.277	-2.44
225.511	-12.44
225.746	-4.44
225.98	4.56
226.215	12.56
226.449	31.56
226.683	7.56
226.918	32.56
227.152	31.56
227.387	29.56
227.621	37.56
227.856	56.56
228.09	37.56
228.324	47.56
228.559	58.56
228.793	75.56
229.027	99.56
229.262	116.56
229.496	104.56
229.73	116.56
229.964	118.56
230.199	146.56
230.433	140.56
230.667	141.56
230.901	156.56
231.136	140.56
231.37	142.56
231.604	135.56
231.838	147.56
232.072	145.56
232.306	165.56
232.541	162.56
232.775	151.56
233.009	150.56
233.243	167.56
233.477	156.56
233.711	137.56
233.945	158.56
234.179	142.56
234.413	151.56
234.647	168.56
234.881	155.56
235.115	152.56
235.349	167.56
235.583	162.56
235.817	155.56
236.051	169.56
236.285	176.56
236.519	164.56
236.753	158.56
236.987	165.56
237.221	182.56
237.455	177.56
237.689	176.56
237.922	174.56
238.156	160.56
238.39	185.56
238.624	187.56
238.858	196.56
239.091	188.56
239.325	179.56
239.559	200.56
239.793	193.56
240.027	178.56
240.26	192.56
240.494	210.56
240.728	211.56
240.961	211.56
241.195	193.56
241.429	202.56
241.662	216.56
241.896	216.56
242.13	198.56
242.363	195.56
242.597	224.56
242.83	226.56
243.064	219.56
243.298	222.56
243.531	227.56
243.765	229.56
243.998	236.56
244.232	219.56
244.465	224.56
244.699	233.56
244.932	238.56
245.166	240.56
245.399	246.56
245.633	236.56
245.866	245.56
246.099	240.56
246.333	231.56
246.566	240.56
246.8	257.56
247.033	244.56
247.266	258.56
247.5	249.56
247.733	256.56
247.966	262.56
248.2	268.56
248.433	262.56
248.666	259.56
248.899	265.56
249.133	267.56
249.366	268.56
249.599	269.56
249.832	283.56
250.066	300.56
250.299	274.56
250.532	276.56
250.765	275.56
250.998	287.56
251.231	300.56
251.465	312.56
251.698	281.56
251.931	295.56
252.164	294.56
252.397	311.56
252.63	298.56
252.863	306.56
253.096	307.56
253.329	314.56
253.562	306.56
253.795	318.56
254.028	296.56
254.261	312.56
254.494	310.56
254.727	309.56
254.96	299.56
255.193	315.56
255.426	309.56
255.659	327.56
255.892	327.56
256.124	323.56
256.357	319.56
256.59	319.56
256.823	326.56
257.056	324.56
257.289	331.56
257.521	340.56
257.754	339.56
257.987	348.56
258.22	353.56
258.452	336.56
258.685	338.56
258.918	340.56
259.151	351.56
259.383	350.56
259.616	348.56
259.849	381.56
260.081	370.56
260.314	356.56
260.547	345.56
260.779	346.56
261.012	348.56
261.244	357.56
261.477	359.56
261.71	382.56
261.942	351.56
262.175	378.56
262.407	380.56
262.64	375.56
262.872	363.56
263.105	388.56
263.337	396.56
263.57	388.56
263.802	407.56
264.035	397.56
264.267	401.56
264.499	382.56
264.732	381.56
264.964	408.56
265.197	374.56
265.429	388.56
265.661	390.56
265.894	382.56
266.126	396.56
266.358	397.56
266.591	406.56
266.823	413.56
267.055	414.56
267.287	424.56
267.52	422.56
267.752	412.56
267.984	426.56
268.216	396.56
268.448	410.56
268.681	420.56
268.913	404.56
269.145	404.56
269.377	436.56
269.609	432.56
269.841	440.56
270.073	431.56
270.306	424.56
270.538	407.56
270.77	430.56
271.002	445.56
271.234	443.56
271.466	422.56
271.698	439.56
271.93	468.56
272.162	442.56
272.394	434.56
272.626	441.56
272.858	441.56
273.09	440.56
273.322	455.56
273.553	456.56
273.785	442.56
274.017	466.56
274.249	455.56
274.481	461.56
274.713	453.56
274.945	474.56
275.176	463.56
275.408	454.56
275.64	470.56
275.872	471.56
276.104	498.56
276.335	474.56
276.567	478.56
276.799	490.56
277.031	502.56
277.262	469.56
277.494	504.56
277.726	471.56
277.957	480.56
278.189	507.56
278.421	481.56
278.652	506.56
278.884	486.56
279.115	501.56
279.347	496.56
279.579	493.56
279.81	502.56
280.042	519.56
280.273	516.56
280.505	549.56
280.736	514.56
280.968	502.56
281.199	514.56
281.431	523.56
281.662	499.56
281.894	534.56
282.125	542.56
282.356	517.56
282.588	525.56
282.819	553.56
283.051	550.56
283.282	543.56
283.513	538.56
283.745	537.56
283.976	553.56
284.207	556.56
284.439	558.56
284.67	558.56
284.901	539.56
285.132	559.56
285.364	540.56
285.595	570.56
285.826	530.56
286.057	561.56
286.288	575.56
286.52	553.56
286.751	569.56
286.982	570.56
287.213	581.56
287.444	598.56
287.675	576.56
287.906	599.56
288.138	592.56
288.369	593.56
288.6	584.56
288.831	578.56
289.062	597.56
289.293	561.56
289.524	598.56
289.755	589.56
289.986	580.56
290.217	594.56
290.448	587.56
290.679	604.56
290.91	595.56
291.141	596.56
291.371	602.56
291.602	602.56
291.833	594.56
292.064	611.56
292.295	599.56
292.526	607.56
292.757	593.56
292.987	602.56
293.218	585.56
293.449	605.56
293.68	612.56
293.91	580.56
294.141	602.56
294.372	596.56
294.603	606.56
294.833	624.56
295.064	627.56
295.295	598.56
295.525	614.56
295.756	600.56
295.987	633.56
296.217	610.56
296.448	628.56
296.679	640.56
296.909	622.56
297.14	660.56
297.37	648.56
297.601	660.56
297.831	655.56
298.062	647.56
298.292	659.56
298.523	684.56
298.753	687.56
298.984	647.56
299.214	651.56
299.445	647.56
299.675	649.56
299.905	659.56
300.136	642.56
300.366	656.56
300.597	670.56
300.827	686.56
301.057	690.56
301.288	689.56
301.518	677.56
301.748	705.56
301.979	694.56
302.209	704.56
302.439	687.56
302.669	708.56
302.9	690.56
303.13	673.56
303.36	689.56
303.59	677.56
303.82	690.56
304.051	703.56
304.281	652.56
304.511	679.56
304.741	679.56
304.971	687.56
305.201	712.56
305.431	659.56
305.661	679.56
305.891	686.56
306.121	686.56
306.352	706.56
306.582	680.56
306.812	644.56
307.042	666.56
307.272	686.56
307.502	680.56
307.731	649.56
307.961	662.56
308.191	656.56
308.421	666.56
308.651	685.56
308.881	683.56
309.111	662.56
309.341	662.56
309.571	673.56
309.8	670.56
310.03	676.56
310.26	674.56
310.49	677.56
310.72	691.56
310.949	652.56
311.179	708.56
311.409	675.56
311.639	687.56
311.868	689.56
312.098	692.56
312.328	686.56
312.557	730.56
312.787	692.56
313.017	705.56
313.246	731.56
313.476	716.56
313.706	733.56
313.935	714.56
314.165	756.56
314.394	705.56
314.624	728.56
314.853	699.56
315.083	732.56
315.312	719.56
315.542	729.56
315.771	712.56
316.001	710.56
316.23	702.56
316.46	666.56
316.689	725.56
316.919	730.56
317.148	692.56
317.377	703.56
317.607	688.56
317.836	708.56
318.065	710.56
318.295	707.56
318.524	699.56
318.753	678.56
318.983	710.56
319.212	690.56
319.441	696.56
319.67	700.56
319.9	719.56
320.129	714.56
320.358	706.56
320.587	674.56
320.816	713.56
321.046	711.56
321.275	714.56
321.504	727.56
321.733	704.56
321.962	709.56
322.191	722.56
322.42	731.56
322.649	719.56
322.878	725.56
323.108	710.56
323.337	720.56
323.566	727.56
323.795	738.56
324.024	733.56
324.253	740.56
324.482	725.56
324.71	704.56
324.939	722.56
325.168	738.56
325.397	731.56
325.626	731.56
325.855	760.56
326.084	752.56
326.313	789.56
326.542	758.56
326.77	801.56
326.999	761.56
327.228	775.56
327.457	772.56
327.686	776.56
327.914	758.56
328.143	792.56
328.372	778.56
328.6	743.56
328.829	782.56
329.058	772.56
329.287	750.56
329.515	753.56
329.744	794.56
329.972	805.56
330.201	799.56
330.43	788.56
330.658	799.56
330.887	809.56
331.115	807.56
331.344	822.56
331.572	836.56
331.801	850.56
332.03	866.56
332.258	875.56
332.486	909.56
332.715	922.56
332.943	942.56
333.172	975.56
333.4	1046.56
333.629	1058.56
333.857	1072.56
334.085	1049.56
334.314	1033.56
334.542	991.56
334.771	1008.56
334.999	978.56
335.227	985.56
335.455	963.56
335.684	983.56
335.912	927.56
336.14	971.56
336.369	950.56
336.597	921.56
336.825	922.56
337.053	937.56
337.281	928.56
337.51	907.56
337.738	894.56
337.966	847.56
338.194	870.56
338.422	859.56
338.65	850.56
338.878	854.56
339.106	831.56
339.334	844.56
339.562	842.56
339.79	807.56
340.018	791.56
340.246	826.56
340.474	818.56
340.702	804.56
340.93	803.56
341.158	811.56
341.386	821.56
341.614	784.56
341.842	795.56
342.07	791.56
342.298	788.56
342.526	779.56
342.754	814.56
342.981	813.56
343.209	823.56
343.437	870.56
343.665	918.56
343.893	968.56
344.12	1035.56
344.348	990.56
344.576	896.56
344.804	897.56
345.031	837.56
345.259	827.56
345.487	801.56
345.714	818.56
345.942	784.56
346.17	804.56
346.397	818.56
346.625	770.56
346.853	765.56
347.08	787.56
347.308	797.56
347.535	770.56
347.763	796.56
347.99	802.56
348.218	784.56
348.445	794.56
348.673	776.56
348.9	760.56
349.128	758.56
349.355	786.56
349.583	768.56
349.81	780.56
350.037	744.56
350.265	749.56
350.492	732.56
350.72	753.56
350.947	748.56
351.174	772.56
351.402	742.56
351.629	750.56
351.856	742.56
352.083	729.56
352.311	730.56
352.538	729.56
352.765	756.56
352.992	742.56
353.22	737.56
353.447	732.56
353.674	720.56
353.901	758.56
354.128	772.56
354.355	720.56
354.583	722.56
354.81	746.56
355.037	741.56
355.264	763.56
355.491	784.56
355.718	736.56
355.945	732.56
356.172	751.56
356.399	747.56
356.626	752.56
356.853	742.56
357.08	762.56
357.307	777.56
357.534	753.56
357.761	745.56
357.988	763.56
358.215	764.56
358.441	755.56
358.668	746.56
358.895	748.56
359.122	764.56
359.349	755.56
359.576	740.56
359.802	758.56
360.029	718.56
360.256	770.56
360.483	740.56
360.709	736.56
360.936	753.56
361.163	742.56
361.39	768.56
361.616	783.56
361.843	752.56
362.07	721.56
362.296	753.56
362.523	739.56
362.749	748.56
362.976	767.56
363.203	762.56
363.429	716.56
363.656	760.56
363.882	737.56
364.109	770.56
364.335	732.56
364.562	728.56
364.788	739.56
365.015	745.56
365.241	722.56
365.468	731.56
365.694	747.56
365.92	788.56
366.147	742.56
366.373	739.56
366.599	736.56
366.826	747.56
367.052	733.56
367.278	754.56
367.505	743.56
367.731	748.56
367.957	781.56
368.184	745.56
368.41	756.56
368.636	750.56
368.862	759.56
369.089	774.56
369.315	784.56
369.541	772.56
369.767	779.56
369.993	779.56
370.219	784.56
370.445	789.56
370.672	796.56
370.898	804.56
371.124	818.56
371.35	796.56
371.576	786.56
371.802	804.56
372.028	809.56
372.254	838.56
372.48	836.56
372.706	861.56
372.932	852.56
373.158	890.56
373.384	847.56
373.61	801.56
373.835	822.56
374.061	843.56
374.287	857.56
374.513	836.56
374.739	844.56
374.965	871.56
375.191	918.56
375.416	890.56
375.642	862.56
375.868	868.56
376.094	854.56
376.319	854.56
376.545	854.56
376.771	834.56
376.997	822.56
377.222	826.56
377.448	827.56
377.674	804.56
377.899	838.56
378.125	807.56
378.35	826.56
378.576	787.56
378.802	810.56
379.027	820.56
379.253	820.56
379.478	823.56
379.704	786.56
379.929	794.56
380.155	796.56
380.38	787.56
380.606	826.56
380.831	788.56
381.057	807.56
381.282	818.56
381.507	814.56
381.733	825.56
381.958	834.56
382.184	851.56
382.409	822.56
382.634	855.56
382.86	824.56
383.085	887.56
383.31	878.56
383.535	893.56
383.761	904.56
383.986	935.56
384.211	929.56
384.436	962.56
384.662	963.56
384.887	963.56
385.112	966.56
385.337	967.56
385.562	1018.56
385.787	961.56
386.013	1009.56
386.238	1010.56
386.463	982.56
386.688	975.56
386.913	962.56
387.138	964.56
387.363	938.56
387.588	952.56
387.813	964.56
388.038	981.56
388.263	952.56
388.488	955.56
388.713	983.56
388.938	969.56
389.163	951.56
389.387	955.56
389.612	934.56
389.837	975.56
390.062	960.56
390.287	970.56
390.512	981.56
390.736	978.56
390.961	983.56
391.186	993.56
391.411	997.56
391.636	1045.56
391.86	1096.56
392.085	1111.56
392.31	1113.56
392.534	1083.56
392.759	1042.56
392.984	1078.56
393.208	1045.56
393.433	1044.56
393.658	1026.56
393.882	1046.56
394.107	1058.56
394.331	1051.56
394.556	1041.56
394.78	1049.56
395.005	1091.56
395.229	1063.56
395.454	1096.56
395.678	1145.56
395.903	1115.56
396.127	1072.56
396.352	1067.56
396.576	1056.56
396.801	1044.56
397.025	1073.56
397.249	1064.56
397.474	1108.56
397.698	1099.56
397.922	1137.56
398.147	1095.56
398.371	1107.56
398.595	1179.56
398.82	1207.56
399.044	1278.56
399.268	1423.56
399.492	1633.56
399.717	1846.56
399.941	1924.56
400.165	1641.56
400.389	1530.56
400.613	1363.56
400.837	1332.56
401.062	1266.56
401.286	1245.56
401.51	1244.56
401.734	1262.56
401.958	1218.56
402.182	1223.56
402.406	1256.56
402.63	1262.56
402.854	1301.56
403.078	1343.56
403.302	1404.56
403.526	1420.56
403.75	1384.56
403.974	1414.56
404.198	1439.56
404.422	1434.56
404.645	1448.56
404.869	1415.56
405.093	1439.56
405.317	1355.56
405.541	1362.56
405.765	1323.56
405.988	1387.56
406.212	1365.56
406.436	1359.56
406.66	1411.56
406.883	1427.56
407.107	1500.56
407.331	1590.56
407.555	1641.56
407.778	1602.56
408.002	1530.56
408.226	1518.56
408.449	1509.56
408.673	1425.56
408.896	1421.56
409.12	1410.56
409.344	1403.56
409.567	1413.56
409.791	1424.56
410.014	1377.56
410.238	1361.56
410.461	1344.56
410.685	1379.56
410.908	1332.56
411.132	1312.56
411.355	1239.56
411.578	1278.56
411.802	1291.56
412.025	1297.56
412.249	1338.56
412.472	1352.56
412.695	1271.56
412.919	1262.56
413.142	1244.56
413.365	1210.56
413.589	1232.56
413.812	1199.56
414.035	1245.56
414.258	1223.56
414.482	1225.56
414.705	1267.56
414.928	1257.56
415.151	1266.56
415.374	1214.56
415.597	1219.56
415.821	1195.56
416.044	1222.56
416.267	1162.56
416.49	1196.56
416.713	1182.56
416.936	1219.56
417.159	1227.56
417.382	1222.56
417.605	1194.56
417.828	1222.56
418.051	1210.56
418.274	1250.56
418.497	1218.56
418.72	1272.56
418.943	1271.56
419.166	1336.56
419.389	1375.56
419.611	1406.56
419.834	1342.56
420.057	1310.56
420.28	1251.56
420.503	1212.56
420.726	1204.56
420.948	1174.56
421.171	1219.56
421.394	1215.56
421.617	1208.56
421.839	1227.56
422.062	1227.56
422.285	1236.56
422.507	1265.56
422.73	1280.56
422.953	1288.56
423.175	1263.56
423.398	1263.56
423.621	1281.56
423.843	1346.56
424.066	1289.56
424.288	1322.56
424.511	1285.56
424.733	1295.56
424.956	1249.56
425.178	1214.56
425.401	1194.56
425.623	1236.56
425.846	1185.56
426.068	1198.56
426.291	1184.56
426.513	1155.56
426.735	1156.56
426.958	1137.56
427.18	1137.56
427.402	1112.56
427.625	1130.56
427.847	1106.56
428.069	1125.56
428.292	1120.56
428.514	1088.56
428.736	1064.56
428.958	1094.56
429.181	1042.56
429.403	1058.56
429.625	1075.56
429.847	1046.56
430.069	1062.56
430.292	1079.56
430.514	1030.56
430.736	1063.56
430.958	1107.56
431.18	1080.56
431.402	1072.56
431.624	1065.56
431.846	1099.56
432.068	1093.56
432.29	1083.56
432.512	1093.56
432.734	1098.56
432.956	1085.56
433.178	1104.56
433.4	1083.56
433.622	1080.56
433.844	1098.56
434.066	1093.56
434.287	1107.56
434.509	1129.56
434.731	1214.56
434.953	1235.56
435.175	1251.56
435.397	1215.56
435.618	1155.56
435.84	1125.56
436.062	1123.56
436.284	1097.56
436.505	1086.56
436.727	1068.56
436.949	1072.56
437.17	1074.56
437.392	1059.56
437.614	1052.56
437.835	1071.56
438.057	1032.56
438.278	1033.56
438.5	1071.56
438.721	1035.56
438.943	1022.56
439.165	1032.56
439.386	1050.56
439.608	1097.56
439.829	1093.56
440.05	1115.56
440.272	1094.56
440.493	1113.56
440.715	1115.56
440.936	1130.56
441.158	1145.56
441.379	1180.56
441.6	1215.56
441.822	1243.56
442.043	1269.56
442.264	1230.56
442.486	1191.56
442.707	1211.56
442.928	1206.56
443.149	1216.56
443.371	1162.56
443.592	1226.56
443.813	1247.56
444.034	1273.56
444.255	1283.56
444.476	1312.56
444.698	1383.56
444.919	1481.56
445.14	1570.56
445.361	1402.56
445.582	1297.56
445.803	1199.56
446.024	1170.56
446.245	1140.56
446.466	1129.56
446.687	1100.56
446.908	1108.56
447.129	1094.56
447.35	1043.56
447.571	1040.56
447.792	1039.56
448.013	1049.56
448.234	1040.56
448.455	1006.56
448.675	1024.56
448.896	1001.56
449.117	1014.56
449.338	978.56
449.559	1022.56
449.779	963.56
450	1008.56
450.221	1010.56
450.442	1028.56
450.662	1015.56
450.883	993.56
451.104	1023.56
451.324	1057.56
451.545	1026.56
451.766	1037.56
451.986	987.56
452.207	983.56
452.428	1018.56
452.648	1002.56
452.869	982.56
453.089	938.56
453.31	976.56
453.53	980.56
453.751	946.56
453.971	959.56
454.192	966.56
454.412	943.56
454.633	955.56
454.853	936.56
455.073	951.56
455.294	935.56
455.514	934.56
455.734	927.56
455.955	894.56
456.175	942.56
456.395	937.56
456.616	920.56
456.836	883.56
457.056	938.56
457.276	935.56
457.497	950.56
457.717	936.56
457.937	958.56
458.157	970.56
458.377	956.56
458.598	975.56
458.818	1010.56
459.038	1033.56
459.258	1077.56
459.478	1094.56
459.698	1121.56
459.918	1134.56
460.138	1219.56
460.358	1223.56
460.578	1271.56
460.798	1272.56
461.018	1323.56
461.238	1289.56
461.458	1281.56
461.678	1300.56
461.898	1290.56
462.118	1314.56
462.338	1374.56
462.558	1387.56
462.777	1410.56
462.997	1615.56
463.217	1712.56
463.437	1694.56
463.657	1577.56
463.876	1509.56
464.096	1503.56
464.316	1483.56
464.536	1530.56
464.755	1441.56
464.975	1417.56
465.195	1336.56
465.414	1244.56
465.634	1147.56
465.854	1150.56
466.073	1125.56
466.293	1116.56
466.512	1078.56
466.732	1052.56
466.951	1039.56
467.171	1026.56
467.391	1035.56
467.61	1065.56
467.829	1032.56
468.049	1030.56
468.268	1001.56
468.488	982.56
468.707	988.56
468.927	1000.56
469.146	978.56
469.365	1025.56
469.585	1000.56
469.804	1030.56
470.023	1078.56
470.243	1104.56
470.462	1093.56
470.681	1087.56
470.901	1108.56
471.12	1072.56
471.339	1046.56
471.558	1011.56
471.777	1013.56
471.997	1010.56
472.216	998.56
472.435	970.56
472.654	968.56
472.873	987.56
473.092	971.56
473.311	974.56
473.53	972.56
473.749	968.56
473.968	964.56
474.187	944.56
474.406	945.56
474.625	959.56
474.844	972.56
475.063	976.56
475.282	991.56
475.501	984.56
475.72	966.56
475.939	979.56
476.158	981.56
476.377	993.56
476.596	1002.56
476.814	1031.56
477.033	1037.56
477.252	1057.56
477.471	1063.56
477.69	1088.56
477.908	1120.56
478.127	1152.56
478.346	1140.56
478.564	1162.56
478.783	1182.56
479.002	1213.56
479.22	1220.56
479.439	1219.56
479.658	1172.56
479.876	1189.56
480.095	1233.56
480.313	1289.56
480.532	1302.56
480.751	1302.56
480.969	1229.56
481.188	1180.56
481.406	1165.56
481.624	1118.56
481.843	1141.56
482.061	1110.56
482.28	1118.56
482.498	1105.56
482.717	1114.56
482.935	1083.56
483.153	1107.56
483.372	1113.56
483.59	1119.56
483.808	1110.56
484.027	1099.56
484.245	1106.56
484.463	1126.56
484.681	1132.56
484.9	1118.56
485.118	1145.56
485.336	1140.56
485.554	1130.56
485.772	1159.56
485.99	1158.56
486.209	1186.56
486.427	1198.56
486.645	1194.56
486.863	1196.56
487.081	1148.56
487.299	1123.56
487.517	1121.56
487.735	1161.56
487.953	1167.56
488.171	1149.56
488.389	1126.56
488.607	1119.56
488.825	1145.56
489.043	1126.56
489.261	1135.56
489.479	1134.56
489.696	1142.56
489.914	1143.56
490.132	1141.56
490.35	1153.56
490.568	1146.56
490.786	1159.56
491.003	1154.56
491.221	1184.56
491.439	1168.56
491.657	1146.56
491.874	1180.56
492.092	1172.56
492.31	1185.56
492.527	1180.56
492.745	1200.56
492.963	1177.56
493.18	1208.56
493.398	1177.56
493.615	1172.56
493.833	1190.56
494.05	1220.56
494.268	1199.56
494.485	1239.56
494.703	1239.56
494.92	1226.56
495.138	1205.56
495.355	1204.56
495.573	1227.56
495.79	1263.56
