Data from NiCl2@0.25M.TitratingCurve.Agarose3%dH2O.NegLispCup.LampEnergy10.LIBS07252019_HRD10591_18-25-29-573.txt Node
Date: Thu Jul 25 18:25:29 EDT 2019
User: cochatt
Spectrometer: HR+D1059
Trigger mode: 1
Integration Time (sec): 1.000000E-1
Scans to average: 1
Electric dark correction enabled: true
Nonlinearity correction enabled: false
Boxcar width: 0
XAxis mode: Wavelengths
Number of Pixels in Spectrum: 2048
>>>>>Begin Spectral Data<<<<<
223.165	-16.62
223.4	-16.62
223.635	-16.62
223.869	-10.62
224.104	-23.62
224.338	-13.62
224.573	-20.62
224.808	-23.62
225.042	-19.62
225.277	-2.62
225.511	9.38
225.746	6.38
225.98	10.38
226.215	2.38
226.449	26.38
226.683	12.38
226.918	37.38
227.152	26.38
227.387	36.38
227.621	44.38
227.856	56.38
228.09	42.38
228.324	54.38
228.559	64.38
228.793	82.38
229.027	131.38
229.262	129.38
229.496	135.38
229.73	140.38
229.964	145.38
230.199	148.38
230.433	141.38
230.667	163.38
230.901	152.38
231.136	148.38
231.37	162.38
231.604	160.38
231.838	162.38
232.072	176.38
232.306	166.38
232.541	174.38
232.775	165.38
233.009	160.38
233.243	177.38
233.477	182.38
233.711	182.38
233.945	186.38
234.179	175.38
234.413	170.38
234.647	181.38
234.881	185.38
235.115	195.38
235.349	186.38
235.583	188.38
235.817	174.38
236.051	173.38
236.285	159.38
236.519	175.38
236.753	174.38
236.987	192.38
237.221	191.38
237.455	210.38
237.689	186.38
237.922	213.38
238.156	213.38
238.39	207.38
238.624	204.38
238.858	195.38
239.091	205.38
239.325	204.38
239.559	211.38
239.793	201.38
240.027	218.38
240.26	219.38
240.494	211.38
240.728	219.38
240.961	209.38
241.195	227.38
241.429	234.38
241.662	226.38
241.896	245.38
242.13	242.38
242.363	240.38
242.597	232.38
242.83	243.38
243.064	240.38
243.298	245.38
243.531	231.38
243.765	259.38
243.998	261.38
244.232	244.38
244.465	236.38
244.699	264.38
244.932	259.38
245.166	267.38
245.399	266.38
245.633	260.38
245.866	265.38
246.099	273.38
246.333	265.38
246.566	258.38
246.8	261.38
247.033	286.38
247.266	285.38
247.5	290.38
247.733	266.38
247.966	297.38
248.2	288.38
248.433	300.38
248.666	282.38
248.899	290.38
249.133	285.38
249.366	296.38
249.599	312.38
249.832	306.38
250.066	316.38
250.299	328.38
250.532	306.38
250.765	313.38
250.998	314.38
251.231	324.38
251.465	304.38
251.698	335.38
251.931	346.38
252.164	326.38
252.397	336.38
252.63	352.38
252.863	332.38
253.096	341.38
253.329	334.38
253.562	334.38
253.795	332.38
254.028	330.38
254.261	328.38
254.494	341.38
254.727	356.38
254.96	356.38
255.193	331.38
255.426	338.38
255.659	346.38
255.892	376.38
256.124	367.38
256.357	353.38
256.59	354.38
256.823	354.38
257.056	354.38
257.289	359.38
257.521	363.38
257.754	357.38
257.987	351.38
258.22	391.38
258.452	386.38
258.685	396.38
258.918	360.38
259.151	386.38
259.383	390.38
259.616	390.38
259.849	384.38
260.081	374.38
260.314	390.38
260.547	396.38
260.779	391.38
261.012	394.38
261.244	406.38
261.477	390.38
261.71	409.38
261.942	391.38
262.175	408.38
262.407	402.38
262.64	407.38
262.872	413.38
263.105	429.38
263.337	424.38
263.57	414.38
263.802	417.38
264.035	392.38
264.267	413.38
264.499	429.38
264.732	419.38
264.964	420.38
265.197	445.38
265.429	414.38
265.661	428.38
265.894	411.38
266.126	435.38
266.358	458.38
266.591	423.38
266.823	424.38
267.055	429.38
267.287	464.38
267.52	458.38
267.752	455.38
267.984	457.38
268.216	462.38
268.448	454.38
268.681	450.38
268.913	468.38
269.145	450.38
269.377	477.38
269.609	472.38
269.841	450.38
270.073	471.38
270.306	469.38
270.538	469.38
270.77	478.38
271.002	464.38
271.234	485.38
271.466	480.38
271.698	474.38
271.93	506.38
272.162	490.38
272.394	479.38
272.626	499.38
272.858	495.38
273.09	514.38
273.322	497.38
273.553	492.38
273.785	508.38
274.017	489.38
274.249	492.38
274.481	483.38
274.713	542.38
274.945	516.38
275.176	516.38
275.408	511.38
275.64	543.38
275.872	528.38
276.104	534.38
276.335	540.38
276.567	535.38
276.799	533.38
277.031	537.38
277.262	532.38
277.494	516.38
277.726	523.38
277.957	536.38
278.189	528.38
278.421	537.38
278.652	547.38
278.884	536.38
279.115	548.38
279.347	568.38
279.579	530.38
279.81	558.38
280.042	570.38
280.273	547.38
280.505	572.38
280.736	570.38
280.968	554.38
281.199	550.38
281.431	596.38
281.662	580.38
281.894	581.38
282.125	570.38
282.356	592.38
282.588	591.38
282.819	588.38
283.051	598.38
283.282	584.38
283.513	608.38
283.745	581.38
283.976	598.38
284.207	607.38
284.439	615.38
284.67	600.38
284.901	629.38
285.132	604.38
285.364	596.38
285.595	612.38
285.826	615.38
286.057	608.38
286.288	607.38
286.52	617.38
286.751	603.38
286.982	643.38
287.213	629.38
287.444	636.38
287.675	618.38
287.906	623.38
288.138	636.38
288.369	656.38
288.6	632.38
288.831	638.38
289.062	648.38
289.293	653.38
289.524	654.38
289.755	630.38
289.986	638.38
290.217	654.38
290.448	653.38
290.679	667.38
290.91	667.38
291.141	657.38
291.371	657.38
291.602	656.38
291.833	652.38
292.064	668.38
292.295	657.38
292.526	664.38
292.757	671.38
292.987	677.38
293.218	665.38
293.449	679.38
293.68	659.38
293.91	646.38
294.141	656.38
294.372	632.38
294.603	658.38
294.833	674.38
295.064	687.38
295.295	656.38
295.525	658.38
295.756	686.38
295.987	662.38
296.217	667.38
296.448	645.38
296.679	692.38
296.909	667.38
297.14	724.38
297.37	715.38
297.601	707.38
297.831	678.38
298.062	721.38
298.292	747.38
298.523	740.38
298.753	726.38
298.984	732.38
299.214	706.38
299.445	724.38
299.675	716.38
299.905	740.38
300.136	698.38
300.366	712.38
300.597	714.38
300.827	758.38
301.057	747.38
301.288	743.38
301.518	739.38
301.748	751.38
301.979	771.38
302.209	790.38
302.439	768.38
302.669	776.38
302.9	776.38
303.13	728.38
303.36	752.38
303.59	754.38
303.82	759.38
304.051	770.38
304.281	764.38
304.511	756.38
304.741	744.38
304.971	746.38
305.201	757.38
305.431	745.38
305.661	746.38
305.891	746.38
306.121	748.38
306.352	745.38
306.582	735.38
306.812	730.38
307.042	717.38
307.272	730.38
307.502	720.38
307.731	730.38
307.961	731.38
308.191	722.38
308.421	717.38
308.651	719.38
308.881	717.38
309.111	724.38
309.341	730.38
309.571	726.38
309.8	751.38
310.03	756.38
310.26	737.38
310.49	738.38
310.72	735.38
310.949	755.38
311.179	744.38
311.409	743.38
311.639	759.38
311.868	742.38
312.098	746.38
312.328	780.38
312.557	760.38
312.787	771.38
313.017	770.38
313.246	776.38
313.476	791.38
313.706	792.38
313.935	772.38
314.165	771.38
314.394	760.38
314.624	780.38
314.853	790.38
315.083	802.38
315.312	795.38
315.542	798.38
315.771	796.38
316.001	784.38
316.23	796.38
316.46	791.38
316.689	777.38
316.919	763.38
317.148	761.38
317.377	784.38
317.607	763.38
317.836	778.38
318.065	758.38
318.295	765.38
318.524	755.38
318.753	775.38
318.983	773.38
319.212	761.38
319.441	778.38
319.67	778.38
319.9	784.38
320.129	749.38
320.358	798.38
320.587	772.38
320.816	757.38
321.046	767.38
321.275	772.38
321.504	792.38
321.733	771.38
321.962	772.38
322.191	780.38
322.42	776.38
322.649	788.38
322.878	761.38
323.108	788.38
323.337	811.38
323.566	793.38
323.795	775.38
324.024	795.38
324.253	788.38
324.482	799.38
324.71	808.38
324.939	806.38
325.168	800.38
325.397	781.38
325.626	809.38
325.855	809.38
326.084	839.38
326.313	826.38
326.542	845.38
326.77	838.38
326.999	832.38
327.228	827.38
327.457	847.38
327.686	828.38
327.914	849.38
328.143	831.38
328.372	847.38
328.6	847.38
328.829	838.38
329.058	856.38
329.287	847.38
329.515	850.38
329.744	867.38
329.972	869.38
330.201	845.38
330.43	880.38
330.658	863.38
330.887	868.38
331.115	891.38
331.344	882.38
331.572	873.38
331.801	922.38
332.03	903.38
332.258	932.38
332.486	957.38
332.715	985.38
332.943	986.38
333.172	1052.38
333.4	1088.38
333.629	1080.38
333.857	1120.38
334.085	1139.38
334.314	1107.38
334.542	1107.38
334.771	1127.38
334.999	1080.38
335.227	1063.38
335.455	1114.38
335.684	1088.38
335.912	1069.38
336.14	1048.38
336.369	1031.38
336.597	1034.38
336.825	1052.38
337.053	1029.38
337.281	1023.38
337.51	986.38
337.738	987.38
337.966	936.38
338.194	959.38
338.422	948.38
338.65	911.38
338.878	922.38
339.106	911.38
339.334	889.38
339.562	904.38
339.79	903.38
340.018	896.38
340.246	879.38
340.474	857.38
340.702	895.38
340.93	899.38
341.158	870.38
341.386	892.38
341.614	890.38
341.842	885.38
342.07	861.38
342.298	874.38
342.526	872.38
342.754	893.38
342.981	882.38
343.209	908.38
343.437	933.38
343.665	992.38
343.893	1028.38
344.12	1048.38
344.348	1065.38
344.576	1031.38
344.804	1012.38
345.031	942.38
345.259	911.38
345.487	904.38
345.714	874.38
345.942	878.38
346.17	876.38
346.397	890.38
346.625	854.38
346.853	832.38
347.08	854.38
347.308	875.38
347.535	859.38
347.763	862.38
347.99	881.38
348.218	874.38
348.445	879.38
348.673	843.38
348.9	864.38
349.128	836.38
349.355	846.38
349.583	834.38
349.81	850.38
350.037	835.38
350.265	821.38
350.492	794.38
350.72	797.38
350.947	799.38
351.174	819.38
351.402	854.38
351.629	840.38
351.856	824.38
352.083	825.38
352.311	845.38
352.538	835.38
352.765	815.38
352.992	826.38
353.22	779.38
353.447	818.38
353.674	821.38
353.901	819.38
354.128	814.38
354.355	811.38
354.583	836.38
354.81	806.38
355.037	827.38
355.264	803.38
355.491	831.38
355.718	838.38
355.945	811.38
356.172	820.38
356.399	809.38
356.626	834.38
356.853	823.38
357.08	810.38
357.307	819.38
357.534	804.38
357.761	804.38
357.988	811.38
358.215	812.38
358.441	804.38
358.668	819.38
358.895	817.38
359.122	826.38
359.349	822.38
359.576	834.38
359.802	835.38
360.029	813.38
360.256	810.38
360.483	823.38
360.709	826.38
360.936	812.38
361.163	828.38
361.39	829.38
361.616	823.38
361.843	810.38
362.07	822.38
362.296	826.38
362.523	805.38
362.749	831.38
362.976	827.38
363.203	843.38
363.429	812.38
363.656	826.38
363.882	804.38
364.109	828.38
364.335	798.38
364.562	823.38
364.788	807.38
365.015	816.38
365.241	828.38
365.468	808.38
365.694	803.38
365.92	808.38
366.147	839.38
366.373	831.38
366.599	804.38
366.826	800.38
367.052	811.38
367.278	831.38
367.505	830.38
367.731	816.38
367.957	809.38
368.184	841.38
368.41	830.38
368.636	853.38
368.862	840.38
369.089	838.38
369.315	850.38
369.541	850.38
369.767	829.38
369.993	845.38
370.219	853.38
370.445	861.38
370.672	879.38
370.898	874.38
371.124	891.38
371.35	896.38
371.576	894.38
371.802	917.38
372.028	885.38
372.254	893.38
372.48	898.38
372.706	922.38
372.932	906.38
373.158	944.38
373.384	895.38
373.61	866.38
373.835	890.38
374.061	916.38
374.287	903.38
374.513	924.38
374.739	913.38
374.965	961.38
375.191	975.38
375.416	973.38
375.642	943.38
375.868	956.38
376.094	895.38
376.319	934.38
376.545	907.38
376.771	929.38
376.997	867.38
377.222	905.38
377.448	910.38
377.674	907.38
377.899	908.38
378.125	874.38
378.35	886.38
378.576	889.38
378.802	856.38
379.027	883.38
379.253	879.38
379.478	901.38
379.704	888.38
379.929	866.38
380.155	864.38
380.38	875.38
380.606	872.38
380.831	886.38
381.057	888.38
381.282	861.38
381.507	893.38
381.733	906.38
381.958	915.38
382.184	915.38
382.409	907.38
382.634	943.38
382.86	949.38
383.085	936.38
383.31	954.38
383.535	946.38
383.761	961.38
383.986	965.38
384.211	1002.38
384.436	1018.38
384.662	1039.38
384.887	1050.38
385.112	1059.38
385.337	1090.38
385.562	1052.38
385.787	1108.38
386.013	1099.38
386.238	1100.38
386.463	1098.38
386.688	1087.38
386.913	1048.38
387.138	1088.38
387.363	1082.38
387.588	1078.38
387.813	1080.38
388.038	1059.38
388.263	1074.38
388.488	1079.38
388.713	1077.38
388.938	1060.38
389.163	1067.38
389.387	1093.38
389.612	1039.38
389.837	1062.38
390.062	1073.38
390.287	1072.38
390.512	1067.38
390.736	1125.38
390.961	1117.38
391.186	1120.38
391.411	1150.38
391.636	1168.38
391.86	1197.38
392.085	1215.38
392.31	1241.38
392.534	1184.38
392.759	1178.38
392.984	1159.38
393.208	1150.38
393.433	1146.38
393.658	1149.38
393.882	1151.38
394.107	1134.38
394.331	1146.38
394.556	1126.38
394.78	1150.38
395.005	1179.38
395.229	1180.38
395.454	1151.38
395.678	1176.38
395.903	1221.38
396.127	1213.38
396.352	1195.38
396.576	1170.38
396.801	1162.38
397.025	1214.38
397.249	1204.38
397.474	1221.38
397.698	1225.38
397.922	1249.38
398.147	1259.38
398.371	1277.38
398.595	1325.38
398.82	1372.38
399.044	1454.38
399.268	1529.38
399.492	1777.38
399.717	1947.38
399.941	1991.38
400.165	1844.38
400.389	1732.38
400.613	1600.38
400.837	1513.38
401.062	1473.38
401.286	1376.38
401.51	1416.38
401.734	1387.38
401.958	1392.38
402.182	1390.38
402.406	1375.38
402.63	1443.38
402.854	1434.38
403.078	1429.38
403.302	1434.38
403.526	1464.38
403.75	1523.38
403.974	1500.38
404.198	1480.38
404.422	1526.38
404.645	1524.38
404.869	1501.38
405.093	1545.38
405.317	1510.38
405.541	1510.38
405.765	1467.38
405.988	1499.38
406.212	1514.38
406.436	1526.38
406.66	1519.38
406.883	1549.38
407.107	1636.38
407.331	1698.38
407.555	1717.38
407.778	1728.38
408.002	1719.38
408.226	1726.38
408.449	1672.38
408.673	1596.38
408.896	1520.38
409.12	1530.38
409.344	1548.38
409.567	1565.38
409.791	1558.38
410.014	1520.38
410.238	1499.38
410.461	1508.38
410.685	1493.38
410.908	1473.38
411.132	1452.38
411.355	1395.38
411.578	1440.38
411.802	1415.38
412.025	1418.38
412.249	1431.38
412.472	1456.38
412.695	1399.38
412.919	1403.38
413.142	1390.38
413.365	1388.38
413.589	1412.38
413.812	1378.38
414.035	1354.38
414.258	1338.38
414.482	1341.38
414.705	1396.38
414.928	1404.38
415.151	1379.38
415.374	1374.38
415.597	1360.38
415.821	1328.38
416.044	1328.38
416.267	1303.38
416.49	1344.38
416.713	1300.38
416.936	1352.38
417.159	1315.38
417.382	1320.38
417.605	1287.38
417.828	1325.38
418.051	1362.38
418.274	1349.38
418.497	1326.38
418.72	1381.38
418.943	1355.38
419.166	1457.38
419.389	1578.38
419.611	1538.38
419.834	1431.38
420.057	1438.38
420.28	1379.38
420.503	1350.38
420.726	1338.38
420.948	1285.38
421.171	1321.38
421.394	1345.38
421.617	1292.38
421.839	1377.38
422.062	1334.38
422.285	1367.38
422.507	1358.38
422.73	1338.38
422.953	1358.38
423.175	1379.38
423.398	1345.38
423.621	1353.38
423.843	1382.38
424.066	1389.38
424.288	1375.38
424.511	1371.38
424.733	1335.38
424.956	1326.38
425.178	1339.38
425.401	1349.38
425.623	1330.38
425.846	1302.38
426.068	1307.38
426.291	1295.38
426.513	1219.38
426.735	1272.38
426.958	1286.38
427.18	1238.38
427.402	1240.38
427.625	1238.38
427.847	1204.38
428.069	1180.38
428.292	1208.38
428.514	1206.38
428.736	1199.38
428.958	1226.38
429.181	1187.38
429.403	1197.38
429.625	1182.38
429.847	1174.38
430.069	1149.38
430.292	1154.38
430.514	1181.38
430.736	1161.38
430.958	1181.38
431.18	1151.38
431.402	1149.38
431.624	1166.38
431.846	1205.38
432.068	1196.38
432.29	1186.38
432.512	1206.38
432.734	1209.38
432.956	1192.38
433.178	1180.38
433.4	1181.38
433.622	1222.38
433.844	1228.38
434.066	1237.38
434.287	1222.38
434.509	1273.38
434.731	1294.38
434.953	1318.38
435.175	1313.38
435.397	1309.38
435.618	1295.38
435.84	1231.38
436.062	1186.38
436.284	1204.38
436.505	1183.38
436.727	1212.38
436.949	1178.38
437.17	1182.38
437.392	1186.38
437.614	1180.38
437.835	1116.38
438.057	1162.38
438.278	1127.38
438.5	1139.38
438.721	1151.38
438.943	1169.38
439.165	1154.38
439.386	1135.38
439.608	1186.38
439.829	1182.38
440.05	1178.38
440.272	1186.38
440.493	1227.38
440.715	1187.38
440.936	1226.38
441.158	1224.38
441.379	1236.38
441.6	1301.38
441.822	1334.38
442.043	1321.38
442.264	1323.38
442.486	1300.38
442.707	1290.38
442.928	1292.38
443.149	1264.38
443.371	1301.38
443.592	1320.38
443.813	1315.38
444.034	1368.38
444.255	1351.38
444.476	1410.38
444.698	1506.38
444.919	1513.38
445.14	1610.38
445.361	1464.38
445.582	1391.38
445.803	1327.38
446.024	1277.38
446.245	1276.38
446.466	1236.38
446.687	1198.38
446.908	1203.38
447.129	1192.38
447.35	1154.38
447.571	1150.38
447.792	1130.38
448.013	1127.38
448.234	1136.38
448.455	1130.38
448.675	1108.38
448.896	1107.38
449.117	1089.38
449.338	1090.38
449.559	1078.38
449.779	1045.38
450	1079.38
450.221	1084.38
450.442	1089.38
450.662	1100.38
450.883	1100.38
451.104	1127.38
451.324	1111.38
451.545	1094.38
451.766	1079.38
451.986	1099.38
452.207	1076.38
452.428	1058.38
452.648	1093.38
452.869	1046.38
453.089	1034.38
453.31	1074.38
453.53	1079.38
453.751	1045.38
453.971	1045.38
454.192	1055.38
454.412	1026.38
454.633	1030.38
454.853	1036.38
455.073	1015.38
455.294	1049.38
455.514	1014.38
455.734	998.38
455.955	1011.38
456.175	1035.38
456.395	1023.38
456.616	1009.38
456.836	1048.38
457.056	1010.38
457.276	995.38
457.497	1045.38
457.717	1015.38
457.937	1028.38
458.157	1048.38
458.377	1036.38
458.598	1086.38
458.818	1121.38
459.038	1135.38
459.258	1183.38
459.478	1199.38
459.698	1211.38
459.918	1286.38
460.138	1295.38
460.358	1362.38
460.578	1424.38
460.798	1394.38
461.018	1407.38
461.238	1390.38
461.458	1428.38
461.678	1415.38
461.898	1427.38
462.118	1442.38
462.338	1528.38
462.558	1519.38
462.777	1623.38
462.997	1706.38
463.217	1794.38
463.437	1848.38
463.657	1788.38
463.876	1694.38
464.096	1672.38
464.316	1615.38
464.536	1645.38
464.755	1594.38
464.975	1539.38
465.195	1463.38
465.414	1399.38
465.634	1298.38
465.854	1268.38
466.073	1237.38
466.293	1194.38
466.512	1170.38
466.732	1147.38
466.951	1148.38
467.171	1160.38
467.391	1177.38
467.61	1144.38
467.829	1122.38
468.049	1143.38
468.268	1112.38
468.488	1050.38
468.707	1075.38
468.927	1117.38
469.146	1098.38
469.365	1102.38
469.585	1105.38
469.804	1124.38
470.023	1159.38
470.243	1150.38
470.462	1145.38
470.681	1169.38
470.901	1175.38
471.12	1158.38
471.339	1123.38
471.558	1118.38
471.777	1138.38
471.997	1135.38
472.216	1117.38
472.435	1107.38
472.654	1071.38
472.873	1103.38
473.092	1074.38
473.311	1087.38
473.53	1082.38
473.749	1063.38
473.968	1085.38
474.187	1083.38
474.406	1074.38
474.625	1066.38
474.844	1059.38
475.063	1093.38
475.282	1115.38
475.501	1085.38
475.72	1101.38
475.939	1145.38
476.158	1108.38
476.377	1110.38
476.596	1117.38
476.814	1140.38
477.033	1160.38
477.252	1166.38
477.471	1206.38
477.69	1216.38
477.908	1241.38
478.127	1279.38
478.346	1274.38
478.564	1344.38
478.783	1304.38
479.002	1313.38
479.22	1350.38
479.439	1349.38
479.658	1366.38
479.876	1359.38
480.095	1372.38
480.313	1406.38
480.532	1430.38
480.751	1413.38
480.969	1397.38
481.188	1332.38
481.406	1309.38
481.624	1290.38
481.843	1252.38
482.061	1261.38
482.28	1255.38
482.498	1267.38
482.717	1228.38
482.935	1257.38
483.153	1216.38
483.372	1236.38
483.59	1227.38
483.808	1248.38
484.027	1242.38
484.245	1251.38
484.463	1249.38
484.681	1281.38
484.9	1296.38
485.118	1286.38
485.336	1282.38
485.554	1298.38
485.772	1318.38
485.99	1296.38
486.209	1298.38
486.427	1298.38
486.645	1278.38
486.863	1302.38
487.081	1330.38
487.299	1302.38
487.517	1308.38
487.735	1282.38
487.953	1308.38
488.171	1323.38
488.389	1275.38
488.607	1267.38
488.825	1293.38
489.043	1261.38
489.261	1255.38
489.479	1259.38
489.696	1262.38
489.914	1295.38
490.132	1248.38
490.35	1284.38
490.568	1297.38
490.786	1302.38
491.003	1325.38
491.221	1304.38
491.439	1270.38
491.657	1290.38
491.874	1297.38
492.092	1297.38
492.31	1305.38
492.527	1333.38
492.745	1344.38
492.963	1372.38
493.18	1359.38
493.398	1356.38
493.615	1332.38
493.833	1341.38
494.05	1349.38
494.268	1382.38
494.485	1357.38
