Data from NiCl2@0.25M.TitratingCurve.Agarose3%dH2O.NegLispCup.LampEnergy10.LIBS07252019_HRD10591_18-22-36-572.txt Node
Date: Thu Jul 25 18:22:36 EDT 2019
User: cochatt
Spectrometer: HR+D1059
Trigger mode: 1
Integration Time (sec): 1.000000E-1
Scans to average: 1
Electric dark correction enabled: true
Nonlinearity correction enabled: false
Boxcar width: 0
XAxis mode: Wavelengths
Number of Pixels in Spectrum: 2048
>>>>>Begin Spectral Data<<<<<
223.165	-19.75
223.4	-19.75
223.635	-19.75
223.869	-18.75
224.104	-10.75
224.338	-20.75
224.573	-16.75
224.808	-2.75
225.042	-3.75
225.277	-5.75
225.511	-12.75
225.746	4.25
225.98	7.25
226.215	3.25
226.449	3.25
226.683	35.25
226.918	28.25
227.152	30.25
227.387	33.25
227.621	30.25
227.856	39.25
228.09	45.25
228.324	39.25
228.559	55.25
228.793	61.25
229.027	99.25
229.262	117.25
229.496	113.25
229.73	114.25
229.964	162.25
230.199	140.25
230.433	141.25
230.667	147.25
230.901	133.25
231.136	139.25
231.37	134.25
231.604	142.25
231.838	144.25
232.072	158.25
232.306	165.25
232.541	147.25
232.775	143.25
233.009	139.25
233.243	156.25
233.477	142.25
233.711	157.25
233.945	156.25
234.179	151.25
234.413	137.25
234.647	143.25
234.881	149.25
235.115	149.25
235.349	151.25
235.583	152.25
235.817	133.25
236.051	142.25
236.285	154.25
236.519	145.25
236.753	156.25
236.987	158.25
237.221	152.25
237.455	160.25
237.689	146.25
237.922	158.25
238.156	149.25
238.39	141.25
238.624	153.25
238.858	163.25
239.091	145.25
239.325	165.25
239.559	155.25
239.793	178.25
240.027	173.25
240.26	159.25
240.494	165.25
240.728	181.25
240.961	168.25
241.195	185.25
241.429	166.25
241.662	170.25
241.896	178.25
242.13	187.25
242.363	194.25
242.597	175.25
242.83	179.25
243.064	191.25
243.298	191.25
243.531	188.25
243.765	158.25
243.998	185.25
244.232	191.25
244.465	197.25
244.699	196.25
244.932	199.25
245.166	199.25
245.399	201.25
245.633	207.25
245.866	190.25
246.099	209.25
246.333	189.25
246.566	207.25
246.8	197.25
247.033	191.25
247.266	204.25
247.5	223.25
247.733	215.25
247.966	211.25
248.2	219.25
248.433	218.25
248.666	222.25
248.899	214.25
249.133	222.25
249.366	226.25
249.599	217.25
249.832	218.25
250.066	223.25
250.299	224.25
250.532	219.25
250.765	238.25
250.998	229.25
251.231	234.25
251.465	242.25
251.698	243.25
251.931	236.25
252.164	241.25
252.397	221.25
252.63	229.25
252.863	235.25
253.096	266.25
253.329	267.25
253.562	235.25
253.795	262.25
254.028	248.25
254.261	257.25
254.494	244.25
254.727	241.25
254.96	253.25
255.193	256.25
255.426	278.25
255.659	261.25
255.892	264.25
256.124	256.25
256.357	266.25
256.59	270.25
256.823	248.25
257.056	251.25
257.289	278.25
257.521	271.25
257.754	275.25
257.987	263.25
258.22	294.25
258.452	277.25
258.685	282.25
258.918	265.25
259.151	246.25
259.383	277.25
259.616	283.25
259.849	306.25
260.081	299.25
260.314	297.25
260.547	291.25
260.779	298.25
261.012	299.25
261.244	302.25
261.477	297.25
261.71	282.25
261.942	294.25
262.175	300.25
262.407	294.25
262.64	290.25
262.872	282.25
263.105	293.25
263.337	325.25
263.57	320.25
263.802	300.25
264.035	299.25
264.267	314.25
264.499	309.25
264.732	297.25
264.964	316.25
265.197	317.25
265.429	318.25
265.661	322.25
265.894	325.25
266.126	308.25
266.358	311.25
266.591	312.25
266.823	306.25
267.055	321.25
267.287	307.25
267.52	302.25
267.752	337.25
267.984	355.25
268.216	302.25
268.448	318.25
268.681	319.25
268.913	334.25
269.145	337.25
269.377	328.25
269.609	342.25
269.841	346.25
270.073	332.25
270.306	347.25
270.538	339.25
270.77	327.25
271.002	339.25
271.234	352.25
271.466	327.25
271.698	341.25
271.93	340.25
272.162	336.25
272.394	365.25
272.626	338.25
272.858	372.25
273.09	358.25
273.322	353.25
273.553	336.25
273.785	381.25
274.017	363.25
274.249	364.25
274.481	365.25
274.713	355.25
274.945	351.25
275.176	376.25
275.408	369.25
275.64	348.25
275.872	375.25
276.104	351.25
276.335	396.25
276.567	377.25
276.799	370.25
277.031	373.25
277.262	386.25
277.494	372.25
277.726	381.25
277.957	378.25
278.189	395.25
278.421	376.25
278.652	385.25
278.884	377.25
279.115	413.25
279.347	393.25
279.579	387.25
279.81	396.25
280.042	425.25
280.273	391.25
280.505	393.25
280.736	403.25
280.968	412.25
281.199	417.25
281.431	401.25
281.662	399.25
281.894	399.25
282.125	418.25
282.356	422.25
282.588	415.25
282.819	409.25
283.051	412.25
283.282	428.25
283.513	437.25
283.745	433.25
283.976	426.25
284.207	424.25
284.439	426.25
284.67	425.25
284.901	430.25
285.132	418.25
285.364	429.25
285.595	434.25
285.826	425.25
286.057	425.25
286.288	444.25
286.52	450.25
286.751	427.25
286.982	432.25
287.213	441.25
287.444	448.25
287.675	453.25
287.906	441.25
288.138	445.25
288.369	466.25
288.6	446.25
288.831	467.25
289.062	475.25
289.293	446.25
289.524	443.25
289.755	457.25
289.986	468.25
290.217	457.25
290.448	460.25
290.679	475.25
290.91	471.25
291.141	459.25
291.371	468.25
291.602	479.25
291.833	470.25
292.064	454.25
292.295	455.25
292.526	473.25
292.757	460.25
292.987	465.25
293.218	446.25
293.449	474.25
293.68	477.25
293.91	468.25
294.141	474.25
294.372	443.25
294.603	461.25
294.833	485.25
295.064	485.25
295.295	480.25
295.525	459.25
295.756	479.25
295.987	483.25
296.217	485.25
296.448	494.25
296.679	469.25
296.909	509.25
297.14	493.25
297.37	509.25
297.601	502.25
297.831	501.25
298.062	498.25
298.292	504.25
298.523	528.25
298.753	519.25
298.984	504.25
299.214	487.25
299.445	499.25
299.675	487.25
299.905	520.25
300.136	529.25
300.366	523.25
300.597	542.25
300.827	566.25
301.057	535.25
301.288	548.25
301.518	540.25
301.748	526.25
301.979	541.25
302.209	520.25
302.439	522.25
302.669	513.25
302.9	547.25
303.13	529.25
303.36	526.25
303.59	516.25
303.82	521.25
304.051	540.25
304.281	533.25
304.511	535.25
304.741	536.25
304.971	540.25
305.201	532.25
305.431	526.25
305.661	519.25
305.891	545.25
306.121	533.25
306.352	529.25
306.582	518.25
306.812	520.25
307.042	535.25
307.272	527.25
307.502	526.25
307.731	507.25
307.961	531.25
308.191	526.25
308.421	532.25
308.651	534.25
308.881	522.25
309.111	532.25
309.341	543.25
309.571	538.25
309.8	525.25
310.03	537.25
310.26	552.25
310.49	562.25
310.72	521.25
310.949	533.25
311.179	535.25
311.409	523.25
311.639	545.25
311.868	535.25
312.098	545.25
312.328	551.25
312.557	551.25
312.787	564.25
313.017	563.25
313.246	558.25
313.476	582.25
313.706	584.25
313.935	557.25
314.165	572.25
314.394	580.25
314.624	566.25
314.853	550.25
315.083	562.25
315.312	547.25
315.542	574.25
315.771	575.25
316.001	571.25
316.23	560.25
316.46	577.25
316.689	557.25
316.919	549.25
317.148	540.25
317.377	561.25
317.607	547.25
317.836	547.25
318.065	554.25
318.295	548.25
318.524	543.25
318.753	556.25
318.983	575.25
319.212	543.25
319.441	564.25
319.67	560.25
319.9	550.25
320.129	572.25
320.358	553.25
320.587	536.25
320.816	561.25
321.046	573.25
321.275	566.25
321.504	573.25
321.733	538.25
321.962	576.25
322.191	545.25
322.42	558.25
322.649	587.25
322.878	567.25
323.108	581.25
323.337	586.25
323.566	567.25
323.795	589.25
324.024	582.25
324.253	582.25
324.482	585.25
324.71	604.25
324.939	583.25
325.168	587.25
325.397	590.25
325.626	591.25
325.855	587.25
326.084	594.25
326.313	596.25
326.542	644.25
326.77	619.25
326.999	611.25
327.228	597.25
327.457	611.25
327.686	649.25
327.914	605.25
328.143	606.25
328.372	618.25
328.6	596.25
328.829	612.25
329.058	615.25
329.287	627.25
329.515	627.25
329.744	622.25
329.972	623.25
330.201	626.25
330.43	631.25
330.658	627.25
330.887	611.25
331.115	641.25
331.344	615.25
331.572	645.25
331.801	661.25
332.03	691.25
332.258	690.25
332.486	722.25
332.715	706.25
332.943	755.25
333.172	777.25
333.4	766.25
333.629	817.25
333.857	811.25
334.085	780.25
334.314	810.25
334.542	788.25
334.771	774.25
334.999	759.25
335.227	746.25
335.455	757.25
335.684	731.25
335.912	757.25
336.14	732.25
336.369	758.25
336.597	745.25
336.825	734.25
337.053	763.25
337.281	743.25
337.51	703.25
337.738	700.25
337.966	703.25
338.194	699.25
338.422	682.25
338.65	685.25
338.878	679.25
339.106	668.25
339.334	682.25
339.562	679.25
339.79	643.25
340.018	664.25
340.246	648.25
340.474	651.25
340.702	649.25
340.93	646.25
341.158	655.25
341.386	661.25
341.614	672.25
341.842	673.25
342.07	630.25
342.298	641.25
342.526	650.25
342.754	637.25
342.981	675.25
343.209	653.25
343.437	694.25
343.665	723.25
343.893	770.25
344.12	787.25
344.348	746.25
344.576	732.25
344.804	725.25
345.031	684.25
345.259	655.25
345.487	676.25
345.714	641.25
345.942	669.25
346.17	665.25
346.397	653.25
346.625	633.25
346.853	655.25
347.08	622.25
347.308	621.25
347.535	656.25
347.763	611.25
347.99	633.25
348.218	618.25
348.445	623.25
348.673	608.25
348.9	606.25
349.128	640.25
349.355	649.25
349.583	643.25
349.81	620.25
350.037	636.25
350.265	622.25
350.492	595.25
350.72	610.25
350.947	579.25
351.174	606.25
351.402	626.25
351.629	621.25
351.856	639.25
352.083	612.25
352.311	614.25
352.538	619.25
352.765	647.25
352.992	612.25
353.22	606.25
353.447	604.25
353.674	590.25
353.901	598.25
354.128	580.25
354.355	602.25
354.583	591.25
354.81	603.25
355.037	606.25
355.264	605.25
355.491	634.25
355.718	599.25
355.945	590.25
356.172	595.25
356.399	621.25
356.626	625.25
356.853	621.25
357.08	599.25
357.307	599.25
357.534	611.25
357.761	615.25
357.988	613.25
358.215	591.25
358.441	603.25
358.668	589.25
358.895	601.25
359.122	583.25
359.349	602.25
359.576	581.25
359.802	593.25
360.029	585.25
360.256	620.25
360.483	616.25
360.709	613.25
360.936	625.25
361.163	595.25
361.39	628.25
361.616	616.25
361.843	597.25
362.07	618.25
362.296	629.25
362.523	593.25
362.749	593.25
362.976	599.25
363.203	597.25
363.429	593.25
363.656	613.25
363.882	611.25
364.109	613.25
364.335	604.25
364.562	597.25
364.788	615.25
365.015	605.25
365.241	599.25
365.468	618.25
365.694	614.25
365.92	622.25
366.147	591.25
366.373	584.25
366.599	592.25
366.826	598.25
367.052	612.25
367.278	594.25
367.505	585.25
367.731	620.25
367.957	593.25
368.184	605.25
368.41	618.25
368.636	614.25
368.862	618.25
369.089	600.25
369.315	642.25
369.541	639.25
369.767	635.25
369.993	622.25
370.219	623.25
370.445	627.25
370.672	633.25
370.898	633.25
371.124	648.25
371.35	644.25
371.576	669.25
371.802	667.25
372.028	669.25
372.254	655.25
372.48	645.25
372.706	698.25
372.932	687.25
373.158	678.25
373.384	678.25
373.61	661.25
373.835	677.25
374.061	653.25
374.287	645.25
374.513	668.25
374.739	686.25
374.965	735.25
375.191	739.25
375.416	719.25
375.642	698.25
375.868	678.25
376.094	673.25
376.319	653.25
376.545	670.25
376.771	651.25
376.997	682.25
377.222	669.25
377.448	641.25
377.674	641.25
377.899	646.25
378.125	647.25
378.35	653.25
378.576	667.25
378.802	657.25
379.027	647.25
379.253	644.25
379.478	610.25
379.704	652.25
379.929	642.25
380.155	647.25
380.38	637.25
380.606	655.25
380.831	649.25
381.057	666.25
381.282	667.25
381.507	678.25
381.733	660.25
381.958	669.25
382.184	668.25
382.409	661.25
382.634	662.25
382.86	706.25
383.085	690.25
383.31	682.25
383.535	718.25
383.761	727.25
383.986	722.25
384.211	744.25
384.436	740.25
384.662	758.25
384.887	752.25
385.112	769.25
385.337	773.25
385.562	802.25
385.787	793.25
386.013	789.25
386.238	787.25
386.463	786.25
386.688	771.25
386.913	754.25
387.138	759.25
387.363	785.25
387.588	781.25
387.813	750.25
388.038	769.25
388.263	780.25
388.488	763.25
388.713	779.25
388.938	783.25
389.163	745.25
389.387	759.25
389.612	755.25
389.837	767.25
390.062	743.25
390.287	743.25
390.512	755.25
390.736	763.25
390.961	791.25
391.186	802.25
391.411	814.25
391.636	834.25
391.86	842.25
392.085	892.25
392.31	867.25
392.534	843.25
392.759	824.25
392.984	861.25
393.208	838.25
393.433	813.25
393.658	823.25
393.882	829.25
394.107	823.25
394.331	835.25
394.556	800.25
394.78	810.25
395.005	812.25
395.229	826.25
395.454	881.25
395.678	869.25
395.903	856.25
396.127	865.25
396.352	827.25
396.576	790.25
396.801	821.25
397.025	821.25
397.249	853.25
397.474	859.25
397.698	871.25
397.922	870.25
398.147	859.25
398.371	897.25
398.595	916.25
398.82	968.25
399.044	1043.25
399.268	1116.25
399.492	1240.25
399.717	1409.25
399.941	1367.25
400.165	1253.25
400.389	1109.25
400.613	1055.25
400.837	989.25
401.062	985.25
401.286	966.25
401.51	928.25
401.734	963.25
401.958	978.25
402.182	1010.25
402.406	1009.25
402.63	987.25
402.854	998.25
403.078	1030.25
403.302	1067.25
403.526	1073.25
403.75	1116.25
403.974	1118.25
404.198	1099.25
404.422	1117.25
404.645	1082.25
404.869	1083.25
405.093	1075.25
405.317	1054.25
405.541	1061.25
405.765	1064.25
405.988	1070.25
406.212	1049.25
406.436	1036.25
406.66	1120.25
406.883	1100.25
407.107	1134.25
407.331	1179.25
407.555	1224.25
407.778	1235.25
408.002	1197.25
408.226	1153.25
408.449	1117.25
408.673	1100.25
408.896	1062.25
409.12	1096.25
409.344	1095.25
409.567	1052.25
409.791	1102.25
410.014	1054.25
410.238	1116.25
410.461	1061.25
410.685	1031.25
410.908	1036.25
411.132	1007.25
411.355	1000.25
411.578	1005.25
411.802	1011.25
412.025	1013.25
412.249	1032.25
412.472	1017.25
412.695	991.25
412.919	967.25
413.142	981.25
413.365	972.25
413.589	956.25
413.812	970.25
414.035	970.25
414.258	966.25
414.482	1010.25
414.705	983.25
414.928	979.25
415.151	984.25
415.374	955.25
415.597	947.25
415.821	940.25
416.044	943.25
416.267	932.25
416.49	895.25
416.713	938.25
416.936	966.25
417.159	956.25
417.382	929.25
417.605	948.25
417.828	940.25
418.051	957.25
418.274	957.25
418.497	972.25
418.72	973.25
418.943	941.25
419.166	1013.25
419.389	1078.25
419.611	1065.25
419.834	1032.25
420.057	995.25
420.28	983.25
420.503	934.25
420.726	934.25
420.948	948.25
421.171	929.25
421.394	949.25
421.617	947.25
421.839	925.25
422.062	978.25
422.285	943.25
422.507	949.25
422.73	1000.25
422.953	981.25
423.175	972.25
423.398	987.25
423.621	1007.25
423.843	993.25
424.066	994.25
424.288	970.25
424.511	978.25
424.733	975.25
424.956	980.25
425.178	963.25
425.401	927.25
425.623	951.25
425.846	947.25
426.068	908.25
426.291	908.25
426.513	887.25
426.735	919.25
426.958	892.25
427.18	890.25
427.402	894.25
427.625	863.25
427.847	875.25
428.069	867.25
428.292	867.25
428.514	845.25
428.736	852.25
428.958	868.25
429.181	851.25
429.403	829.25
429.625	838.25
429.847	837.25
430.069	829.25
430.292	854.25
430.514	841.25
430.736	865.25
430.958	843.25
431.18	819.25
431.402	861.25
431.624	830.25
431.846	837.25
432.068	854.25
432.29	855.25
432.512	857.25
432.734	866.25
432.956	860.25
433.178	869.25
433.4	872.25
433.622	869.25
433.844	889.25
434.066	849.25
434.287	878.25
434.509	896.25
434.731	925.25
434.953	925.25
435.175	958.25
435.397	933.25
435.618	889.25
435.84	883.25
436.062	872.25
436.284	844.25
436.505	873.25
436.727	824.25
436.949	854.25
437.17	878.25
437.392	871.25
437.614	845.25
437.835	815.25
438.057	857.25
438.278	819.25
438.5	829.25
438.721	820.25
438.943	831.25
439.165	806.25
439.386	817.25
439.608	841.25
439.829	843.25
440.05	847.25
440.272	854.25
440.493	863.25
440.715	896.25
440.936	903.25
441.158	897.25
441.379	928.25
441.6	955.25
441.822	962.25
442.043	941.25
442.264	949.25
442.486	930.25
442.707	925.25
442.928	943.25
443.149	916.25
443.371	903.25
443.592	937.25
443.813	975.25
444.034	970.25
444.255	984.25
444.476	1025.25
444.698	1111.25
444.919	1113.25
445.14	1220.25
445.361	1102.25
445.582	974.25
445.803	918.25
446.024	916.25
446.245	899.25
446.466	913.25
446.687	857.25
446.908	844.25
447.129	862.25
447.35	827.25
447.571	842.25
447.792	814.25
448.013	811.25
448.234	797.25
448.455	794.25
448.675	810.25
448.896	813.25
449.117	784.25
449.338	774.25
449.559	779.25
449.779	786.25
450	758.25
450.221	778.25
450.442	803.25
450.662	781.25
450.883	823.25
451.104	826.25
451.324	770.25
451.545	780.25
451.766	790.25
451.986	777.25
452.207	793.25
452.428	772.25
452.648	787.25
452.869	772.25
453.089	779.25
453.31	788.25
453.53	737.25
453.751	746.25
453.971	730.25
454.192	768.25
454.412	763.25
454.633	763.25
454.853	748.25
455.073	744.25
455.294	740.25
455.514	770.25
455.734	771.25
455.955	738.25
456.175	732.25
456.395	766.25
456.616	719.25
456.836	747.25
457.056	730.25
457.276	700.25
457.497	735.25
457.717	736.25
457.937	742.25
458.157	758.25
458.377	751.25
458.598	782.25
458.818	794.25
459.038	812.25
459.258	817.25
459.478	881.25
459.698	917.25
459.918	946.25
460.138	941.25
460.358	979.25
460.578	969.25
460.798	1001.25
461.018	1031.25
461.238	993.25
461.458	1003.25
461.678	1002.25
461.898	1017.25
462.118	999.25
462.338	1073.25
462.558	1101.25
462.777	1159.25
462.997	1211.25
463.217	1293.25
463.437	1290.25
463.657	1198.25
463.876	1152.25
464.096	1167.25
464.316	1149.25
464.536	1157.25
464.755	1101.25
464.975	1068.25
465.195	1038.25
465.414	986.25
465.634	923.25
465.854	901.25
466.073	885.25
466.293	882.25
466.512	844.25
466.732	827.25
466.951	845.25
467.171	825.25
467.391	828.25
467.61	802.25
467.829	833.25
468.049	808.25
468.268	799.25
468.488	797.25
468.707	813.25
468.927	781.25
469.146	796.25
469.365	799.25
469.585	826.25
469.804	829.25
470.023	841.25
470.243	836.25
470.462	837.25
470.681	839.25
470.901	845.25
471.12	852.25
471.339	812.25
471.558	807.25
471.777	823.25
471.997	808.25
472.216	794.25
472.435	789.25
472.654	773.25
472.873	787.25
473.092	787.25
473.311	780.25
473.53	775.25
473.749	763.25
473.968	781.25
474.187	772.25
474.406	809.25
474.625	775.25
474.844	781.25
475.063	786.25
475.282	788.25
475.501	780.25
475.72	798.25
475.939	830.25
476.158	808.25
476.377	784.25
476.596	820.25
476.814	797.25
477.033	825.25
477.252	830.25
477.471	842.25
477.69	882.25
477.908	881.25
478.127	917.25
478.346	906.25
478.564	954.25
478.783	962.25
479.002	994.25
479.22	1009.25
479.439	963.25
479.658	950.25
479.876	972.25
480.095	954.25
480.313	1012.25
480.532	1040.25
480.751	1019.25
480.969	991.25
481.188	975.25
481.406	972.25
481.624	884.25
481.843	898.25
482.061	913.25
482.28	901.25
482.498	880.25
482.717	877.25
482.935	869.25
483.153	893.25
483.372	876.25
483.59	910.25
483.808	891.25
484.027	893.25
484.245	913.25
484.463	886.25
484.681	918.25
484.9	936.25
485.118	925.25
485.336	935.25
485.554	934.25
485.772	928.25
485.99	941.25
486.209	958.25
486.427	929.25
486.645	929.25
486.863	958.25
487.081	922.25
487.299	952.25
487.517	952.25
487.735	913.25
487.953	957.25
488.171	953.25
488.389	902.25
488.607	933.25
488.825	916.25
489.043	919.25
489.261	884.25
489.479	926.25
489.696	976.25
489.914	938.25
490.132	925.25
490.35	927.25
490.568	951.25
490.786	942.25
491.003	917.25
491.221	968.25
491.439	964.25
491.657	925.25
491.874	965.25
492.092	961.25
492.31	972.25
492.527	979.25
492.745	987.25
492.963	978.25
493.18	970.25
493.398	962.25
493.615	972.25
493.833	1013.25
494.05	952.25
494.268	978.25
494.485	978.25
494.703	1010.25
494.92	1012.25
495.138	956.25
495.355	993.25
495.573	1003.25
495.79	1052.25
496.008	1048.25
496.225	1052.25
496.442	1036.25
496.66	1066.25
496.877	1051.25
497.094	1075.25
497.312	1074.25
497.529	1087.25
497.746	1131.25
497.963	1141.25
498.181	1198.25
498.398	1247.25
498.615	1319.25
498.832	1425.25
499.049	1489.25
499.267	1601.25
499.484	1762.25
499.701	1885.25
499.918	2107.25
500.135	2411.25
