Data from NiCl2@0.25M.TitratingCurve.Agarose3%dH2O.NegLispCup.LampEnergy10.LIBS07252019_HRD10591_18-23-08-573.txt Node
Date: Thu Jul 25 18:23:08 EDT 2019
User: cochatt
Spectrometer: HR+D1059
Trigger mode: 1
Integration Time (sec): 1.000000E-1
Scans to average: 1
Electric dark correction enabled: true
Nonlinearity correction enabled: false
Boxcar width: 0
XAxis mode: Wavelengths
Number of Pixels in Spectrum: 2048
>>>>>Begin Spectral Data<<<<<
223.165	-17.62
223.4	-17.62
223.635	-17.62
223.869	-25.62
224.104	-20.62
224.338	-12.62
224.573	-3.62
224.808	-7.62
225.042	-7.62
225.277	-7.62
225.511	2.38
225.746	8.38
225.98	5.38
226.215	27.38
226.449	16.38
226.683	7.38
226.918	15.38
227.152	20.38
227.387	34.38
227.621	28.38
227.856	29.38
228.09	42.38
228.324	48.38
228.559	57.38
228.793	54.38
229.027	94.38
229.262	101.38
229.496	114.38
229.73	111.38
229.964	111.38
230.199	125.38
230.433	110.38
230.667	133.38
230.901	129.38
231.136	118.38
231.37	120.38
231.604	117.38
231.838	131.38
232.072	136.38
232.306	141.38
232.541	143.38
232.775	132.38
233.009	139.38
233.243	120.38
233.477	118.38
233.711	128.38
233.945	134.38
234.179	133.38
234.413	128.38
234.647	126.38
234.881	128.38
235.115	128.38
235.349	143.38
235.583	120.38
235.817	133.38
236.051	127.38
236.285	127.38
236.519	129.38
236.753	137.38
236.987	132.38
237.221	128.38
237.455	136.38
237.689	131.38
237.922	138.38
238.156	149.38
238.39	150.38
238.624	134.38
238.858	147.38
239.091	148.38
239.325	143.38
239.559	152.38
239.793	137.38
240.027	158.38
240.26	147.38
240.494	153.38
240.728	140.38
240.961	152.38
241.195	170.38
241.429	161.38
241.662	166.38
241.896	163.38
242.13	182.38
242.363	165.38
242.597	157.38
242.83	175.38
243.064	183.38
243.298	169.38
243.531	159.38
243.765	174.38
243.998	174.38
244.232	174.38
244.465	172.38
244.699	182.38
244.932	176.38
245.166	171.38
245.399	172.38
245.633	166.38
245.866	195.38
246.099	186.38
246.333	180.38
246.566	191.38
246.8	197.38
247.033	201.38
247.266	198.38
247.5	196.38
247.733	189.38
247.966	195.38
248.2	199.38
248.433	184.38
248.666	197.38
248.899	197.38
249.133	200.38
249.366	205.38
249.599	216.38
249.832	221.38
250.066	215.38
250.299	203.38
250.532	198.38
250.765	196.38
250.998	202.38
251.231	219.38
251.465	210.38
251.698	224.38
251.931	212.38
252.164	213.38
252.397	224.38
252.63	213.38
252.863	235.38
253.096	220.38
253.329	236.38
253.562	210.38
253.795	249.38
254.028	236.38
254.261	216.38
254.494	228.38
254.727	226.38
254.96	242.38
255.193	205.38
255.426	238.38
255.659	242.38
255.892	253.38
256.124	221.38
256.357	233.38
256.59	237.38
256.823	239.38
257.056	253.38
257.289	240.38
257.521	256.38
257.754	243.38
257.987	245.38
258.22	251.38
258.452	253.38
258.685	263.38
258.918	253.38
259.151	243.38
259.383	263.38
259.616	258.38
259.849	249.38
260.081	251.38
260.314	250.38
260.547	246.38
260.779	274.38
261.012	258.38
261.244	266.38
261.477	246.38
261.71	269.38
261.942	273.38
262.175	262.38
262.407	278.38
262.64	290.38
262.872	266.38
263.105	252.38
263.337	280.38
263.57	265.38
263.802	271.38
264.035	289.38
264.267	278.38
264.499	267.38
264.732	274.38
264.964	291.38
265.197	297.38
265.429	288.38
265.661	275.38
265.894	304.38
266.126	300.38
266.358	280.38
266.591	275.38
266.823	288.38
267.055	280.38
267.287	284.38
267.52	279.38
267.752	288.38
267.984	311.38
268.216	297.38
268.448	314.38
268.681	308.38
268.913	310.38
269.145	311.38
269.377	300.38
269.609	300.38
269.841	306.38
270.073	319.38
270.306	337.38
270.538	311.38
270.77	297.38
271.002	300.38
271.234	323.38
271.466	314.38
271.698	321.38
271.93	321.38
272.162	302.38
272.394	324.38
272.626	317.38
272.858	317.38
273.09	324.38
273.322	320.38
273.553	328.38
273.785	331.38
274.017	329.38
274.249	329.38
274.481	331.38
274.713	332.38
274.945	347.38
275.176	336.38
275.408	333.38
275.64	324.38
275.872	338.38
276.104	343.38
276.335	358.38
276.567	355.38
276.799	341.38
277.031	362.38
277.262	342.38
277.494	327.38
277.726	352.38
277.957	337.38
278.189	345.38
278.421	349.38
278.652	352.38
278.884	359.38
279.115	357.38
279.347	359.38
279.579	376.38
279.81	358.38
280.042	357.38
280.273	358.38
280.505	372.38
280.736	356.38
280.968	361.38
281.199	368.38
281.431	386.38
281.662	361.38
281.894	379.38
282.125	361.38
282.356	371.38
282.588	376.38
282.819	376.38
283.051	377.38
283.282	377.38
283.513	384.38
283.745	382.38
283.976	387.38
284.207	384.38
284.439	401.38
284.67	370.38
284.901	385.38
285.132	406.38
285.364	384.38
285.595	376.38
285.826	400.38
286.057	406.38
286.288	412.38
286.52	409.38
286.751	399.38
286.982	391.38
287.213	393.38
287.444	387.38
287.675	412.38
287.906	418.38
288.138	397.38
288.369	406.38
288.6	408.38
288.831	415.38
289.062	421.38
289.293	395.38
289.524	409.38
289.755	398.38
289.986	430.38
290.217	410.38
290.448	417.38
290.679	426.38
290.91	424.38
291.141	426.38
291.371	446.38
291.602	434.38
291.833	423.38
292.064	413.38
292.295	431.38
292.526	414.38
292.757	424.38
292.987	423.38
293.218	419.38
293.449	430.38
293.68	420.38
293.91	416.38
294.141	434.38
294.372	418.38
294.603	435.38
294.833	451.38
295.064	431.38
295.295	434.38
295.525	426.38
295.756	422.38
295.987	443.38
296.217	440.38
296.448	426.38
296.679	420.38
296.909	440.38
297.14	459.38
297.37	450.38
297.601	453.38
297.831	457.38
298.062	444.38
298.292	451.38
298.523	443.38
298.753	468.38
298.984	453.38
299.214	435.38
299.445	447.38
299.675	467.38
299.905	461.38
300.136	459.38
300.366	482.38
300.597	494.38
300.827	487.38
301.057	508.38
301.288	502.38
301.518	512.38
301.748	498.38
301.979	505.38
302.209	449.38
302.439	475.38
302.669	471.38
302.9	481.38
303.13	461.38
303.36	490.38
303.59	461.38
303.82	490.38
304.051	467.38
304.281	498.38
304.511	494.38
304.741	473.38
304.971	475.38
305.201	482.38
305.431	480.38
305.661	495.38
305.891	488.38
306.121	469.38
306.352	469.38
306.582	489.38
306.812	455.38
307.042	477.38
307.272	494.38
307.502	475.38
307.731	489.38
307.961	487.38
308.191	463.38
308.421	468.38
308.651	481.38
308.881	464.38
309.111	479.38
309.341	479.38
309.571	486.38
309.8	489.38
310.03	470.38
310.26	473.38
310.49	492.38
310.72	508.38
310.949	498.38
311.179	486.38
311.409	490.38
311.639	500.38
311.868	490.38
312.098	472.38
312.328	507.38
312.557	484.38
312.787	486.38
313.017	499.38
313.246	522.38
313.476	514.38
313.706	513.38
313.935	517.38
314.165	485.38
314.394	511.38
314.624	513.38
314.853	516.38
315.083	513.38
315.312	513.38
315.542	525.38
315.771	513.38
316.001	499.38
316.23	491.38
316.46	494.38
316.689	520.38
316.919	502.38
317.148	502.38
317.377	504.38
317.607	515.38
317.836	502.38
318.065	522.38
318.295	509.38
318.524	501.38
318.753	500.38
318.983	509.38
319.212	488.38
319.441	498.38
319.67	514.38
319.9	530.38
320.129	514.38
320.358	517.38
320.587	520.38
320.816	516.38
321.046	521.38
321.275	524.38
321.504	518.38
321.733	524.38
321.962	505.38
322.191	493.38
322.42	496.38
322.649	522.38
322.878	488.38
323.108	511.38
323.337	538.38
323.566	524.38
323.795	528.38
324.024	523.38
324.253	531.38
324.482	540.38
324.71	521.38
324.939	522.38
325.168	521.38
325.397	535.38
325.626	545.38
325.855	561.38
326.084	540.38
326.313	555.38
326.542	546.38
326.77	566.38
326.999	550.38
327.228	547.38
327.457	548.38
327.686	558.38
327.914	541.38
328.143	548.38
328.372	550.38
328.6	547.38
328.829	568.38
329.058	558.38
329.287	542.38
329.515	540.38
329.744	565.38
329.972	584.38
330.201	556.38
330.43	565.38
330.658	591.38
330.887	586.38
331.115	572.38
331.344	583.38
331.572	573.38
331.801	619.38
332.03	608.38
332.258	614.38
332.486	639.38
332.715	648.38
332.943	668.38
333.172	698.38
333.4	705.38
333.629	720.38
333.857	731.38
334.085	744.38
334.314	702.38
334.542	700.38
334.771	684.38
334.999	706.38
335.227	688.38
335.455	705.38
335.684	686.38
335.912	695.38
336.14	683.38
336.369	652.38
336.597	673.38
336.825	666.38
337.053	671.38
337.281	688.38
337.51	635.38
337.738	636.38
337.966	631.38
338.194	617.38
338.422	619.38
338.65	628.38
338.878	633.38
339.106	620.38
339.334	613.38
339.562	594.38
339.79	575.38
340.018	615.38
340.246	584.38
340.474	603.38
340.702	589.38
340.93	594.38
341.158	610.38
341.386	613.38
341.614	596.38
341.842	592.38
342.07	601.38
342.298	602.38
342.526	589.38
342.754	593.38
342.981	597.38
343.209	609.38
343.437	636.38
343.665	658.38
343.893	710.38
344.12	703.38
344.348	693.38
344.576	668.38
344.804	640.38
345.031	634.38
345.259	612.38
345.487	590.38
345.714	601.38
345.942	615.38
346.17	600.38
346.397	600.38
346.625	596.38
346.853	574.38
347.08	570.38
347.308	570.38
347.535	581.38
347.763	585.38
347.99	578.38
348.218	568.38
348.445	571.38
348.673	547.38
348.9	568.38
349.128	580.38
349.355	565.38
349.583	569.38
349.81	557.38
350.037	574.38
350.265	546.38
350.492	564.38
350.72	537.38
350.947	553.38
351.174	572.38
351.402	586.38
351.629	569.38
351.856	542.38
352.083	553.38
352.311	555.38
352.538	570.38
352.765	544.38
352.992	549.38
353.22	532.38
353.447	558.38
353.674	528.38
353.901	545.38
354.128	539.38
354.355	525.38
354.583	545.38
354.81	543.38
355.037	574.38
355.264	545.38
355.491	539.38
355.718	556.38
355.945	543.38
356.172	564.38
356.399	583.38
356.626	570.38
356.853	569.38
357.08	556.38
357.307	540.38
357.534	547.38
357.761	548.38
357.988	569.38
358.215	530.38
358.441	530.38
358.668	537.38
358.895	540.38
359.122	517.38
359.349	551.38
359.576	546.38
359.802	563.38
360.029	564.38
360.256	575.38
360.483	556.38
360.709	533.38
360.936	548.38
361.163	563.38
361.39	574.38
361.616	543.38
361.843	572.38
362.07	578.38
362.296	573.38
362.523	533.38
362.749	571.38
362.976	531.38
363.203	575.38
363.429	532.38
363.656	562.38
363.882	562.38
364.109	544.38
364.335	544.38
364.562	567.38
364.788	546.38
365.015	545.38
365.241	553.38
365.468	537.38
365.694	554.38
365.92	561.38
366.147	544.38
366.373	548.38
366.599	522.38
366.826	539.38
367.052	541.38
367.278	548.38
367.505	533.38
367.731	582.38
367.957	550.38
368.184	560.38
368.41	571.38
368.636	605.38
368.862	558.38
369.089	553.38
369.315	558.38
369.541	577.38
369.767	573.38
369.993	582.38
370.219	598.38
370.445	576.38
370.672	588.38
370.898	587.38
371.124	615.38
371.35	586.38
371.576	587.38
371.802	596.38
372.028	570.38
372.254	601.38
372.48	604.38
372.706	602.38
372.932	602.38
373.158	588.38
373.384	595.38
373.61	610.38
373.835	604.38
374.061	602.38
374.287	589.38
374.513	611.38
374.739	630.38
374.965	646.38
375.191	658.38
375.416	658.38
375.642	635.38
375.868	624.38
376.094	629.38
376.319	603.38
376.545	630.38
376.771	608.38
376.997	601.38
377.222	605.38
377.448	586.38
377.674	591.38
377.899	602.38
378.125	611.38
378.35	577.38
378.576	584.38
378.802	582.38
379.027	593.38
379.253	592.38
379.478	573.38
379.704	574.38
379.929	598.38
380.155	570.38
380.38	611.38
380.606	608.38
380.831	581.38
381.057	577.38
381.282	594.38
381.507	609.38
381.733	606.38
381.958	612.38
382.184	597.38
382.409	618.38
382.634	620.38
382.86	617.38
383.085	626.38
383.31	628.38
383.535	640.38
383.761	643.38
383.986	655.38
384.211	667.38
384.436	697.38
384.662	706.38
384.887	692.38
385.112	706.38
385.337	712.38
385.562	726.38
385.787	702.38
386.013	720.38
386.238	698.38
386.463	725.38
386.688	714.38
386.913	693.38
387.138	681.38
387.363	701.38
387.588	698.38
387.813	708.38
388.038	701.38
388.263	666.38
388.488	701.38
388.713	696.38
388.938	691.38
389.163	678.38
389.387	708.38
389.612	677.38
389.837	711.38
390.062	663.38
390.287	685.38
390.512	704.38
390.736	702.38
390.961	723.38
391.186	728.38
391.411	745.38
391.636	755.38
391.86	770.38
392.085	797.38
392.31	781.38
392.534	784.38
392.759	755.38
392.984	714.38
393.208	746.38
393.433	729.38
393.658	721.38
393.882	717.38
394.107	726.38
394.331	758.38
394.556	733.38
394.78	741.38
395.005	746.38
395.229	757.38
395.454	786.38
395.678	797.38
395.903	789.38
396.127	787.38
396.352	733.38
396.576	719.38
396.801	752.38
397.025	758.38
397.249	770.38
397.474	783.38
397.698	795.38
397.922	789.38
398.147	814.38
398.371	820.38
398.595	840.38
398.82	887.38
399.044	921.38
399.268	1023.38
399.492	1145.38
399.717	1256.38
399.941	1278.38
400.165	1139.38
400.389	1036.38
400.613	996.38
400.837	903.38
401.062	897.38
401.286	903.38
401.51	865.38
401.734	875.38
401.958	880.38
402.182	886.38
402.406	899.38
402.63	897.38
402.854	907.38
403.078	935.38
403.302	975.38
403.526	977.38
403.75	993.38
403.974	986.38
404.198	979.38
404.422	1004.38
404.645	1009.38
404.869	1001.38
405.093	974.38
405.317	958.38
405.541	975.38
405.765	966.38
405.988	961.38
406.212	955.38
406.436	977.38
406.66	980.38
406.883	988.38
407.107	1052.38
407.331	1076.38
407.555	1113.38
407.778	1107.38
408.002	1073.38
408.226	1042.38
408.449	1058.38
408.673	999.38
408.896	994.38
409.12	939.38
409.344	978.38
409.567	959.38
409.791	995.38
410.014	950.38
410.238	924.38
410.461	990.38
410.685	950.38
410.908	896.38
411.132	918.38
411.355	900.38
411.578	911.38
411.802	909.38
412.025	891.38
412.249	907.38
412.472	926.38
412.695	901.38
412.919	896.38
413.142	867.38
413.365	886.38
413.589	882.38
413.812	908.38
414.035	880.38
414.258	855.38
414.482	876.38
414.705	900.38
414.928	886.38
415.151	875.38
415.374	860.38
415.597	848.38
415.821	854.38
416.044	863.38
416.267	850.38
416.49	828.38
416.713	832.38
416.936	862.38
417.159	869.38
417.382	848.38
417.605	870.38
417.828	868.38
418.051	851.38
418.274	857.38
418.497	851.38
418.72	860.38
418.943	907.38
419.166	944.38
419.389	999.38
419.611	949.38
419.834	923.38
420.057	911.38
420.28	869.38
420.503	841.38
420.726	856.38
420.948	850.38
421.171	833.38
421.394	873.38
421.617	846.38
421.839	842.38
422.062	850.38
422.285	869.38
422.507	873.38
422.73	894.38
422.953	866.38
423.175	881.38
423.398	888.38
423.621	877.38
423.843	928.38
424.066	927.38
424.288	920.38
424.511	904.38
424.733	901.38
424.956	882.38
425.178	880.38
425.401	877.38
425.623	876.38
425.846	843.38
426.068	837.38
426.291	805.38
426.513	830.38
426.735	822.38
426.958	810.38
427.18	786.38
427.402	795.38
427.625	796.38
427.847	811.38
428.069	831.38
428.292	782.38
428.514	746.38
428.736	773.38
428.958	800.38
429.181	752.38
429.403	752.38
429.625	769.38
429.847	754.38
430.069	759.38
430.292	768.38
430.514	746.38
430.736	772.38
430.958	744.38
431.18	764.38
431.402	782.38
431.624	774.38
431.846	745.38
432.068	789.38
432.29	788.38
432.512	779.38
432.734	793.38
432.956	775.38
433.178	782.38
433.4	790.38
433.622	786.38
433.844	803.38
434.066	775.38
434.287	811.38
434.509	803.38
434.731	837.38
434.953	874.38
435.175	851.38
435.397	877.38
435.618	823.38
435.84	795.38
436.062	792.38
436.284	784.38
436.505	763.38
436.727	776.38
436.949	782.38
437.17	796.38
437.392	768.38
437.614	768.38
437.835	751.38
438.057	749.38
438.278	766.38
438.5	752.38
438.721	728.38
438.943	748.38
439.165	747.38
439.386	731.38
439.608	778.38
439.829	768.38
440.05	786.38
440.272	787.38
440.493	798.38
440.715	797.38
440.936	792.38
441.158	802.38
441.379	846.38
441.6	869.38
441.822	858.38
442.043	875.38
442.264	868.38
442.486	859.38
442.707	846.38
442.928	847.38
443.149	840.38
443.371	854.38
443.592	860.38
443.813	859.38
444.034	880.38
444.255	869.38
444.476	948.38
444.698	956.38
444.919	996.38
445.14	1133.38
445.361	1010.38
445.582	898.38
445.803	867.38
446.024	803.38
446.245	830.38
446.466	787.38
446.687	800.38
446.908	761.38
447.129	759.38
447.35	741.38
447.571	725.38
447.792	732.38
448.013	749.38
448.234	711.38
448.455	726.38
448.675	721.38
448.896	725.38
449.117	705.38
449.338	700.38
449.559	714.38
449.779	722.38
450	723.38
450.221	717.38
450.442	694.38
450.662	725.38
450.883	743.38
451.104	722.38
451.324	718.38
451.545	726.38
451.766	702.38
451.986	706.38
452.207	709.38
452.428	712.38
452.648	704.38
452.869	675.38
453.089	684.38
453.31	714.38
453.53	694.38
453.751	694.38
453.971	682.38
454.192	697.38
454.412	670.38
454.633	666.38
454.853	684.38
455.073	667.38
455.294	648.38
455.514	678.38
455.734	671.38
455.955	679.38
456.175	681.38
456.395	694.38
456.616	668.38
456.836	688.38
457.056	676.38
457.276	662.38
457.497	669.38
457.717	657.38
457.937	692.38
458.157	680.38
458.377	664.38
458.598	711.38
458.818	742.38
459.038	742.38
459.258	750.38
459.478	776.38
459.698	816.38
459.918	852.38
460.138	846.38
460.358	898.38
460.578	904.38
460.798	931.38
461.018	922.38
461.238	925.38
461.458	889.38
461.678	876.38
461.898	940.38
462.118	914.38
462.338	989.38
462.558	984.38
462.777	988.38
462.997	1120.38
463.217	1178.38
463.437	1180.38
463.657	1134.38
463.876	1058.38
464.096	1056.38
464.316	1056.38
464.536	1076.38
464.755	1026.38
464.975	979.38
465.195	949.38
465.414	896.38
465.634	846.38
465.854	808.38
466.073	814.38
466.293	801.38
466.512	763.38
466.732	774.38
466.951	758.38
467.171	746.38
467.391	746.38
467.61	755.38
467.829	780.38
468.049	763.38
468.268	712.38
468.488	713.38
468.707	734.38
468.927	715.38
469.146	741.38
469.365	747.38
469.585	746.38
469.804	737.38
470.023	779.38
470.243	757.38
470.462	774.38
470.681	769.38
470.901	770.38
471.12	745.38
471.339	738.38
471.558	765.38
471.777	732.38
471.997	741.38
472.216	735.38
472.435	718.38
472.654	719.38
472.873	710.38
473.092	713.38
473.311	715.38
473.53	697.38
473.749	713.38
473.968	714.38
474.187	699.38
474.406	694.38
474.625	724.38
474.844	729.38
475.063	715.38
475.282	732.38
475.501	714.38
475.72	745.38
475.939	723.38
476.158	745.38
476.377	754.38
476.596	741.38
476.814	772.38
477.033	745.38
477.252	761.38
477.471	790.38
477.69	796.38
477.908	851.38
478.127	852.38
478.346	848.38
478.564	857.38
478.783	893.38
479.002	890.38
479.22	906.38
479.439	909.38
479.658	883.38
479.876	889.38
480.095	868.38
480.313	916.38
480.532	914.38
480.751	933.38
480.969	888.38
481.188	867.38
481.406	866.38
481.624	851.38
481.843	838.38
482.061	834.38
482.28	819.38
482.498	799.38
482.717	820.38
482.935	814.38
483.153	841.38
483.372	830.38
483.59	825.38
483.808	826.38
484.027	838.38
484.245	824.38
484.463	797.38
484.681	842.38
484.9	843.38
485.118	869.38
485.336	833.38
485.554	844.38
485.772	853.38
485.99	847.38
486.209	869.38
486.427	844.38
486.645	846.38
486.863	860.38
487.081	841.38
487.299	850.38
487.517	841.38
487.735	869.38
487.953	876.38
488.171	881.38
488.389	852.38
488.607	853.38
488.825	854.38
489.043	845.38
489.261	859.38
489.479	873.38
489.696	874.38
489.914	865.38
490.132	861.38
490.35	867.38
490.568	850.38
490.786	888.38
491.003	890.38
491.221	896.38
491.439	876.38
491.657	866.38
491.874	874.38
492.092	886.38
492.31	906.38
492.527	901.38
492.745	889.38
492.963	896.38
493.18	906.38
493.398	912.38
493.615	906.38
493.833	924.38
494.05	924.38
494.268	915.38
494.485	930.38
494.703	907.38
494.92	944.38
495.138	905.38
495.355	910.38
495.573	916.38
495.79	940.38
496.008	937.38
496.225	932.38
496.442	946.38
496.66	960.38
496.877	974.38
497.094	985.38
497.312	989.38
497.529	1024.38
497.746	1072.38
497.963	1076.38
498.181	1094.38
498.398	1178.38
498.615	1216.38
498.832	1307.38
499.049	1384.38
499.267	1485.38
499.484	1626.38
499.701	1805.38
499.918	1930.38
500.135	2173.38
500.352	2419.38
500.569	2560.38
500.786	2553.38
501.003	2326.38
