Data from NiCl2@0.5M.TitratingCurve.Agarose3%dH2O.NegLispCup.LampEnergy10.LIBS07252019_HRD10591_18-19-11-571.txt Node
Date: Thu Jul 25 18:19:11 EDT 2019
User: cochatt
Spectrometer: HR+D1059
Trigger mode: 1
Integration Time (sec): 1.000000E-1
Scans to average: 1
Electric dark correction enabled: true
Nonlinearity correction enabled: false
Boxcar width: 0
XAxis mode: Wavelengths
Number of Pixels in Spectrum: 2048
>>>>>Begin Spectral Data<<<<<
223.165	-15.81
223.4	-15.81
223.635	-15.81
223.869	-18.81
224.104	-22.81
224.338	-20.81
224.573	-10.81
224.808	-5.81
225.042	-20.81
225.277	-8.81
225.511	-12.81
225.746	-2.81
225.98	19.19
226.215	7.19
226.449	20.19
226.683	20.19
226.918	27.19
227.152	46.19
227.387	38.19
227.621	28.19
227.856	47.19
228.09	54.19
228.324	40.19
228.559	65.19
228.793	60.19
229.027	111.19
229.262	100.19
229.496	111.19
229.73	104.19
229.964	136.19
230.199	123.19
230.433	142.19
230.667	145.19
230.901	130.19
231.136	135.19
231.37	129.19
231.604	137.19
231.838	148.19
232.072	157.19
232.306	150.19
232.541	175.19
232.775	149.19
233.009	136.19
233.243	134.19
233.477	139.19
233.711	160.19
233.945	156.19
234.179	142.19
234.413	164.19
234.647	158.19
234.881	150.19
235.115	123.19
235.349	144.19
235.583	155.19
235.817	146.19
236.051	146.19
236.285	156.19
236.519	158.19
236.753	146.19
236.987	153.19
237.221	155.19
237.455	138.19
237.689	150.19
237.922	144.19
238.156	150.19
238.39	161.19
238.624	171.19
238.858	162.19
239.091	181.19
239.325	178.19
239.559	182.19
239.793	176.19
240.027	186.19
240.26	178.19
240.494	162.19
240.728	175.19
240.961	164.19
241.195	182.19
241.429	171.19
241.662	198.19
241.896	201.19
242.13	193.19
242.363	184.19
242.597	193.19
242.83	181.19
243.064	181.19
243.298	190.19
243.531	183.19
243.765	196.19
243.998	213.19
244.232	188.19
244.465	183.19
244.699	193.19
244.932	196.19
245.166	186.19
245.399	200.19
245.633	211.19
245.866	219.19
246.099	197.19
246.333	229.19
246.566	201.19
246.8	213.19
247.033	214.19
247.266	208.19
247.5	201.19
247.733	219.19
247.966	219.19
248.2	235.19
248.433	216.19
248.666	211.19
248.899	223.19
249.133	223.19
249.366	221.19
249.599	209.19
249.832	220.19
250.066	232.19
250.299	237.19
250.532	216.19
250.765	229.19
250.998	228.19
251.231	243.19
251.465	262.19
251.698	252.19
251.931	248.19
252.164	249.19
252.397	249.19
252.63	262.19
252.863	253.19
253.096	242.19
253.329	234.19
253.562	277.19
253.795	264.19
254.028	265.19
254.261	259.19
254.494	261.19
254.727	271.19
254.96	277.19
255.193	253.19
255.426	262.19
255.659	261.19
255.892	276.19
256.124	286.19
256.357	279.19
256.59	279.19
256.823	288.19
257.056	293.19
257.289	268.19
257.521	276.19
257.754	289.19
257.987	295.19
258.22	277.19
258.452	295.19
258.685	299.19
258.918	276.19
259.151	284.19
259.383	291.19
259.616	289.19
259.849	315.19
260.081	300.19
260.314	296.19
260.547	306.19
260.779	297.19
261.012	294.19
261.244	308.19
261.477	318.19
261.71	310.19
261.942	311.19
262.175	313.19
262.407	330.19
262.64	315.19
262.872	309.19
263.105	307.19
263.337	321.19
263.57	309.19
263.802	334.19
264.035	343.19
264.267	345.19
264.499	320.19
264.732	332.19
264.964	332.19
265.197	337.19
265.429	333.19
265.661	332.19
265.894	340.19
266.126	338.19
266.358	330.19
266.591	350.19
266.823	351.19
267.055	333.19
267.287	318.19
267.52	334.19
267.752	352.19
267.984	335.19
268.216	354.19
268.448	340.19
268.681	358.19
268.913	370.19
269.145	352.19
269.377	348.19
269.609	353.19
269.841	380.19
270.073	363.19
270.306	359.19
270.538	359.19
270.77	367.19
271.002	361.19
271.234	336.19
271.466	355.19
271.698	368.19
271.93	370.19
272.162	382.19
272.394	378.19
272.626	378.19
272.858	372.19
273.09	395.19
273.322	376.19
273.553	397.19
273.785	400.19
274.017	397.19
274.249	376.19
274.481	384.19
274.713	399.19
274.945	395.19
275.176	399.19
275.408	407.19
275.64	411.19
275.872	402.19
276.104	408.19
276.335	410.19
276.567	394.19
276.799	422.19
277.031	400.19
277.262	414.19
277.494	425.19
277.726	424.19
277.957	428.19
278.189	421.19
278.421	421.19
278.652	431.19
278.884	436.19
279.115	432.19
279.347	439.19
279.579	459.19
279.81	410.19
280.042	414.19
280.273	417.19
280.505	434.19
280.736	420.19
280.968	435.19
281.199	440.19
281.431	457.19
281.662	435.19
281.894	434.19
282.125	469.19
282.356	451.19
282.588	436.19
282.819	442.19
283.051	449.19
283.282	444.19
283.513	438.19
283.745	467.19
283.976	453.19
284.207	472.19
284.439	461.19
284.67	465.19
284.901	485.19
285.132	490.19
285.364	473.19
285.595	476.19
285.826	469.19
286.057	482.19
286.288	481.19
286.52	487.19
286.751	472.19
286.982	484.19
287.213	470.19
287.444	478.19
287.675	495.19
287.906	468.19
288.138	482.19
288.369	472.19
288.6	503.19
288.831	469.19
289.062	491.19
289.293	507.19
289.524	473.19
289.755	491.19
289.986	516.19
290.217	502.19
290.448	506.19
290.679	506.19
290.91	522.19
291.141	507.19
291.371	527.19
291.602	514.19
291.833	498.19
292.064	525.19
292.295	495.19
292.526	523.19
292.757	519.19
292.987	512.19
293.218	507.19
293.449	503.19
293.68	512.19
293.91	510.19
294.141	522.19
294.372	518.19
294.603	498.19
294.833	503.19
295.064	528.19
295.295	529.19
295.525	520.19
295.756	516.19
295.987	523.19
296.217	508.19
296.448	552.19
296.679	518.19
296.909	517.19
297.14	534.19
297.37	545.19
297.601	533.19
297.831	559.19
298.062	526.19
298.292	562.19
298.523	583.19
298.753	569.19
298.984	542.19
299.214	585.19
299.445	552.19
299.675	569.19
299.905	563.19
300.136	575.19
300.366	560.19
300.597	586.19
300.827	593.19
301.057	596.19
301.288	593.19
301.518	578.19
301.748	600.19
301.979	585.19
302.209	587.19
302.439	580.19
302.669	592.19
302.9	598.19
303.13	555.19
303.36	572.19
303.59	577.19
303.82	598.19
304.051	600.19
304.281	594.19
304.511	575.19
304.741	581.19
304.971	584.19
305.201	595.19
305.431	593.19
305.661	603.19
305.891	596.19
306.121	581.19
306.352	551.19
306.582	571.19
306.812	556.19
307.042	591.19
307.272	600.19
307.502	581.19
307.731	584.19
307.961	575.19
308.191	559.19
308.421	590.19
308.651	602.19
308.881	553.19
309.111	594.19
309.341	578.19
309.571	599.19
309.8	583.19
310.03	598.19
310.26	611.19
310.49	618.19
310.72	610.19
310.949	591.19
311.179	618.19
311.409	593.19
311.639	602.19
311.868	606.19
312.098	593.19
312.328	581.19
312.557	605.19
312.787	598.19
313.017	616.19
313.246	608.19
313.476	632.19
313.706	641.19
313.935	619.19
314.165	649.19
314.394	632.19
314.624	606.19
314.853	634.19
315.083	624.19
315.312	632.19
315.542	623.19
315.771	628.19
316.001	649.19
316.23	630.19
316.46	626.19
316.689	641.19
316.919	618.19
317.148	629.19
317.377	601.19
317.607	636.19
317.836	618.19
318.065	602.19
318.295	607.19
318.524	604.19
318.753	625.19
318.983	624.19
319.212	630.19
319.441	643.19
319.67	630.19
319.9	630.19
320.129	611.19
320.358	626.19
320.587	624.19
320.816	634.19
321.046	599.19
321.275	617.19
321.504	639.19
321.733	646.19
321.962	626.19
322.191	656.19
322.42	644.19
322.649	619.19
322.878	630.19
323.108	638.19
323.337	652.19
323.566	639.19
323.795	658.19
324.024	670.19
324.253	634.19
324.482	640.19
324.71	673.19
324.939	652.19
325.168	650.19
325.397	660.19
325.626	664.19
325.855	682.19
326.084	680.19
326.313	691.19
326.542	666.19
326.77	687.19
326.999	680.19
327.228	693.19
327.457	681.19
327.686	704.19
327.914	702.19
328.143	676.19
328.372	682.19
328.6	677.19
328.829	697.19
329.058	671.19
329.287	681.19
329.515	651.19
329.744	679.19
329.972	706.19
330.201	711.19
330.43	704.19
330.658	720.19
330.887	731.19
331.115	696.19
331.344	706.19
331.572	730.19
331.801	751.19
332.03	732.19
332.258	786.19
332.486	769.19
332.715	785.19
332.943	818.19
333.172	832.19
333.4	841.19
333.629	856.19
333.857	842.19
334.085	872.19
334.314	859.19
334.542	853.19
334.771	836.19
334.999	852.19
335.227	812.19
335.455	833.19
335.684	807.19
335.912	803.19
336.14	832.19
336.369	834.19
336.597	812.19
336.825	823.19
337.053	830.19
337.281	801.19
337.51	798.19
337.738	752.19
337.966	787.19
338.194	785.19
338.422	759.19
338.65	750.19
338.878	761.19
339.106	767.19
339.334	764.19
339.562	723.19
339.79	713.19
340.018	716.19
340.246	702.19
340.474	690.19
340.702	698.19
340.93	712.19
341.158	721.19
341.386	734.19
341.614	753.19
341.842	734.19
342.07	690.19
342.298	699.19
342.526	736.19
342.754	711.19
342.981	722.19
343.209	712.19
343.437	758.19
343.665	795.19
343.893	827.19
344.12	862.19
344.348	820.19
344.576	792.19
344.804	764.19
345.031	715.19
345.259	752.19
345.487	720.19
345.714	734.19
345.942	720.19
346.17	738.19
346.397	742.19
346.625	715.19
346.853	677.19
347.08	686.19
347.308	694.19
347.535	674.19
347.763	683.19
347.99	689.19
348.218	687.19
348.445	685.19
348.673	666.19
348.9	692.19
349.128	658.19
349.355	700.19
349.583	714.19
349.81	677.19
350.037	681.19
350.265	661.19
350.492	662.19
350.72	674.19
350.947	670.19
351.174	670.19
351.402	672.19
351.629	700.19
351.856	684.19
352.083	671.19
352.311	659.19
352.538	682.19
352.765	679.19
352.992	671.19
353.22	646.19
353.447	644.19
353.674	654.19
353.901	648.19
354.128	632.19
354.355	643.19
354.583	646.19
354.81	645.19
355.037	658.19
355.264	677.19
355.491	681.19
355.718	642.19
355.945	636.19
356.172	667.19
356.399	672.19
356.626	672.19
356.853	691.19
357.08	652.19
357.307	638.19
357.534	674.19
357.761	667.19
357.988	658.19
358.215	678.19
358.441	642.19
358.668	632.19
358.895	659.19
359.122	651.19
359.349	643.19
359.576	676.19
359.802	661.19
360.029	656.19
360.256	679.19
360.483	657.19
360.709	662.19
360.936	651.19
361.163	632.19
361.39	676.19
361.616	686.19
361.843	671.19
362.07	682.19
362.296	684.19
362.523	632.19
362.749	641.19
362.976	654.19
363.203	638.19
363.429	638.19
363.656	639.19
363.882	663.19
364.109	644.19
364.335	652.19
364.562	656.19
364.788	636.19
365.015	646.19
365.241	660.19
365.468	652.19
365.694	667.19
365.92	627.19
366.147	643.19
366.373	655.19
366.599	660.19
366.826	651.19
367.052	628.19
367.278	639.19
367.505	631.19
367.731	646.19
367.957	636.19
368.184	671.19
368.41	693.19
368.636	638.19
368.862	671.19
369.089	665.19
369.315	654.19
369.541	641.19
369.767	679.19
369.993	676.19
370.219	653.19
370.445	686.19
370.672	680.19
370.898	679.19
371.124	690.19
371.35	682.19
371.576	679.19
371.802	679.19
372.028	682.19
372.254	674.19
372.48	698.19
372.706	708.19
372.932	742.19
373.158	676.19
373.384	699.19
373.61	680.19
373.835	690.19
374.061	687.19
374.287	705.19
374.513	710.19
374.739	738.19
374.965	707.19
375.191	727.19
375.416	750.19
375.642	705.19
375.868	728.19
376.094	704.19
376.319	664.19
376.545	684.19
376.771	689.19
376.997	686.19
377.222	682.19
377.448	694.19
377.674	682.19
377.899	678.19
378.125	678.19
378.35	678.19
378.576	708.19
378.802	649.19
379.027	677.19
379.253	684.19
379.478	690.19
379.704	661.19
379.929	691.19
380.155	656.19
380.38	674.19
380.606	671.19
380.831	686.19
381.057	676.19
381.282	673.19
381.507	660.19
381.733	673.19
381.958	666.19
382.184	678.19
382.409	711.19
382.634	704.19
382.86	703.19
383.085	681.19
383.31	686.19
383.535	702.19
383.761	730.19
383.986	739.19
384.211	755.19
384.436	762.19
384.662	771.19
384.887	768.19
385.112	792.19
385.337	781.19
385.562	782.19
385.787	760.19
386.013	804.19
386.238	786.19
386.463	799.19
386.688	810.19
386.913	784.19
387.138	775.19
387.363	742.19
387.588	740.19
387.813	772.19
388.038	770.19
388.263	774.19
388.488	779.19
388.713	799.19
388.938	800.19
389.163	770.19
389.387	804.19
389.612	750.19
389.837	790.19
390.062	773.19
390.287	777.19
390.512	771.19
390.736	780.19
390.961	779.19
391.186	808.19
391.411	832.19
391.636	850.19
391.86	851.19
392.085	847.19
392.31	864.19
392.534	847.19
392.759	833.19
392.984	810.19
393.208	830.19
393.433	824.19
393.658	839.19
393.882	845.19
394.107	829.19
394.331	849.19
394.556	835.19
394.78	831.19
395.005	871.19
395.229	857.19
395.454	863.19
395.678	902.19
395.903	863.19
396.127	864.19
396.352	840.19
396.576	850.19
396.801	841.19
397.025	869.19
397.249	857.19
397.474	901.19
397.698	878.19
397.922	878.19
398.147	900.19
398.371	894.19
398.595	910.19
398.82	965.19
399.044	1024.19
399.268	1117.19
399.492	1264.19
399.717	1353.19
399.941	1360.19
400.165	1226.19
400.389	1118.19
400.613	1075.19
400.837	1034.19
401.062	998.19
401.286	967.19
401.51	989.19
401.734	993.19
401.958	976.19
402.182	981.19
402.406	994.19
402.63	1000.19
402.854	1006.19
403.078	1068.19
403.302	1040.19
403.526	1077.19
403.75	1103.19
403.974	1104.19
404.198	1104.19
404.422	1078.19
404.645	1079.19
404.869	1063.19
405.093	1050.19
405.317	1057.19
405.541	1065.19
405.765	1053.19
405.988	1044.19
406.212	1086.19
406.436	1041.19
406.66	1097.19
406.883	1108.19
407.107	1175.19
407.331	1217.19
407.555	1220.19
407.778	1222.19
408.002	1213.19
408.226	1169.19
408.449	1148.19
408.673	1122.19
408.896	1090.19
409.12	1088.19
409.344	1098.19
409.567	1075.19
409.791	1097.19
410.014	1099.19
410.238	1083.19
410.461	1070.19
410.685	1069.19
410.908	1046.19
411.132	1051.19
411.355	1037.19
411.578	1028.19
411.802	986.19
412.025	1015.19
412.249	1034.19
412.472	1036.19
412.695	1049.19
412.919	976.19
413.142	994.19
413.365	993.19
413.589	987.19
413.812	978.19
414.035	984.19
414.258	982.19
414.482	963.19
414.705	976.19
414.928	999.19
415.151	991.19
415.374	979.19
415.597	1001.19
415.821	979.19
416.044	964.19
416.267	982.19
416.49	974.19
416.713	970.19
416.936	969.19
417.159	944.19
417.382	951.19
417.605	971.19
417.828	968.19
418.051	987.19
418.274	972.19
418.497	958.19
418.72	997.19
418.943	1017.19
419.166	1059.19
419.389	1132.19
419.611	1087.19
419.834	1062.19
420.057	1022.19
420.28	1003.19
420.503	982.19
420.726	966.19
420.948	974.19
421.171	980.19
421.394	982.19
421.617	984.19
421.839	984.19
422.062	962.19
422.285	969.19
422.507	990.19
422.73	986.19
422.953	980.19
423.175	1032.19
423.398	1032.19
423.621	1016.19
423.843	1044.19
424.066	1012.19
424.288	1007.19
424.511	1018.19
424.733	983.19
424.956	987.19
425.178	1004.19
425.401	980.19
425.623	998.19
425.846	969.19
426.068	963.19
426.291	924.19
426.513	907.19
426.735	949.19
426.958	952.19
427.18	931.19
427.402	932.19
427.625	952.19
427.847	934.19
428.069	896.19
428.292	937.19
428.514	927.19
428.736	896.19
428.958	931.19
429.181	890.19
429.403	875.19
429.625	891.19
429.847	900.19
430.069	900.19
430.292	910.19
430.514	878.19
430.736	901.19
430.958	901.19
431.18	883.19
431.402	903.19
431.624	922.19
431.846	912.19
432.068	920.19
432.29	939.19
432.512	924.19
432.734	921.19
432.956	929.19
433.178	931.19
433.4	925.19
433.622	935.19
433.844	954.19
434.066	930.19
434.287	958.19
434.509	949.19
434.731	972.19
434.953	1028.19
435.175	1032.19
435.397	1038.19
435.618	927.19
435.84	969.19
436.062	944.19
436.284	944.19
436.505	904.19
436.727	925.19
436.949	933.19
437.17	940.19
437.392	903.19
437.614	904.19
437.835	906.19
438.057	876.19
438.278	907.19
438.5	867.19
438.721	875.19
438.943	905.19
439.165	892.19
439.386	902.19
439.608	922.19
439.829	930.19
440.05	944.19
440.272	927.19
440.493	915.19
440.715	936.19
440.936	946.19
441.158	997.19
441.379	999.19
441.6	1041.19
441.822	1035.19
442.043	1043.19
442.264	1040.19
442.486	998.19
442.707	1022.19
442.928	1006.19
443.149	1038.19
443.371	1036.19
443.592	1059.19
443.813	1067.19
444.034	1035.19
444.255	1063.19
444.476	1136.19
444.698	1142.19
444.919	1178.19
445.14	1269.19
445.361	1147.19
445.582	1030.19
445.803	1018.19
446.024	1019.19
446.245	961.19
446.466	959.19
446.687	966.19
446.908	931.19
447.129	931.19
447.35	915.19
447.571	896.19
447.792	900.19
448.013	882.19
448.234	891.19
448.455	879.19
448.675	909.19
448.896	878.19
449.117	872.19
449.338	867.19
449.559	871.19
449.779	865.19
450	885.19
450.221	866.19
450.442	873.19
450.662	877.19
450.883	878.19
451.104	894.19
451.324	887.19
451.545	863.19
451.766	891.19
451.986	881.19
452.207	868.19
452.428	872.19
452.648	878.19
452.869	860.19
453.089	855.19
453.31	859.19
453.53	850.19
453.751	844.19
453.971	830.19
454.192	836.19
454.412	815.19
454.633	838.19
454.853	863.19
455.073	818.19
455.294	808.19
455.514	812.19
455.734	823.19
455.955	811.19
456.175	824.19
456.395	845.19
456.616	807.19
456.836	824.19
457.056	800.19
457.276	780.19
457.497	833.19
457.717	825.19
457.937	819.19
458.157	816.19
458.377	857.19
458.598	868.19
458.818	889.19
459.038	871.19
459.258	907.19
459.478	915.19
459.698	971.19
459.918	996.19
460.138	1020.19
460.358	1083.19
460.578	1059.19
460.798	1106.19
461.018	1077.19
461.238	1114.19
461.458	1082.19
461.678	1049.19
461.898	1077.19
462.118	1100.19
462.338	1156.19
462.558	1151.19
462.777	1205.19
462.997	1269.19
463.217	1395.19
463.437	1391.19
463.657	1264.19
463.876	1261.19
464.096	1220.19
464.316	1264.19
464.536	1266.19
464.755	1220.19
464.975	1163.19
465.195	1122.19
465.414	1060.19
465.634	980.19
465.854	979.19
466.073	974.19
466.293	936.19
466.512	948.19
466.732	910.19
466.951	927.19
467.171	937.19
467.391	950.19
467.61	912.19
467.829	877.19
468.049	902.19
468.268	882.19
468.488	867.19
468.707	904.19
468.927	884.19
469.146	890.19
469.365	890.19
469.585	888.19
469.804	894.19
470.023	916.19
470.243	921.19
470.462	954.19
470.681	952.19
470.901	959.19
471.12	922.19
471.339	952.19
471.558	897.19
471.777	904.19
471.997	886.19
472.216	894.19
472.435	879.19
472.654	886.19
472.873	885.19
473.092	899.19
473.311	864.19
473.53	883.19
473.749	874.19
473.968	883.19
474.187	858.19
474.406	881.19
474.625	872.19
474.844	881.19
475.063	888.19
475.282	934.19
475.501	881.19
475.72	892.19
475.939	919.19
476.158	915.19
476.377	952.19
476.596	907.19
476.814	942.19
477.033	950.19
477.252	954.19
477.471	966.19
477.69	980.19
477.908	977.19
478.127	1054.19
478.346	1044.19
478.564	1056.19
478.783	1052.19
479.002	1085.19
479.22	1095.19
479.439	1095.19
479.658	1068.19
479.876	1081.19
480.095	1090.19
480.313	1136.19
480.532	1192.19
480.751	1155.19
480.969	1111.19
481.188	1053.19
481.406	1063.19
481.624	1037.19
481.843	1017.19
482.061	998.19
482.28	1011.19
482.498	996.19
482.717	1025.19
482.935	1028.19
483.153	1030.19
483.372	1034.19
483.59	1045.19
483.808	1020.19
484.027	983.19
484.245	1036.19
484.463	1047.19
484.681	1052.19
484.9	1075.19
485.118	1039.19
485.336	1054.19
485.554	1061.19
485.772	1070.19
485.99	1046.19
486.209	1037.19
486.427	1075.19
486.645	1076.19
486.863	1049.19
487.081	1057.19
487.299	1042.19
487.517	1053.19
487.735	1080.19
487.953	1086.19
488.171	1104.19
488.389	1097.19
488.607	1046.19
488.825	1048.19
489.043	1050.19
489.261	1029.19
489.479	1067.19
489.696	1055.19
489.914	1072.19
490.132	1066.19
490.35	1094.19
490.568	1069.19
490.786	1092.19
491.003	1067.19
491.221	1111.19
491.439	1095.19
491.657	1105.19
491.874	1123.19
492.092	1100.19
492.31	1125.19
492.527	1134.19
492.745	1120.19
492.963	1129.19
493.18	1148.19
493.398	1102.19
493.615	1138.19
493.833	1141.19
494.05	1136.19
494.268	1120.19
494.485	1146.19
494.703	1134.19
494.92	1130.19
495.138	1136.19
495.355	1150.19
495.573	1145.19
495.79	1164.19
496.008	1181.19
496.225	1140.19
496.442	1160.19
496.66	1205.19
496.877	1158.19
497.094	1194.19
497.312	1224.19
497.529	1242.19
497.746	1271.19
497.963	1290.19
498.181	1361.19
498.398	1414.19
498.615	1459.19
