Data from NiCl2@0.125M.TitratingCurve.Agarose3%dH2O.NegLispCup.LampEnergy10.LIBS07252019_HRD10591_18-28-05-575.txt Node
Date: Thu Jul 25 18:28:05 EDT 2019
User: cochatt
Spectrometer: HR+D1059
Trigger mode: 1
Integration Time (sec): 1.000000E-1
Scans to average: 1
Electric dark correction enabled: true
Nonlinearity correction enabled: false
Boxcar width: 0
XAxis mode: Wavelengths
Number of Pixels in Spectrum: 2048
>>>>>Begin Spectral Data<<<<<
223.165	-18.19
223.4	-18.19
223.635	-18.19
223.869	-17.19
224.104	-20.19
224.338	-28.19
224.573	-24.19
224.808	1.81
225.042	2.81
225.277	-13.19
225.511	-14.19
225.746	-0.19
225.98	-5.19
226.215	12.81
226.449	26.81
226.683	36.81
226.918	33.81
227.152	25.81
227.387	35.81
227.621	39.81
227.856	52.81
228.09	52.81
228.324	49.81
228.559	50.81
228.793	59.81
229.027	103.81
229.262	104.81
229.496	101.81
229.73	111.81
229.964	112.81
230.199	138.81
230.433	128.81
230.667	145.81
230.901	130.81
231.136	120.81
231.37	139.81
231.604	150.81
231.838	152.81
232.072	155.81
232.306	155.81
232.541	147.81
232.775	134.81
233.009	144.81
233.243	141.81
233.477	161.81
233.711	142.81
233.945	145.81
234.179	147.81
234.413	170.81
234.647	135.81
234.881	154.81
235.115	152.81
235.349	145.81
235.583	154.81
235.817	149.81
236.051	149.81
236.285	151.81
236.519	155.81
236.753	166.81
236.987	153.81
237.221	146.81
237.455	146.81
237.689	155.81
237.922	162.81
238.156	157.81
238.39	152.81
238.624	184.81
238.858	188.81
239.091	160.81
239.325	163.81
239.559	151.81
239.793	161.81
240.027	167.81
240.26	167.81
240.494	180.81
240.728	174.81
240.961	183.81
241.195	177.81
241.429	179.81
241.662	196.81
241.896	183.81
242.13	175.81
242.363	182.81
242.597	199.81
242.83	188.81
243.064	189.81
243.298	188.81
243.531	180.81
243.765	190.81
243.998	198.81
244.232	181.81
244.465	193.81
244.699	219.81
244.932	193.81
245.166	207.81
245.399	198.81
245.633	204.81
245.866	213.81
246.099	203.81
246.333	209.81
246.566	211.81
246.8	195.81
247.033	226.81
247.266	216.81
247.5	213.81
247.733	214.81
247.966	224.81
248.2	223.81
248.433	236.81
248.666	223.81
248.899	231.81
249.133	228.81
249.366	240.81
249.599	229.81
249.832	232.81
250.066	227.81
250.299	238.81
250.532	254.81
250.765	238.81
250.998	240.81
251.231	236.81
251.465	266.81
251.698	249.81
251.931	259.81
252.164	269.81
252.397	245.81
252.63	262.81
252.863	268.81
253.096	258.81
253.329	250.81
253.562	278.81
253.795	260.81
254.028	262.81
254.261	277.81
254.494	259.81
254.727	271.81
254.96	274.81
255.193	265.81
255.426	254.81
255.659	264.81
255.892	279.81
256.124	264.81
256.357	272.81
256.59	274.81
256.823	248.81
257.056	253.81
257.289	289.81
257.521	289.81
257.754	287.81
257.987	283.81
258.22	277.81
258.452	273.81
258.685	294.81
258.918	271.81
259.151	290.81
259.383	295.81
259.616	304.81
259.849	293.81
260.081	310.81
260.314	317.81
260.547	297.81
260.779	302.81
261.012	312.81
261.244	299.81
261.477	294.81
261.71	312.81
261.942	305.81
262.175	315.81
262.407	311.81
262.64	311.81
262.872	325.81
263.105	321.81
263.337	336.81
263.57	308.81
263.802	328.81
264.035	318.81
264.267	314.81
264.499	346.81
264.732	337.81
264.964	339.81
265.197	317.81
265.429	353.81
265.661	336.81
265.894	355.81
266.126	337.81
266.358	350.81
266.591	346.81
266.823	327.81
267.055	322.81
267.287	332.81
267.52	323.81
267.752	349.81
267.984	353.81
268.216	367.81
268.448	362.81
268.681	336.81
268.913	357.81
269.145	353.81
269.377	340.81
269.609	363.81
269.841	364.81
270.073	362.81
270.306	352.81
270.538	342.81
270.77	339.81
271.002	374.81
271.234	350.81
271.466	353.81
271.698	370.81
271.93	358.81
272.162	366.81
272.394	373.81
272.626	375.81
272.858	368.81
273.09	380.81
273.322	362.81
273.553	376.81
273.785	388.81
274.017	404.81
274.249	393.81
274.481	386.81
274.713	394.81
274.945	396.81
275.176	407.81
275.408	401.81
275.64	403.81
275.872	392.81
276.104	402.81
276.335	404.81
276.567	406.81
276.799	414.81
277.031	398.81
277.262	398.81
277.494	399.81
277.726	399.81
277.957	403.81
278.189	410.81
278.421	411.81
278.652	401.81
278.884	432.81
279.115	410.81
279.347	409.81
279.579	404.81
279.81	410.81
280.042	411.81
280.273	423.81
280.505	392.81
280.736	402.81
280.968	441.81
281.199	449.81
281.431	432.81
281.662	462.81
281.894	438.81
282.125	420.81
282.356	450.81
282.588	446.81
282.819	442.81
283.051	445.81
283.282	435.81
283.513	461.81
283.745	460.81
283.976	462.81
284.207	464.81
284.439	472.81
284.67	450.81
284.901	462.81
285.132	470.81
285.364	457.81
285.595	474.81
285.826	465.81
286.057	454.81
286.288	476.81
286.52	455.81
286.751	490.81
286.982	478.81
287.213	485.81
287.444	464.81
287.675	476.81
287.906	476.81
288.138	477.81
288.369	485.81
288.6	488.81
288.831	481.81
289.062	481.81
289.293	478.81
289.524	493.81
289.755	484.81
289.986	499.81
290.217	492.81
290.448	468.81
290.679	485.81
290.91	508.81
291.141	514.81
291.371	494.81
291.602	500.81
291.833	506.81
292.064	497.81
292.295	497.81
292.526	507.81
292.757	509.81
292.987	504.81
293.218	482.81
293.449	511.81
293.68	517.81
293.91	490.81
294.141	506.81
294.372	508.81
294.603	518.81
294.833	529.81
295.064	506.81
295.295	501.81
295.525	510.81
295.756	518.81
295.987	500.81
296.217	536.81
296.448	532.81
296.679	515.81
296.909	534.81
297.14	529.81
297.37	532.81
297.601	549.81
297.831	549.81
298.062	560.81
298.292	562.81
298.523	558.81
298.753	551.81
298.984	534.81
299.214	565.81
299.445	540.81
299.675	558.81
299.905	556.81
300.136	552.81
300.366	583.81
300.597	572.81
300.827	583.81
301.057	582.81
301.288	584.81
301.518	582.81
301.748	572.81
301.979	590.81
302.209	576.81
302.439	583.81
302.669	589.81
302.9	573.81
303.13	567.81
303.36	592.81
303.59	586.81
303.82	570.81
304.051	577.81
304.281	581.81
304.511	560.81
304.741	576.81
304.971	585.81
305.201	592.81
305.431	573.81
305.661	583.81
305.891	569.81
306.121	570.81
306.352	567.81
306.582	567.81
306.812	538.81
307.042	575.81
307.272	568.81
307.502	572.81
307.731	581.81
307.961	540.81
308.191	549.81
308.421	547.81
308.651	557.81
308.881	559.81
309.111	571.81
309.341	547.81
309.571	555.81
309.8	549.81
310.03	552.81
310.26	545.81
310.49	560.81
310.72	590.81
310.949	581.81
311.179	574.81
311.409	578.81
311.639	607.81
311.868	569.81
312.098	574.81
312.328	576.81
312.557	569.81
312.787	586.81
313.017	572.81
313.246	587.81
313.476	594.81
313.706	605.81
313.935	598.81
314.165	609.81
314.394	594.81
314.624	623.81
314.853	594.81
315.083	600.81
315.312	635.81
315.542	598.81
315.771	600.81
316.001	586.81
316.23	578.81
316.46	588.81
316.689	620.81
316.919	581.81
317.148	572.81
317.377	570.81
317.607	577.81
317.836	589.81
318.065	580.81
318.295	584.81
318.524	583.81
318.753	566.81
318.983	566.81
319.212	584.81
319.441	584.81
319.67	571.81
319.9	584.81
320.129	587.81
320.358	587.81
320.587	584.81
320.816	586.81
321.046	609.81
321.275	621.81
321.504	609.81
321.733	604.81
321.962	587.81
322.191	609.81
322.42	589.81
322.649	591.81
322.878	603.81
323.108	607.81
323.337	610.81
323.566	592.81
323.795	606.81
324.024	601.81
324.253	578.81
324.482	600.81
324.71	629.81
324.939	632.81
325.168	607.81
325.397	619.81
325.626	626.81
325.855	618.81
326.084	620.81
326.313	651.81
326.542	630.81
326.77	656.81
326.999	636.81
327.228	630.81
327.457	623.81
327.686	638.81
327.914	626.81
328.143	641.81
328.372	648.81
328.6	637.81
328.829	660.81
329.058	630.81
329.287	624.81
329.515	658.81
329.744	650.81
329.972	652.81
330.201	655.81
330.43	656.81
330.658	672.81
330.887	668.81
331.115	648.81
331.344	690.81
331.572	686.81
331.801	705.81
332.03	686.81
332.258	689.81
332.486	757.81
332.715	743.81
332.943	762.81
333.172	800.81
333.4	823.81
333.629	851.81
333.857	867.81
334.085	863.81
334.314	874.81
334.542	839.81
334.771	825.81
334.999	812.81
335.227	816.81
335.455	811.81
335.684	792.81
335.912	795.81
336.14	757.81
336.369	762.81
336.597	768.81
336.825	768.81
337.053	798.81
337.281	763.81
337.51	727.81
337.738	739.81
337.966	715.81
338.194	714.81
338.422	698.81
338.65	716.81
338.878	672.81
339.106	687.81
339.334	696.81
339.562	698.81
339.79	664.81
340.018	667.81
340.246	653.81
340.474	676.81
340.702	690.81
340.93	682.81
341.158	680.81
341.386	686.81
341.614	712.81
341.842	681.81
342.07	688.81
342.298	681.81
342.526	650.81
342.754	679.81
342.981	674.81
343.209	692.81
343.437	708.81
343.665	752.81
343.893	808.81
344.12	829.81
344.348	816.81
344.576	775.81
344.804	744.81
345.031	722.81
345.259	722.81
345.487	691.81
345.714	672.81
345.942	640.81
346.17	691.81
346.397	661.81
346.625	660.81
346.853	644.81
347.08	643.81
347.308	644.81
347.535	642.81
347.763	683.81
347.99	647.81
348.218	674.81
348.445	646.81
348.673	638.81
348.9	649.81
349.128	640.81
349.355	648.81
349.583	658.81
349.81	630.81
350.037	645.81
350.265	628.81
350.492	632.81
350.72	635.81
350.947	646.81
351.174	648.81
351.402	663.81
351.629	627.81
351.856	651.81
352.083	611.81
352.311	630.81
352.538	640.81
352.765	634.81
352.992	605.81
353.22	622.81
353.447	617.81
353.674	617.81
353.901	612.81
354.128	638.81
354.355	605.81
354.583	617.81
354.81	641.81
355.037	640.81
355.264	634.81
355.491	618.81
355.718	606.81
355.945	628.81
356.172	649.81
356.399	650.81
356.626	642.81
356.853	634.81
357.08	639.81
357.307	652.81
357.534	616.81
357.761	664.81
357.988	642.81
358.215	628.81
358.441	645.81
358.668	608.81
358.895	656.81
359.122	646.81
359.349	619.81
359.576	636.81
359.802	633.81
360.029	642.81
360.256	627.81
360.483	642.81
360.709	634.81
360.936	629.81
361.163	632.81
361.39	640.81
361.616	646.81
361.843	634.81
362.07	642.81
362.296	654.81
362.523	633.81
362.749	641.81
362.976	616.81
363.203	631.81
363.429	623.81
363.656	623.81
363.882	624.81
364.109	639.81
364.335	616.81
364.562	640.81
364.788	618.81
365.015	625.81
365.241	614.81
365.468	623.81
365.694	636.81
365.92	634.81
366.147	633.81
366.373	624.81
366.599	607.81
366.826	602.81
367.052	619.81
367.278	625.81
367.505	638.81
367.731	640.81
367.957	635.81
368.184	628.81
368.41	634.81
368.636	648.81
368.862	643.81
369.089	629.81
369.315	668.81
369.541	641.81
369.767	666.81
369.993	643.81
370.219	630.81
370.445	640.81
370.672	658.81
370.898	675.81
371.124	682.81
371.35	696.81
371.576	681.81
371.802	687.81
372.028	693.81
372.254	695.81
372.48	681.81
372.706	708.81
372.932	728.81
373.158	692.81
373.384	702.81
373.61	680.81
373.835	691.81
374.061	681.81
374.287	706.81
374.513	700.81
374.739	723.81
374.965	736.81
375.191	766.81
375.416	748.81
375.642	744.81
375.868	719.81
376.094	697.81
376.319	694.81
376.545	678.81
376.771	709.81
376.997	697.81
377.222	727.81
377.448	678.81
377.674	690.81
377.899	699.81
378.125	650.81
378.35	673.81
378.576	674.81
378.802	681.81
379.027	672.81
379.253	694.81
379.478	671.81
379.704	672.81
379.929	668.81
380.155	635.81
380.38	661.81
380.606	696.81
380.831	682.81
381.057	702.81
381.282	674.81
381.507	687.81
381.733	690.81
381.958	714.81
382.184	735.81
382.409	698.81
382.634	718.81
382.86	726.81
383.085	703.81
383.31	718.81
383.535	731.81
383.761	743.81
383.986	755.81
384.211	797.81
384.436	789.81
384.662	792.81
384.887	830.81
385.112	815.81
385.337	795.81
385.562	852.81
385.787	842.81
386.013	870.81
386.238	846.81
386.463	798.81
386.688	826.81
386.913	819.81
387.138	837.81
387.363	821.81
387.588	794.81
387.813	800.81
388.038	822.81
388.263	815.81
388.488	839.81
388.713	845.81
388.938	795.81
389.163	830.81
389.387	831.81
389.612	810.81
389.837	799.81
390.062	822.81
390.287	803.81
390.512	818.81
390.736	819.81
390.961	835.81
391.186	837.81
391.411	875.81
391.636	888.81
391.86	913.81
392.085	946.81
392.31	942.81
392.534	885.81
392.759	871.81
392.984	870.81
393.208	845.81
393.433	871.81
393.658	873.81
393.882	904.81
394.107	858.81
394.331	891.81
394.556	851.81
394.78	888.81
395.005	896.81
395.229	895.81
395.454	890.81
395.678	963.81
395.903	955.81
396.127	935.81
396.352	888.81
396.576	883.81
396.801	883.81
397.025	874.81
397.249	907.81
397.474	926.81
397.698	937.81
397.922	958.81
398.147	952.81
398.371	930.81
398.595	987.81
398.82	1020.81
399.044	1103.81
399.268	1188.81
399.492	1372.81
399.717	1536.81
399.941	1578.81
400.165	1467.81
400.389	1300.81
400.613	1140.81
400.837	1130.81
401.062	1062.81
401.286	1074.81
401.51	1054.81
401.734	1025.81
401.958	1042.81
402.182	1059.81
402.406	1052.81
402.63	1078.81
402.854	1104.81
403.078	1118.81
403.302	1146.81
403.526	1168.81
403.75	1148.81
403.974	1182.81
404.198	1155.81
404.422	1187.81
404.645	1178.81
404.869	1136.81
405.093	1176.81
405.317	1147.81
405.541	1162.81
405.765	1156.81
405.988	1131.81
406.212	1143.81
406.436	1131.81
406.66	1182.81
406.883	1169.81
407.107	1262.81
407.331	1304.81
407.555	1326.81
407.778	1326.81
408.002	1308.81
408.226	1296.81
408.449	1286.81
408.673	1210.81
408.896	1152.81
409.12	1166.81
409.344	1170.81
409.567	1151.81
409.791	1177.81
410.014	1148.81
410.238	1128.81
410.461	1159.81
410.685	1150.81
410.908	1106.81
411.132	1090.81
411.355	1038.81
411.578	1110.81
411.802	1060.81
412.025	1082.81
412.249	1097.81
412.472	1112.81
412.695	1034.81
412.919	1036.81
413.142	1031.81
413.365	1035.81
413.589	1056.81
413.812	1020.81
414.035	1044.81
414.258	1033.81
414.482	1040.81
414.705	1062.81
414.928	1047.81
415.151	1062.81
415.374	1019.81
415.597	1061.81
415.821	994.81
416.044	985.81
416.267	987.81
416.49	1016.81
416.713	1011.81
416.936	1028.81
417.159	1007.81
417.382	1001.81
417.605	1010.81
417.828	1030.81
418.051	1036.81
418.274	1026.81
418.497	1021.81
418.72	1052.81
418.943	1037.81
419.166	1144.81
419.389	1199.81
419.611	1161.81
419.834	1111.81
420.057	1112.81
420.28	1027.81
420.503	1022.81
420.726	1038.81
420.948	1008.81
421.171	1042.81
421.394	1047.81
421.617	995.81
421.839	1017.81
422.062	1036.81
422.285	1011.81
422.507	1050.81
422.73	1050.81
422.953	1067.81
423.175	1048.81
423.398	1088.81
423.621	1067.81
423.843	1056.81
424.066	1109.81
424.288	1086.81
424.511	1070.81
424.733	1047.81
424.956	1042.81
425.178	1062.81
425.401	1025.81
425.623	1069.81
425.846	1002.81
426.068	1029.81
426.291	1001.81
426.513	1003.81
426.735	983.81
426.958	986.81
427.18	945.81
427.402	950.81
427.625	970.81
427.847	931.81
428.069	916.81
428.292	948.81
428.514	940.81
428.736	938.81
428.958	926.81
429.181	882.81
429.403	903.81
429.625	888.81
429.847	890.81
430.069	897.81
430.292	912.81
430.514	898.81
430.736	923.81
430.958	923.81
431.18	891.81
431.402	914.81
431.624	887.81
431.846	948.81
432.068	923.81
432.29	927.81
432.512	921.81
432.734	916.81
432.956	925.81
433.178	918.81
433.4	932.81
433.622	961.81
433.844	960.81
434.066	951.81
434.287	952.81
434.509	966.81
434.731	1001.81
434.953	1040.81
435.175	1039.81
435.397	1078.81
435.618	1000.81
435.84	976.81
436.062	952.81
436.284	926.81
436.505	944.81
436.727	949.81
436.949	948.81
437.17	970.81
437.392	939.81
437.614	896.81
437.835	895.81
438.057	910.81
438.278	881.81
438.5	908.81
438.721	900.81
438.943	918.81
439.165	913.81
439.386	904.81
439.608	927.81
439.829	926.81
440.05	942.81
440.272	929.81
440.493	928.81
440.715	953.81
440.936	974.81
441.158	998.81
441.379	1006.81
441.6	1029.81
441.822	1035.81
442.043	1045.81
442.264	1040.81
442.486	1013.81
442.707	1034.81
442.928	1048.81
443.149	1017.81
443.371	1024.81
443.592	1028.81
443.813	1060.81
444.034	1063.81
444.255	1077.81
444.476	1150.81
444.698	1179.81
444.919	1256.81
445.14	1360.81
445.361	1216.81
445.582	1089.81
445.803	1042.81
446.024	994.81
446.245	983.81
446.466	1026.81
446.687	970.81
446.908	945.81
447.129	907.81
447.35	913.81
447.571	902.81
447.792	888.81
448.013	887.81
448.234	870.81
448.455	894.81
448.675	857.81
448.896	857.81
449.117	815.81
449.338	838.81
449.559	849.81
449.779	847.81
450	845.81
450.221	841.81
450.442	864.81
450.662	872.81
450.883	857.81
451.104	881.81
451.324	890.81
451.545	858.81
451.766	878.81
451.986	880.81
452.207	857.81
452.428	871.81
452.648	853.81
452.869	846.81
453.089	815.81
453.31	851.81
453.53	850.81
453.751	826.81
453.971	834.81
454.192	825.81
454.412	804.81
454.633	833.81
454.853	816.81
455.073	827.81
455.294	843.81
455.514	817.81
455.734	807.81
455.955	805.81
456.175	800.81
456.395	802.81
456.616	792.81
456.836	810.81
457.056	814.81
457.276	784.81
457.497	838.81
457.717	822.81
457.937	834.81
458.157	845.81
458.377	834.81
458.598	848.81
458.818	857.81
459.038	862.81
459.258	936.81
459.478	961.81
459.698	990.81
459.918	1030.81
460.138	1046.81
460.358	1101.81
460.578	1091.81
460.798	1120.81
461.018	1152.81
461.238	1106.81
461.458	1090.81
461.678	1128.81
461.898	1146.81
462.118	1105.81
462.338	1189.81
462.558	1237.81
462.777	1290.81
462.997	1381.81
463.217	1447.81
463.437	1490.81
463.657	1435.81
463.876	1317.81
464.096	1333.81
464.316	1303.81
464.536	1289.81
464.755	1265.81
464.975	1236.81
465.195	1188.81
465.414	1087.81
465.634	1050.81
465.854	1010.81
466.073	964.81
466.293	961.81
466.512	939.81
466.732	906.81
466.951	911.81
467.171	904.81
467.391	923.81
467.61	894.81
467.829	912.81
468.049	899.81
468.268	885.81
468.488	883.81
468.707	854.81
468.927	888.81
469.146	864.81
469.365	899.81
469.585	887.81
469.804	894.81
470.023	946.81
470.243	933.81
470.462	909.81
470.681	950.81
470.901	964.81
471.12	958.81
471.339	921.81
471.558	888.81
471.777	902.81
471.997	886.81
472.216	875.81
472.435	846.81
472.654	879.81
472.873	863.81
473.092	863.81
473.311	839.81
473.53	824.81
473.749	863.81
473.968	862.81
474.187	851.81
474.406	828.81
474.625	860.81
474.844	894.81
475.063	853.81
475.282	844.81
475.501	858.81
475.72	879.81
475.939	898.81
476.158	903.81
476.377	886.81
476.596	905.81
476.814	896.81
477.033	911.81
477.252	938.81
477.471	941.81
477.69	958.81
477.908	967.81
478.127	1030.81
478.346	1029.81
478.564	1063.81
478.783	1017.81
479.002	1067.81
479.22	1035.81
479.439	1073.81
479.658	1090.81
479.876	1076.81
480.095	1064.81
480.313	1119.81
480.532	1142.81
480.751	1152.81
480.969	1097.81
481.188	1058.81
481.406	1032.81
481.624	1025.81
481.843	990.81
482.061	981.81
482.28	1012.81
482.498	1008.81
482.717	980.81
482.935	966.81
483.153	978.81
483.372	962.81
483.59	1002.81
483.808	1006.81
484.027	976.81
484.245	996.81
484.463	983.81
484.681	1010.81
484.9	1009.81
485.118	1051.81
485.336	1008.81
485.554	1064.81
485.772	1030.81
485.99	1040.81
486.209	1057.81
486.427	1035.81
486.645	1065.81
486.863	1027.81
487.081	1036.81
487.299	1017.81
487.517	1047.81
487.735	1033.81
487.953	1033.81
488.171	1039.81
488.389	1004.81
488.607	1010.81
488.825	1024.81
489.043	979.81
489.261	1033.81
489.479	1058.81
489.696	1048.81
489.914	1030.81
490.132	1018.81
490.35	1030.81
490.568	1026.81
490.786	1048.81
491.003	1045.81
491.221	1070.81
491.439	1051.81
491.657	1034.81
491.874	1062.81
492.092	1059.81
492.31	1047.81
492.527	1059.81
492.745	1056.81
492.963	1060.81
493.18	1039.81
493.398	1058.81
493.615	1081.81
493.833	1071.81
494.05	1096.81
494.268	1088.81
494.485	1073.81
494.703	1080.81
494.92	1076.81
495.138	1089.81
495.355	1100.81
495.573	1098.81
495.79	1080.81
496.008	1122.81
496.225	1148.81
496.442	1159.81
496.66	1143.81
496.877	1146.81
497.094	1135.81
497.312	1170.81
497.529	1211.81
497.746	1247.81
497.963	1223.81
