Data from NiCl2@0.125M.TitratingCurve.Agarose3%dH2O.NegLispCup.LampEnergy10.LIBS07252019_HRD10591_18-28-26-578.txt Node
Date: Thu Jul 25 18:28:26 EDT 2019
User: cochatt
Spectrometer: HR+D1059
Trigger mode: 1
Integration Time (sec): 1.000000E-1
Scans to average: 1
Electric dark correction enabled: true
Nonlinearity correction enabled: false
Boxcar width: 0
XAxis mode: Wavelengths
Number of Pixels in Spectrum: 2048
>>>>>Begin Spectral Data<<<<<
223.165	-1.75
223.4	-1.75
223.635	-1.75
223.869	-16.75
224.104	-14.75
224.338	-8.75
224.573	-22.75
224.808	-10.75
225.042	-10.75
225.277	-6.75
225.511	-3.75
225.746	3.25
225.98	19.25
226.215	7.25
226.449	-1.75
226.683	20.25
226.918	34.25
227.152	14.25
227.387	38.25
227.621	32.25
227.856	35.25
228.09	50.25
228.324	63.25
228.559	45.25
228.793	68.25
229.027	110.25
229.262	131.25
229.496	122.25
229.73	121.25
229.964	133.25
230.199	136.25
230.433	131.25
230.667	141.25
230.901	147.25
231.136	158.25
231.37	142.25
231.604	156.25
231.838	160.25
232.072	156.25
232.306	148.25
232.541	144.25
232.775	164.25
233.009	148.25
233.243	164.25
233.477	162.25
233.711	163.25
233.945	153.25
234.179	173.25
234.413	165.25
234.647	159.25
234.881	157.25
235.115	165.25
235.349	172.25
235.583	153.25
235.817	157.25
236.051	158.25
236.285	159.25
236.519	173.25
236.753	158.25
236.987	167.25
237.221	174.25
237.455	180.25
237.689	174.25
237.922	164.25
238.156	179.25
238.39	164.25
238.624	166.25
238.858	188.25
239.091	179.25
239.325	191.25
239.559	183.25
239.793	179.25
240.027	188.25
240.26	190.25
240.494	211.25
240.728	194.25
240.961	196.25
241.195	205.25
241.429	174.25
241.662	195.25
241.896	203.25
242.13	198.25
242.363	203.25
242.597	199.25
242.83	221.25
243.064	214.25
243.298	219.25
243.531	212.25
243.765	246.25
243.998	215.25
244.232	218.25
244.465	210.25
244.699	212.25
244.932	232.25
245.166	234.25
245.399	248.25
245.633	241.25
245.866	225.25
246.099	235.25
246.333	249.25
246.566	231.25
246.8	246.25
247.033	250.25
247.266	257.25
247.5	248.25
247.733	255.25
247.966	260.25
248.2	249.25
248.433	261.25
248.666	246.25
248.899	246.25
249.133	255.25
249.366	268.25
249.599	265.25
249.832	270.25
250.066	271.25
250.299	274.25
250.532	277.25
250.765	283.25
250.998	274.25
251.231	270.25
251.465	279.25
251.698	269.25
251.931	289.25
252.164	287.25
252.397	301.25
252.63	279.25
252.863	310.25
253.096	298.25
253.329	295.25
253.562	294.25
253.795	293.25
254.028	293.25
254.261	290.25
254.494	298.25
254.727	309.25
254.96	295.25
255.193	299.25
255.426	297.25
255.659	302.25
255.892	334.25
256.124	335.25
256.357	332.25
256.59	328.25
256.823	310.25
257.056	313.25
257.289	330.25
257.521	310.25
257.754	321.25
257.987	334.25
258.22	323.25
258.452	333.25
258.685	326.25
258.918	325.25
259.151	335.25
259.383	326.25
259.616	323.25
259.849	347.25
260.081	339.25
260.314	341.25
260.547	343.25
260.779	345.25
261.012	335.25
261.244	338.25
261.477	353.25
261.71	357.25
261.942	352.25
262.175	365.25
262.407	344.25
262.64	343.25
262.872	359.25
263.105	347.25
263.337	362.25
263.57	355.25
263.802	353.25
264.035	370.25
264.267	376.25
264.499	381.25
264.732	372.25
264.964	370.25
265.197	378.25
265.429	397.25
265.661	364.25
265.894	388.25
266.126	395.25
266.358	403.25
266.591	395.25
266.823	387.25
267.055	391.25
267.287	388.25
267.52	397.25
267.752	383.25
267.984	393.25
268.216	396.25
268.448	410.25
268.681	385.25
268.913	385.25
269.145	394.25
269.377	396.25
269.609	408.25
269.841	427.25
270.073	404.25
270.306	431.25
270.538	416.25
270.77	414.25
271.002	407.25
271.234	405.25
271.466	425.25
271.698	410.25
271.93	412.25
272.162	430.25
272.394	420.25
272.626	446.25
272.858	409.25
273.09	440.25
273.322	443.25
273.553	429.25
273.785	433.25
274.017	438.25
274.249	436.25
274.481	447.25
274.713	460.25
274.945	448.25
275.176	446.25
275.408	437.25
275.64	442.25
275.872	445.25
276.104	429.25
276.335	454.25
276.567	453.25
276.799	447.25
277.031	454.25
277.262	452.25
277.494	454.25
277.726	456.25
277.957	472.25
278.189	480.25
278.421	450.25
278.652	452.25
278.884	459.25
279.115	472.25
279.347	490.25
279.579	459.25
279.81	466.25
280.042	489.25
280.273	492.25
280.505	482.25
280.736	494.25
280.968	487.25
281.199	518.25
281.431	481.25
281.662	501.25
281.894	490.25
282.125	491.25
282.356	525.25
282.588	520.25
282.819	536.25
283.051	527.25
283.282	519.25
283.513	521.25
283.745	516.25
283.976	515.25
284.207	524.25
284.439	521.25
284.67	543.25
284.901	539.25
285.132	546.25
285.364	543.25
285.595	538.25
285.826	518.25
286.057	539.25
286.288	525.25
286.52	545.25
286.751	562.25
286.982	542.25
287.213	543.25
287.444	545.25
287.675	553.25
287.906	572.25
288.138	553.25
288.369	558.25
288.6	548.25
288.831	564.25
289.062	561.25
289.293	572.25
289.524	584.25
289.755	573.25
289.986	584.25
290.217	567.25
290.448	594.25
290.679	579.25
290.91	555.25
291.141	566.25
291.371	582.25
291.602	585.25
291.833	567.25
292.064	575.25
292.295	563.25
292.526	603.25
292.757	572.25
292.987	563.25
293.218	554.25
293.449	564.25
293.68	590.25
293.91	603.25
294.141	568.25
294.372	568.25
294.603	580.25
294.833	597.25
295.064	601.25
295.295	572.25
295.525	558.25
295.756	586.25
295.987	567.25
296.217	583.25
296.448	596.25
296.679	585.25
296.909	583.25
297.14	569.25
297.37	618.25
297.601	620.25
297.831	630.25
298.062	604.25
298.292	623.25
298.523	643.25
298.753	646.25
298.984	639.25
299.214	621.25
299.445	599.25
299.675	615.25
299.905	622.25
300.136	609.25
300.366	615.25
300.597	642.25
300.827	675.25
301.057	659.25
301.288	658.25
301.518	649.25
301.748	670.25
301.979	674.25
302.209	678.25
302.439	675.25
302.669	664.25
302.9	655.25
303.13	624.25
303.36	642.25
303.59	644.25
303.82	645.25
304.051	653.25
304.281	641.25
304.511	633.25
304.741	652.25
304.971	636.25
305.201	646.25
305.431	659.25
305.661	647.25
305.891	646.25
306.121	653.25
306.352	647.25
306.582	613.25
306.812	628.25
307.042	657.25
307.272	637.25
307.502	633.25
307.731	646.25
307.961	633.25
308.191	623.25
308.421	620.25
308.651	621.25
308.881	620.25
309.111	622.25
309.341	604.25
309.571	634.25
309.8	647.25
310.03	641.25
310.26	638.25
310.49	637.25
310.72	637.25
310.949	646.25
311.179	641.25
311.409	645.25
311.639	623.25
311.868	640.25
312.098	641.25
312.328	637.25
312.557	666.25
312.787	652.25
313.017	667.25
313.246	653.25
313.476	686.25
313.706	693.25
313.935	671.25
314.165	695.25
314.394	699.25
314.624	691.25
314.853	682.25
315.083	695.25
315.312	675.25
315.542	674.25
315.771	683.25
316.001	682.25
316.23	653.25
316.46	682.25
316.689	654.25
316.919	674.25
317.148	667.25
317.377	645.25
317.607	667.25
317.836	671.25
318.065	668.25
318.295	659.25
318.524	679.25
318.753	673.25
318.983	638.25
319.212	673.25
319.441	656.25
319.67	675.25
319.9	678.25
320.129	685.25
320.358	665.25
320.587	655.25
320.816	654.25
321.046	635.25
321.275	685.25
321.504	670.25
321.733	650.25
321.962	694.25
322.191	679.25
322.42	691.25
322.649	673.25
322.878	687.25
323.108	666.25
323.337	670.25
323.566	685.25
323.795	685.25
324.024	702.25
324.253	702.25
324.482	694.25
324.71	710.25
324.939	716.25
325.168	684.25
325.397	685.25
325.626	712.25
325.855	697.25
326.084	726.25
326.313	742.25
326.542	730.25
326.77	757.25
326.999	716.25
327.228	719.25
327.457	737.25
327.686	745.25
327.914	722.25
328.143	746.25
328.372	718.25
328.6	725.25
328.829	757.25
329.058	735.25
329.287	734.25
329.515	729.25
329.744	735.25
329.972	753.25
330.201	744.25
330.43	758.25
330.658	732.25
330.887	736.25
331.115	769.25
331.344	813.25
331.572	772.25
331.801	807.25
332.03	819.25
332.258	814.25
332.486	866.25
332.715	861.25
332.943	912.25
333.172	967.25
333.4	972.25
333.629	1010.25
333.857	1021.25
334.085	975.25
334.314	999.25
334.542	941.25
334.771	961.25
334.999	903.25
335.227	933.25
335.455	918.25
335.684	937.25
335.912	932.25
336.14	887.25
336.369	896.25
336.597	897.25
336.825	881.25
337.053	891.25
337.281	877.25
337.51	829.25
337.738	824.25
337.966	804.25
338.194	827.25
338.422	789.25
338.65	802.25
338.878	814.25
339.106	806.25
339.334	793.25
339.562	759.25
339.79	761.25
340.018	761.25
340.246	746.25
340.474	777.25
340.702	738.25
340.93	771.25
341.158	807.25
341.386	762.25
341.614	733.25
341.842	784.25
342.07	746.25
342.298	737.25
342.526	771.25
342.754	742.25
342.981	775.25
343.209	779.25
343.437	810.25
343.665	862.25
343.893	947.25
344.12	973.25
344.348	933.25
344.576	869.25
344.804	854.25
345.031	796.25
345.259	789.25
345.487	789.25
345.714	783.25
345.942	748.25
346.17	781.25
346.397	730.25
346.625	713.25
346.853	729.25
347.08	709.25
347.308	746.25
347.535	741.25
347.763	765.25
347.99	744.25
348.218	757.25
348.445	744.25
348.673	759.25
348.9	734.25
349.128	709.25
349.355	710.25
349.583	754.25
349.81	720.25
350.037	730.25
350.265	697.25
350.492	721.25
350.72	723.25
350.947	719.25
351.174	732.25
351.402	710.25
351.629	721.25
351.856	715.25
352.083	723.25
352.311	711.25
352.538	685.25
352.765	710.25
352.992	715.25
353.22	691.25
353.447	682.25
353.674	705.25
353.901	714.25
354.128	700.25
354.355	721.25
354.583	707.25
354.81	721.25
355.037	754.25
355.264	717.25
355.491	698.25
355.718	709.25
355.945	723.25
356.172	722.25
356.399	677.25
356.626	732.25
356.853	703.25
357.08	707.25
357.307	740.25
357.534	711.25
357.761	730.25
357.988	716.25
358.215	702.25
358.441	708.25
358.668	713.25
358.895	718.25
359.122	699.25
359.349	708.25
359.576	717.25
359.802	705.25
360.029	725.25
360.256	733.25
360.483	712.25
360.709	706.25
360.936	706.25
361.163	714.25
361.39	708.25
361.616	715.25
361.843	728.25
362.07	727.25
362.296	745.25
362.523	718.25
362.749	696.25
362.976	718.25
363.203	704.25
363.429	700.25
363.656	702.25
363.882	704.25
364.109	709.25
364.335	696.25
364.562	683.25
364.788	694.25
365.015	709.25
365.241	701.25
365.468	718.25
365.694	723.25
365.92	711.25
366.147	708.25
366.373	726.25
366.599	713.25
366.826	723.25
367.052	707.25
367.278	713.25
367.505	757.25
367.731	733.25
367.957	725.25
368.184	703.25
368.41	725.25
368.636	729.25
368.862	732.25
369.089	726.25
369.315	733.25
369.541	729.25
369.767	759.25
369.993	717.25
370.219	747.25
370.445	748.25
370.672	765.25
370.898	753.25
371.124	763.25
371.35	793.25
371.576	776.25
371.802	776.25
372.028	768.25
372.254	779.25
372.48	814.25
372.706	794.25
372.932	818.25
373.158	791.25
373.384	792.25
373.61	765.25
373.835	786.25
374.061	787.25
374.287	798.25
374.513	798.25
374.739	813.25
374.965	860.25
375.191	873.25
375.416	857.25
375.642	835.25
375.868	805.25
376.094	788.25
376.319	801.25
376.545	797.25
376.771	817.25
376.997	777.25
377.222	795.25
377.448	783.25
377.674	796.25
377.899	757.25
378.125	759.25
378.35	757.25
378.576	781.25
378.802	746.25
379.027	786.25
379.253	757.25
379.478	749.25
379.704	759.25
379.929	748.25
380.155	737.25
380.38	764.25
380.606	769.25
380.831	769.25
381.057	766.25
381.282	791.25
381.507	756.25
381.733	781.25
381.958	783.25
382.184	811.25
382.409	824.25
382.634	813.25
382.86	826.25
383.085	841.25
383.31	815.25
383.535	817.25
383.761	865.25
383.986	876.25
384.211	883.25
384.436	917.25
384.662	901.25
384.887	955.25
385.112	941.25
385.337	941.25
385.562	958.25
385.787	925.25
386.013	960.25
386.238	927.25
386.463	940.25
386.688	938.25
386.913	925.25
387.138	900.25
387.363	942.25
387.588	893.25
387.813	909.25
388.038	907.25
388.263	911.25
388.488	924.25
388.713	934.25
388.938	935.25
389.163	922.25
389.387	906.25
389.612	926.25
389.837	894.25
390.062	922.25
390.287	914.25
390.512	904.25
390.736	937.25
390.961	930.25
391.186	984.25
391.411	1003.25
391.636	1011.25
391.86	1073.25
392.085	1063.25
392.31	1066.25
392.534	1030.25
392.759	982.25
392.984	977.25
393.208	986.25
393.433	987.25
393.658	975.25
393.882	991.25
394.107	1033.25
394.331	985.25
394.556	1022.25
394.78	1007.25
395.005	1005.25
395.229	1011.25
395.454	1063.25
395.678	1044.25
395.903	1051.25
396.127	1032.25
396.352	1002.25
396.576	969.25
396.801	976.25
397.025	953.25
397.249	984.25
397.474	1073.25
397.698	1086.25
397.922	1036.25
398.147	1037.25
398.371	1080.25
398.595	1070.25
398.82	1125.25
399.044	1220.25
399.268	1372.25
399.492	1603.25
399.717	1880.25
399.941	1828.25
400.165	1569.25
400.389	1422.25
400.613	1314.25
400.837	1242.25
401.062	1188.25
401.286	1196.25
401.51	1171.25
401.734	1151.25
401.958	1157.25
402.182	1188.25
402.406	1186.25
402.63	1212.25
402.854	1237.25
403.078	1279.25
403.302	1353.25
403.526	1384.25
403.75	1380.25
403.974	1410.25
404.198	1405.25
404.422	1396.25
404.645	1385.25
404.869	1322.25
405.093	1340.25
405.317	1333.25
405.541	1333.25
405.765	1323.25
405.988	1273.25
406.212	1282.25
406.436	1250.25
406.66	1326.25
406.883	1378.25
407.107	1422.25
407.331	1507.25
407.555	1504.25
407.778	1525.25
408.002	1507.25
408.226	1461.25
408.449	1406.25
408.673	1369.25
408.896	1313.25
409.12	1336.25
409.344	1350.25
409.567	1348.25
409.791	1361.25
410.014	1333.25
410.238	1344.25
410.461	1357.25
410.685	1318.25
410.908	1282.25
411.132	1276.25
411.355	1226.25
411.578	1213.25
411.802	1229.25
412.025	1229.25
412.249	1279.25
412.472	1251.25
412.695	1187.25
412.919	1152.25
413.142	1177.25
413.365	1161.25
413.589	1187.25
413.812	1186.25
414.035	1145.25
414.258	1169.25
414.482	1151.25
414.705	1195.25
414.928	1208.25
415.151	1221.25
415.374	1195.25
415.597	1155.25
415.821	1169.25
416.044	1155.25
416.267	1127.25
416.49	1143.25
416.713	1145.25
416.936	1148.25
417.159	1121.25
417.382	1145.25
417.605	1168.25
417.828	1167.25
418.051	1176.25
418.274	1196.25
418.497	1161.25
418.72	1202.25
418.943	1188.25
419.166	1265.25
419.389	1344.25
419.611	1284.25
419.834	1244.25
420.057	1211.25
420.28	1171.25
420.503	1167.25
420.726	1145.25
420.948	1184.25
421.171	1161.25
421.394	1167.25
421.617	1135.25
421.839	1167.25
422.062	1187.25
422.285	1138.25
422.507	1186.25
422.73	1195.25
422.953	1219.25
423.175	1209.25
423.398	1240.25
423.621	1194.25
423.843	1248.25
424.066	1285.25
424.288	1252.25
424.511	1256.25
424.733	1192.25
424.956	1230.25
425.178	1193.25
425.401	1210.25
425.623	1174.25
425.846	1146.25
426.068	1139.25
426.291	1115.25
426.513	1078.25
426.735	1107.25
426.958	1083.25
427.18	1085.25
427.402	1071.25
427.625	1061.25
427.847	1047.25
428.069	1050.25
428.292	1049.25
428.514	1021.25
428.736	1033.25
428.958	998.25
429.181	990.25
429.403	1013.25
429.625	988.25
429.847	993.25
430.069	1010.25
430.292	1011.25
430.514	976.25
430.736	1005.25
430.958	1011.25
431.18	993.25
431.402	1043.25
431.624	1009.25
431.846	1042.25
432.068	1038.25
432.29	1038.25
432.512	1043.25
432.734	1032.25
432.956	1025.25
433.178	1061.25
433.4	1053.25
433.622	1014.25
433.844	1053.25
434.066	1043.25
434.287	1047.25
434.509	1125.25
434.731	1123.25
434.953	1157.25
435.175	1201.25
435.397	1190.25
435.618	1099.25
435.84	1065.25
436.062	1042.25
436.284	1033.25
436.505	1023.25
436.727	1054.25
436.949	1056.25
437.17	1029.25
437.392	1033.25
437.614	1037.25
437.835	998.25
438.057	986.25
438.278	982.25
438.5	975.25
438.721	1006.25
438.943	1013.25
439.165	1005.25
439.386	982.25
439.608	1035.25
439.829	1058.25
440.05	1069.25
440.272	1047.25
440.493	1038.25
440.715	1055.25
440.936	1074.25
441.158	1097.25
441.379	1143.25
441.6	1142.25
441.822	1169.25
442.043	1199.25
442.264	1154.25
442.486	1137.25
442.707	1157.25
442.928	1159.25
443.149	1143.25
443.371	1127.25
443.592	1173.25
443.813	1189.25
444.034	1200.25
444.255	1215.25
444.476	1268.25
444.698	1345.25
444.919	1410.25
445.14	1511.25
445.361	1369.25
445.582	1214.25
445.803	1133.25
446.024	1056.25
446.245	1069.25
446.466	1045.25
446.687	1034.25
446.908	1050.25
447.129	1017.25
447.35	1000.25
447.571	1037.25
447.792	975.25
448.013	999.25
448.234	977.25
448.455	959.25
448.675	966.25
448.896	959.25
449.117	926.25
449.338	928.25
449.559	935.25
449.779	932.25
450	925.25
450.221	963.25
450.442	935.25
450.662	957.25
450.883	971.25
451.104	998.25
451.324	956.25
451.545	963.25
451.766	971.25
451.986	956.25
452.207	912.25
452.428	922.25
452.648	938.25
452.869	934.25
453.089	938.25
453.31	940.25
453.53	951.25
453.751	926.25
453.971	917.25
454.192	883.25
454.412	886.25
454.633	921.25
454.853	907.25
455.073	907.25
455.294	893.25
455.514	862.25
455.734	869.25
455.955	887.25
456.175	867.25
456.395	869.25
456.616	872.25
456.836	874.25
457.056	863.25
457.276	844.25
457.497	883.25
457.717	873.25
457.937	907.25
458.157	917.25
458.377	913.25
458.598	929.25
458.818	964.25
459.038	963.25
459.258	1002.25
459.478	1042.25
459.698	1071.25
459.918	1063.25
460.138	1138.25
460.358	1211.25
460.578	1212.25
460.798	1237.25
461.018	1221.25
461.238	1215.25
461.458	1219.25
461.678	1212.25
461.898	1225.25
462.118	1260.25
462.338	1314.25
462.558	1352.25
462.777	1367.25
462.997	1545.25
463.217	1697.25
463.437	1732.25
463.657	1521.25
463.876	1461.25
464.096	1439.25
464.316	1437.25
464.536	1465.25
464.755	1401.25
464.975	1332.25
465.195	1283.25
465.414	1168.25
465.634	1134.25
465.854	1083.25
466.073	1051.25
466.293	1023.25
466.512	1023.25
466.732	1005.25
466.951	987.25
467.171	995.25
467.391	1012.25
467.61	974.25
467.829	963.25
468.049	985.25
468.268	967.25
468.488	929.25
468.707	950.25
468.927	971.25
469.146	929.25
469.365	971.25
469.585	957.25
469.804	983.25
470.023	991.25
470.243	1031.25
470.462	1053.25
470.681	1019.25
470.901	1034.25
471.12	1012.25
471.339	958.25
471.558	952.25
471.777	951.25
471.997	970.25
472.216	962.25
472.435	937.25
472.654	942.25
472.873	897.25
473.092	913.25
473.311	922.25
473.53	900.25
473.749	904.25
473.968	877.25
474.187	904.25
474.406	913.25
474.625	912.25
474.844	906.25
475.063	923.25
475.282	894.25
475.501	910.25
475.72	919.25
475.939	913.25
476.158	921.25
476.377	954.25
476.596	951.25
476.814	979.25
477.033	970.25
477.252	983.25
477.471	1023.25
477.69	1023.25
477.908	1057.25
478.127	1086.25
478.346	1111.25
478.564	1103.25
478.783	1129.25
479.002	1163.25
479.22	1166.25
479.439	1147.25
479.658	1109.25
479.876	1134.25
480.095	1160.25
480.313	1223.25
480.532	1253.25
480.751	1243.25
480.969	1184.25
481.188	1121.25
481.406	1111.25
481.624	1069.25
481.843	1055.25
482.061	1034.25
482.28	1005.25
482.498	1045.25
482.717	1029.25
482.935	1032.25
483.153	1051.25
483.372	1068.25
483.59	1052.25
483.808	1051.25
484.027	1030.25
484.245	1051.25
484.463	1050.25
484.681	1074.25
484.9	1091.25
485.118	1087.25
485.336	1068.25
485.554	1075.25
485.772	1074.25
485.99	1084.25
486.209	1113.25
486.427	1094.25
486.645	1093.25
486.863	1104.25
487.081	1106.25
487.299	1129.25
487.517	1078.25
487.735	1088.25
487.953	1079.25
488.171	1107.25
488.389	1088.25
488.607	1090.25
488.825	1074.25
489.043	1068.25
489.261	1077.25
489.479	1073.25
489.696	1067.25
489.914	1087.25
490.132	1091.25
490.35	1098.25
490.568	1082.25
490.786	1094.25
491.003	1107.25
491.221	1118.25
491.439	1101.25
491.657	1125.25
491.874	1099.25
492.092	1061.25
492.31	1115.25
492.527	1139.25
492.745	1121.25
492.963	1150.25
493.18	1134.25
493.398	1123.25
493.615	1181.25
493.833	1128.25
494.05	1174.25
494.268	1157.25
494.485	1160.25
494.703	1118.25
494.92	1171.25
495.138	1166.25
495.355	1161.25
495.573	1149.25
495.79	1179.25
496.008	1140.25
496.225	1185.25
496.442	1168.25
496.66	1208.25
