Data from NiCl2@0.5M.TitratingCurve.Agarose3%dH2O.NegLispCup.LampEnergy10.LIBS07252019_HRD10591_18-20-45-571.txt Node
Date: Thu Jul 25 18:20:45 EDT 2019
User: cochatt
Spectrometer: HR+D1059
Trigger mode: 1
Integration Time (sec): 1.000000E-1
Scans to average: 1
Electric dark correction enabled: true
Nonlinearity correction enabled: false
Boxcar width: 0
XAxis mode: Wavelengths
Number of Pixels in Spectrum: 2048
>>>>>Begin Spectral Data<<<<<
223.165	-18.88
223.4	-18.88
223.635	-18.88
223.869	-12.88
224.104	-29.88
224.338	-4.88
224.573	-5.88
224.808	2.12
225.042	-9.88
225.277	-20.88
225.511	-15.88
225.746	7.12
225.98	8.12
226.215	26.12
226.449	4.12
226.683	1.12
226.918	35.12
227.152	35.12
227.387	36.12
227.621	41.12
227.856	44.12
228.09	67.12
228.324	47.12
228.559	58.12
228.793	61.12
229.027	88.12
229.262	99.12
229.496	106.12
229.73	95.12
229.964	101.12
230.199	107.12
230.433	116.12
230.667	121.12
230.901	120.12
231.136	121.12
231.37	126.12
231.604	117.12
231.838	125.12
232.072	135.12
232.306	127.12
232.541	121.12
232.775	114.12
233.009	134.12
233.243	130.12
233.477	128.12
233.711	125.12
233.945	132.12
234.179	118.12
234.413	119.12
234.647	118.12
234.881	125.12
235.115	129.12
235.349	124.12
235.583	128.12
235.817	133.12
236.051	132.12
236.285	117.12
236.519	135.12
236.753	149.12
236.987	139.12
237.221	133.12
237.455	142.12
237.689	133.12
237.922	132.12
238.156	130.12
238.39	130.12
238.624	146.12
238.858	140.12
239.091	129.12
239.325	166.12
239.559	151.12
239.793	154.12
240.027	150.12
240.26	135.12
240.494	149.12
240.728	150.12
240.961	137.12
241.195	147.12
241.429	153.12
241.662	154.12
241.896	171.12
242.13	150.12
242.363	153.12
242.597	171.12
242.83	170.12
243.064	155.12
243.298	154.12
243.531	159.12
243.765	166.12
243.998	163.12
244.232	160.12
244.465	164.12
244.699	157.12
244.932	175.12
245.166	175.12
245.399	169.12
245.633	160.12
245.866	175.12
246.099	169.12
246.333	173.12
246.566	184.12
246.8	179.12
247.033	184.12
247.266	165.12
247.5	189.12
247.733	191.12
247.966	173.12
248.2	184.12
248.433	187.12
248.666	193.12
248.899	177.12
249.133	179.12
249.366	181.12
249.599	176.12
249.832	188.12
250.066	210.12
250.299	213.12
250.532	199.12
250.765	195.12
250.998	197.12
251.231	206.12
251.465	192.12
251.698	195.12
251.931	211.12
252.164	205.12
252.397	210.12
252.63	193.12
252.863	223.12
253.096	208.12
253.329	210.12
253.562	203.12
253.795	219.12
254.028	227.12
254.261	208.12
254.494	228.12
254.727	223.12
254.96	215.12
255.193	218.12
255.426	217.12
255.659	217.12
255.892	235.12
256.124	233.12
256.357	231.12
256.59	227.12
256.823	220.12
257.056	239.12
257.289	207.12
257.521	216.12
257.754	230.12
257.987	255.12
258.22	243.12
258.452	241.12
258.685	237.12
258.918	239.12
259.151	231.12
259.383	230.12
259.616	252.12
259.849	259.12
260.081	239.12
260.314	235.12
260.547	248.12
260.779	233.12
261.012	249.12
261.244	240.12
261.477	227.12
261.71	247.12
261.942	241.12
262.175	238.12
262.407	275.12
262.64	265.12
262.872	271.12
263.105	263.12
263.337	242.12
263.57	254.12
263.802	255.12
264.035	250.12
264.267	268.12
264.499	274.12
264.732	268.12
264.964	270.12
265.197	260.12
265.429	273.12
265.661	292.12
265.894	276.12
266.126	282.12
266.358	277.12
266.591	288.12
266.823	272.12
267.055	294.12
267.287	275.12
267.52	264.12
267.752	279.12
267.984	283.12
268.216	277.12
268.448	278.12
268.681	295.12
268.913	285.12
269.145	291.12
269.377	276.12
269.609	303.12
269.841	290.12
270.073	284.12
270.306	290.12
270.538	294.12
270.77	287.12
271.002	281.12
271.234	312.12
271.466	283.12
271.698	293.12
271.93	300.12
272.162	295.12
272.394	316.12
272.626	281.12
272.858	292.12
273.09	335.12
273.322	311.12
273.553	294.12
273.785	313.12
274.017	321.12
274.249	322.12
274.481	330.12
274.713	312.12
274.945	316.12
275.176	329.12
275.408	320.12
275.64	321.12
275.872	316.12
276.104	309.12
276.335	336.12
276.567	330.12
276.799	323.12
277.031	325.12
277.262	347.12
277.494	332.12
277.726	329.12
277.957	341.12
278.189	344.12
278.421	337.12
278.652	355.12
278.884	326.12
279.115	331.12
279.347	344.12
279.579	337.12
279.81	349.12
280.042	333.12
280.273	329.12
280.505	331.12
280.736	343.12
280.968	350.12
281.199	358.12
281.431	351.12
281.662	358.12
281.894	355.12
282.125	359.12
282.356	378.12
282.588	375.12
282.819	352.12
283.051	356.12
283.282	376.12
283.513	367.12
283.745	375.12
283.976	369.12
284.207	375.12
284.439	389.12
284.67	361.12
284.901	382.12
285.132	379.12
285.364	362.12
285.595	383.12
285.826	387.12
286.057	360.12
286.288	367.12
286.52	383.12
286.751	387.12
286.982	391.12
287.213	376.12
287.444	400.12
287.675	386.12
287.906	404.12
288.138	399.12
288.369	396.12
288.6	409.12
288.831	395.12
289.062	399.12
289.293	409.12
289.524	392.12
289.755	416.12
289.986	387.12
290.217	386.12
290.448	406.12
290.679	418.12
290.91	393.12
291.141	424.12
291.371	417.12
291.602	390.12
291.833	405.12
292.064	403.12
292.295	415.12
292.526	428.12
292.757	414.12
292.987	421.12
293.218	396.12
293.449	418.12
293.68	421.12
293.91	401.12
294.141	432.12
294.372	397.12
294.603	423.12
294.833	409.12
295.064	408.12
295.295	424.12
295.525	419.12
295.756	417.12
295.987	417.12
296.217	429.12
296.448	423.12
296.679	431.12
296.909	410.12
297.14	421.12
297.37	429.12
297.601	437.12
297.831	453.12
298.062	450.12
298.292	453.12
298.523	442.12
298.753	456.12
298.984	451.12
299.214	442.12
299.445	459.12
299.675	463.12
299.905	441.12
300.136	471.12
300.366	451.12
300.597	459.12
300.827	466.12
301.057	460.12
301.288	491.12
301.518	480.12
301.748	466.12
301.979	479.12
302.209	484.12
302.439	498.12
302.669	473.12
302.9	465.12
303.13	476.12
303.36	450.12
303.59	469.12
303.82	465.12
304.051	462.12
304.281	482.12
304.511	477.12
304.741	448.12
304.971	472.12
305.201	472.12
305.431	478.12
305.661	457.12
305.891	477.12
306.121	472.12
306.352	456.12
306.582	469.12
306.812	464.12
307.042	465.12
307.272	447.12
307.502	467.12
307.731	459.12
307.961	479.12
308.191	472.12
308.421	458.12
308.651	453.12
308.881	465.12
309.111	468.12
309.341	465.12
309.571	469.12
309.8	472.12
310.03	457.12
310.26	470.12
310.49	481.12
310.72	470.12
310.949	456.12
311.179	452.12
311.409	465.12
311.639	469.12
311.868	468.12
312.098	481.12
312.328	467.12
312.557	475.12
312.787	491.12
313.017	500.12
313.246	506.12
313.476	514.12
313.706	501.12
313.935	509.12
314.165	508.12
314.394	517.12
314.624	498.12
314.853	529.12
315.083	504.12
315.312	488.12
315.542	501.12
315.771	480.12
316.001	488.12
316.23	491.12
316.46	486.12
316.689	501.12
316.919	496.12
317.148	487.12
317.377	501.12
317.607	479.12
317.836	507.12
318.065	489.12
318.295	477.12
318.524	487.12
318.753	460.12
318.983	472.12
319.212	481.12
319.441	502.12
319.67	494.12
319.9	497.12
320.129	493.12
320.358	495.12
320.587	492.12
320.816	513.12
321.046	487.12
321.275	505.12
321.504	498.12
321.733	490.12
321.962	507.12
322.191	502.12
322.42	504.12
322.649	496.12
322.878	500.12
323.108	501.12
323.337	511.12
323.566	535.12
323.795	511.12
324.024	522.12
324.253	518.12
324.482	500.12
324.71	502.12
324.939	499.12
325.168	518.12
325.397	502.12
325.626	536.12
325.855	536.12
326.084	535.12
326.313	539.12
326.542	579.12
326.77	554.12
326.999	545.12
327.228	525.12
327.457	533.12
327.686	532.12
327.914	536.12
328.143	558.12
328.372	532.12
328.6	527.12
328.829	526.12
329.058	546.12
329.287	530.12
329.515	530.12
329.744	540.12
329.972	581.12
330.201	567.12
330.43	544.12
330.658	582.12
330.887	564.12
331.115	559.12
331.344	576.12
331.572	597.12
331.801	579.12
332.03	578.12
332.258	585.12
332.486	605.12
332.715	642.12
332.943	651.12
333.172	663.12
333.4	715.12
333.629	698.12
333.857	722.12
334.085	708.12
334.314	721.12
334.542	676.12
334.771	682.12
334.999	676.12
335.227	658.12
335.455	648.12
335.684	678.12
335.912	656.12
336.14	661.12
336.369	651.12
336.597	668.12
336.825	666.12
337.053	652.12
337.281	627.12
337.51	632.12
337.738	618.12
337.966	594.12
338.194	628.12
338.422	599.12
338.65	587.12
338.878	599.12
339.106	613.12
339.334	582.12
339.562	569.12
339.79	569.12
340.018	555.12
340.246	553.12
340.474	584.12
340.702	569.12
340.93	575.12
341.158	563.12
341.386	562.12
341.614	596.12
341.842	560.12
342.07	537.12
342.298	573.12
342.526	574.12
342.754	571.12
342.981	566.12
343.209	583.12
343.437	612.12
343.665	625.12
343.893	667.12
344.12	683.12
344.348	637.12
344.576	638.12
344.804	625.12
345.031	610.12
345.259	598.12
345.487	559.12
345.714	577.12
345.942	599.12
346.17	565.12
346.397	560.12
346.625	560.12
346.853	524.12
347.08	553.12
347.308	564.12
347.535	583.12
347.763	583.12
347.99	551.12
348.218	541.12
348.445	562.12
348.673	552.12
348.9	539.12
349.128	536.12
349.355	549.12
349.583	535.12
349.81	529.12
350.037	536.12
350.265	544.12
350.492	511.12
350.72	524.12
350.947	525.12
351.174	524.12
351.402	537.12
351.629	539.12
351.856	550.12
352.083	526.12
352.311	518.12
352.538	525.12
352.765	536.12
352.992	519.12
353.22	518.12
353.447	520.12
353.674	541.12
353.901	499.12
354.128	534.12
354.355	513.12
354.583	513.12
354.81	510.12
355.037	521.12
355.264	490.12
355.491	515.12
355.718	524.12
355.945	531.12
356.172	536.12
356.399	538.12
356.626	532.12
356.853	522.12
357.08	544.12
357.307	529.12
357.534	544.12
357.761	546.12
357.988	533.12
358.215	523.12
358.441	538.12
358.668	515.12
358.895	517.12
359.122	534.12
359.349	531.12
359.576	526.12
359.802	501.12
360.029	512.12
360.256	532.12
360.483	505.12
360.709	515.12
360.936	531.12
361.163	562.12
361.39	519.12
361.616	524.12
361.843	518.12
362.07	540.12
362.296	525.12
362.523	521.12
362.749	509.12
362.976	491.12
363.203	510.12
363.429	487.12
363.656	539.12
363.882	510.12
364.109	523.12
364.335	499.12
364.562	518.12
364.788	518.12
365.015	502.12
365.241	507.12
365.468	509.12
365.694	541.12
365.92	550.12
366.147	501.12
366.373	519.12
366.599	521.12
366.826	514.12
367.052	524.12
367.278	509.12
367.505	518.12
367.731	520.12
367.957	511.12
368.184	508.12
368.41	544.12
368.636	517.12
368.862	530.12
369.089	531.12
369.315	527.12
369.541	531.12
369.767	522.12
369.993	532.12
370.219	558.12
370.445	517.12
370.672	519.12
370.898	554.12
371.124	557.12
371.35	563.12
371.576	547.12
371.802	536.12
372.028	551.12
372.254	567.12
372.48	570.12
372.706	563.12
372.932	584.12
373.158	581.12
373.384	579.12
373.61	556.12
373.835	569.12
374.061	540.12
374.287	575.12
374.513	564.12
374.739	572.12
374.965	604.12
375.191	603.12
375.416	606.12
375.642	592.12
375.868	604.12
376.094	594.12
376.319	570.12
376.545	562.12
376.771	575.12
376.997	543.12
377.222	546.12
377.448	538.12
377.674	568.12
377.899	570.12
378.125	535.12
378.35	538.12
378.576	522.12
378.802	525.12
379.027	533.12
379.253	554.12
379.478	541.12
379.704	533.12
379.929	556.12
380.155	541.12
380.38	557.12
380.606	559.12
380.831	567.12
381.057	537.12
381.282	532.12
381.507	563.12
381.733	556.12
381.958	563.12
382.184	551.12
382.409	568.12
382.634	568.12
382.86	573.12
383.085	580.12
383.31	609.12
383.535	608.12
383.761	581.12
383.986	585.12
384.211	629.12
384.436	613.12
384.662	637.12
384.887	657.12
385.112	626.12
385.337	624.12
385.562	641.12
385.787	656.12
386.013	652.12
386.238	651.12
386.463	662.12
386.688	665.12
386.913	629.12
387.138	635.12
387.363	628.12
387.588	657.12
387.813	649.12
388.038	634.12
388.263	647.12
388.488	630.12
388.713	628.12
388.938	639.12
389.163	630.12
389.387	639.12
389.612	643.12
389.837	645.12
390.062	616.12
390.287	648.12
390.512	623.12
390.736	632.12
390.961	614.12
391.186	684.12
391.411	678.12
391.636	698.12
391.86	703.12
392.085	732.12
392.31	721.12
392.534	710.12
392.759	719.12
392.984	691.12
393.208	710.12
393.433	681.12
393.658	697.12
393.882	663.12
394.107	691.12
394.331	687.12
394.556	689.12
394.78	702.12
395.005	697.12
395.229	695.12
395.454	709.12
395.678	741.12
395.903	722.12
396.127	723.12
396.352	703.12
396.576	696.12
396.801	700.12
397.025	675.12
397.249	699.12
397.474	703.12
397.698	723.12
397.922	731.12
398.147	735.12
398.371	729.12
398.595	764.12
398.82	832.12
399.044	857.12
399.268	935.12
399.492	1064.12
399.717	1127.12
399.941	1159.12
400.165	1056.12
400.389	963.12
400.613	892.12
400.837	828.12
401.062	842.12
401.286	819.12
401.51	814.12
401.734	807.12
401.958	837.12
402.182	832.12
402.406	847.12
402.63	852.12
402.854	851.12
403.078	872.12
403.302	879.12
403.526	885.12
403.75	906.12
403.974	922.12
404.198	918.12
404.422	900.12
404.645	890.12
404.869	887.12
405.093	907.12
405.317	883.12
405.541	886.12
405.765	886.12
405.988	869.12
406.212	886.12
406.436	890.12
406.66	926.12
406.883	916.12
407.107	967.12
407.331	1021.12
407.555	1029.12
407.778	1064.12
408.002	1000.12
408.226	981.12
408.449	959.12
408.673	930.12
408.896	927.12
409.12	916.12
409.344	909.12
409.567	907.12
409.791	906.12
410.014	925.12
410.238	903.12
410.461	894.12
410.685	873.12
410.908	885.12
411.132	887.12
411.355	855.12
411.578	841.12
411.802	845.12
412.025	864.12
412.249	861.12
412.472	857.12
412.695	837.12
412.919	837.12
413.142	834.12
413.365	819.12
413.589	835.12
413.812	829.12
414.035	827.12
414.258	811.12
414.482	839.12
414.705	855.12
414.928	837.12
415.151	836.12
415.374	840.12
415.597	864.12
415.821	832.12
416.044	799.12
416.267	818.12
416.49	790.12
416.713	807.12
416.936	810.12
417.159	816.12
417.382	825.12
417.605	783.12
417.828	811.12
418.051	823.12
418.274	781.12
418.497	811.12
418.72	852.12
418.943	834.12
419.166	883.12
419.389	919.12
419.611	924.12
419.834	868.12
420.057	875.12
420.28	837.12
420.503	816.12
420.726	812.12
420.948	827.12
421.171	805.12
421.394	816.12
421.617	825.12
421.839	798.12
422.062	816.12
422.285	810.12
422.507	823.12
422.73	832.12
422.953	831.12
423.175	832.12
423.398	840.12
423.621	826.12
423.843	836.12
424.066	884.12
424.288	860.12
424.511	863.12
424.733	831.12
424.956	830.12
425.178	834.12
425.401	818.12
425.623	832.12
425.846	788.12
426.068	788.12
426.291	786.12
426.513	772.12
426.735	770.12
426.958	769.12
427.18	744.12
427.402	758.12
427.625	742.12
427.847	750.12
428.069	728.12
428.292	771.12
428.514	742.12
428.736	742.12
428.958	762.12
429.181	731.12
429.403	729.12
429.625	743.12
429.847	713.12
430.069	749.12
430.292	739.12
430.514	723.12
430.736	733.12
430.958	743.12
431.18	729.12
431.402	765.12
431.624	759.12
431.846	744.12
432.068	741.12
432.29	772.12
432.512	726.12
432.734	751.12
432.956	733.12
433.178	753.12
433.4	723.12
433.622	762.12
433.844	780.12
434.066	759.12
434.287	774.12
434.509	799.12
434.731	812.12
434.953	841.12
435.175	827.12
435.397	857.12
435.618	784.12
435.84	765.12
436.062	783.12
436.284	755.12
436.505	773.12
436.727	781.12
436.949	754.12
437.17	757.12
437.392	773.12
437.614	736.12
437.835	721.12
438.057	722.12
438.278	711.12
438.5	747.12
438.721	733.12
438.943	739.12
439.165	726.12
439.386	746.12
439.608	740.12
439.829	747.12
440.05	765.12
440.272	765.12
440.493	780.12
440.715	771.12
440.936	755.12
441.158	780.12
441.379	829.12
441.6	849.12
441.822	865.12
442.043	851.12
442.264	827.12
442.486	831.12
442.707	831.12
442.928	823.12
443.149	838.12
443.371	822.12
443.592	866.12
443.813	837.12
444.034	842.12
444.255	865.12
444.476	899.12
444.698	935.12
444.919	968.12
445.14	1036.12
445.361	947.12
445.582	893.12
445.803	850.12
446.024	791.12
446.245	830.12
446.466	808.12
446.687	775.12
446.908	813.12
447.129	765.12
447.35	738.12
447.571	746.12
447.792	728.12
448.013	721.12
448.234	719.12
448.455	698.12
448.675	699.12
448.896	717.12
449.117	728.12
449.338	726.12
449.559	701.12
449.779	703.12
450	686.12
450.221	697.12
450.442	714.12
450.662	715.12
450.883	712.12
451.104	744.12
451.324	711.12
451.545	717.12
451.766	717.12
451.986	707.12
452.207	700.12
452.428	710.12
452.648	673.12
452.869	700.12
453.089	687.12
453.31	695.12
453.53	664.12
453.751	675.12
453.971	685.12
454.192	673.12
454.412	685.12
454.633	673.12
454.853	664.12
455.073	651.12
455.294	664.12
455.514	678.12
455.734	671.12
455.955	661.12
456.175	648.12
456.395	639.12
456.616	668.12
456.836	654.12
457.056	664.12
457.276	675.12
457.497	668.12
457.717	668.12
457.937	674.12
458.157	656.12
458.377	668.12
458.598	701.12
458.818	697.12
459.038	717.12
459.258	745.12
459.478	767.12
459.698	778.12
459.918	808.12
460.138	838.12
460.358	871.12
460.578	901.12
460.798	873.12
461.018	877.12
461.238	876.12
461.458	873.12
461.678	891.12
461.898	919.12
462.118	891.12
462.338	930.12
462.558	964.12
462.777	1029.12
462.997	1101.12
463.217	1147.12
463.437	1143.12
463.657	1057.12
463.876	1027.12
464.096	1020.12
464.316	1022.12
464.536	1016.12
464.755	994.12
464.975	961.12
465.195	925.12
465.414	874.12
465.634	847.12
465.854	788.12
466.073	792.12
466.293	790.12
466.512	744.12
466.732	715.12
466.951	740.12
467.171	746.12
467.391	744.12
467.61	741.12
467.829	729.12
468.049	732.12
468.268	736.12
468.488	708.12
468.707	677.12
468.927	708.12
469.146	732.12
469.365	723.12
469.585	740.12
469.804	751.12
470.023	755.12
470.243	769.12
470.462	739.12
470.681	755.12
470.901	777.12
471.12	767.12
471.339	746.12
471.558	758.12
471.777	710.12
471.997	720.12
472.216	719.12
472.435	699.12
472.654	699.12
472.873	706.12
473.092	696.12
473.311	681.12
473.53	700.12
473.749	672.12
473.968	678.12
474.187	708.12
474.406	689.12
474.625	708.12
474.844	673.12
475.063	716.12
475.282	701.12
475.501	730.12
475.72	699.12
475.939	693.12
476.158	743.12
476.377	737.12
476.596	761.12
476.814	757.12
477.033	715.12
477.252	743.12
477.471	787.12
477.69	785.12
477.908	782.12
478.127	820.12
478.346	828.12
478.564	825.12
478.783	846.12
479.002	860.12
479.22	847.12
479.439	845.12
479.658	868.12
479.876	849.12
480.095	848.12
480.313	893.12
480.532	913.12
480.751	900.12
480.969	887.12
481.188	836.12
481.406	825.12
481.624	829.12
481.843	798.12
482.061	788.12
482.28	821.12
482.498	775.12
482.717	811.12
482.935	801.12
483.153	809.12
483.372	800.12
483.59	807.12
483.808	799.12
484.027	814.12
484.245	800.12
484.463	806.12
484.681	838.12
484.9	835.12
485.118	829.12
485.336	844.12
485.554	821.12
485.772	829.12
485.99	843.12
486.209	836.12
486.427	842.12
486.645	862.12
486.863	859.12
487.081	860.12
487.299	848.12
487.517	853.12
487.735	820.12
487.953	857.12
488.171	836.12
488.389	847.12
488.607	825.12
488.825	808.12
489.043	827.12
489.261	842.12
489.479	811.12
489.696	817.12
489.914	812.12
490.132	833.12
490.35	851.12
490.568	840.12
490.786	853.12
491.003	846.12
491.221	845.12
491.439	860.12
491.657	847.12
491.874	867.12
492.092	880.12
492.31	875.12
492.527	892.12
492.745	886.12
492.963	879.12
493.18	835.12
493.398	857.12
493.615	889.12
493.833	893.12
494.05	893.12
494.268	895.12
494.485	890.12
494.703	919.12
494.92	903.12
495.138	897.12
495.355	881.12
495.573	909.12
495.79	909.12
496.008	898.12
496.225	907.12
496.442	929.12
496.66	951.12
496.877	943.12
497.094	989.12
497.312	973.12
497.529	1011.12
497.746	1023.12
497.963	1017.12
498.181	1091.12
498.398	1138.12
498.615	1220.12
498.832	1226.12
499.049	1352.12
499.267	1453.12
499.484	1565.12
499.701	1725.12
499.918	1863.12
500.135	2065.12
500.352	2315.12
500.569	2429.12
500.786	2362.12
501.003	2257.12
501.22	2093.12
