Data from NiCl2@0.5M.TitratingCurve.Agarose3%dH2O.NegLispCup.LampEnergy10.LIBS07252019_HRD10591_18-21-26-572.txt Node
Date: Thu Jul 25 18:21:26 EDT 2019
User: cochatt
Spectrometer: HR+D1059
Trigger mode: 1
Integration Time (sec): 1.000000E-1
Scans to average: 1
Electric dark correction enabled: true
Nonlinearity correction enabled: false
Boxcar width: 0
XAxis mode: Wavelengths
Number of Pixels in Spectrum: 2048
>>>>>Begin Spectral Data<<<<<
223.165	-20.94
223.4	-20.94
223.635	-20.94
223.869	-17.94
224.104	-15.94
224.338	-27.94
224.573	-13.94
224.808	-22.94
225.042	2.06
225.277	-13.94
225.511	2.06
225.746	9.06
225.98	8.06
226.215	11.06
226.449	21.06
226.683	16.06
226.918	29.06
227.152	35.06
227.387	23.06
227.621	40.06
227.856	47.06
228.09	37.06
228.324	55.06
228.559	56.06
228.793	68.06
229.027	98.06
229.262	98.06
229.496	108.06
229.73	105.06
229.964	119.06
230.199	127.06
230.433	110.06
230.667	119.06
230.901	110.06
231.136	115.06
231.37	126.06
231.604	126.06
231.838	129.06
232.072	135.06
232.306	127.06
232.541	130.06
232.775	142.06
233.009	148.06
233.243	120.06
233.477	130.06
233.711	132.06
233.945	125.06
234.179	122.06
234.413	131.06
234.647	150.06
234.881	140.06
235.115	140.06
235.349	127.06
235.583	147.06
235.817	135.06
236.051	126.06
236.285	136.06
236.519	133.06
236.753	136.06
236.987	133.06
237.221	139.06
237.455	139.06
237.689	139.06
237.922	145.06
238.156	134.06
238.39	143.06
238.624	152.06
238.858	138.06
239.091	149.06
239.325	135.06
239.559	135.06
239.793	172.06
240.027	147.06
240.26	150.06
240.494	153.06
240.728	146.06
240.961	156.06
241.195	168.06
241.429	155.06
241.662	152.06
241.896	160.06
242.13	156.06
242.363	161.06
242.597	180.06
242.83	168.06
243.064	174.06
243.298	162.06
243.531	176.06
243.765	158.06
243.998	172.06
244.232	178.06
244.465	182.06
244.699	181.06
244.932	190.06
245.166	180.06
245.399	175.06
245.633	172.06
245.866	177.06
246.099	172.06
246.333	188.06
246.566	182.06
246.8	203.06
247.033	199.06
247.266	190.06
247.5	211.06
247.733	204.06
247.966	203.06
248.2	187.06
248.433	203.06
248.666	201.06
248.899	214.06
249.133	197.06
249.366	216.06
249.599	203.06
249.832	206.06
250.066	212.06
250.299	210.06
250.532	226.06
250.765	202.06
250.998	214.06
251.231	238.06
251.465	222.06
251.698	205.06
251.931	226.06
252.164	215.06
252.397	225.06
252.63	227.06
252.863	235.06
253.096	242.06
253.329	233.06
253.562	213.06
253.795	234.06
254.028	233.06
254.261	229.06
254.494	231.06
254.727	222.06
254.96	246.06
255.193	230.06
255.426	230.06
255.659	251.06
255.892	240.06
256.124	249.06
256.357	245.06
256.59	244.06
256.823	227.06
257.056	232.06
257.289	235.06
257.521	258.06
257.754	242.06
257.987	238.06
258.22	260.06
258.452	245.06
258.685	254.06
258.918	245.06
259.151	256.06
259.383	264.06
259.616	251.06
259.849	247.06
260.081	255.06
260.314	255.06
260.547	241.06
260.779	254.06
261.012	264.06
261.244	255.06
261.477	263.06
261.71	261.06
261.942	282.06
262.175	296.06
262.407	285.06
262.64	264.06
262.872	266.06
263.105	266.06
263.337	272.06
263.57	270.06
263.802	284.06
264.035	274.06
264.267	283.06
264.499	280.06
264.732	293.06
264.964	294.06
265.197	275.06
265.429	280.06
265.661	276.06
265.894	300.06
266.126	282.06
266.358	275.06
266.591	302.06
266.823	297.06
267.055	286.06
267.287	307.06
267.52	302.06
267.752	312.06
267.984	305.06
268.216	299.06
268.448	302.06
268.681	306.06
268.913	302.06
269.145	318.06
269.377	303.06
269.609	310.06
269.841	299.06
270.073	308.06
270.306	308.06
270.538	312.06
270.77	338.06
271.002	312.06
271.234	312.06
271.466	310.06
271.698	323.06
271.93	299.06
272.162	333.06
272.394	325.06
272.626	325.06
272.858	329.06
273.09	317.06
273.322	330.06
273.553	336.06
273.785	328.06
274.017	343.06
274.249	340.06
274.481	319.06
274.713	328.06
274.945	332.06
275.176	336.06
275.408	333.06
275.64	351.06
275.872	350.06
276.104	324.06
276.335	354.06
276.567	341.06
276.799	329.06
277.031	345.06
277.262	338.06
277.494	344.06
277.726	347.06
277.957	354.06
278.189	346.06
278.421	355.06
278.652	349.06
278.884	348.06
279.115	370.06
279.347	358.06
279.579	372.06
279.81	374.06
280.042	386.06
280.273	363.06
280.505	359.06
280.736	366.06
280.968	371.06
281.199	367.06
281.431	370.06
281.662	385.06
281.894	380.06
282.125	372.06
282.356	380.06
282.588	394.06
282.819	399.06
283.051	369.06
283.282	378.06
283.513	394.06
283.745	378.06
283.976	390.06
284.207	394.06
284.439	393.06
284.67	414.06
284.901	408.06
285.132	414.06
285.364	398.06
285.595	420.06
285.826	391.06
286.057	378.06
286.288	403.06
286.52	398.06
286.751	399.06
286.982	398.06
287.213	401.06
287.444	410.06
287.675	387.06
287.906	416.06
288.138	448.06
288.369	419.06
288.6	405.06
288.831	415.06
289.062	435.06
289.293	420.06
289.524	424.06
289.755	413.06
289.986	423.06
290.217	443.06
290.448	440.06
290.679	436.06
290.91	430.06
291.141	438.06
291.371	432.06
291.602	419.06
291.833	417.06
292.064	443.06
292.295	441.06
292.526	456.06
292.757	411.06
292.987	436.06
293.218	421.06
293.449	440.06
293.68	445.06
293.91	450.06
294.141	441.06
294.372	440.06
294.603	439.06
294.833	440.06
295.064	437.06
295.295	459.06
295.525	443.06
295.756	443.06
295.987	453.06
296.217	439.06
296.448	454.06
296.679	457.06
296.909	452.06
297.14	465.06
297.37	475.06
297.601	456.06
297.831	472.06
298.062	466.06
298.292	466.06
298.523	486.06
298.753	470.06
298.984	478.06
299.214	478.06
299.445	466.06
299.675	481.06
299.905	483.06
300.136	482.06
300.366	482.06
300.597	480.06
300.827	497.06
301.057	508.06
301.288	507.06
301.518	502.06
301.748	524.06
301.979	495.06
302.209	515.06
302.439	499.06
302.669	477.06
302.9	494.06
303.13	496.06
303.36	497.06
303.59	518.06
303.82	483.06
304.051	502.06
304.281	517.06
304.511	497.06
304.741	512.06
304.971	509.06
305.201	487.06
305.431	489.06
305.661	495.06
305.891	498.06
306.121	516.06
306.352	493.06
306.582	505.06
306.812	487.06
307.042	498.06
307.272	485.06
307.502	472.06
307.731	496.06
307.961	498.06
308.191	478.06
308.421	484.06
308.651	476.06
308.881	491.06
309.111	481.06
309.341	490.06
309.571	489.06
309.8	511.06
310.03	496.06
310.26	504.06
310.49	473.06
310.72	499.06
310.949	490.06
311.179	488.06
311.409	498.06
311.639	487.06
311.868	507.06
312.098	491.06
312.328	489.06
312.557	528.06
312.787	536.06
313.017	518.06
313.246	513.06
313.476	520.06
313.706	517.06
313.935	524.06
314.165	546.06
314.394	539.06
314.624	523.06
314.853	525.06
315.083	522.06
315.312	564.06
315.542	552.06
315.771	525.06
316.001	558.06
316.23	541.06
316.46	530.06
316.689	536.06
316.919	538.06
317.148	524.06
317.377	516.06
317.607	504.06
317.836	519.06
318.065	490.06
318.295	521.06
318.524	515.06
318.753	499.06
318.983	500.06
319.212	521.06
319.441	507.06
319.67	519.06
319.9	518.06
320.129	517.06
320.358	524.06
320.587	529.06
320.816	519.06
321.046	532.06
321.275	538.06
321.504	523.06
321.733	533.06
321.962	516.06
322.191	531.06
322.42	537.06
322.649	539.06
322.878	527.06
323.108	530.06
323.337	536.06
323.566	546.06
323.795	529.06
324.024	537.06
324.253	553.06
324.482	541.06
324.71	566.06
324.939	537.06
325.168	547.06
325.397	563.06
325.626	546.06
325.855	562.06
326.084	564.06
326.313	570.06
326.542	565.06
326.77	596.06
326.999	586.06
327.228	566.06
327.457	560.06
327.686	585.06
327.914	567.06
328.143	557.06
328.372	577.06
328.6	575.06
328.829	580.06
329.058	596.06
329.287	560.06
329.515	591.06
329.744	589.06
329.972	577.06
330.201	598.06
330.43	564.06
330.658	597.06
330.887	616.06
331.115	581.06
331.344	594.06
331.572	604.06
331.801	624.06
332.03	658.06
332.258	634.06
332.486	642.06
332.715	672.06
332.943	712.06
333.172	696.06
333.4	760.06
333.629	744.06
333.857	769.06
334.085	739.06
334.314	732.06
334.542	728.06
334.771	742.06
334.999	707.06
335.227	722.06
335.455	722.06
335.684	712.06
335.912	715.06
336.14	704.06
336.369	712.06
336.597	698.06
336.825	676.06
337.053	703.06
337.281	707.06
337.51	695.06
337.738	662.06
337.966	648.06
338.194	650.06
338.422	638.06
338.65	619.06
338.878	607.06
339.106	617.06
339.334	633.06
339.562	624.06
339.79	598.06
340.018	580.06
340.246	587.06
340.474	592.06
340.702	601.06
340.93	601.06
341.158	588.06
341.386	587.06
341.614	585.06
341.842	628.06
342.07	602.06
342.298	606.06
342.526	598.06
342.754	595.06
342.981	601.06
343.209	619.06
343.437	639.06
343.665	680.06
343.893	722.06
344.12	728.06
344.348	714.06
344.576	660.06
344.804	652.06
345.031	646.06
345.259	631.06
345.487	617.06
345.714	597.06
345.942	586.06
346.17	577.06
346.397	584.06
346.625	557.06
346.853	562.06
347.08	560.06
347.308	570.06
347.535	563.06
347.763	592.06
347.99	583.06
348.218	591.06
348.445	580.06
348.673	572.06
348.9	573.06
349.128	604.06
349.355	580.06
349.583	583.06
349.81	558.06
350.037	560.06
350.265	559.06
350.492	556.06
350.72	572.06
350.947	551.06
351.174	573.06
351.402	574.06
351.629	580.06
351.856	585.06
352.083	567.06
352.311	558.06
352.538	580.06
352.765	565.06
352.992	556.06
353.22	550.06
353.447	537.06
353.674	539.06
353.901	539.06
354.128	560.06
354.355	527.06
354.583	535.06
354.81	546.06
355.037	542.06
355.264	566.06
355.491	555.06
355.718	557.06
355.945	546.06
356.172	532.06
356.399	558.06
356.626	577.06
356.853	587.06
357.08	586.06
357.307	553.06
357.534	550.06
357.761	560.06
357.988	541.06
358.215	562.06
358.441	560.06
358.668	537.06
358.895	544.06
359.122	531.06
359.349	542.06
359.576	545.06
359.802	547.06
360.029	551.06
360.256	558.06
360.483	550.06
360.709	547.06
360.936	550.06
361.163	551.06
361.39	536.06
361.616	542.06
361.843	554.06
362.07	578.06
362.296	550.06
362.523	530.06
362.749	546.06
362.976	556.06
363.203	513.06
363.429	542.06
363.656	552.06
363.882	560.06
364.109	503.06
364.335	546.06
364.562	521.06
364.788	533.06
365.015	555.06
365.241	558.06
365.468	559.06
365.694	572.06
365.92	564.06
366.147	552.06
366.373	566.06
366.599	537.06
366.826	558.06
367.052	534.06
367.278	551.06
367.505	545.06
367.731	552.06
367.957	542.06
368.184	532.06
368.41	552.06
368.636	556.06
368.862	568.06
369.089	562.06
369.315	570.06
369.541	571.06
369.767	560.06
369.993	559.06
370.219	552.06
370.445	580.06
370.672	563.06
370.898	563.06
371.124	555.06
371.35	596.06
371.576	585.06
371.802	579.06
372.028	595.06
372.254	571.06
372.48	589.06
372.706	595.06
372.932	606.06
373.158	601.06
373.384	595.06
373.61	559.06
373.835	570.06
374.061	591.06
374.287	608.06
374.513	605.06
374.739	608.06
374.965	652.06
375.191	642.06
375.416	641.06
375.642	636.06
375.868	625.06
376.094	587.06
376.319	614.06
376.545	587.06
376.771	581.06
376.997	587.06
377.222	579.06
377.448	586.06
377.674	586.06
377.899	574.06
378.125	564.06
378.35	582.06
378.576	568.06
378.802	575.06
379.027	537.06
379.253	581.06
379.478	575.06
379.704	576.06
379.929	572.06
380.155	578.06
380.38	591.06
380.606	590.06
380.831	595.06
381.057	577.06
381.282	546.06
381.507	607.06
381.733	587.06
381.958	586.06
382.184	600.06
382.409	598.06
382.634	600.06
382.86	616.06
383.085	633.06
383.31	646.06
383.535	624.06
383.761	639.06
383.986	654.06
384.211	667.06
384.436	658.06
384.662	691.06
384.887	662.06
385.112	672.06
385.337	687.06
385.562	691.06
385.787	715.06
386.013	720.06
386.238	716.06
386.463	694.06
386.688	688.06
386.913	656.06
387.138	689.06
387.363	707.06
387.588	658.06
387.813	680.06
388.038	660.06
388.263	702.06
388.488	687.06
388.713	700.06
388.938	699.06
389.163	684.06
389.387	689.06
389.612	694.06
389.837	715.06
390.062	681.06
390.287	675.06
390.512	667.06
390.736	673.06
390.961	711.06
391.186	723.06
391.411	715.06
391.636	762.06
391.86	801.06
392.085	789.06
392.31	763.06
392.534	769.06
392.759	727.06
392.984	747.06
393.208	745.06
393.433	766.06
393.658	739.06
393.882	727.06
394.107	737.06
394.331	754.06
394.556	742.06
394.78	714.06
395.005	771.06
395.229	748.06
395.454	770.06
395.678	806.06
395.903	775.06
396.127	790.06
396.352	747.06
396.576	729.06
396.801	742.06
397.025	768.06
397.249	751.06
397.474	812.06
397.698	772.06
397.922	792.06
398.147	785.06
398.371	802.06
398.595	822.06
398.82	872.06
399.044	932.06
399.268	1031.06
399.492	1164.06
399.717	1300.06
399.941	1230.06
400.165	1168.06
400.389	1030.06
400.613	972.06
400.837	910.06
401.062	926.06
401.286	876.06
401.51	894.06
401.734	884.06
401.958	878.06
402.182	886.06
402.406	913.06
402.63	905.06
402.854	949.06
403.078	944.06
403.302	943.06
403.526	984.06
403.75	992.06
403.974	1012.06
404.198	1000.06
404.422	990.06
404.645	968.06
404.869	966.06
405.093	980.06
405.317	980.06
405.541	964.06
405.765	955.06
405.988	960.06
406.212	958.06
406.436	967.06
406.66	983.06
406.883	991.06
407.107	1073.06
407.331	1104.06
407.555	1121.06
407.778	1125.06
408.002	1107.06
408.226	1046.06
408.449	1060.06
408.673	967.06
408.896	991.06
409.12	983.06
409.344	979.06
409.567	955.06
409.791	999.06
410.014	983.06
410.238	959.06
410.461	996.06
410.685	971.06
410.908	942.06
411.132	946.06
411.355	939.06
411.578	937.06
411.802	908.06
412.025	910.06
412.249	934.06
412.472	915.06
412.695	888.06
412.919	890.06
413.142	906.06
413.365	893.06
413.589	916.06
413.812	883.06
414.035	876.06
414.258	902.06
414.482	880.06
414.705	882.06
414.928	875.06
415.151	884.06
415.374	896.06
415.597	881.06
415.821	870.06
416.044	832.06
416.267	854.06
416.49	829.06
416.713	853.06
416.936	872.06
417.159	879.06
417.382	881.06
417.605	887.06
417.828	894.06
418.051	878.06
418.274	882.06
418.497	874.06
418.72	896.06
418.943	914.06
419.166	960.06
419.389	1003.06
419.611	993.06
419.834	950.06
420.057	899.06
420.28	890.06
420.503	856.06
420.726	851.06
420.948	900.06
421.171	870.06
421.394	900.06
421.617	854.06
421.839	886.06
422.062	851.06
422.285	870.06
422.507	887.06
422.73	892.06
422.953	897.06
423.175	915.06
423.398	903.06
423.621	926.06
423.843	932.06
424.066	947.06
424.288	919.06
424.511	922.06
424.733	911.06
424.956	888.06
425.178	884.06
425.401	886.06
425.623	881.06
425.846	836.06
426.068	843.06
426.291	834.06
426.513	831.06
426.735	839.06
426.958	856.06
427.18	839.06
427.402	810.06
427.625	828.06
427.847	790.06
428.069	816.06
428.292	798.06
428.514	776.06
428.736	773.06
428.958	798.06
429.181	767.06
429.403	819.06
429.625	756.06
429.847	773.06
430.069	784.06
430.292	761.06
430.514	770.06
430.736	784.06
430.958	780.06
431.18	768.06
431.402	784.06
431.624	775.06
431.846	787.06
432.068	792.06
432.29	809.06
432.512	786.06
432.734	786.06
432.956	797.06
433.178	829.06
433.4	804.06
433.622	787.06
433.844	823.06
434.066	815.06
434.287	802.06
434.509	844.06
434.731	866.06
434.953	883.06
435.175	928.06
435.397	860.06
435.618	844.06
435.84	802.06
436.062	823.06
436.284	811.06
436.505	801.06
436.727	805.06
436.949	790.06
437.17	781.06
437.392	784.06
437.614	778.06
437.835	768.06
438.057	769.06
438.278	730.06
438.5	779.06
438.721	747.06
438.943	787.06
439.165	775.06
439.386	802.06
439.608	810.06
439.829	788.06
440.05	793.06
440.272	812.06
440.493	807.06
440.715	849.06
440.936	831.06
441.158	850.06
441.379	857.06
441.6	901.06
441.822	930.06
442.043	904.06
442.264	889.06
442.486	863.06
442.707	873.06
442.928	900.06
443.149	864.06
443.371	902.06
443.592	884.06
443.813	907.06
444.034	929.06
444.255	921.06
444.476	962.06
444.698	1008.06
444.919	1052.06
445.14	1097.06
445.361	996.06
445.582	949.06
445.803	878.06
446.024	880.06
446.245	842.06
446.466	853.06
446.687	821.06
446.908	816.06
447.129	795.06
447.35	778.06
447.571	762.06
447.792	792.06
448.013	783.06
448.234	737.06
448.455	770.06
448.675	739.06
448.896	764.06
449.117	736.06
449.338	734.06
449.559	735.06
449.779	737.06
450	746.06
450.221	731.06
450.442	758.06
450.662	743.06
450.883	740.06
451.104	736.06
451.324	766.06
451.545	755.06
451.766	769.06
451.986	752.06
452.207	750.06
452.428	742.06
452.648	732.06
452.869	726.06
453.089	706.06
453.31	739.06
453.53	710.06
453.751	713.06
453.971	723.06
454.192	694.06
454.412	712.06
454.633	707.06
454.853	680.06
455.073	698.06
455.294	718.06
455.514	689.06
455.734	660.06
455.955	661.06
456.175	698.06
456.395	675.06
456.616	706.06
456.836	714.06
457.056	699.06
457.276	691.06
457.497	725.06
457.717	700.06
457.937	692.06
458.157	706.06
458.377	722.06
458.598	740.06
458.818	764.06
459.038	790.06
459.258	804.06
459.478	790.06
459.698	817.06
459.918	853.06
460.138	862.06
460.358	904.06
460.578	902.06
460.798	956.06
461.018	978.06
461.238	959.06
461.458	934.06
461.678	918.06
461.898	939.06
462.118	967.06
462.338	1011.06
462.558	1019.06
462.777	1066.06
462.997	1169.06
463.217	1263.06
463.437	1254.06
463.657	1160.06
463.876	1093.06
464.096	1116.06
464.316	1085.06
464.536	1093.06
464.755	1092.06
464.975	1007.06
465.195	996.06
465.414	939.06
465.634	866.06
465.854	848.06
466.073	836.06
466.293	828.06
466.512	804.06
466.732	794.06
466.951	777.06
467.171	793.06
467.391	803.06
467.61	792.06
467.829	780.06
468.049	793.06
468.268	752.06
468.488	726.06
468.707	784.06
468.927	758.06
469.146	737.06
469.365	748.06
469.585	756.06
469.804	780.06
470.023	782.06
470.243	806.06
470.462	812.06
470.681	814.06
470.901	812.06
471.12	815.06
471.339	789.06
471.558	796.06
471.777	781.06
471.997	770.06
472.216	750.06
472.435	759.06
472.654	732.06
472.873	722.06
473.092	724.06
473.311	724.06
473.53	698.06
473.749	732.06
473.968	758.06
474.187	726.06
474.406	715.06
474.625	734.06
474.844	726.06
475.063	738.06
475.282	741.06
475.501	710.06
475.72	748.06
475.939	765.06
476.158	755.06
476.377	796.06
476.596	755.06
476.814	769.06
477.033	773.06
477.252	778.06
477.471	803.06
477.69	818.06
477.908	848.06
478.127	853.06
478.346	887.06
478.564	888.06
478.783	887.06
479.002	898.06
479.22	921.06
479.439	914.06
479.658	913.06
479.876	902.06
480.095	904.06
480.313	948.06
480.532	971.06
480.751	991.06
480.969	936.06
481.188	917.06
481.406	890.06
481.624	862.06
481.843	849.06
482.061	862.06
482.28	840.06
482.498	852.06
482.717	831.06
482.935	854.06
483.153	857.06
483.372	820.06
483.59	866.06
483.808	866.06
484.027	869.06
484.245	843.06
484.463	839.06
484.681	879.06
484.9	874.06
485.118	882.06
485.336	888.06
485.554	890.06
485.772	877.06
485.99	864.06
486.209	869.06
486.427	863.06
486.645	895.06
486.863	900.06
487.081	874.06
487.299	881.06
487.517	871.06
487.735	850.06
487.953	880.06
488.171	884.06
488.389	873.06
488.607	836.06
488.825	883.06
489.043	865.06
489.261	881.06
489.479	871.06
489.696	860.06
489.914	867.06
490.132	880.06
490.35	882.06
490.568	876.06
490.786	880.06
491.003	888.06
491.221	905.06
491.439	898.06
491.657	884.06
491.874	894.06
492.092	906.06
492.31	894.06
492.527	909.06
492.745	928.06
492.963	908.06
493.18	937.06
493.398	885.06
493.615	956.06
493.833	962.06
494.05	942.06
494.268	937.06
494.485	950.06
494.703	939.06
494.92	964.06
495.138	934.06
495.355	942.06
495.573	955.06
495.79	940.06
496.008	938.06
496.225	963.06
496.442	937.06
496.66	976.06
496.877	987.06
497.094	982.06
497.312	1000.06
497.529	1035.06
497.746	1070.06
497.963	1097.06
498.181	1136.06
498.398	1170.06
498.615	1254.06
498.832	1377.06
499.049	1435.06
499.267	1538.06
499.484	1696.06
499.701	1893.06
499.918	2040.06
500.135	2340.06
500.352	2619.06
500.569	2745.06
500.786	2706.06
501.003	2522.06
