Data from NiCl2@0.25M.TitratingCurve.Agarose3%dH2O.NegLispCup.LampEnergy10.LIBS07252019_HRD10591_18-24-40-573.txt Node
Date: Thu Jul 25 18:24:40 EDT 2019
User: cochatt
Spectrometer: HR+D1059
Trigger mode: 1
Integration Time (sec): 1.000000E-1
Scans to average: 1
Electric dark correction enabled: true
Nonlinearity correction enabled: false
Boxcar width: 0
XAxis mode: Wavelengths
Number of Pixels in Spectrum: 2048
>>>>>Begin Spectral Data<<<<<
223.165	-15.62
223.4	-15.62
223.635	-15.62
223.869	-21.62
224.104	-31.62
224.338	-5.62
224.573	2.38
224.808	-13.62
225.042	-10.62
225.277	-17.62
225.511	-12.62
225.746	6.38
225.98	4.38
226.215	8.38
226.449	13.38
226.683	28.38
226.918	34.38
227.152	31.38
227.387	38.38
227.621	30.38
227.856	41.38
228.09	39.38
228.324	60.38
228.559	56.38
228.793	66.38
229.027	123.38
229.262	120.38
229.496	151.38
229.73	142.38
229.964	144.38
230.199	133.38
230.433	139.38
230.667	149.38
230.901	147.38
231.136	137.38
231.37	144.38
231.604	154.38
231.838	165.38
232.072	158.38
232.306	160.38
232.541	171.38
232.775	184.38
233.009	178.38
233.243	166.38
233.477	178.38
233.711	166.38
233.945	168.38
234.179	178.38
234.413	176.38
234.647	164.38
234.881	181.38
235.115	178.38
235.349	187.38
235.583	173.38
235.817	172.38
236.051	170.38
236.285	191.38
236.519	172.38
236.753	182.38
236.987	172.38
237.221	192.38
237.455	178.38
237.689	190.38
237.922	184.38
238.156	220.38
238.39	195.38
238.624	200.38
238.858	192.38
239.091	213.38
239.325	196.38
239.559	193.38
239.793	206.38
240.027	193.38
240.26	209.38
240.494	220.38
240.728	209.38
240.961	219.38
241.195	217.38
241.429	221.38
241.662	216.38
241.896	237.38
242.13	219.38
242.363	240.38
242.597	241.38
242.83	241.38
243.064	251.38
243.298	231.38
243.531	262.38
243.765	234.38
243.998	254.38
244.232	253.38
244.465	246.38
244.699	258.38
244.932	258.38
245.166	262.38
245.399	265.38
245.633	261.38
245.866	260.38
246.099	254.38
246.333	269.38
246.566	281.38
246.8	271.38
247.033	284.38
247.266	288.38
247.5	287.38
247.733	274.38
247.966	276.38
248.2	306.38
248.433	288.38
248.666	296.38
248.899	308.38
249.133	303.38
249.366	283.38
249.599	306.38
249.832	305.38
250.066	307.38
250.299	300.38
250.532	302.38
250.765	319.38
250.998	323.38
251.231	319.38
251.465	334.38
251.698	332.38
251.931	322.38
252.164	337.38
252.397	342.38
252.63	329.38
252.863	337.38
253.096	331.38
253.329	328.38
253.562	328.38
253.795	353.38
254.028	346.38
254.261	345.38
254.494	359.38
254.727	339.38
254.96	330.38
255.193	342.38
255.426	333.38
255.659	361.38
255.892	361.38
256.124	350.38
256.357	354.38
256.59	377.38
256.823	354.38
257.056	360.38
257.289	376.38
257.521	362.38
257.754	373.38
257.987	368.38
258.22	367.38
258.452	378.38
258.685	383.38
258.918	366.38
259.151	382.38
259.383	396.38
259.616	379.38
259.849	393.38
260.081	406.38
260.314	376.38
260.547	399.38
260.779	389.38
261.012	398.38
261.244	406.38
261.477	426.38
261.71	420.38
261.942	396.38
262.175	413.38
262.407	416.38
262.64	404.38
262.872	433.38
263.105	442.38
263.337	421.38
263.57	428.38
263.802	433.38
264.035	415.38
264.267	434.38
264.499	437.38
264.732	423.38
264.964	450.38
265.197	432.38
265.429	440.38
265.661	437.38
265.894	458.38
266.126	456.38
266.358	443.38
266.591	438.38
266.823	451.38
267.055	443.38
267.287	456.38
267.52	461.38
267.752	443.38
267.984	436.38
268.216	456.38
268.448	456.38
268.681	450.38
268.913	455.38
269.145	461.38
269.377	452.38
269.609	475.38
269.841	495.38
270.073	474.38
270.306	474.38
270.538	472.38
270.77	477.38
271.002	475.38
271.234	465.38
271.466	491.38
271.698	481.38
271.93	490.38
272.162	498.38
272.394	503.38
272.626	505.38
272.858	499.38
273.09	501.38
273.322	518.38
273.553	493.38
273.785	503.38
274.017	469.38
274.249	506.38
274.481	518.38
274.713	497.38
274.945	510.38
275.176	523.38
275.408	512.38
275.64	536.38
275.872	544.38
276.104	521.38
276.335	532.38
276.567	556.38
276.799	544.38
277.031	564.38
277.262	547.38
277.494	541.38
277.726	566.38
277.957	566.38
278.189	537.38
278.421	546.38
278.652	561.38
278.884	555.38
279.115	572.38
279.347	554.38
279.579	567.38
279.81	560.38
280.042	584.38
280.273	569.38
280.505	569.38
280.736	562.38
280.968	575.38
281.199	577.38
281.431	606.38
281.662	617.38
281.894	585.38
282.125	592.38
282.356	576.38
282.588	617.38
282.819	582.38
283.051	601.38
283.282	588.38
283.513	609.38
283.745	618.38
283.976	610.38
284.207	581.38
284.439	589.38
284.67	611.38
284.901	604.38
285.132	608.38
285.364	620.38
285.595	621.38
285.826	631.38
286.057	636.38
286.288	645.38
286.52	656.38
286.751	662.38
286.982	663.38
287.213	636.38
287.444	626.38
287.675	655.38
287.906	665.38
288.138	662.38
288.369	659.38
288.6	663.38
288.831	654.38
289.062	667.38
289.293	629.38
289.524	647.38
289.755	647.38
289.986	659.38
290.217	652.38
290.448	660.38
290.679	662.38
290.91	659.38
291.141	698.38
291.371	669.38
291.602	666.38
291.833	653.38
292.064	664.38
292.295	674.38
292.526	681.38
292.757	653.38
292.987	655.38
293.218	680.38
293.449	692.38
293.68	715.38
293.91	688.38
294.141	680.38
294.372	681.38
294.603	696.38
294.833	672.38
295.064	699.38
295.295	689.38
295.525	702.38
295.756	669.38
295.987	704.38
296.217	688.38
296.448	708.38
296.679	698.38
296.909	708.38
297.14	714.38
297.37	713.38
297.601	742.38
297.831	723.38
298.062	730.38
298.292	719.38
298.523	736.38
298.753	764.38
298.984	744.38
299.214	719.38
299.445	744.38
299.675	734.38
299.905	728.38
300.136	738.38
300.366	746.38
300.597	757.38
300.827	764.38
301.057	754.38
301.288	797.38
301.518	762.38
301.748	772.38
301.979	796.38
302.209	794.38
302.439	778.38
302.669	773.38
302.9	774.38
303.13	745.38
303.36	786.38
303.59	770.38
303.82	765.38
304.051	775.38
304.281	773.38
304.511	767.38
304.741	758.38
304.971	798.38
305.201	752.38
305.431	773.38
305.661	762.38
305.891	743.38
306.121	742.38
306.352	754.38
306.582	760.38
306.812	733.38
307.042	743.38
307.272	746.38
307.502	760.38
307.731	752.38
307.961	772.38
308.191	740.38
308.421	738.38
308.651	754.38
308.881	739.38
309.111	736.38
309.341	720.38
309.571	788.38
309.8	773.38
310.03	779.38
310.26	759.38
310.49	781.38
310.72	765.38
310.949	753.38
311.179	780.38
311.409	769.38
311.639	754.38
311.868	782.38
312.098	782.38
312.328	784.38
312.557	801.38
312.787	777.38
313.017	788.38
313.246	785.38
313.476	817.38
313.706	790.38
313.935	808.38
314.165	809.38
314.394	811.38
314.624	837.38
314.853	806.38
315.083	795.38
315.312	818.38
315.542	783.38
315.771	800.38
316.001	804.38
316.23	786.38
316.46	816.38
316.689	801.38
316.919	774.38
317.148	779.38
317.377	805.38
317.607	838.38
317.836	795.38
318.065	803.38
318.295	808.38
318.524	814.38
318.753	784.38
318.983	794.38
319.212	782.38
319.441	800.38
319.67	764.38
319.9	774.38
320.129	804.38
320.358	797.38
320.587	804.38
320.816	813.38
321.046	792.38
321.275	788.38
321.504	796.38
321.733	790.38
321.962	806.38
322.191	786.38
322.42	785.38
322.649	800.38
322.878	796.38
323.108	790.38
323.337	785.38
323.566	791.38
323.795	807.38
324.024	790.38
324.253	803.38
324.482	829.38
324.71	848.38
324.939	832.38
325.168	825.38
325.397	820.38
325.626	834.38
325.855	861.38
326.084	875.38
326.313	859.38
326.542	856.38
326.77	886.38
326.999	882.38
327.228	888.38
327.457	887.38
327.686	878.38
327.914	841.38
328.143	885.38
328.372	863.38
328.6	860.38
328.829	894.38
329.058	872.38
329.287	880.38
329.515	882.38
329.744	872.38
329.972	893.38
330.201	902.38
330.43	914.38
330.658	898.38
330.887	908.38
331.115	896.38
331.344	951.38
331.572	943.38
331.801	957.38
332.03	971.38
332.258	979.38
332.486	1008.38
332.715	1074.38
332.943	1063.38
333.172	1132.38
333.4	1138.38
333.629	1190.38
333.857	1186.38
334.085	1212.38
334.314	1158.38
334.542	1163.38
334.771	1161.38
334.999	1118.38
335.227	1161.38
335.455	1143.38
335.684	1091.38
335.912	1104.38
336.14	1074.38
336.369	1061.38
336.597	1066.38
336.825	1062.38
337.053	1042.38
337.281	1049.38
337.51	1032.38
337.738	1042.38
337.966	985.38
338.194	1018.38
338.422	984.38
338.65	941.38
338.878	987.38
339.106	968.38
339.334	967.38
339.562	973.38
339.79	949.38
340.018	916.38
340.246	896.38
340.474	942.38
340.702	888.38
340.93	920.38
341.158	925.38
341.386	921.38
341.614	924.38
341.842	929.38
342.07	921.38
342.298	877.38
342.526	880.38
342.754	917.38
342.981	921.38
343.209	922.38
343.437	983.38
343.665	1053.38
343.893	1111.38
344.12	1166.38
344.348	1109.38
344.576	1046.38
344.804	1012.38
345.031	970.38
345.259	930.38
345.487	916.38
345.714	904.38
345.942	904.38
346.17	897.38
346.397	906.38
346.625	897.38
346.853	864.38
347.08	894.38
347.308	878.38
347.535	888.38
347.763	897.38
347.99	873.38
348.218	904.38
348.445	877.38
348.673	857.38
348.9	867.38
349.128	858.38
349.355	851.38
349.583	834.38
349.81	849.38
350.037	881.38
350.265	838.38
350.492	836.38
350.72	841.38
350.947	863.38
351.174	864.38
351.402	839.38
351.629	866.38
351.856	847.38
352.083	841.38
352.311	826.38
352.538	854.38
352.765	830.38
352.992	829.38
353.22	827.38
353.447	845.38
353.674	849.38
353.901	828.38
354.128	820.38
354.355	836.38
354.583	835.38
354.81	812.38
355.037	838.38
355.264	838.38
355.491	851.38
355.718	830.38
355.945	838.38
356.172	832.38
356.399	853.38
356.626	861.38
356.853	859.38
357.08	843.38
357.307	817.38
357.534	869.38
357.761	858.38
357.988	829.38
358.215	836.38
358.441	855.38
358.668	855.38
358.895	843.38
359.122	845.38
359.349	809.38
359.576	864.38
359.802	841.38
360.029	820.38
360.256	860.38
360.483	869.38
360.709	858.38
360.936	854.38
361.163	836.38
361.39	852.38
361.616	833.38
361.843	854.38
362.07	862.38
362.296	839.38
362.523	840.38
362.749	858.38
362.976	851.38
363.203	861.38
363.429	844.38
363.656	862.38
363.882	825.38
364.109	847.38
364.335	852.38
364.562	832.38
364.788	830.38
365.015	816.38
365.241	795.38
365.468	833.38
365.694	822.38
365.92	822.38
366.147	826.38
366.373	844.38
366.599	860.38
366.826	854.38
367.052	846.38
367.278	859.38
367.505	849.38
367.731	858.38
367.957	857.38
368.184	838.38
368.41	868.38
368.636	861.38
368.862	856.38
369.089	867.38
369.315	879.38
369.541	891.38
369.767	881.38
369.993	869.38
370.219	882.38
370.445	872.38
370.672	896.38
370.898	904.38
371.124	933.38
371.35	904.38
371.576	911.38
371.802	924.38
372.028	917.38
372.254	922.38
372.48	923.38
372.706	938.38
372.932	957.38
373.158	968.38
373.384	939.38
373.61	917.38
373.835	930.38
374.061	914.38
374.287	922.38
374.513	946.38
374.739	995.38
374.965	1010.38
375.191	1035.38
375.416	1067.38
375.642	990.38
375.868	968.38
376.094	968.38
376.319	948.38
376.545	917.38
376.771	956.38
376.997	934.38
377.222	914.38
377.448	931.38
377.674	937.38
377.899	921.38
378.125	944.38
378.35	922.38
378.576	893.38
378.802	913.38
379.027	912.38
379.253	922.38
379.478	911.38
379.704	904.38
379.929	902.38
380.155	914.38
380.38	901.38
380.606	898.38
380.831	924.38
381.057	923.38
381.282	914.38
381.507	932.38
381.733	942.38
381.958	942.38
382.184	955.38
382.409	938.38
382.634	968.38
382.86	987.38
383.085	970.38
383.31	971.38
383.535	1021.38
383.761	999.38
383.986	1011.38
384.211	1077.38
384.436	1054.38
384.662	1083.38
384.887	1126.38
385.112	1105.38
385.337	1149.38
385.562	1097.38
385.787	1129.38
386.013	1161.38
386.238	1141.38
386.463	1138.38
386.688	1166.38
386.913	1142.38
387.138	1152.38
387.363	1099.38
387.588	1094.38
387.813	1105.38
388.038	1147.38
388.263	1143.38
388.488	1130.38
388.713	1138.38
388.938	1098.38
389.163	1131.38
389.387	1115.38
389.612	1087.38
389.837	1066.38
390.062	1096.38
390.287	1113.38
390.512	1115.38
390.736	1148.38
390.961	1117.38
391.186	1164.38
391.411	1206.38
391.636	1206.38
391.86	1273.38
392.085	1291.38
392.31	1293.38
392.534	1243.38
392.759	1237.38
392.984	1249.38
393.208	1212.38
393.433	1216.38
393.658	1178.38
393.882	1164.38
394.107	1191.38
394.331	1210.38
394.556	1212.38
394.78	1212.38
395.005	1214.38
395.229	1219.38
395.454	1244.38
395.678	1268.38
395.903	1293.38
396.127	1280.38
396.352	1235.38
396.576	1204.38
396.801	1190.38
397.025	1216.38
397.249	1267.38
397.474	1294.38
397.698	1312.38
397.922	1306.38
398.147	1308.38
398.371	1349.38
398.595	1363.38
398.82	1462.38
399.044	1533.38
399.268	1667.38
399.492	1928.38
399.717	2180.38
399.941	2222.38
400.165	2055.38
400.389	1800.38
400.613	1677.38
400.837	1544.38
401.062	1500.38
401.286	1508.38
401.51	1475.38
401.734	1457.38
401.958	1489.38
402.182	1497.38
402.406	1472.38
402.63	1512.38
402.854	1541.38
403.078	1582.38
403.302	1624.38
403.526	1607.38
403.75	1607.38
403.974	1675.38
404.198	1633.38
404.422	1652.38
404.645	1643.38
404.869	1634.38
405.093	1663.38
405.317	1631.38
405.541	1617.38
405.765	1621.38
405.988	1556.38
406.212	1600.38
406.436	1569.38
406.66	1647.38
406.883	1712.38
407.107	1729.38
407.331	1816.38
407.555	1875.38
407.778	1880.38
408.002	1847.38
408.226	1773.38
408.449	1725.38
408.673	1710.38
408.896	1648.38
409.12	1609.38
409.344	1643.38
409.567	1641.38
409.791	1603.38
410.014	1604.38
410.238	1559.38
410.461	1625.38
410.685	1591.38
410.908	1575.38
411.132	1507.38
411.355	1510.38
411.578	1491.38
411.802	1488.38
412.025	1508.38
412.249	1529.38
412.472	1537.38
412.695	1472.38
412.919	1457.38
413.142	1444.38
413.365	1441.38
413.589	1448.38
413.812	1436.38
414.035	1401.38
414.258	1425.38
414.482	1441.38
414.705	1437.38
414.928	1447.38
415.151	1447.38
415.374	1418.38
415.597	1442.38
415.821	1416.38
416.044	1401.38
416.267	1387.38
416.49	1380.38
416.713	1386.38
416.936	1408.38
417.159	1414.38
417.382	1377.38
417.605	1386.38
417.828	1407.38
418.051	1370.38
418.274	1453.38
418.497	1434.38
418.72	1456.38
418.943	1447.38
419.166	1560.38
419.389	1685.38
419.611	1586.38
419.834	1576.38
420.057	1507.38
420.28	1452.38
420.503	1406.38
420.726	1401.38
420.948	1371.38
421.171	1414.38
421.394	1414.38
421.617	1420.38
421.839	1426.38
422.062	1436.38
422.285	1387.38
422.507	1435.38
422.73	1405.38
422.953	1448.38
423.175	1441.38
423.398	1472.38
423.621	1420.38
423.843	1497.38
424.066	1501.38
424.288	1459.38
424.511	1480.38
424.733	1492.38
424.956	1409.38
425.178	1430.38
425.401	1437.38
425.623	1404.38
425.846	1385.38
426.068	1369.38
426.291	1370.38
426.513	1350.38
426.735	1332.38
426.958	1309.38
427.18	1301.38
427.402	1311.38
427.625	1257.38
427.847	1287.38
428.069	1260.38
428.292	1278.38
428.514	1237.38
428.736	1209.38
428.958	1265.38
429.181	1213.38
429.403	1218.38
429.625	1224.38
429.847	1218.38
430.069	1192.38
430.292	1247.38
430.514	1164.38
430.736	1230.38
430.958	1223.38
431.18	1195.38
431.402	1230.38
431.624	1234.38
431.846	1227.38
432.068	1251.38
432.29	1257.38
432.512	1224.38
432.734	1251.38
432.956	1228.38
433.178	1265.38
433.4	1228.38
433.622	1241.38
433.844	1271.38
434.066	1249.38
434.287	1237.38
434.509	1329.38
434.731	1402.38
434.953	1422.38
435.175	1403.38
435.397	1364.38
435.618	1294.38
435.84	1303.38
436.062	1269.38
436.284	1244.38
436.505	1249.38
436.727	1230.38
436.949	1238.38
437.17	1254.38
437.392	1203.38
437.614	1195.38
437.835	1175.38
438.057	1205.38
438.278	1200.38
438.5	1170.38
438.721	1178.38
438.943	1185.38
439.165	1189.38
439.386	1219.38
439.608	1225.38
439.829	1214.38
440.05	1224.38
440.272	1228.38
440.493	1242.38
440.715	1281.38
440.936	1270.38
441.158	1311.38
441.379	1321.38
441.6	1367.38
441.822	1406.38
442.043	1410.38
442.264	1423.38
442.486	1376.38
442.707	1353.38
442.928	1382.38
443.149	1332.38
443.371	1355.38
443.592	1364.38
443.813	1403.38
444.034	1410.38
444.255	1476.38
444.476	1552.38
444.698	1608.38
444.919	1660.38
445.14	1753.38
445.361	1599.38
445.582	1449.38
445.803	1383.38
446.024	1336.38
446.245	1298.38
446.466	1300.38
446.687	1241.38
446.908	1224.38
447.129	1219.38
447.35	1190.38
447.571	1197.38
447.792	1146.38
448.013	1173.38
448.234	1187.38
448.455	1166.38
448.675	1156.38
448.896	1172.38
449.117	1121.38
449.338	1136.38
449.559	1106.38
449.779	1094.38
450	1083.38
450.221	1120.38
450.442	1112.38
450.662	1108.38
450.883	1128.38
451.104	1149.38
451.324	1133.38
451.545	1144.38
451.766	1137.38
451.986	1114.38
452.207	1129.38
452.428	1132.38
452.648	1111.38
452.869	1096.38
453.089	1078.38
453.31	1110.38
453.53	1092.38
453.751	1076.38
453.971	1095.38
454.192	1099.38
454.412	1062.38
454.633	1069.38
454.853	1088.38
455.073	1050.38
455.294	1033.38
455.514	1045.38
455.734	1021.38
455.955	1037.38
456.175	1092.38
456.395	1058.38
456.616	1047.38
456.836	1044.38
457.056	1044.38
457.276	1008.38
457.497	1088.38
457.717	1055.38
457.937	1067.38
458.157	1078.38
458.377	1087.38
458.598	1102.38
458.818	1160.38
459.038	1192.38
459.258	1224.38
459.478	1245.38
459.698	1301.38
459.918	1331.38
460.138	1390.38
460.358	1444.38
460.578	1481.38
460.798	1494.38
461.018	1492.38
461.238	1493.38
461.458	1471.38
461.678	1488.38
461.898	1523.38
462.118	1504.38
462.338	1633.38
462.558	1655.38
462.777	1681.38
462.997	1895.38
463.217	1982.38
463.437	2004.38
463.657	1871.38
463.876	1814.38
464.096	1781.38
464.316	1754.38
464.536	1696.38
464.755	1670.38
464.975	1642.38
465.195	1556.38
465.414	1463.38
465.634	1351.38
465.854	1302.38
466.073	1267.38
466.293	1239.38
466.512	1228.38
466.732	1222.38
466.951	1185.38
467.171	1147.38
467.391	1182.38
467.61	1166.38
467.829	1144.38
468.049	1154.38
468.268	1123.38
468.488	1089.38
468.707	1140.38
468.927	1160.38
469.146	1150.38
469.365	1145.38
469.585	1170.38
469.804	1162.38
470.023	1217.38
470.243	1201.38
470.462	1216.38
470.681	1238.38
470.901	1228.38
471.12	1231.38
471.339	1174.38
471.558	1177.38
471.777	1148.38
471.997	1142.38
472.216	1144.38
472.435	1124.38
472.654	1113.38
472.873	1095.38
473.092	1122.38
473.311	1125.38
473.53	1116.38
473.749	1141.38
473.968	1082.38
474.187	1076.38
474.406	1100.38
474.625	1110.38
474.844	1096.38
475.063	1117.38
475.282	1100.38
475.501	1122.38
475.72	1134.38
475.939	1117.38
476.158	1120.38
476.377	1107.38
476.596	1174.38
476.814	1185.38
477.033	1178.38
477.252	1196.38
477.471	1217.38
477.69	1218.38
477.908	1276.38
478.127	1336.38
478.346	1325.38
478.564	1352.38
478.783	1380.38
479.002	1420.38
479.22	1390.38
479.439	1417.38
479.658	1382.38
479.876	1401.38
480.095	1418.38
480.313	1475.38
480.532	1498.38
480.751	1506.38
480.969	1422.38
481.188	1404.38
481.406	1347.38
481.624	1331.38
481.843	1322.38
482.061	1284.38
482.28	1289.38
482.498	1248.38
482.717	1247.38
482.935	1270.38
483.153	1252.38
483.372	1254.38
483.59	1258.38
483.808	1234.38
484.027	1251.38
484.245	1296.38
484.463	1248.38
484.681	1282.38
484.9	1300.38
485.118	1309.38
485.336	1296.38
485.554	1322.38
485.772	1281.38
485.99	1321.38
486.209	1337.38
486.427	1339.38
486.645	1350.38
486.863	1332.38
487.081	1308.38
487.299	1318.38
487.517	1330.38
487.735	1305.38
487.953	1304.38
488.171	1308.38
488.389	1312.38
488.607	1287.38
488.825	1301.38
489.043	1326.38
489.261	1269.38
489.479	1316.38
489.696	1321.38
489.914	1323.38
490.132	1310.38
490.35	1309.38
490.568	1317.38
490.786	1325.38
491.003	1348.38
491.221	1359.38
491.439	1330.38
491.657	1355.38
491.874	1323.38
492.092	1317.38
492.31	1314.38
492.527	1349.38
492.745	1342.38
492.963	1399.38
493.18	1392.38
493.398	1389.38
493.615	1408.38
493.833	1374.38
494.05	1402.38
494.268	1426.38
