Data from NiCl2@0.25M.TitratingCurve.Agarose3%dH2O.NegLispCup.LampEnergy10.LIBS07252019_HRD10591_18-23-14-573.txt Node
Date: Thu Jul 25 18:23:14 EDT 2019
User: cochatt
Spectrometer: HR+D1059
Trigger mode: 1
Integration Time (sec): 1.000000E-1
Scans to average: 1
Electric dark correction enabled: true
Nonlinearity correction enabled: false
Boxcar width: 0
XAxis mode: Wavelengths
Number of Pixels in Spectrum: 2048
>>>>>Begin Spectral Data<<<<<
223.165	-8.5
223.4	-8.5
223.635	-8.5
223.869	-21.5
224.104	-15.5
224.338	-14.5
224.573	-10.5
224.808	-12.5
225.042	-12.5
225.277	-1.5
225.511	-7.5
225.746	9.5
225.98	19.5
226.215	4.5
226.449	7.5
226.683	4.5
226.918	14.5
227.152	44.5
227.387	36.5
227.621	59.5
227.856	49.5
228.09	42.5
228.324	57.5
228.559	49.5
228.793	61.5
229.027	93.5
229.262	113.5
229.496	102.5
229.73	96.5
229.964	108.5
230.199	124.5
230.433	123.5
230.667	117.5
230.901	119.5
231.136	125.5
231.37	132.5
231.604	143.5
231.838	134.5
232.072	139.5
232.306	129.5
232.541	136.5
232.775	139.5
233.009	132.5
233.243	131.5
233.477	124.5
233.711	150.5
233.945	143.5
234.179	150.5
234.413	141.5
234.647	137.5
234.881	133.5
235.115	148.5
235.349	150.5
235.583	153.5
235.817	155.5
236.051	136.5
236.285	138.5
236.519	164.5
236.753	141.5
236.987	164.5
237.221	149.5
237.455	147.5
237.689	145.5
237.922	147.5
238.156	145.5
238.39	169.5
238.624	163.5
238.858	156.5
239.091	179.5
239.325	164.5
239.559	155.5
239.793	150.5
240.027	185.5
240.26	180.5
240.494	171.5
240.728	171.5
240.961	154.5
241.195	158.5
241.429	159.5
241.662	167.5
241.896	179.5
242.13	183.5
242.363	157.5
242.597	173.5
242.83	185.5
243.064	178.5
243.298	187.5
243.531	172.5
243.765	203.5
243.998	193.5
244.232	184.5
244.465	185.5
244.699	204.5
244.932	205.5
245.166	205.5
245.399	191.5
245.633	201.5
245.866	185.5
246.099	193.5
246.333	220.5
246.566	213.5
246.8	205.5
247.033	201.5
247.266	188.5
247.5	195.5
247.733	221.5
247.966	221.5
248.2	214.5
248.433	208.5
248.666	200.5
248.899	214.5
249.133	226.5
249.366	219.5
249.599	236.5
249.832	240.5
250.066	211.5
250.299	228.5
250.532	230.5
250.765	233.5
250.998	229.5
251.231	253.5
251.465	249.5
251.698	255.5
251.931	246.5
252.164	229.5
252.397	247.5
252.63	242.5
252.863	247.5
253.096	249.5
253.329	224.5
253.562	254.5
253.795	257.5
254.028	244.5
254.261	257.5
254.494	251.5
254.727	270.5
254.96	244.5
255.193	251.5
255.426	255.5
255.659	263.5
255.892	282.5
256.124	269.5
256.357	265.5
256.59	274.5
256.823	268.5
257.056	288.5
257.289	278.5
257.521	278.5
257.754	269.5
257.987	282.5
258.22	279.5
258.452	282.5
258.685	274.5
258.918	285.5
259.151	275.5
259.383	275.5
259.616	276.5
259.849	307.5
260.081	283.5
260.314	277.5
260.547	280.5
260.779	285.5
261.012	300.5
261.244	296.5
261.477	307.5
261.71	297.5
261.942	303.5
262.175	300.5
262.407	279.5
262.64	293.5
262.872	316.5
263.105	293.5
263.337	305.5
263.57	292.5
263.802	306.5
264.035	308.5
264.267	318.5
264.499	319.5
264.732	310.5
264.964	314.5
265.197	309.5
265.429	307.5
265.661	336.5
265.894	320.5
266.126	323.5
266.358	312.5
266.591	329.5
266.823	326.5
267.055	335.5
267.287	316.5
267.52	330.5
267.752	330.5
267.984	325.5
268.216	324.5
268.448	338.5
268.681	328.5
268.913	337.5
269.145	338.5
269.377	346.5
269.609	327.5
269.841	325.5
270.073	353.5
270.306	338.5
270.538	344.5
270.77	332.5
271.002	365.5
271.234	367.5
271.466	369.5
271.698	341.5
271.93	344.5
272.162	343.5
272.394	349.5
272.626	356.5
272.858	334.5
273.09	361.5
273.322	371.5
273.553	367.5
273.785	344.5
274.017	367.5
274.249	371.5
274.481	375.5
274.713	353.5
274.945	373.5
275.176	380.5
275.408	369.5
275.64	388.5
275.872	383.5
276.104	363.5
276.335	383.5
276.567	373.5
276.799	399.5
277.031	384.5
277.262	399.5
277.494	383.5
277.726	385.5
277.957	394.5
278.189	391.5
278.421	361.5
278.652	393.5
278.884	392.5
279.115	399.5
279.347	399.5
279.579	413.5
279.81	393.5
280.042	406.5
280.273	403.5
280.505	412.5
280.736	416.5
280.968	415.5
281.199	412.5
281.431	438.5
281.662	431.5
281.894	409.5
282.125	426.5
282.356	416.5
282.588	431.5
282.819	453.5
283.051	425.5
283.282	439.5
283.513	441.5
283.745	435.5
283.976	441.5
284.207	437.5
284.439	452.5
284.67	441.5
284.901	451.5
285.132	433.5
285.364	448.5
285.595	449.5
285.826	424.5
286.057	456.5
286.288	452.5
286.52	488.5
286.751	441.5
286.982	471.5
287.213	478.5
287.444	441.5
287.675	468.5
287.906	469.5
288.138	449.5
288.369	455.5
288.6	453.5
288.831	482.5
289.062	460.5
289.293	468.5
289.524	479.5
289.755	459.5
289.986	468.5
290.217	460.5
290.448	461.5
290.679	480.5
290.91	475.5
291.141	478.5
291.371	477.5
291.602	463.5
291.833	492.5
292.064	462.5
292.295	469.5
292.526	470.5
292.757	463.5
292.987	460.5
293.218	489.5
293.449	509.5
293.68	464.5
293.91	473.5
294.141	471.5
294.372	486.5
294.603	476.5
294.833	485.5
295.064	475.5
295.295	499.5
295.525	461.5
295.756	511.5
295.987	498.5
296.217	500.5
296.448	494.5
296.679	487.5
296.909	500.5
297.14	513.5
297.37	518.5
297.601	498.5
297.831	517.5
298.062	514.5
298.292	502.5
298.523	524.5
298.753	511.5
298.984	527.5
299.214	513.5
299.445	546.5
299.675	519.5
299.905	518.5
300.136	517.5
300.366	538.5
300.597	533.5
300.827	563.5
301.057	546.5
301.288	541.5
301.518	538.5
301.748	555.5
301.979	552.5
302.209	564.5
302.439	548.5
302.669	555.5
302.9	531.5
303.13	546.5
303.36	554.5
303.59	548.5
303.82	564.5
304.051	575.5
304.281	560.5
304.511	563.5
304.741	551.5
304.971	567.5
305.201	549.5
305.431	577.5
305.661	541.5
305.891	535.5
306.121	540.5
306.352	543.5
306.582	521.5
306.812	519.5
307.042	525.5
307.272	547.5
307.502	541.5
307.731	531.5
307.961	547.5
308.191	539.5
308.421	528.5
308.651	551.5
308.881	542.5
309.111	541.5
309.341	543.5
309.571	533.5
309.8	524.5
310.03	557.5
310.26	555.5
310.49	543.5
310.72	554.5
310.949	561.5
311.179	569.5
311.409	540.5
311.639	539.5
311.868	576.5
312.098	564.5
312.328	563.5
312.557	549.5
312.787	568.5
313.017	584.5
313.246	583.5
313.476	589.5
313.706	586.5
313.935	561.5
314.165	584.5
314.394	589.5
314.624	591.5
314.853	580.5
315.083	575.5
315.312	571.5
315.542	599.5
315.771	570.5
316.001	591.5
316.23	577.5
316.46	556.5
316.689	574.5
316.919	575.5
317.148	595.5
317.377	599.5
317.607	579.5
317.836	572.5
318.065	573.5
318.295	566.5
318.524	562.5
318.753	571.5
318.983	565.5
319.212	567.5
319.441	557.5
319.67	586.5
319.9	582.5
320.129	586.5
320.358	596.5
320.587	563.5
320.816	594.5
321.046	574.5
321.275	587.5
321.504	586.5
321.733	592.5
321.962	598.5
322.191	605.5
322.42	579.5
322.649	585.5
322.878	583.5
323.108	586.5
323.337	569.5
323.566	631.5
323.795	592.5
324.024	631.5
324.253	610.5
324.482	605.5
324.71	619.5
324.939	609.5
325.168	617.5
325.397	609.5
325.626	605.5
325.855	629.5
326.084	634.5
326.313	614.5
326.542	647.5
326.77	663.5
326.999	628.5
327.228	612.5
327.457	646.5
327.686	633.5
327.914	633.5
328.143	633.5
328.372	640.5
328.6	625.5
328.829	637.5
329.058	624.5
329.287	652.5
329.515	647.5
329.744	659.5
329.972	639.5
330.201	651.5
330.43	647.5
330.658	655.5
330.887	668.5
331.115	667.5
331.344	700.5
331.572	672.5
331.801	682.5
332.03	710.5
332.258	722.5
332.486	737.5
332.715	753.5
332.943	762.5
333.172	808.5
333.4	810.5
333.629	848.5
333.857	844.5
334.085	841.5
334.314	817.5
334.542	821.5
334.771	793.5
334.999	791.5
335.227	785.5
335.455	772.5
335.684	784.5
335.912	777.5
336.14	772.5
336.369	773.5
336.597	768.5
336.825	775.5
337.053	797.5
337.281	743.5
337.51	730.5
337.738	748.5
337.966	724.5
338.194	714.5
338.422	717.5
338.65	698.5
338.878	713.5
339.106	706.5
339.334	702.5
339.562	679.5
339.79	665.5
340.018	642.5
340.246	683.5
340.474	665.5
340.702	681.5
340.93	682.5
341.158	679.5
341.386	676.5
341.614	673.5
341.842	655.5
342.07	676.5
342.298	667.5
342.526	688.5
342.754	660.5
342.981	668.5
343.209	659.5
343.437	727.5
343.665	762.5
343.893	777.5
344.12	797.5
344.348	807.5
344.576	731.5
344.804	737.5
345.031	705.5
345.259	705.5
345.487	674.5
345.714	675.5
345.942	649.5
346.17	681.5
346.397	671.5
346.625	667.5
346.853	641.5
347.08	642.5
347.308	666.5
347.535	663.5
347.763	641.5
347.99	645.5
348.218	661.5
348.445	649.5
348.673	641.5
348.9	647.5
349.128	655.5
349.355	644.5
349.583	638.5
349.81	637.5
350.037	638.5
350.265	635.5
350.492	612.5
350.72	636.5
350.947	638.5
351.174	625.5
351.402	648.5
351.629	630.5
351.856	617.5
352.083	647.5
352.311	619.5
352.538	639.5
352.765	614.5
352.992	621.5
353.22	630.5
353.447	617.5
353.674	637.5
353.901	609.5
354.128	617.5
354.355	617.5
354.583	616.5
354.81	629.5
355.037	621.5
355.264	616.5
355.491	631.5
355.718	614.5
355.945	625.5
356.172	615.5
356.399	613.5
356.626	636.5
356.853	624.5
357.08	637.5
357.307	630.5
357.534	643.5
357.761	617.5
357.988	644.5
358.215	639.5
358.441	610.5
358.668	639.5
358.895	632.5
359.122	633.5
359.349	628.5
359.576	613.5
359.802	624.5
360.029	631.5
360.256	647.5
360.483	646.5
360.709	620.5
360.936	629.5
361.163	627.5
361.39	628.5
361.616	620.5
361.843	617.5
362.07	628.5
362.296	641.5
362.523	621.5
362.749	635.5
362.976	617.5
363.203	625.5
363.429	623.5
363.656	639.5
363.882	643.5
364.109	623.5
364.335	635.5
364.562	626.5
364.788	627.5
365.015	613.5
365.241	636.5
365.468	624.5
365.694	639.5
365.92	631.5
366.147	642.5
366.373	651.5
366.599	637.5
366.826	619.5
367.052	633.5
367.278	626.5
367.505	628.5
367.731	627.5
367.957	612.5
368.184	637.5
368.41	644.5
368.636	634.5
368.862	645.5
369.089	632.5
369.315	644.5
369.541	675.5
369.767	659.5
369.993	641.5
370.219	655.5
370.445	678.5
370.672	660.5
370.898	662.5
371.124	659.5
371.35	717.5
371.576	689.5
371.802	709.5
372.028	683.5
372.254	690.5
372.48	679.5
372.706	689.5
372.932	719.5
373.158	713.5
373.384	673.5
373.61	717.5
373.835	684.5
374.061	696.5
374.287	699.5
374.513	716.5
374.739	742.5
374.965	735.5
375.191	737.5
375.416	732.5
375.642	735.5
375.868	699.5
376.094	695.5
376.319	696.5
376.545	696.5
376.771	682.5
376.997	668.5
377.222	688.5
377.448	671.5
377.674	691.5
377.899	661.5
378.125	690.5
378.35	686.5
378.576	679.5
378.802	673.5
379.027	700.5
379.253	658.5
379.478	689.5
379.704	659.5
379.929	657.5
380.155	669.5
380.38	664.5
380.606	683.5
380.831	696.5
381.057	677.5
381.282	685.5
381.507	681.5
381.733	699.5
381.958	689.5
382.184	690.5
382.409	691.5
382.634	710.5
382.86	716.5
383.085	716.5
383.31	723.5
383.535	738.5
383.761	746.5
383.986	760.5
384.211	786.5
384.436	785.5
384.662	796.5
384.887	813.5
385.112	771.5
385.337	789.5
385.562	808.5
385.787	815.5
386.013	816.5
386.238	805.5
386.463	819.5
386.688	829.5
386.913	828.5
387.138	797.5
387.363	803.5
387.588	807.5
387.813	792.5
388.038	796.5
388.263	798.5
388.488	807.5
388.713	797.5
388.938	807.5
389.163	781.5
389.387	770.5
389.612	811.5
389.837	792.5
390.062	787.5
390.287	787.5
390.512	796.5
390.736	846.5
390.961	827.5
391.186	813.5
391.411	855.5
391.636	871.5
391.86	886.5
392.085	915.5
392.31	927.5
392.534	888.5
392.759	903.5
392.984	865.5
393.208	851.5
393.433	831.5
393.658	848.5
393.882	861.5
394.107	856.5
394.331	844.5
394.556	832.5
394.78	866.5
395.005	905.5
395.229	865.5
395.454	906.5
395.678	894.5
395.903	879.5
396.127	899.5
396.352	876.5
396.576	891.5
396.801	847.5
397.025	873.5
397.249	888.5
397.474	915.5
397.698	888.5
397.922	923.5
398.147	930.5
398.371	943.5
398.595	961.5
398.82	970.5
399.044	1044.5
399.268	1153.5
399.492	1383.5
399.717	1451.5
399.941	1442.5
400.165	1300.5
400.389	1177.5
400.613	1136.5
400.837	1035.5
401.062	1031.5
401.286	1010.5
401.51	990.5
401.734	1012.5
401.958	1031.5
402.182	1022.5
402.406	1046.5
402.63	1048.5
402.854	1049.5
403.078	1104.5
403.302	1121.5
403.526	1144.5
403.75	1142.5
403.974	1155.5
404.198	1129.5
404.422	1183.5
404.645	1149.5
404.869	1139.5
405.093	1105.5
405.317	1081.5
405.541	1108.5
405.765	1089.5
405.988	1087.5
406.212	1115.5
406.436	1076.5
406.66	1109.5
406.883	1128.5
407.107	1196.5
407.331	1265.5
407.555	1308.5
407.778	1284.5
408.002	1252.5
408.226	1247.5
408.449	1235.5
408.673	1145.5
408.896	1143.5
409.12	1117.5
409.344	1142.5
409.567	1114.5
409.791	1125.5
410.014	1107.5
410.238	1103.5
410.461	1116.5
410.685	1103.5
410.908	1093.5
411.132	1048.5
411.355	1055.5
411.578	1049.5
411.802	1015.5
412.025	1066.5
412.249	1052.5
412.472	1042.5
412.695	1018.5
412.919	1007.5
413.142	1020.5
413.365	1017.5
413.589	1003.5
413.812	1002.5
414.035	1009.5
414.258	1001.5
414.482	1029.5
414.705	1014.5
414.928	1031.5
415.151	1037.5
415.374	987.5
415.597	987.5
415.821	998.5
416.044	969.5
416.267	977.5
416.49	983.5
416.713	984.5
416.936	968.5
417.159	969.5
417.382	985.5
417.605	970.5
417.828	979.5
418.051	961.5
418.274	1024.5
418.497	973.5
418.72	1009.5
418.943	979.5
419.166	1049.5
419.389	1137.5
419.611	1091.5
419.834	1056.5
420.057	1048.5
420.28	1002.5
420.503	988.5
420.726	984.5
420.948	957.5
421.171	993.5
421.394	975.5
421.617	966.5
421.839	1018.5
422.062	1017.5
422.285	976.5
422.507	1018.5
422.73	1027.5
422.953	1043.5
423.175	995.5
423.398	1042.5
423.621	1011.5
423.843	1069.5
424.066	1063.5
424.288	1033.5
424.511	1030.5
424.733	1023.5
424.956	1012.5
425.178	984.5
425.401	994.5
425.623	993.5
425.846	935.5
426.068	945.5
426.291	938.5
426.513	933.5
426.735	902.5
426.958	915.5
427.18	900.5
427.402	930.5
427.625	903.5
427.847	915.5
428.069	887.5
428.292	876.5
428.514	876.5
428.736	893.5
428.958	889.5
429.181	915.5
429.403	873.5
429.625	885.5
429.847	866.5
430.069	860.5
430.292	900.5
430.514	879.5
430.736	860.5
430.958	865.5
431.18	844.5
431.402	874.5
431.624	869.5
431.846	893.5
432.068	863.5
432.29	893.5
432.512	872.5
432.734	886.5
432.956	888.5
433.178	903.5
433.4	874.5
433.622	905.5
433.844	920.5
434.066	919.5
434.287	911.5
434.509	935.5
434.731	971.5
434.953	991.5
435.175	1002.5
435.397	966.5
435.618	942.5
435.84	919.5
436.062	891.5
436.284	885.5
436.505	869.5
436.727	879.5
436.949	882.5
437.17	873.5
437.392	862.5
437.614	860.5
437.835	845.5
438.057	857.5
438.278	859.5
438.5	855.5
438.721	844.5
438.943	863.5
439.165	837.5
439.386	858.5
439.608	885.5
439.829	884.5
440.05	876.5
440.272	893.5
440.493	889.5
440.715	910.5
440.936	903.5
441.158	925.5
441.379	918.5
441.6	988.5
441.822	998.5
442.043	979.5
442.264	959.5
442.486	958.5
442.707	969.5
442.928	965.5
443.149	968.5
443.371	937.5
443.592	979.5
443.813	988.5
444.034	964.5
444.255	1034.5
444.476	1066.5
444.698	1102.5
444.919	1153.5
445.14	1253.5
445.361	1105.5
445.582	985.5
445.803	960.5
446.024	935.5
446.245	916.5
446.466	894.5
446.687	862.5
446.908	899.5
447.129	861.5
447.35	841.5
447.571	871.5
447.792	834.5
448.013	854.5
448.234	831.5
448.455	801.5
448.675	835.5
448.896	814.5
449.117	790.5
449.338	796.5
449.559	779.5
449.779	808.5
450	788.5
450.221	825.5
450.442	803.5
450.662	807.5
450.883	829.5
451.104	831.5
451.324	809.5
451.545	827.5
451.766	823.5
451.986	777.5
452.207	818.5
452.428	809.5
452.648	800.5
452.869	800.5
453.089	778.5
453.31	799.5
453.53	799.5
453.751	780.5
453.971	794.5
454.192	787.5
454.412	763.5
454.633	775.5
454.853	770.5
455.073	751.5
455.294	767.5
455.514	771.5
455.734	765.5
455.955	759.5
456.175	760.5
456.395	766.5
456.616	748.5
456.836	757.5
457.056	747.5
457.276	759.5
457.497	788.5
457.717	757.5
457.937	762.5
458.157	780.5
458.377	794.5
458.598	824.5
458.818	825.5
459.038	853.5
459.258	847.5
459.478	881.5
459.698	905.5
459.918	951.5
460.138	983.5
460.358	995.5
460.578	1033.5
460.798	1058.5
461.018	1020.5
461.238	1039.5
461.458	1005.5
461.678	1025.5
461.898	1042.5
462.118	1016.5
462.338	1088.5
462.558	1122.5
462.777	1139.5
462.997	1215.5
463.217	1307.5
463.437	1341.5
463.657	1221.5
463.876	1173.5
464.096	1195.5
464.316	1164.5
464.536	1167.5
464.755	1155.5
464.975	1102.5
465.195	1060.5
465.414	984.5
465.634	944.5
465.854	913.5
466.073	902.5
466.293	907.5
466.512	859.5
466.732	843.5
466.951	866.5
467.171	873.5
467.391	857.5
467.61	845.5
467.829	868.5
468.049	846.5
468.268	809.5
468.488	797.5
468.707	793.5
468.927	809.5
469.146	815.5
469.365	830.5
469.585	824.5
469.804	851.5
470.023	885.5
470.243	885.5
470.462	857.5
470.681	876.5
470.901	876.5
471.12	857.5
471.339	846.5
471.558	839.5
471.777	848.5
471.997	819.5
472.216	822.5
472.435	816.5
472.654	802.5
472.873	777.5
473.092	787.5
473.311	804.5
473.53	812.5
473.749	795.5
473.968	786.5
474.187	781.5
474.406	791.5
474.625	810.5
474.844	823.5
475.063	810.5
475.282	825.5
475.501	827.5
475.72	821.5
475.939	819.5
476.158	815.5
476.377	825.5
476.596	840.5
476.814	863.5
477.033	844.5
477.252	850.5
477.471	877.5
477.69	930.5
477.908	916.5
478.127	955.5
478.346	933.5
478.564	947.5
478.783	947.5
479.002	988.5
479.22	990.5
479.439	996.5
479.658	1002.5
479.876	1004.5
480.095	1014.5
480.313	1047.5
480.532	1040.5
480.751	1056.5
480.969	1019.5
481.188	965.5
481.406	962.5
481.624	966.5
481.843	929.5
482.061	926.5
482.28	919.5
482.498	915.5
482.717	933.5
482.935	934.5
483.153	936.5
483.372	907.5
483.59	919.5
483.808	917.5
484.027	915.5
484.245	915.5
484.463	926.5
484.681	939.5
484.9	983.5
485.118	964.5
485.336	929.5
485.554	961.5
485.772	953.5
485.99	935.5
486.209	979.5
486.427	948.5
486.645	967.5
486.863	964.5
487.081	963.5
487.299	935.5
487.517	973.5
487.735	962.5
487.953	1007.5
488.171	994.5
488.389	963.5
488.607	949.5
488.825	949.5
489.043	941.5
489.261	989.5
489.479	983.5
489.696	956.5
489.914	973.5
490.132	962.5
490.35	975.5
490.568	1000.5
490.786	965.5
491.003	977.5
491.221	973.5
491.439	974.5
491.657	983.5
491.874	1019.5
492.092	997.5
492.31	986.5
492.527	1020.5
492.745	991.5
492.963	1013.5
493.18	1020.5
493.398	1009.5
493.615	1031.5
493.833	1009.5
494.05	1020.5
494.268	1044.5
494.485	1051.5
494.703	1025.5
494.92	1049.5
495.138	1005.5
495.355	1044.5
495.573	1070.5
495.79	1064.5
496.008	1058.5
496.225	1050.5
496.442	1076.5
496.66	1097.5
496.877	1082.5
497.094	1111.5
497.312	1136.5
497.529	1145.5
497.746	1173.5
497.963	1199.5
498.181	1244.5
498.398	1281.5
498.615	1417.5
498.832	1463.5
499.049	1563.5
499.267	1655.5
499.484	1812.5
499.701	1974.5
499.918	2219.5
500.135	2476.5
500.352	2804.5
500.569	2899.5
500.786	2821.5
501.003	2691.5
501.22	2435.5
501.437	2143.5
501.654	1912.5
501.871	1770.5
502.088	1647.5
502.305	1525.5
502.522	1484.5
502.739	1419.5
502.956	1319.5
503.172	1284.5
503.389	1234.5
503.606	1200.5
503.823	1192.5
504.04	1173.5
504.256	1219.5
504.473	1193.5
504.69	1234.5
504.907	1193.5
505.123	1129.5
505.34	1080.5
505.557	1025.5
505.773	1011.5
505.99	965.5
506.207	952.5
506.423	953.5
506.64	915.5
506.856	937.5
507.073	913.5
507.289	935.5
507.506	917.5
507.722	918.5
507.939	901.5
508.155	894.5
508.372	881.5
508.588	875.5
508.805	878.5
509.021	872.5
509.238	865.5
509.454	860.5
509.67	838.5
509.887	867.5
510.103	844.5
510.319	846.5
510.536	843.5
510.752	836.5
510.968	830.5
511.184	840.5
511.401	849.5
511.617	827.5
511.833	825.5
512.049	798.5
512.265	832.5
512.481	854.5
512.698	824.5
512.914	848.5
513.13	856.5
513.346	817.5
513.562	847.5
513.778	852.5
513.994	844.5
514.21	846.5
514.426	852.5
514.642	866.5
514.858	834.5
515.074	838.5
515.29	872.5
515.506	866.5
515.721	861.5
515.937	864.5
516.153	928.5
516.369	920.5
516.585	961.5
516.801	973.5
