Data from NiCl2@0.125M.TitratingCurve.Agarose3%dH2O.NegLispCup.LampEnergy10.LIBS07252019_HRD10591_18-28-48-574.txt Node
Date: Thu Jul 25 18:28:48 EDT 2019
User: cochatt
Spectrometer: HR+D1059
Trigger mode: 1
Integration Time (sec): 1.000000E-1
Scans to average: 1
Electric dark correction enabled: true
Nonlinearity correction enabled: false
Boxcar width: 0
XAxis mode: Wavelengths
Number of Pixels in Spectrum: 2048
>>>>>Begin Spectral Data<<<<<
223.165	-12.38
223.4	-12.38
223.635	-12.38
223.869	-28.38
224.104	-26.38
224.338	-1.38
224.573	-13.38
224.808	-25.38
225.042	-7.38
225.277	5.62
225.511	-11.38
225.746	5.62
225.98	9.62
226.215	21.62
226.449	17.62
226.683	19.62
226.918	17.62
227.152	28.62
227.387	26.62
227.621	36.62
227.856	46.62
228.09	46.62
228.324	46.62
228.559	59.62
228.793	62.62
229.027	114.62
229.262	123.62
229.496	118.62
229.73	116.62
229.964	126.62
230.199	115.62
230.433	138.62
230.667	137.62
230.901	139.62
231.136	150.62
231.37	130.62
231.604	150.62
231.838	154.62
232.072	155.62
232.306	160.62
232.541	162.62
232.775	160.62
233.009	161.62
233.243	151.62
233.477	154.62
233.711	155.62
233.945	132.62
234.179	142.62
234.413	152.62
234.647	163.62
234.881	156.62
235.115	156.62
235.349	151.62
235.583	150.62
235.817	167.62
236.051	170.62
236.285	170.62
236.519	150.62
236.753	169.62
236.987	150.62
237.221	171.62
237.455	181.62
237.689	157.62
237.922	166.62
238.156	190.62
238.39	178.62
238.624	169.62
238.858	169.62
239.091	180.62
239.325	201.62
239.559	171.62
239.793	190.62
240.027	178.62
240.26	191.62
240.494	208.62
240.728	185.62
240.961	198.62
241.195	194.62
241.429	198.62
241.662	214.62
241.896	212.62
242.13	191.62
242.363	214.62
242.597	210.62
242.83	202.62
243.064	203.62
243.298	222.62
243.531	222.62
243.765	232.62
243.998	223.62
244.232	226.62
244.465	206.62
244.699	223.62
244.932	238.62
245.166	258.62
245.399	231.62
245.633	230.62
245.866	236.62
246.099	219.62
246.333	227.62
246.566	236.62
246.8	233.62
247.033	251.62
247.266	245.62
247.5	239.62
247.733	255.62
247.966	241.62
248.2	242.62
248.433	241.62
248.666	245.62
248.899	249.62
249.133	259.62
249.366	250.62
249.599	265.62
249.832	249.62
250.066	281.62
250.299	270.62
250.532	272.62
250.765	275.62
250.998	288.62
251.231	279.62
251.465	288.62
251.698	277.62
251.931	279.62
252.164	315.62
252.397	293.62
252.63	301.62
252.863	298.62
253.096	286.62
253.329	302.62
253.562	294.62
253.795	302.62
254.028	308.62
254.261	306.62
254.494	297.62
254.727	290.62
254.96	289.62
255.193	283.62
255.426	304.62
255.659	293.62
255.892	299.62
256.124	302.62
256.357	306.62
256.59	298.62
256.823	336.62
257.056	322.62
257.289	326.62
257.521	336.62
257.754	332.62
257.987	328.62
258.22	321.62
258.452	323.62
258.685	314.62
258.918	341.62
259.151	346.62
259.383	328.62
259.616	337.62
259.849	350.62
260.081	321.62
260.314	337.62
260.547	332.62
260.779	337.62
261.012	340.62
261.244	344.62
261.477	352.62
261.71	365.62
261.942	332.62
262.175	338.62
262.407	349.62
262.64	350.62
262.872	351.62
263.105	347.62
263.337	369.62
263.57	363.62
263.802	350.62
264.035	381.62
264.267	366.62
264.499	369.62
264.732	377.62
264.964	372.62
265.197	386.62
265.429	366.62
265.661	401.62
265.894	376.62
266.126	372.62
266.358	382.62
266.591	395.62
266.823	373.62
267.055	357.62
267.287	393.62
267.52	388.62
267.752	384.62
267.984	391.62
268.216	396.62
268.448	384.62
268.681	403.62
268.913	409.62
269.145	383.62
269.377	403.62
269.609	431.62
269.841	416.62
270.073	402.62
270.306	380.62
270.538	424.62
270.77	392.62
271.002	421.62
271.234	411.62
271.466	432.62
271.698	420.62
271.93	417.62
272.162	423.62
272.394	431.62
272.626	432.62
272.858	441.62
273.09	414.62
273.322	433.62
273.553	444.62
273.785	438.62
274.017	434.62
274.249	449.62
274.481	451.62
274.713	424.62
274.945	439.62
275.176	454.62
275.408	452.62
275.64	443.62
275.872	447.62
276.104	444.62
276.335	446.62
276.567	459.62
276.799	462.62
277.031	470.62
277.262	483.62
277.494	476.62
277.726	472.62
277.957	476.62
278.189	457.62
278.421	467.62
278.652	463.62
278.884	465.62
279.115	476.62
279.347	474.62
279.579	459.62
279.81	488.62
280.042	459.62
280.273	480.62
280.505	503.62
280.736	492.62
280.968	503.62
281.199	501.62
281.431	498.62
281.662	503.62
281.894	516.62
282.125	481.62
282.356	498.62
282.588	507.62
282.819	501.62
283.051	512.62
283.282	518.62
283.513	512.62
283.745	506.62
283.976	510.62
284.207	546.62
284.439	507.62
284.67	506.62
284.901	513.62
285.132	522.62
285.364	537.62
285.595	534.62
285.826	543.62
286.057	541.62
286.288	537.62
286.52	521.62
286.751	530.62
286.982	534.62
287.213	522.62
287.444	559.62
287.675	564.62
287.906	549.62
288.138	549.62
288.369	565.62
288.6	556.62
288.831	566.62
289.062	559.62
289.293	571.62
289.524	583.62
289.755	560.62
289.986	563.62
290.217	588.62
290.448	554.62
290.679	554.62
290.91	586.62
291.141	580.62
291.371	572.62
291.602	583.62
291.833	573.62
292.064	571.62
292.295	567.62
292.526	570.62
292.757	572.62
292.987	583.62
293.218	570.62
293.449	578.62
293.68	576.62
293.91	574.62
294.141	572.62
294.372	577.62
294.603	585.62
294.833	578.62
295.064	593.62
295.295	594.62
295.525	591.62
295.756	575.62
295.987	577.62
296.217	600.62
296.448	596.62
296.679	608.62
296.909	598.62
297.14	619.62
297.37	618.62
297.601	610.62
297.831	599.62
298.062	630.62
298.292	636.62
298.523	626.62
298.753	665.62
298.984	606.62
299.214	610.62
299.445	603.62
299.675	604.62
299.905	627.62
300.136	644.62
300.366	643.62
300.597	643.62
300.827	656.62
301.057	648.62
301.288	642.62
301.518	647.62
301.748	670.62
301.979	647.62
302.209	653.62
302.439	643.62
302.669	639.62
302.9	649.62
303.13	635.62
303.36	645.62
303.59	665.62
303.82	640.62
304.051	640.62
304.281	643.62
304.511	647.62
304.741	649.62
304.971	641.62
305.201	643.62
305.431	646.62
305.661	646.62
305.891	645.62
306.121	620.62
306.352	638.62
306.582	632.62
306.812	614.62
307.042	656.62
307.272	638.62
307.502	624.62
307.731	629.62
307.961	643.62
308.191	626.62
308.421	645.62
308.651	636.62
308.881	621.62
309.111	620.62
309.341	634.62
309.571	632.62
309.8	613.62
310.03	625.62
310.26	636.62
310.49	649.62
310.72	645.62
310.949	644.62
311.179	640.62
311.409	652.62
311.639	629.62
311.868	662.62
312.098	658.62
312.328	678.62
312.557	662.62
312.787	656.62
313.017	631.62
313.246	643.62
313.476	662.62
313.706	659.62
313.935	675.62
314.165	691.62
314.394	669.62
314.624	676.62
314.853	671.62
315.083	691.62
315.312	680.62
315.542	668.62
315.771	662.62
316.001	670.62
316.23	657.62
316.46	651.62
316.689	666.62
316.919	668.62
317.148	656.62
317.377	656.62
317.607	659.62
317.836	663.62
318.065	663.62
318.295	653.62
318.524	655.62
318.753	694.62
318.983	651.62
319.212	646.62
319.441	659.62
319.67	641.62
319.9	664.62
320.129	633.62
320.358	652.62
320.587	668.62
320.816	658.62
321.046	650.62
321.275	658.62
321.504	653.62
321.733	638.62
321.962	664.62
322.191	673.62
322.42	653.62
322.649	632.62
322.878	652.62
323.108	647.62
323.337	671.62
323.566	678.62
323.795	701.62
324.024	676.62
324.253	696.62
324.482	697.62
324.71	674.62
324.939	693.62
325.168	674.62
325.397	681.62
325.626	690.62
325.855	704.62
326.084	719.62
326.313	734.62
326.542	718.62
326.77	729.62
326.999	734.62
327.228	705.62
327.457	699.62
327.686	707.62
327.914	737.62
328.143	754.62
328.372	729.62
328.6	728.62
328.829	709.62
329.058	729.62
329.287	705.62
329.515	714.62
329.744	741.62
329.972	743.62
330.201	753.62
330.43	730.62
330.658	724.62
330.887	756.62
331.115	736.62
331.344	755.62
331.572	771.62
331.801	776.62
332.03	807.62
332.258	783.62
332.486	824.62
332.715	867.62
332.943	882.62
333.172	926.62
333.4	977.62
333.629	995.62
333.857	1002.62
334.085	980.62
334.314	944.62
334.542	934.62
334.771	914.62
334.999	904.62
335.227	887.62
335.455	910.62
335.684	890.62
335.912	875.62
336.14	864.62
336.369	887.62
336.597	889.62
336.825	864.62
337.053	880.62
337.281	844.62
337.51	838.62
337.738	840.62
337.966	798.62
338.194	789.62
338.422	786.62
338.65	786.62
338.878	786.62
339.106	798.62
339.334	767.62
339.562	778.62
339.79	778.62
340.018	748.62
340.246	734.62
340.474	754.62
340.702	764.62
340.93	763.62
341.158	760.62
341.386	745.62
341.614	770.62
341.842	768.62
342.07	742.62
342.298	734.62
342.526	725.62
342.754	744.62
342.981	748.62
343.209	777.62
343.437	826.62
343.665	856.62
343.893	912.62
344.12	959.62
344.348	900.62
344.576	876.62
344.804	826.62
345.031	784.62
345.259	763.62
345.487	772.62
345.714	750.62
345.942	779.62
346.17	757.62
346.397	739.62
346.625	727.62
346.853	737.62
347.08	712.62
347.308	723.62
347.535	723.62
347.763	752.62
347.99	742.62
348.218	743.62
348.445	758.62
348.673	732.62
348.9	730.62
349.128	704.62
349.355	723.62
349.583	728.62
349.81	718.62
350.037	708.62
350.265	732.62
350.492	696.62
350.72	688.62
350.947	692.62
351.174	711.62
351.402	717.62
351.629	711.62
351.856	711.62
352.083	700.62
352.311	692.62
352.538	694.62
352.765	705.62
352.992	696.62
353.22	682.62
353.447	698.62
353.674	696.62
353.901	697.62
354.128	708.62
354.355	695.62
354.583	686.62
354.81	712.62
355.037	707.62
355.264	713.62
355.491	719.62
355.718	702.62
355.945	714.62
356.172	707.62
356.399	692.62
356.626	716.62
356.853	713.62
357.08	705.62
357.307	729.62
357.534	686.62
357.761	712.62
357.988	720.62
358.215	708.62
358.441	696.62
358.668	708.62
358.895	703.62
359.122	705.62
359.349	693.62
359.576	691.62
359.802	701.62
360.029	694.62
360.256	706.62
360.483	706.62
360.709	693.62
360.936	725.62
361.163	689.62
361.39	693.62
361.616	690.62
361.843	698.62
362.07	720.62
362.296	688.62
362.523	691.62
362.749	695.62
362.976	690.62
363.203	699.62
363.429	687.62
363.656	688.62
363.882	675.62
364.109	702.62
364.335	714.62
364.562	695.62
364.788	660.62
365.015	700.62
365.241	702.62
365.468	693.62
365.694	698.62
365.92	708.62
366.147	723.62
366.373	711.62
366.599	711.62
366.826	687.62
367.052	688.62
367.278	675.62
367.505	698.62
367.731	719.62
367.957	732.62
368.184	696.62
368.41	727.62
368.636	717.62
368.862	730.62
369.089	715.62
369.315	716.62
369.541	717.62
369.767	763.62
369.993	726.62
370.219	719.62
370.445	744.62
370.672	741.62
370.898	739.62
371.124	762.62
371.35	772.62
371.576	772.62
371.802	777.62
372.028	767.62
372.254	747.62
372.48	758.62
372.706	763.62
372.932	787.62
373.158	801.62
373.384	758.62
373.61	785.62
373.835	780.62
374.061	770.62
374.287	783.62
374.513	761.62
374.739	782.62
374.965	836.62
375.191	863.62
375.416	842.62
375.642	833.62
375.868	800.62
376.094	826.62
376.319	783.62
376.545	798.62
376.771	797.62
376.997	774.62
377.222	793.62
377.448	774.62
377.674	764.62
377.899	776.62
378.125	764.62
378.35	754.62
378.576	780.62
378.802	767.62
379.027	750.62
379.253	750.62
379.478	751.62
379.704	788.62
379.929	744.62
380.155	722.62
380.38	734.62
380.606	764.62
380.831	744.62
381.057	743.62
381.282	779.62
381.507	770.62
381.733	770.62
381.958	755.62
382.184	786.62
382.409	826.62
382.634	814.62
382.86	811.62
383.085	792.62
383.31	809.62
383.535	823.62
383.761	849.62
383.986	881.62
384.211	884.62
384.436	857.62
384.662	904.62
384.887	904.62
385.112	924.62
385.337	949.62
385.562	926.62
385.787	924.62
386.013	963.62
386.238	947.62
386.463	938.62
386.688	918.62
386.913	912.62
387.138	911.62
387.363	897.62
387.588	910.62
387.813	915.62
388.038	893.62
388.263	930.62
388.488	898.62
388.713	907.62
388.938	907.62
389.163	904.62
389.387	921.62
389.612	900.62
389.837	918.62
390.062	910.62
390.287	923.62
390.512	928.62
390.736	910.62
390.961	922.62
391.186	942.62
391.411	964.62
391.636	988.62
391.86	1003.62
392.085	1055.62
392.31	1057.62
392.534	1008.62
392.759	995.62
392.984	1007.62
393.208	968.62
393.433	960.62
393.658	991.62
393.882	986.62
394.107	951.62
394.331	1012.62
394.556	1002.62
394.78	1001.62
395.005	989.62
395.229	982.62
395.454	1026.62
395.678	1050.62
395.903	1059.62
396.127	1034.62
396.352	1024.62
396.576	948.62
396.801	966.62
397.025	968.62
397.249	993.62
397.474	1055.62
397.698	1034.62
397.922	1036.62
398.147	1049.62
398.371	1035.62
398.595	1082.62
398.82	1137.62
399.044	1202.62
399.268	1351.62
399.492	1547.62
399.717	1819.62
399.941	1828.62
400.165	1589.62
400.389	1405.62
400.613	1287.62
400.837	1201.62
401.062	1201.62
401.286	1168.62
401.51	1166.62
401.734	1163.62
401.958	1195.62
402.182	1190.62
402.406	1195.62
402.63	1200.62
402.854	1232.62
403.078	1281.62
403.302	1286.62
403.526	1305.62
403.75	1368.62
403.974	1385.62
404.198	1379.62
404.422	1358.62
404.645	1366.62
404.869	1320.62
405.093	1351.62
405.317	1313.62
405.541	1305.62
405.765	1304.62
405.988	1309.62
406.212	1297.62
406.436	1263.62
406.66	1319.62
406.883	1321.62
407.107	1392.62
407.331	1468.62
407.555	1547.62
407.778	1558.62
408.002	1502.62
408.226	1473.62
408.449	1428.62
408.673	1326.62
408.896	1356.62
409.12	1318.62
409.344	1350.62
409.567	1349.62
409.791	1345.62
410.014	1354.62
410.238	1300.62
410.461	1272.62
410.685	1267.62
410.908	1274.62
411.132	1272.62
411.355	1223.62
411.578	1224.62
411.802	1217.62
412.025	1210.62
412.249	1228.62
412.472	1231.62
412.695	1178.62
412.919	1186.62
413.142	1167.62
413.365	1162.62
413.589	1179.62
413.812	1164.62
414.035	1119.62
414.258	1162.62
414.482	1160.62
414.705	1147.62
414.928	1146.62
415.151	1173.62
415.374	1169.62
415.597	1186.62
415.821	1176.62
416.044	1169.62
416.267	1131.62
416.49	1136.62
416.713	1137.62
416.936	1148.62
417.159	1142.62
417.382	1151.62
417.605	1120.62
417.828	1136.62
418.051	1144.62
418.274	1175.62
418.497	1200.62
418.72	1172.62
418.943	1174.62
419.166	1247.62
419.389	1355.62
419.611	1307.62
419.834	1227.62
420.057	1213.62
420.28	1180.62
420.503	1140.62
420.726	1156.62
420.948	1126.62
421.171	1154.62
421.394	1136.62
421.617	1120.62
421.839	1152.62
422.062	1139.62
422.285	1146.62
422.507	1184.62
422.73	1165.62
422.953	1208.62
423.175	1231.62
423.398	1238.62
423.621	1212.62
423.843	1247.62
424.066	1250.62
424.288	1235.62
424.511	1210.62
424.733	1232.62
424.956	1202.62
425.178	1187.62
425.401	1170.62
425.623	1184.62
425.846	1134.62
426.068	1118.62
426.291	1090.62
426.513	1073.62
426.735	1095.62
426.958	1090.62
427.18	1028.62
427.402	1056.62
427.625	1040.62
427.847	1046.62
428.069	1030.62
428.292	1038.62
428.514	993.62
428.736	1035.62
428.958	1042.62
429.181	1010.62
429.403	998.62
429.625	980.62
429.847	992.62
430.069	993.62
430.292	990.62
430.514	979.62
430.736	997.62
430.958	1029.62
431.18	996.62
431.402	988.62
431.624	983.62
431.846	1015.62
432.068	1035.62
432.29	1046.62
432.512	1028.62
432.734	1054.62
432.956	1026.62
433.178	1023.62
433.4	1015.62
433.622	1070.62
433.844	1052.62
434.066	1048.62
434.287	1060.62
434.509	1102.62
434.731	1143.62
434.953	1165.62
435.175	1196.62
435.397	1179.62
435.618	1073.62
435.84	1068.62
436.062	1050.62
436.284	1030.62
436.505	1020.62
436.727	1048.62
436.949	1033.62
437.17	1051.62
437.392	1009.62
437.614	1010.62
437.835	968.62
438.057	974.62
438.278	983.62
438.5	1014.62
438.721	1007.62
438.943	984.62
439.165	1002.62
439.386	990.62
439.608	1003.62
439.829	1052.62
440.05	1029.62
440.272	1065.62
440.493	1040.62
440.715	1050.62
440.936	1076.62
441.158	1085.62
441.379	1115.62
441.6	1155.62
441.822	1226.62
442.043	1186.62
442.264	1159.62
442.486	1131.62
442.707	1145.62
442.928	1141.62
443.149	1189.62
443.371	1128.62
443.592	1129.62
443.813	1190.62
444.034	1177.62
444.255	1221.62
444.476	1292.62
444.698	1367.62
444.919	1429.62
445.14	1476.62
445.361	1337.62
445.582	1226.62
445.803	1145.62
446.024	1112.62
446.245	1118.62
446.466	1061.62
446.687	1051.62
446.908	1065.62
447.129	1035.62
447.35	1024.62
447.571	1000.62
447.792	972.62
448.013	994.62
448.234	980.62
448.455	998.62
448.675	997.62
448.896	948.62
449.117	904.62
449.338	966.62
449.559	940.62
449.779	953.62
450	943.62
450.221	939.62
450.442	961.62
450.662	929.62
450.883	976.62
451.104	997.62
451.324	994.62
451.545	991.62
451.766	978.62
451.986	967.62
452.207	942.62
452.428	979.62
452.648	939.62
452.869	934.62
453.089	934.62
453.31	937.62
453.53	927.62
453.751	918.62
453.971	900.62
454.192	943.62
454.412	910.62
454.633	917.62
454.853	931.62
455.073	942.62
455.294	898.62
455.514	893.62
455.734	912.62
455.955	878.62
456.175	853.62
456.395	875.62
456.616	886.62
456.836	898.62
457.056	860.62
457.276	843.62
457.497	878.62
457.717	900.62
457.937	889.62
458.157	908.62
458.377	895.62
458.598	936.62
458.818	948.62
459.038	971.62
459.258	1020.62
459.478	1070.62
459.698	1066.62
459.918	1116.62
460.138	1143.62
460.358	1218.62
460.578	1233.62
460.798	1236.62
461.018	1246.62
461.238	1193.62
461.458	1216.62
461.678	1220.62
461.898	1240.62
462.118	1254.62
462.338	1310.62
462.558	1349.62
462.777	1429.62
462.997	1561.62
463.217	1677.62
463.437	1738.62
463.657	1569.62
463.876	1494.62
464.096	1458.62
464.316	1467.62
464.536	1473.62
464.755	1404.62
464.975	1368.62
465.195	1312.62
465.414	1229.62
465.634	1140.62
465.854	1100.62
466.073	1059.62
466.293	1063.62
466.512	1010.62
466.732	980.62
466.951	1016.62
467.171	992.62
467.391	1014.62
467.61	1007.62
467.829	965.62
468.049	1004.62
468.268	952.62
468.488	971.62
468.707	927.62
468.927	944.62
469.146	939.62
469.365	973.62
469.585	960.62
469.804	981.62
470.023	1020.62
470.243	1026.62
470.462	1039.62
470.681	1030.62
470.901	1072.62
471.12	1013.62
471.339	1007.62
471.558	960.62
471.777	965.62
471.997	967.62
472.216	954.62
472.435	935.62
472.654	953.62
472.873	935.62
473.092	908.62
473.311	922.62
473.53	900.62
473.749	902.62
473.968	901.62
474.187	947.62
474.406	903.62
474.625	919.62
474.844	906.62
475.063	934.62
475.282	920.62
475.501	929.62
475.72	926.62
475.939	945.62
476.158	972.62
476.377	978.62
476.596	960.62
476.814	996.62
477.033	982.62
477.252	980.62
477.471	1023.62
477.69	1046.62
477.908	1057.62
478.127	1119.62
478.346	1110.62
478.564	1116.62
478.783	1154.62
479.002	1162.62
479.22	1171.62
479.439	1163.62
479.658	1154.62
479.876	1165.62
480.095	1170.62
480.313	1230.62
480.532	1256.62
480.751	1302.62
480.969	1195.62
481.188	1162.62
481.406	1147.62
481.624	1114.62
481.843	1072.62
482.061	1041.62
482.28	1066.62
482.498	1061.62
482.717	1033.62
482.935	1079.62
483.153	1045.62
483.372	1076.62
483.59	1061.62
483.808	1071.62
484.027	1061.62
484.245	1065.62
484.463	1082.62
484.681	1082.62
484.9	1107.62
485.118	1106.62
485.336	1110.62
485.554	1112.62
485.772	1086.62
485.99	1079.62
486.209	1121.62
486.427	1108.62
486.645	1122.62
486.863	1119.62
487.081	1107.62
487.299	1125.62
487.517	1096.62
487.735	1102.62
487.953	1152.62
488.171	1130.62
488.389	1096.62
488.607	1090.62
488.825	1107.62
489.043	1059.62
489.261	1101.62
489.479	1095.62
489.696	1094.62
489.914	1140.62
490.132	1106.62
490.35	1134.62
490.568	1126.62
490.786	1112.62
491.003	1123.62
491.221	1115.62
491.439	1123.62
491.657	1122.62
491.874	1137.62
492.092	1116.62
492.31	1126.62
492.527	1137.62
492.745	1130.62
492.963	1146.62
493.18	1186.62
493.398	1147.62
493.615	1146.62
493.833	1156.62
494.05	1171.62
494.268	1180.62
494.485	1198.62
494.703	1185.62
494.92	1181.62
495.138	1185.62
495.355	1195.62
495.573	1180.62
495.79	1185.62
496.008	1199.62
496.225	1187.62
496.442	1206.62
496.66	1204.62
