Data from NiCl2@0.5M.TitratingCurve.Agarose3%dH2O.NegLispCup.LampEnergy10.LIBS07252019_HRD10591_18-18-58-571.txt Node
Date: Thu Jul 25 18:18:58 EDT 2019
User: cochatt
Spectrometer: HR+D1059
Trigger mode: 1
Integration Time (sec): 1.000000E-1
Scans to average: 1
Electric dark correction enabled: true
Nonlinearity correction enabled: false
Boxcar width: 0
XAxis mode: Wavelengths
Number of Pixels in Spectrum: 2048
>>>>>Begin Spectral Data<<<<<
223.165	-9.94
223.4	-9.94
223.635	-9.94
223.869	-32.94
224.104	-23.94
224.338	-22.94
224.573	-16.94
224.808	-11.94
225.042	-2.94
225.277	-7.94
225.511	5.06
225.746	5.06
225.98	3.06
226.215	15.06
226.449	10.06
226.683	25.06
226.918	27.06
227.152	39.06
227.387	36.06
227.621	46.06
227.856	49.06
228.09	44.06
228.324	64.06
228.559	40.06
228.793	68.06
229.027	118.06
229.262	135.06
229.496	134.06
229.73	126.06
229.964	135.06
230.199	150.06
230.433	162.06
230.667	147.06
230.901	137.06
231.136	159.06
231.37	165.06
231.604	167.06
231.838	173.06
232.072	175.06
232.306	162.06
232.541	160.06
232.775	173.06
233.009	149.06
233.243	157.06
233.477	155.06
233.711	152.06
233.945	160.06
234.179	154.06
234.413	170.06
234.647	172.06
234.881	166.06
235.115	173.06
235.349	157.06
235.583	157.06
235.817	158.06
236.051	150.06
236.285	177.06
236.519	167.06
236.753	165.06
236.987	167.06
237.221	177.06
237.455	160.06
237.689	170.06
237.922	189.06
238.156	188.06
238.39	175.06
238.624	192.06
238.858	178.06
239.091	160.06
239.325	193.06
239.559	181.06
239.793	195.06
240.027	196.06
240.26	201.06
240.494	174.06
240.728	207.06
240.961	190.06
241.195	194.06
241.429	205.06
241.662	205.06
241.896	215.06
242.13	227.06
242.363	213.06
242.597	204.06
242.83	201.06
243.064	213.06
243.298	203.06
243.531	227.06
243.765	222.06
243.998	219.06
244.232	227.06
244.465	214.06
244.699	224.06
244.932	222.06
245.166	217.06
245.399	223.06
245.633	214.06
245.866	237.06
246.099	230.06
246.333	232.06
246.566	220.06
246.8	231.06
247.033	230.06
247.266	253.06
247.5	271.06
247.733	236.06
247.966	224.06
248.2	249.06
248.433	236.06
248.666	228.06
248.899	246.06
249.133	251.06
249.366	260.06
249.599	248.06
249.832	266.06
250.066	265.06
250.299	257.06
250.532	260.06
250.765	246.06
250.998	283.06
251.231	286.06
251.465	292.06
251.698	282.06
251.931	284.06
252.164	287.06
252.397	280.06
252.63	282.06
252.863	285.06
253.096	300.06
253.329	293.06
253.562	281.06
253.795	288.06
254.028	302.06
254.261	295.06
254.494	308.06
254.727	302.06
254.96	285.06
255.193	300.06
255.426	302.06
255.659	304.06
255.892	304.06
256.124	297.06
256.357	316.06
256.59	321.06
256.823	311.06
257.056	304.06
257.289	342.06
257.521	307.06
257.754	295.06
257.987	310.06
258.22	323.06
258.452	317.06
258.685	316.06
258.918	327.06
259.151	316.06
259.383	324.06
259.616	318.06
259.849	345.06
260.081	350.06
260.314	337.06
260.547	340.06
260.779	309.06
261.012	332.06
261.244	325.06
261.477	336.06
261.71	349.06
261.942	334.06
262.175	368.06
262.407	357.06
262.64	360.06
262.872	351.06
263.105	361.06
263.337	352.06
263.57	353.06
263.802	371.06
264.035	333.06
264.267	362.06
264.499	362.06
264.732	387.06
264.964	348.06
265.197	350.06
265.429	360.06
265.661	401.06
265.894	381.06
266.126	380.06
266.358	385.06
266.591	387.06
266.823	387.06
267.055	404.06
267.287	367.06
267.52	366.06
267.752	385.06
267.984	387.06
268.216	382.06
268.448	393.06
268.681	399.06
268.913	404.06
269.145	391.06
269.377	405.06
269.609	407.06
269.841	415.06
270.073	400.06
270.306	388.06
270.538	394.06
270.77	422.06
271.002	422.06
271.234	415.06
271.466	405.06
271.698	427.06
271.93	410.06
272.162	421.06
272.394	409.06
272.626	422.06
272.858	407.06
273.09	448.06
273.322	438.06
273.553	411.06
273.785	439.06
274.017	449.06
274.249	461.06
274.481	435.06
274.713	417.06
274.945	453.06
275.176	445.06
275.408	432.06
275.64	465.06
275.872	458.06
276.104	442.06
276.335	454.06
276.567	457.06
276.799	453.06
277.031	459.06
277.262	457.06
277.494	451.06
277.726	458.06
277.957	468.06
278.189	461.06
278.421	450.06
278.652	455.06
278.884	475.06
279.115	465.06
279.347	467.06
279.579	486.06
279.81	501.06
280.042	489.06
280.273	471.06
280.505	493.06
280.736	505.06
280.968	500.06
281.199	493.06
281.431	488.06
281.662	505.06
281.894	514.06
282.125	493.06
282.356	497.06
282.588	510.06
282.819	513.06
283.051	502.06
283.282	499.06
283.513	521.06
283.745	508.06
283.976	505.06
284.207	511.06
284.439	520.06
284.67	520.06
284.901	536.06
285.132	521.06
285.364	537.06
285.595	539.06
285.826	497.06
286.057	545.06
286.288	519.06
286.52	506.06
286.751	539.06
286.982	555.06
287.213	536.06
287.444	545.06
287.675	531.06
287.906	557.06
288.138	540.06
288.369	548.06
288.6	552.06
288.831	557.06
289.062	552.06
289.293	555.06
289.524	555.06
289.755	561.06
289.986	551.06
290.217	546.06
290.448	555.06
290.679	566.06
290.91	557.06
291.141	545.06
291.371	575.06
291.602	559.06
291.833	561.06
292.064	582.06
292.295	553.06
292.526	557.06
292.757	563.06
292.987	573.06
293.218	576.06
293.449	553.06
293.68	565.06
293.91	578.06
294.141	554.06
294.372	572.06
294.603	566.06
294.833	594.06
295.064	584.06
295.295	572.06
295.525	572.06
295.756	573.06
295.987	571.06
296.217	556.06
296.448	605.06
296.679	595.06
296.909	602.06
297.14	615.06
297.37	568.06
297.601	607.06
297.831	592.06
298.062	595.06
298.292	599.06
298.523	632.06
298.753	636.06
298.984	624.06
299.214	611.06
299.445	625.06
299.675	625.06
299.905	637.06
300.136	622.06
300.366	624.06
300.597	641.06
300.827	677.06
301.057	657.06
301.288	660.06
301.518	665.06
301.748	650.06
301.979	633.06
302.209	659.06
302.439	636.06
302.669	630.06
302.9	648.06
303.13	637.06
303.36	645.06
303.59	652.06
303.82	632.06
304.051	671.06
304.281	661.06
304.511	631.06
304.741	652.06
304.971	663.06
305.201	661.06
305.431	681.06
305.661	660.06
305.891	657.06
306.121	669.06
306.352	652.06
306.582	640.06
306.812	647.06
307.042	659.06
307.272	645.06
307.502	655.06
307.731	664.06
307.961	668.06
308.191	667.06
308.421	650.06
308.651	649.06
308.881	643.06
309.111	635.06
309.341	658.06
309.571	657.06
309.8	677.06
310.03	677.06
310.26	672.06
310.49	699.06
310.72	663.06
310.949	675.06
311.179	696.06
311.409	677.06
311.639	663.06
311.868	672.06
312.098	672.06
312.328	680.06
312.557	677.06
312.787	677.06
313.017	697.06
313.246	700.06
313.476	715.06
313.706	707.06
313.935	700.06
314.165	689.06
314.394	687.06
314.624	708.06
314.853	701.06
315.083	697.06
315.312	700.06
315.542	705.06
315.771	711.06
316.001	710.06
316.23	704.06
316.46	684.06
316.689	680.06
316.919	669.06
317.148	695.06
317.377	701.06
317.607	704.06
317.836	684.06
318.065	681.06
318.295	694.06
318.524	702.06
318.753	708.06
318.983	700.06
319.212	682.06
319.441	683.06
319.67	703.06
319.9	683.06
320.129	732.06
320.358	713.06
320.587	712.06
320.816	721.06
321.046	700.06
321.275	707.06
321.504	725.06
321.733	704.06
321.962	737.06
322.191	711.06
322.42	720.06
322.649	716.06
322.878	716.06
323.108	716.06
323.337	737.06
323.566	719.06
323.795	740.06
324.024	752.06
324.253	715.06
324.482	750.06
324.71	735.06
324.939	725.06
325.168	742.06
325.397	734.06
325.626	757.06
325.855	752.06
326.084	775.06
326.313	763.06
326.542	761.06
326.77	792.06
326.999	792.06
327.228	747.06
327.457	757.06
327.686	746.06
327.914	764.06
328.143	794.06
328.372	776.06
328.6	762.06
328.829	751.06
329.058	760.06
329.287	765.06
329.515	742.06
329.744	791.06
329.972	784.06
330.201	777.06
330.43	792.06
330.658	800.06
330.887	792.06
331.115	783.06
331.344	798.06
331.572	807.06
331.801	836.06
332.03	845.06
332.258	847.06
332.486	838.06
332.715	865.06
332.943	870.06
333.172	899.06
333.4	919.06
333.629	934.06
333.857	924.06
334.085	945.06
334.314	906.06
334.542	921.06
334.771	933.06
334.999	912.06
335.227	911.06
335.455	899.06
335.684	900.06
335.912	901.06
336.14	896.06
336.369	919.06
336.597	909.06
336.825	889.06
337.053	897.06
337.281	880.06
337.51	899.06
337.738	872.06
337.966	870.06
338.194	853.06
338.422	864.06
338.65	851.06
338.878	842.06
339.106	835.06
339.334	880.06
339.562	823.06
339.79	825.06
340.018	814.06
340.246	806.06
340.474	798.06
340.702	830.06
340.93	831.06
341.158	803.06
341.386	828.06
341.614	849.06
341.842	839.06
342.07	810.06
342.298	816.06
342.526	796.06
342.754	819.06
342.981	824.06
343.209	819.06
343.437	856.06
343.665	845.06
343.893	904.06
344.12	915.06
344.348	900.06
344.576	892.06
344.804	862.06
345.031	835.06
345.259	830.06
345.487	833.06
345.714	824.06
345.942	825.06
346.17	847.06
346.397	836.06
346.625	782.06
346.853	800.06
347.08	758.06
347.308	784.06
347.535	786.06
347.763	772.06
347.99	776.06
348.218	761.06
348.445	778.06
348.673	795.06
348.9	764.06
349.128	761.06
349.355	754.06
349.583	791.06
349.81	747.06
350.037	769.06
350.265	757.06
350.492	769.06
350.72	733.06
350.947	747.06
351.174	789.06
351.402	773.06
351.629	788.06
351.856	779.06
352.083	755.06
352.311	749.06
352.538	780.06
352.765	803.06
352.992	749.06
353.22	752.06
353.447	744.06
353.674	740.06
353.901	750.06
354.128	752.06
354.355	732.06
354.583	706.06
354.81	721.06
355.037	729.06
355.264	736.06
355.491	739.06
355.718	733.06
355.945	736.06
356.172	751.06
356.399	728.06
356.626	755.06
356.853	759.06
357.08	756.06
357.307	757.06
357.534	744.06
357.761	748.06
357.988	760.06
358.215	741.06
358.441	750.06
358.668	733.06
358.895	714.06
359.122	720.06
359.349	728.06
359.576	727.06
359.802	729.06
360.029	736.06
360.256	727.06
360.483	721.06
360.709	743.06
360.936	765.06
361.163	746.06
361.39	749.06
361.616	736.06
361.843	750.06
362.07	775.06
362.296	776.06
362.523	718.06
362.749	731.06
362.976	731.06
363.203	753.06
363.429	730.06
363.656	731.06
363.882	752.06
364.109	748.06
364.335	728.06
364.562	735.06
364.788	721.06
365.015	743.06
365.241	719.06
365.468	719.06
365.694	744.06
365.92	719.06
366.147	730.06
366.373	713.06
366.599	726.06
366.826	733.06
367.052	708.06
367.278	734.06
367.505	732.06
367.731	719.06
367.957	739.06
368.184	739.06
368.41	744.06
368.636	729.06
368.862	718.06
369.089	721.06
369.315	744.06
369.541	759.06
369.767	765.06
369.993	772.06
370.219	759.06
370.445	777.06
370.672	751.06
370.898	764.06
371.124	769.06
371.35	785.06
371.576	780.06
371.802	763.06
372.028	775.06
372.254	757.06
372.48	787.06
372.706	780.06
372.932	793.06
373.158	776.06
373.384	781.06
373.61	759.06
373.835	792.06
374.061	768.06
374.287	759.06
374.513	777.06
374.739	811.06
374.965	821.06
375.191	819.06
375.416	796.06
375.642	803.06
375.868	792.06
376.094	796.06
376.319	790.06
376.545	759.06
376.771	750.06
376.997	782.06
377.222	781.06
377.448	773.06
377.674	767.06
377.899	748.06
378.125	760.06
378.35	753.06
378.576	749.06
378.802	779.06
379.027	760.06
379.253	742.06
379.478	751.06
379.704	751.06
379.929	742.06
380.155	760.06
380.38	735.06
380.606	777.06
380.831	767.06
381.057	767.06
381.282	762.06
381.507	749.06
381.733	748.06
381.958	776.06
382.184	755.06
382.409	756.06
382.634	781.06
382.86	784.06
383.085	781.06
383.31	806.06
383.535	777.06
383.761	798.06
383.986	818.06
384.211	821.06
384.436	842.06
384.662	852.06
384.887	867.06
385.112	822.06
385.337	823.06
385.562	843.06
385.787	859.06
386.013	869.06
386.238	869.06
386.463	884.06
386.688	868.06
386.913	854.06
387.138	868.06
387.363	843.06
387.588	858.06
387.813	855.06
388.038	867.06
388.263	884.06
388.488	843.06
388.713	856.06
388.938	886.06
389.163	879.06
389.387	885.06
389.612	851.06
389.837	862.06
390.062	865.06
390.287	865.06
390.512	861.06
390.736	888.06
390.961	890.06
391.186	877.06
391.411	897.06
391.636	933.06
391.86	938.06
392.085	942.06
392.31	924.06
392.534	937.06
392.759	918.06
392.984	894.06
393.208	889.06
393.433	900.06
393.658	911.06
393.882	921.06
394.107	916.06
394.331	910.06
394.556	893.06
394.78	900.06
395.005	905.06
395.229	935.06
395.454	950.06
395.678	945.06
395.903	956.06
396.127	930.06
396.352	953.06
396.576	917.06
396.801	927.06
397.025	951.06
397.249	951.06
397.474	979.06
397.698	933.06
397.922	992.06
398.147	965.06
398.371	1023.06
398.595	1012.06
398.82	1028.06
399.044	1090.06
399.268	1179.06
399.492	1289.06
399.717	1362.06
399.941	1361.06
400.165	1275.06
400.389	1231.06
400.613	1157.06
400.837	1118.06
401.062	1064.06
401.286	1051.06
401.51	1049.06
401.734	1047.06
401.958	1053.06
402.182	1047.06
402.406	1081.06
402.63	1057.06
402.854	1087.06
403.078	1065.06
403.302	1108.06
403.526	1098.06
403.75	1146.06
403.974	1103.06
404.198	1127.06
404.422	1145.06
404.645	1145.06
404.869	1127.06
405.093	1139.06
405.317	1100.06
405.541	1106.06
405.765	1123.06
405.988	1114.06
406.212	1160.06
406.436	1148.06
406.66	1180.06
406.883	1136.06
407.107	1197.06
407.331	1235.06
407.555	1267.06
407.778	1272.06
408.002	1255.06
408.226	1216.06
408.449	1216.06
408.673	1219.06
408.896	1179.06
409.12	1159.06
409.344	1165.06
409.567	1170.06
409.791	1177.06
410.014	1169.06
410.238	1123.06
410.461	1152.06
410.685	1155.06
410.908	1140.06
411.132	1125.06
411.355	1103.06
411.578	1120.06
411.802	1089.06
412.025	1109.06
412.249	1127.06
412.472	1104.06
412.695	1080.06
412.919	1088.06
413.142	1053.06
413.365	1084.06
413.589	1109.06
413.812	1062.06
414.035	1070.06
414.258	1070.06
414.482	1080.06
414.705	1095.06
414.928	1058.06
415.151	1084.06
415.374	1068.06
415.597	1077.06
415.821	1035.06
416.044	1035.06
416.267	1042.06
416.49	1066.06
416.713	1066.06
416.936	1054.06
417.159	1031.06
417.382	1031.06
417.605	1038.06
417.828	1083.06
418.051	1065.06
418.274	1044.06
418.497	1070.06
418.72	1061.06
418.943	1045.06
419.166	1098.06
419.389	1168.06
419.611	1159.06
419.834	1102.06
420.057	1114.06
420.28	1069.06
420.503	1063.06
420.726	1048.06
420.948	1037.06
421.171	1036.06
421.394	1039.06
421.617	1066.06
421.839	1046.06
422.062	1079.06
422.285	1045.06
422.507	1053.06
422.73	1055.06
422.953	1068.06
423.175	1063.06
423.398	1080.06
423.621	1103.06
423.843	1088.06
424.066	1107.06
424.288	1054.06
424.511	1076.06
424.733	1068.06
424.956	1046.06
425.178	1058.06
425.401	1070.06
425.623	1068.06
425.846	1025.06
426.068	1049.06
426.291	1033.06
426.513	1025.06
426.735	1015.06
426.958	1000.06
427.18	999.06
427.402	1004.06
427.625	1019.06
427.847	967.06
428.069	998.06
428.292	982.06
428.514	997.06
428.736	1000.06
428.958	1006.06
429.181	973.06
429.403	971.06
429.625	959.06
429.847	973.06
430.069	984.06
430.292	991.06
430.514	998.06
430.736	979.06
430.958	996.06
431.18	959.06
431.402	998.06
431.624	978.06
431.846	990.06
432.068	1002.06
432.29	1009.06
432.512	1005.06
432.734	1000.06
432.956	998.06
433.178	993.06
433.4	1019.06
433.622	1021.06
433.844	1032.06
434.066	1040.06
434.287	1037.06
434.509	1072.06
434.731	1035.06
434.953	1078.06
435.175	1087.06
435.397	1084.06
435.618	1041.06
435.84	1047.06
436.062	1029.06
436.284	1012.06
436.505	1025.06
436.727	991.06
436.949	1000.06
437.17	993.06
437.392	1018.06
437.614	995.06
437.835	991.06
438.057	981.06
438.278	985.06
438.5	1012.06
438.721	980.06
438.943	974.06
439.165	973.06
439.386	971.06
439.608	987.06
439.829	991.06
440.05	988.06
440.272	1019.06
440.493	1004.06
440.715	1051.06
440.936	1010.06
441.158	1041.06
441.379	1085.06
441.6	1100.06
441.822	1090.06
442.043	1109.06
442.264	1075.06
442.486	1062.06
442.707	1072.06
442.928	1064.06
443.149	1062.06
443.371	1096.06
443.592	1124.06
443.813	1154.06
444.034	1123.06
444.255	1105.06
444.476	1148.06
444.698	1172.06
444.919	1220.06
445.14	1281.06
445.361	1231.06
445.582	1151.06
445.803	1095.06
446.024	1046.06
446.245	1061.06
446.466	1034.06
446.687	1020.06
446.908	1019.06
447.129	1013.06
447.35	996.06
447.571	988.06
447.792	973.06
448.013	987.06
448.234	956.06
448.455	984.06
448.675	970.06
448.896	960.06
449.117	951.06
449.338	953.06
449.559	939.06
449.779	909.06
450	963.06
450.221	936.06
450.442	949.06
450.662	964.06
450.883	957.06
451.104	958.06
451.324	964.06
451.545	948.06
451.766	942.06
451.986	963.06
452.207	953.06
452.428	944.06
452.648	943.06
452.869	931.06
453.089	909.06
453.31	930.06
453.53	923.06
453.751	913.06
453.971	922.06
454.192	934.06
454.412	925.06
454.633	931.06
454.853	906.06
455.073	927.06
455.294	901.06
455.514	913.06
455.734	904.06
455.955	916.06
456.175	917.06
456.395	908.06
456.616	903.06
456.836	908.06
457.056	892.06
457.276	884.06
457.497	895.06
457.717	917.06
457.937	928.06
458.157	916.06
458.377	927.06
458.598	956.06
458.818	950.06
459.038	987.06
459.258	995.06
459.478	1058.06
459.698	1115.06
459.918	1092.06
460.138	1104.06
460.358	1124.06
460.578	1151.06
460.798	1171.06
461.018	1199.06
461.238	1167.06
461.458	1166.06
461.678	1160.06
461.898	1184.06
462.118	1187.06
462.338	1214.06
462.558	1261.06
462.777	1286.06
462.997	1361.06
463.217	1431.06
463.437	1390.06
463.657	1382.06
463.876	1319.06
464.096	1323.06
464.316	1274.06
464.536	1319.06
464.755	1250.06
464.975	1214.06
465.195	1175.06
465.414	1165.06
465.634	1094.06
465.854	1079.06
466.073	1055.06
466.293	1051.06
466.512	1008.06
466.732	1011.06
466.951	1013.06
467.171	1012.06
467.391	1011.06
467.61	999.06
467.829	1008.06
468.049	992.06
468.268	953.06
468.488	997.06
468.707	979.06
468.927	974.06
469.146	988.06
469.365	1012.06
469.585	997.06
469.804	1002.06
470.023	1005.06
470.243	1035.06
470.462	1029.06
470.681	1020.06
470.901	1018.06
471.12	1011.06
471.339	1026.06
471.558	995.06
471.777	1017.06
471.997	989.06
472.216	982.06
472.435	994.06
472.654	985.06
472.873	988.06
473.092	963.06
473.311	938.06
473.53	966.06
473.749	964.06
473.968	968.06
474.187	980.06
474.406	979.06
474.625	948.06
474.844	1007.06
475.063	969.06
475.282	1000.06
475.501	998.06
475.72	978.06
475.939	1020.06
476.158	996.06
476.377	991.06
476.596	1018.06
476.814	1019.06
477.033	1019.06
477.252	1034.06
477.471	1031.06
477.69	1077.06
477.908	1095.06
478.127	1139.06
478.346	1143.06
478.564	1161.06
478.783	1172.06
479.002	1193.06
479.22	1193.06
479.439	1185.06
479.658	1195.06
479.876	1205.06
480.095	1170.06
480.313	1216.06
480.532	1221.06
480.751	1220.06
480.969	1210.06
481.188	1200.06
481.406	1159.06
481.624	1147.06
481.843	1124.06
482.061	1133.06
482.28	1160.06
482.498	1100.06
482.717	1107.06
482.935	1148.06
483.153	1144.06
483.372	1145.06
483.59	1178.06
483.808	1159.06
484.027	1195.06
484.245	1175.06
484.463	1180.06
484.681	1182.06
484.9	1190.06
485.118	1181.06
485.336	1164.06
485.554	1175.06
485.772	1169.06
485.99	1192.06
486.209	1194.06
486.427	1182.06
486.645	1195.06
486.863	1187.06
487.081	1206.06
487.299	1177.06
487.517	1223.06
487.735	1200.06
487.953	1180.06
488.171	1216.06
488.389	1223.06
488.607	1161.06
488.825	1173.06
489.043	1161.06
489.261	1163.06
489.479	1196.06
489.696	1185.06
489.914	1181.06
490.132	1183.06
490.35	1173.06
490.568	1215.06
490.786	1209.06
491.003	1193.06
491.221	1219.06
491.439	1232.06
491.657	1206.06
491.874	1203.06
492.092	1251.06
492.31	1255.06
492.527	1268.06
492.745	1275.06
492.963	1237.06
493.18	1232.06
493.398	1221.06
493.615	1216.06
493.833	1256.06
494.05	1248.06
494.268	1255.06
494.485	1272.06
494.703	1260.06
494.92	1294.06
495.138	1255.06
495.355	1288.06
495.573	1270.06
495.79	1297.06
496.008	1295.06
496.225	1316.06
496.442	1287.06
496.66	1310.06
496.877	1333.06
497.094	1343.06
