Data from NiCl2@0.5M.TitratingCurve.Agarose3%dH2O.NegLispCup.LampEnergy10.LIBS07252019_HRD10591_18-19-45-571.txt Node
Date: Thu Jul 25 18:19:45 EDT 2019
User: cochatt
Spectrometer: HR+D1059
Trigger mode: 1
Integration Time (sec): 1.000000E-1
Scans to average: 1
Electric dark correction enabled: true
Nonlinearity correction enabled: false
Boxcar width: 0
XAxis mode: Wavelengths
Number of Pixels in Spectrum: 2048
>>>>>Begin Spectral Data<<<<<
223.165	-19.81
223.4	-19.81
223.635	-19.81
223.869	-25.81
224.104	-13.81
224.338	-6.81
224.573	-15.81
224.808	-18.81
225.042	-13.81
225.277	-7.81
225.511	5.19
225.746	2.19
225.98	10.19
226.215	7.19
226.449	5.19
226.683	22.19
226.918	24.19
227.152	46.19
227.387	27.19
227.621	32.19
227.856	45.19
228.09	38.19
228.324	49.19
228.559	60.19
228.793	53.19
229.027	110.19
229.262	106.19
229.496	101.19
229.73	84.19
229.964	129.19
230.199	100.19
230.433	127.19
230.667	130.19
230.901	122.19
231.136	106.19
231.37	130.19
231.604	132.19
231.838	134.19
232.072	132.19
232.306	154.19
232.541	132.19
232.775	135.19
233.009	132.19
233.243	133.19
233.477	143.19
233.711	141.19
233.945	141.19
234.179	141.19
234.413	129.19
234.647	129.19
234.881	141.19
235.115	132.19
235.349	124.19
235.583	130.19
235.817	139.19
236.051	131.19
236.285	127.19
236.519	140.19
236.753	142.19
236.987	141.19
237.221	128.19
237.455	136.19
237.689	144.19
237.922	141.19
238.156	139.19
238.39	150.19
238.624	151.19
238.858	143.19
239.091	132.19
239.325	156.19
239.559	138.19
239.793	149.19
240.027	155.19
240.26	137.19
240.494	153.19
240.728	142.19
240.961	164.19
241.195	156.19
241.429	178.19
241.662	164.19
241.896	171.19
242.13	170.19
242.363	167.19
242.597	188.19
242.83	183.19
243.064	170.19
243.298	180.19
243.531	172.19
243.765	173.19
243.998	197.19
244.232	182.19
244.465	181.19
244.699	177.19
244.932	180.19
245.166	170.19
245.399	179.19
245.633	187.19
245.866	180.19
246.099	173.19
246.333	190.19
246.566	189.19
246.8	193.19
247.033	206.19
247.266	188.19
247.5	194.19
247.733	197.19
247.966	193.19
248.2	213.19
248.433	202.19
248.666	192.19
248.899	203.19
249.133	193.19
249.366	210.19
249.599	206.19
249.832	202.19
250.066	213.19
250.299	213.19
250.532	221.19
250.765	215.19
250.998	212.19
251.231	208.19
251.465	205.19
251.698	221.19
251.931	211.19
252.164	221.19
252.397	226.19
252.63	223.19
252.863	230.19
253.096	219.19
253.329	236.19
253.562	227.19
253.795	237.19
254.028	228.19
254.261	224.19
254.494	229.19
254.727	223.19
254.96	244.19
255.193	246.19
255.426	238.19
255.659	221.19
255.892	243.19
256.124	252.19
256.357	261.19
256.59	233.19
256.823	236.19
257.056	244.19
257.289	245.19
257.521	263.19
257.754	249.19
257.987	256.19
258.22	241.19
258.452	234.19
258.685	244.19
258.918	236.19
259.151	255.19
259.383	258.19
259.616	253.19
259.849	261.19
260.081	267.19
260.314	267.19
260.547	259.19
260.779	268.19
261.012	264.19
261.244	279.19
261.477	274.19
261.71	283.19
261.942	279.19
262.175	289.19
262.407	280.19
262.64	264.19
262.872	267.19
263.105	267.19
263.337	286.19
263.57	266.19
263.802	282.19
264.035	264.19
264.267	293.19
264.499	283.19
264.732	297.19
264.964	295.19
265.197	295.19
265.429	279.19
265.661	278.19
265.894	273.19
266.126	275.19
266.358	308.19
266.591	285.19
266.823	290.19
267.055	315.19
267.287	314.19
267.52	283.19
267.752	295.19
267.984	300.19
268.216	306.19
268.448	319.19
268.681	299.19
268.913	313.19
269.145	307.19
269.377	288.19
269.609	308.19
269.841	306.19
270.073	302.19
270.306	322.19
270.538	323.19
270.77	320.19
271.002	334.19
271.234	308.19
271.466	307.19
271.698	323.19
271.93	336.19
272.162	324.19
272.394	338.19
272.626	320.19
272.858	350.19
273.09	329.19
273.322	344.19
273.553	358.19
273.785	334.19
274.017	333.19
274.249	345.19
274.481	338.19
274.713	342.19
274.945	354.19
275.176	335.19
275.408	341.19
275.64	359.19
275.872	347.19
276.104	344.19
276.335	339.19
276.567	340.19
276.799	373.19
277.031	343.19
277.262	357.19
277.494	348.19
277.726	363.19
277.957	373.19
278.189	355.19
278.421	354.19
278.652	354.19
278.884	364.19
279.115	340.19
279.347	354.19
279.579	370.19
279.81	384.19
280.042	372.19
280.273	371.19
280.505	367.19
280.736	375.19
280.968	388.19
281.199	364.19
281.431	388.19
281.662	384.19
281.894	389.19
282.125	386.19
282.356	395.19
282.588	390.19
282.819	404.19
283.051	411.19
283.282	385.19
283.513	405.19
283.745	403.19
283.976	400.19
284.207	394.19
284.439	402.19
284.67	425.19
284.901	411.19
285.132	404.19
285.364	399.19
285.595	408.19
285.826	414.19
286.057	427.19
286.288	413.19
286.52	432.19
286.751	408.19
286.982	423.19
287.213	420.19
287.444	417.19
287.675	429.19
287.906	427.19
288.138	427.19
288.369	425.19
288.6	432.19
288.831	441.19
289.062	436.19
289.293	428.19
289.524	429.19
289.755	421.19
289.986	444.19
290.217	426.19
290.448	442.19
290.679	428.19
290.91	455.19
291.141	426.19
291.371	453.19
291.602	425.19
291.833	440.19
292.064	452.19
292.295	435.19
292.526	434.19
292.757	431.19
292.987	442.19
293.218	462.19
293.449	449.19
293.68	445.19
293.91	465.19
294.141	452.19
294.372	453.19
294.603	438.19
294.833	454.19
295.064	448.19
295.295	460.19
295.525	441.19
295.756	437.19
295.987	459.19
296.217	465.19
296.448	464.19
296.679	467.19
296.909	465.19
297.14	471.19
297.37	478.19
297.601	488.19
297.831	483.19
298.062	474.19
298.292	486.19
298.523	506.19
298.753	492.19
298.984	511.19
299.214	471.19
299.445	491.19
299.675	485.19
299.905	488.19
300.136	489.19
300.366	486.19
300.597	488.19
300.827	508.19
301.057	515.19
301.288	520.19
301.518	525.19
301.748	527.19
301.979	501.19
302.209	504.19
302.439	516.19
302.669	505.19
302.9	499.19
303.13	514.19
303.36	505.19
303.59	501.19
303.82	505.19
304.051	520.19
304.281	505.19
304.511	517.19
304.741	518.19
304.971	512.19
305.201	507.19
305.431	538.19
305.661	510.19
305.891	513.19
306.121	511.19
306.352	515.19
306.582	510.19
306.812	515.19
307.042	515.19
307.272	490.19
307.502	510.19
307.731	500.19
307.961	493.19
308.191	514.19
308.421	489.19
308.651	495.19
308.881	495.19
309.111	517.19
309.341	521.19
309.571	526.19
309.8	506.19
310.03	528.19
310.26	538.19
310.49	516.19
310.72	525.19
310.949	517.19
311.179	492.19
311.409	532.19
311.639	532.19
311.868	512.19
312.098	523.19
312.328	512.19
312.557	533.19
312.787	537.19
313.017	519.19
313.246	557.19
313.476	552.19
313.706	544.19
313.935	566.19
314.165	533.19
314.394	545.19
314.624	559.19
314.853	549.19
315.083	546.19
315.312	556.19
315.542	557.19
315.771	548.19
316.001	552.19
316.23	574.19
316.46	542.19
316.689	547.19
316.919	551.19
317.148	554.19
317.377	569.19
317.607	536.19
317.836	553.19
318.065	547.19
318.295	526.19
318.524	547.19
318.753	553.19
318.983	556.19
319.212	544.19
319.441	540.19
319.67	547.19
319.9	542.19
320.129	546.19
320.358	571.19
320.587	547.19
320.816	557.19
321.046	561.19
321.275	549.19
321.504	571.19
321.733	544.19
321.962	541.19
322.191	564.19
322.42	550.19
322.649	535.19
322.878	562.19
323.108	555.19
323.337	575.19
323.566	574.19
323.795	540.19
324.024	553.19
324.253	569.19
324.482	569.19
324.71	552.19
324.939	594.19
325.168	578.19
325.397	567.19
325.626	590.19
325.855	600.19
326.084	593.19
326.313	585.19
326.542	592.19
326.77	602.19
326.999	602.19
327.228	590.19
327.457	609.19
327.686	599.19
327.914	605.19
328.143	599.19
328.372	586.19
328.6	606.19
328.829	625.19
329.058	598.19
329.287	636.19
329.515	608.19
329.744	603.19
329.972	609.19
330.201	602.19
330.43	619.19
330.658	634.19
330.887	624.19
331.115	618.19
331.344	626.19
331.572	616.19
331.801	639.19
332.03	659.19
332.258	656.19
332.486	681.19
332.715	685.19
332.943	738.19
333.172	764.19
333.4	770.19
333.629	784.19
333.857	770.19
334.085	782.19
334.314	757.19
334.542	734.19
334.771	763.19
334.999	720.19
335.227	720.19
335.455	735.19
335.684	723.19
335.912	717.19
336.14	706.19
336.369	725.19
336.597	698.19
336.825	716.19
337.053	725.19
337.281	694.19
337.51	681.19
337.738	670.19
337.966	696.19
338.194	690.19
338.422	678.19
338.65	687.19
338.878	669.19
339.106	667.19
339.334	679.19
339.562	653.19
339.79	638.19
340.018	663.19
340.246	655.19
340.474	635.19
340.702	610.19
340.93	628.19
341.158	631.19
341.386	637.19
341.614	637.19
341.842	633.19
342.07	634.19
342.298	618.19
342.526	625.19
342.754	613.19
342.981	630.19
343.209	634.19
343.437	672.19
343.665	684.19
343.893	763.19
344.12	765.19
344.348	723.19
344.576	690.19
344.804	688.19
345.031	663.19
345.259	628.19
345.487	648.19
345.714	642.19
345.942	646.19
346.17	636.19
346.397	646.19
346.625	619.19
346.853	595.19
347.08	609.19
347.308	624.19
347.535	613.19
347.763	625.19
347.99	601.19
348.218	597.19
348.445	609.19
348.673	601.19
348.9	584.19
349.128	595.19
349.355	587.19
349.583	604.19
349.81	600.19
350.037	572.19
350.265	579.19
350.492	597.19
350.72	586.19
350.947	582.19
351.174	581.19
351.402	603.19
351.629	588.19
351.856	605.19
352.083	584.19
352.311	593.19
352.538	603.19
352.765	605.19
352.992	561.19
353.22	576.19
353.447	565.19
353.674	544.19
353.901	588.19
354.128	579.19
354.355	566.19
354.583	578.19
354.81	561.19
355.037	585.19
355.264	569.19
355.491	575.19
355.718	584.19
355.945	573.19
356.172	578.19
356.399	576.19
356.626	582.19
356.853	603.19
357.08	571.19
357.307	567.19
357.534	566.19
357.761	597.19
357.988	588.19
358.215	580.19
358.441	566.19
358.668	564.19
358.895	598.19
359.122	573.19
359.349	583.19
359.576	590.19
359.802	564.19
360.029	566.19
360.256	569.19
360.483	573.19
360.709	575.19
360.936	586.19
361.163	564.19
361.39	573.19
361.616	564.19
361.843	597.19
362.07	591.19
362.296	593.19
362.523	565.19
362.749	558.19
362.976	569.19
363.203	560.19
363.429	593.19
363.656	570.19
363.882	585.19
364.109	569.19
364.335	583.19
364.562	572.19
364.788	543.19
365.015	570.19
365.241	573.19
365.468	556.19
365.694	561.19
365.92	570.19
366.147	566.19
366.373	563.19
366.599	572.19
366.826	563.19
367.052	542.19
367.278	591.19
367.505	569.19
367.731	570.19
367.957	569.19
368.184	553.19
368.41	578.19
368.636	578.19
368.862	589.19
369.089	571.19
369.315	548.19
369.541	586.19
369.767	578.19
369.993	577.19
370.219	576.19
370.445	589.19
370.672	588.19
370.898	588.19
371.124	615.19
371.35	615.19
371.576	599.19
371.802	611.19
372.028	608.19
372.254	583.19
372.48	597.19
372.706	616.19
372.932	612.19
373.158	642.19
373.384	614.19
373.61	609.19
373.835	624.19
374.061	618.19
374.287	603.19
374.513	628.19
374.739	641.19
374.965	639.19
375.191	646.19
375.416	664.19
375.642	632.19
375.868	628.19
376.094	619.19
376.319	612.19
376.545	599.19
376.771	605.19
376.997	616.19
377.222	598.19
377.448	588.19
377.674	612.19
377.899	595.19
378.125	615.19
378.35	591.19
378.576	608.19
378.802	586.19
379.027	602.19
379.253	591.19
379.478	577.19
379.704	585.19
379.929	586.19
380.155	581.19
380.38	587.19
380.606	587.19
380.831	610.19
381.057	593.19
381.282	586.19
381.507	583.19
381.733	603.19
381.958	596.19
382.184	610.19
382.409	624.19
382.634	610.19
382.86	640.19
383.085	610.19
383.31	640.19
383.535	646.19
383.761	651.19
383.986	662.19
384.211	653.19
384.436	677.19
384.662	690.19
384.887	674.19
385.112	708.19
385.337	712.19
385.562	697.19
385.787	674.19
386.013	717.19
386.238	731.19
386.463	710.19
386.688	696.19
386.913	672.19
387.138	672.19
387.363	711.19
387.588	692.19
387.813	692.19
388.038	694.19
388.263	676.19
388.488	702.19
388.713	666.19
388.938	692.19
389.163	668.19
389.387	706.19
389.612	704.19
389.837	681.19
390.062	699.19
390.287	695.19
390.512	698.19
390.736	699.19
390.961	690.19
391.186	693.19
391.411	738.19
391.636	786.19
391.86	764.19
392.085	774.19
392.31	797.19
392.534	759.19
392.759	750.19
392.984	728.19
393.208	745.19
393.433	724.19
393.658	727.19
393.882	726.19
394.107	730.19
394.331	753.19
394.556	756.19
394.78	769.19
395.005	747.19
395.229	737.19
395.454	746.19
395.678	786.19
395.903	774.19
396.127	765.19
396.352	748.19
396.576	728.19
396.801	741.19
397.025	777.19
397.249	770.19
397.474	789.19
397.698	782.19
397.922	776.19
398.147	824.19
398.371	814.19
398.595	824.19
398.82	853.19
399.044	917.19
399.268	993.19
399.492	1110.19
399.717	1224.19
399.941	1227.19
400.165	1095.19
400.389	1016.19
400.613	959.19
400.837	907.19
401.062	888.19
401.286	887.19
401.51	888.19
401.734	870.19
401.958	864.19
402.182	896.19
402.406	904.19
402.63	902.19
402.854	928.19
403.078	940.19
403.302	944.19
403.526	958.19
403.75	963.19
403.974	981.19
404.198	989.19
404.422	994.19
404.645	978.19
404.869	960.19
405.093	960.19
405.317	950.19
405.541	964.19
405.765	951.19
405.988	957.19
406.212	963.19
406.436	968.19
406.66	984.19
406.883	992.19
407.107	1041.19
407.331	1078.19
407.555	1101.19
407.778	1092.19
408.002	1075.19
408.226	1056.19
408.449	1005.19
408.673	993.19
408.896	983.19
409.12	996.19
409.344	986.19
409.567	986.19
409.791	992.19
410.014	989.19
410.238	972.19
410.461	967.19
410.685	970.19
410.908	957.19
411.132	909.19
411.355	927.19
411.578	929.19
411.802	917.19
412.025	937.19
412.249	940.19
412.472	909.19
412.695	909.19
412.919	904.19
413.142	898.19
413.365	890.19
413.589	896.19
413.812	890.19
414.035	878.19
414.258	896.19
414.482	886.19
414.705	895.19
414.928	912.19
415.151	909.19
415.374	901.19
415.597	852.19
415.821	850.19
416.044	874.19
416.267	857.19
416.49	868.19
416.713	854.19
416.936	850.19
417.159	890.19
417.382	869.19
417.605	889.19
417.828	884.19
418.051	889.19
418.274	891.19
418.497	900.19
418.72	917.19
418.943	898.19
419.166	964.19
419.389	1030.19
419.611	986.19
419.834	950.19
420.057	922.19
420.28	877.19
420.503	870.19
420.726	872.19
420.948	900.19
421.171	896.19
421.394	885.19
421.617	887.19
421.839	888.19
422.062	867.19
422.285	847.19
422.507	910.19
422.73	872.19
422.953	910.19
423.175	912.19
423.398	924.19
423.621	922.19
423.843	921.19
424.066	949.19
424.288	944.19
424.511	918.19
424.733	909.19
424.956	884.19
425.178	935.19
425.401	914.19
425.623	892.19
425.846	861.19
426.068	846.19
426.291	849.19
426.513	855.19
426.735	826.19
426.958	860.19
427.18	854.19
427.402	823.19
427.625	828.19
427.847	806.19
428.069	849.19
428.292	824.19
428.514	818.19
428.736	819.19
428.958	806.19
429.181	816.19
429.403	821.19
429.625	792.19
429.847	818.19
430.069	816.19
430.292	792.19
430.514	782.19
430.736	784.19
430.958	820.19
431.18	815.19
431.402	833.19
431.624	809.19
431.846	829.19
432.068	842.19
432.29	816.19
432.512	802.19
432.734	829.19
432.956	820.19
433.178	808.19
433.4	812.19
433.622	845.19
433.844	850.19
434.066	827.19
434.287	819.19
434.509	884.19
434.731	908.19
434.953	896.19
435.175	902.19
435.397	910.19
435.618	871.19
435.84	852.19
436.062	822.19
436.284	826.19
436.505	832.19
436.727	817.19
436.949	822.19
437.17	829.19
437.392	826.19
437.614	821.19
437.835	790.19
438.057	812.19
438.278	801.19
438.5	784.19
438.721	804.19
438.943	791.19
439.165	790.19
439.386	799.19
439.608	821.19
439.829	802.19
440.05	812.19
440.272	833.19
440.493	840.19
440.715	846.19
440.936	880.19
441.158	880.19
441.379	900.19
441.6	909.19
441.822	948.19
442.043	950.19
442.264	929.19
442.486	916.19
442.707	882.19
442.928	879.19
443.149	932.19
443.371	932.19
443.592	929.19
443.813	931.19
444.034	931.19
444.255	965.19
444.476	1017.19
444.698	1057.19
444.919	1088.19
445.14	1167.19
445.361	1047.19
445.582	948.19
445.803	937.19
446.024	884.19
446.245	873.19
446.466	860.19
446.687	850.19
446.908	847.19
447.129	816.19
447.35	838.19
447.571	818.19
447.792	762.19
448.013	800.19
448.234	782.19
448.455	768.19
448.675	781.19
448.896	773.19
449.117	785.19
449.338	754.19
449.559	753.19
449.779	744.19
450	756.19
450.221	770.19
450.442	766.19
450.662	782.19
450.883	790.19
451.104	785.19
451.324	804.19
451.545	790.19
451.766	802.19
451.986	742.19
452.207	779.19
452.428	752.19
452.648	793.19
452.869	736.19
453.089	725.19
453.31	758.19
453.53	772.19
453.751	722.19
453.971	755.19
454.192	744.19
454.412	732.19
454.633	736.19
454.853	731.19
455.073	725.19
455.294	748.19
455.514	716.19
455.734	726.19
455.955	716.19
456.175	720.19
456.395	727.19
456.616	741.19
456.836	732.19
457.056	734.19
457.276	691.19
457.497	727.19
457.717	726.19
457.937	742.19
458.157	732.19
458.377	748.19
458.598	771.19
458.818	803.19
459.038	801.19
459.258	834.19
459.478	837.19
459.698	889.19
459.918	888.19
460.138	905.19
460.358	938.19
460.578	968.19
460.798	967.19
461.018	961.19
461.238	984.19
461.458	958.19
461.678	968.19
461.898	1010.19
462.118	997.19
462.338	1009.19
462.558	1047.19
462.777	1097.19
462.997	1178.19
463.217	1249.19
463.437	1268.19
463.657	1158.19
463.876	1101.19
464.096	1131.19
464.316	1116.19
464.536	1089.19
464.755	1090.19
464.975	1044.19
465.195	980.19
465.414	929.19
465.634	881.19
465.854	893.19
466.073	862.19
466.293	850.19
466.512	827.19
466.732	827.19
466.951	838.19
467.171	810.19
467.391	835.19
467.61	810.19
467.829	819.19
468.049	812.19
468.268	796.19
468.488	787.19
468.707	787.19
468.927	773.19
469.146	777.19
469.365	823.19
469.585	800.19
469.804	807.19
470.023	824.19
470.243	835.19
470.462	864.19
470.681	869.19
470.901	841.19
471.12	817.19
471.339	832.19
471.558	825.19
471.777	836.19
471.997	808.19
472.216	807.19
472.435	810.19
472.654	776.19
472.873	761.19
473.092	748.19
473.311	762.19
473.53	774.19
473.749	776.19
473.968	762.19
474.187	761.19
474.406	759.19
474.625	781.19
474.844	803.19
475.063	775.19
475.282	804.19
475.501	796.19
475.72	801.19
475.939	810.19
476.158	828.19
476.377	834.19
476.596	828.19
476.814	829.19
477.033	840.19
477.252	852.19
477.471	852.19
477.69	885.19
477.908	860.19
478.127	890.19
478.346	916.19
478.564	938.19
478.783	924.19
479.002	990.19
479.22	975.19
479.439	969.19
479.658	964.19
479.876	937.19
480.095	985.19
480.313	1025.19
480.532	1004.19
480.751	1020.19
480.969	980.19
481.188	957.19
481.406	956.19
481.624	927.19
481.843	916.19
482.061	917.19
482.28	910.19
482.498	892.19
482.717	905.19
482.935	898.19
483.153	905.19
483.372	906.19
483.59	908.19
483.808	900.19
484.027	894.19
484.245	920.19
484.463	916.19
484.681	937.19
484.9	933.19
485.118	936.19
485.336	921.19
485.554	958.19
485.772	919.19
485.99	928.19
486.209	937.19
486.427	924.19
486.645	969.19
486.863	960.19
487.081	958.19
487.299	949.19
487.517	932.19
487.735	959.19
487.953	978.19
488.171	950.19
488.389	940.19
488.607	929.19
488.825	939.19
489.043	936.19
489.261	933.19
489.479	944.19
489.696	976.19
489.914	927.19
490.132	944.19
490.35	924.19
490.568	941.19
490.786	956.19
491.003	973.19
491.221	960.19
491.439	959.19
491.657	953.19
491.874	985.19
492.092	987.19
492.31	992.19
492.527	983.19
492.745	998.19
492.963	989.19
493.18	988.19
493.398	973.19
493.615	982.19
493.833	988.19
494.05	1011.19
494.268	1005.19
494.485	1001.19
494.703	1024.19
494.92	1020.19
495.138	1013.19
495.355	991.19
495.573	1021.19
495.79	1037.19
496.008	1050.19
496.225	1028.19
496.442	1067.19
496.66	1048.19
496.877	1072.19
497.094	1076.19
497.312	1105.19
497.529	1131.19
497.746	1127.19
497.963	1148.19
498.181	1206.19
498.398	1284.19
498.615	1332.19
498.832	1403.19
499.049	1504.19
499.267	1580.19
499.484	1699.19
499.701	1859.19
499.918	2001.19
500.135	2276.19
500.352	2547.19
500.569	2662.19
500.786	2660.19
