Data from NiCl2@0.25M.TitratingCurve.Agarose3%dH2O.NegLispCup.LampEnergy10.LIBS07252019_HRD10591_18-24-00-572.txt Node
Date: Thu Jul 25 18:24:00 EDT 2019
User: cochatt
Spectrometer: HR+D1059
Trigger mode: 1
Integration Time (sec): 1.000000E-1
Scans to average: 1
Electric dark correction enabled: true
Nonlinearity correction enabled: false
Boxcar width: 0
XAxis mode: Wavelengths
Number of Pixels in Spectrum: 2048
>>>>>Begin Spectral Data<<<<<
223.165	-20.62
223.4	-20.62
223.635	-20.62
223.869	-4.62
224.104	-18.62
224.338	-12.62
224.573	-8.62
224.808	-7.62
225.042	-19.62
225.277	-2.62
225.511	-1.62
225.746	-0.62
225.98	13.38
226.215	9.38
226.449	9.38
226.683	13.38
226.918	26.38
227.152	25.38
227.387	43.38
227.621	46.38
227.856	44.38
228.09	52.38
228.324	43.38
228.559	62.38
228.793	79.38
229.027	116.38
229.262	128.38
229.496	139.38
229.73	141.38
229.964	138.38
230.199	139.38
230.433	144.38
230.667	147.38
230.901	161.38
231.136	158.38
231.37	182.38
231.604	163.38
231.838	171.38
232.072	177.38
232.306	170.38
232.541	188.38
232.775	166.38
233.009	185.38
233.243	161.38
233.477	177.38
233.711	169.38
233.945	184.38
234.179	169.38
234.413	166.38
234.647	185.38
234.881	181.38
235.115	181.38
235.349	199.38
235.583	182.38
235.817	188.38
236.051	185.38
236.285	175.38
236.519	179.38
236.753	191.38
236.987	195.38
237.221	184.38
237.455	194.38
237.689	188.38
237.922	184.38
238.156	183.38
238.39	193.38
238.624	200.38
238.858	211.38
239.091	190.38
239.325	211.38
239.559	222.38
239.793	211.38
240.027	222.38
240.26	213.38
240.494	216.38
240.728	218.38
240.961	212.38
241.195	226.38
241.429	227.38
241.662	231.38
241.896	232.38
242.13	225.38
242.363	245.38
242.597	239.38
242.83	240.38
243.064	233.38
243.298	246.38
243.531	251.38
243.765	249.38
243.998	246.38
244.232	237.38
244.465	253.38
244.699	249.38
244.932	263.38
245.166	254.38
245.399	268.38
245.633	259.38
245.866	267.38
246.099	280.38
246.333	275.38
246.566	270.38
246.8	261.38
247.033	287.38
247.266	282.38
247.5	257.38
247.733	285.38
247.966	295.38
248.2	287.38
248.433	291.38
248.666	316.38
248.899	285.38
249.133	297.38
249.366	306.38
249.599	301.38
249.832	312.38
250.066	310.38
250.299	312.38
250.532	323.38
250.765	313.38
250.998	297.38
251.231	324.38
251.465	313.38
251.698	337.38
251.931	321.38
252.164	331.38
252.397	322.38
252.63	331.38
252.863	303.38
253.096	342.38
253.329	319.38
253.562	345.38
253.795	342.38
254.028	337.38
254.261	337.38
254.494	331.38
254.727	339.38
254.96	345.38
255.193	354.38
255.426	355.38
255.659	358.38
255.892	359.38
256.124	374.38
256.357	371.38
256.59	351.38
256.823	346.38
257.056	360.38
257.289	381.38
257.521	378.38
257.754	367.38
257.987	371.38
258.22	353.38
258.452	378.38
258.685	387.38
258.918	399.38
259.151	378.38
259.383	366.38
259.616	375.38
259.849	377.38
260.081	376.38
260.314	382.38
260.547	385.38
260.779	385.38
261.012	410.38
261.244	397.38
261.477	425.38
261.71	405.38
261.942	415.38
262.175	396.38
262.407	408.38
262.64	413.38
262.872	397.38
263.105	420.38
263.337	427.38
263.57	422.38
263.802	445.38
264.035	419.38
264.267	423.38
264.499	420.38
264.732	447.38
264.964	440.38
265.197	437.38
265.429	442.38
265.661	447.38
265.894	439.38
266.126	457.38
266.358	435.38
266.591	436.38
266.823	429.38
267.055	441.38
267.287	441.38
267.52	433.38
267.752	462.38
267.984	469.38
268.216	448.38
268.448	462.38
268.681	464.38
268.913	456.38
269.145	458.38
269.377	459.38
269.609	468.38
269.841	477.38
270.073	464.38
270.306	476.38
270.538	465.38
270.77	456.38
271.002	489.38
271.234	473.38
271.466	465.38
271.698	491.38
271.93	477.38
272.162	488.38
272.394	502.38
272.626	478.38
272.858	491.38
273.09	518.38
273.322	520.38
273.553	499.38
273.785	501.38
274.017	526.38
274.249	502.38
274.481	503.38
274.713	492.38
274.945	535.38
275.176	507.38
275.408	521.38
275.64	519.38
275.872	526.38
276.104	536.38
276.335	533.38
276.567	522.38
276.799	529.38
277.031	533.38
277.262	515.38
277.494	525.38
277.726	533.38
277.957	545.38
278.189	536.38
278.421	538.38
278.652	555.38
278.884	536.38
279.115	549.38
279.347	546.38
279.579	585.38
279.81	567.38
280.042	557.38
280.273	565.38
280.505	581.38
280.736	561.38
280.968	575.38
281.199	571.38
281.431	576.38
281.662	585.38
281.894	593.38
282.125	558.38
282.356	606.38
282.588	623.38
282.819	608.38
283.051	581.38
283.282	607.38
283.513	603.38
283.745	592.38
283.976	599.38
284.207	593.38
284.439	623.38
284.67	624.38
284.901	621.38
285.132	596.38
285.364	616.38
285.595	615.38
285.826	626.38
286.057	607.38
286.288	629.38
286.52	653.38
286.751	643.38
286.982	641.38
287.213	645.38
287.444	636.38
287.675	633.38
287.906	677.38
288.138	662.38
288.369	643.38
288.6	670.38
288.831	657.38
289.062	654.38
289.293	667.38
289.524	661.38
289.755	642.38
289.986	669.38
290.217	665.38
290.448	639.38
290.679	652.38
290.91	645.38
291.141	638.38
291.371	658.38
291.602	663.38
291.833	673.38
292.064	671.38
292.295	670.38
292.526	663.38
292.757	657.38
292.987	647.38
293.218	666.38
293.449	673.38
293.68	693.38
293.91	650.38
294.141	661.38
294.372	668.38
294.603	678.38
294.833	677.38
295.064	687.38
295.295	695.38
295.525	669.38
295.756	672.38
295.987	677.38
296.217	693.38
296.448	689.38
296.679	685.38
296.909	673.38
297.14	713.38
297.37	707.38
297.601	715.38
297.831	709.38
298.062	735.38
298.292	723.38
298.523	748.38
298.753	747.38
298.984	717.38
299.214	705.38
299.445	728.38
299.675	736.38
299.905	709.38
300.136	721.38
300.366	722.38
300.597	737.38
300.827	761.38
301.057	763.38
301.288	744.38
301.518	773.38
301.748	767.38
301.979	796.38
302.209	795.38
302.439	765.38
302.669	767.38
302.9	750.38
303.13	767.38
303.36	757.38
303.59	763.38
303.82	737.38
304.051	771.38
304.281	755.38
304.511	749.38
304.741	748.38
304.971	759.38
305.201	747.38
305.431	722.38
305.661	785.38
305.891	743.38
306.121	732.38
306.352	720.38
306.582	724.38
306.812	728.38
307.042	743.38
307.272	739.38
307.502	744.38
307.731	735.38
307.961	756.38
308.191	756.38
308.421	742.38
308.651	732.38
308.881	735.38
309.111	724.38
309.341	740.38
309.571	741.38
309.8	746.38
310.03	724.38
310.26	743.38
310.49	753.38
310.72	763.38
310.949	765.38
311.179	757.38
311.409	780.38
311.639	758.38
311.868	777.38
312.098	761.38
312.328	761.38
312.557	773.38
312.787	797.38
313.017	790.38
313.246	790.38
313.476	797.38
313.706	805.38
313.935	830.38
314.165	795.38
314.394	793.38
314.624	794.38
314.853	802.38
315.083	784.38
315.312	803.38
315.542	817.38
315.771	786.38
316.001	797.38
316.23	766.38
316.46	770.38
316.689	788.38
316.919	783.38
317.148	806.38
317.377	776.38
317.607	778.38
317.836	793.38
318.065	809.38
318.295	762.38
318.524	779.38
318.753	749.38
318.983	795.38
319.212	768.38
319.441	775.38
319.67	778.38
319.9	761.38
320.129	786.38
320.358	782.38
320.587	772.38
320.816	790.38
321.046	788.38
321.275	826.38
321.504	782.38
321.733	826.38
321.962	799.38
322.191	809.38
322.42	805.38
322.649	808.38
322.878	812.38
323.108	793.38
323.337	839.38
323.566	796.38
323.795	805.38
324.024	820.38
324.253	834.38
324.482	820.38
324.71	820.38
324.939	831.38
325.168	824.38
325.397	799.38
325.626	848.38
325.855	838.38
326.084	868.38
326.313	864.38
326.542	887.38
326.77	886.38
326.999	860.38
327.228	863.38
327.457	861.38
327.686	870.38
327.914	863.38
328.143	862.38
328.372	866.38
328.6	876.38
328.829	863.38
329.058	850.38
329.287	857.38
329.515	875.38
329.744	855.38
329.972	910.38
330.201	881.38
330.43	896.38
330.658	920.38
330.887	916.38
331.115	939.38
331.344	906.38
331.572	932.38
331.801	968.38
332.03	953.38
332.258	974.38
332.486	998.38
332.715	1060.38
332.943	1071.38
333.172	1104.38
333.4	1163.38
333.629	1186.38
333.857	1176.38
334.085	1168.38
334.314	1174.38
334.542	1127.38
334.771	1126.38
334.999	1095.38
335.227	1085.38
335.455	1070.38
335.684	1051.38
335.912	1083.38
336.14	1072.38
336.369	1051.38
336.597	1044.38
336.825	1026.38
337.053	1061.38
337.281	1035.38
337.51	991.38
337.738	985.38
337.966	966.38
338.194	991.38
338.422	949.38
338.65	965.38
338.878	973.38
339.106	965.38
339.334	974.38
339.562	937.38
339.79	944.38
340.018	912.38
340.246	865.38
340.474	883.38
340.702	900.38
340.93	926.38
341.158	895.38
341.386	929.38
341.614	926.38
341.842	907.38
342.07	878.38
342.298	863.38
342.526	886.38
342.754	878.38
342.981	896.38
343.209	924.38
343.437	960.38
343.665	1043.38
343.893	1095.38
344.12	1127.38
344.348	1099.38
344.576	1071.38
344.804	1008.38
345.031	947.38
345.259	939.38
345.487	933.38
345.714	924.38
345.942	909.38
346.17	889.38
346.397	881.38
346.625	899.38
346.853	867.38
347.08	839.38
347.308	887.38
347.535	888.38
347.763	880.38
347.99	874.38
348.218	872.38
348.445	864.38
348.673	869.38
348.9	880.38
349.128	875.38
349.355	869.38
349.583	862.38
349.81	825.38
350.037	876.38
350.265	883.38
350.492	825.38
350.72	849.38
350.947	858.38
351.174	859.38
351.402	834.38
351.629	868.38
351.856	858.38
352.083	862.38
352.311	852.38
352.538	864.38
352.765	859.38
352.992	846.38
353.22	837.38
353.447	822.38
353.674	841.38
353.901	831.38
354.128	808.38
354.355	823.38
354.583	838.38
354.81	825.38
355.037	835.38
355.264	844.38
355.491	841.38
355.718	852.38
355.945	860.38
356.172	840.38
356.399	844.38
356.626	846.38
356.853	876.38
357.08	855.38
357.307	858.38
357.534	847.38
357.761	836.38
357.988	848.38
358.215	854.38
358.441	849.38
358.668	853.38
358.895	842.38
359.122	816.38
359.349	843.38
359.576	874.38
359.802	836.38
360.029	825.38
360.256	843.38
360.483	826.38
360.709	847.38
360.936	836.38
361.163	827.38
361.39	843.38
361.616	848.38
361.843	853.38
362.07	853.38
362.296	841.38
362.523	826.38
362.749	835.38
362.976	840.38
363.203	833.38
363.429	837.38
363.656	862.38
363.882	837.38
364.109	823.38
364.335	823.38
364.562	836.38
364.788	835.38
365.015	854.38
365.241	855.38
365.468	825.38
365.694	821.38
365.92	839.38
366.147	829.38
366.373	834.38
366.599	843.38
366.826	830.38
367.052	838.38
367.278	856.38
367.505	843.38
367.731	833.38
367.957	872.38
368.184	812.38
368.41	830.38
368.636	848.38
368.862	844.38
369.089	845.38
369.315	865.38
369.541	884.38
369.767	876.38
369.993	856.38
370.219	878.38
370.445	859.38
370.672	873.38
370.898	904.38
371.124	909.38
371.35	929.38
371.576	897.38
371.802	925.38
372.028	888.38
372.254	907.38
372.48	907.38
372.706	933.38
372.932	943.38
373.158	957.38
373.384	947.38
373.61	908.38
373.835	905.38
374.061	927.38
374.287	912.38
374.513	931.38
374.739	944.38
374.965	1011.38
375.191	1005.38
375.416	1012.38
375.642	992.38
375.868	964.38
376.094	936.38
376.319	920.38
376.545	932.38
376.771	924.38
376.997	919.38
377.222	923.38
377.448	910.38
377.674	923.38
377.899	928.38
378.125	921.38
378.35	899.38
378.576	904.38
378.802	886.38
379.027	897.38
379.253	897.38
379.478	890.38
379.704	906.38
379.929	903.38
380.155	900.38
380.38	888.38
380.606	894.38
380.831	920.38
381.057	907.38
381.282	899.38
381.507	922.38
381.733	903.38
381.958	933.38
382.184	942.38
382.409	936.38
382.634	941.38
382.86	949.38
383.085	970.38
383.31	987.38
383.535	1013.38
383.761	1031.38
383.986	1001.38
384.211	1021.38
384.436	1085.38
384.662	1072.38
384.887	1092.38
385.112	1083.38
385.337	1116.38
385.562	1116.38
385.787	1104.38
386.013	1143.38
386.238	1089.38
386.463	1127.38
386.688	1135.38
386.913	1101.38
387.138	1100.38
387.363	1111.38
387.588	1079.38
387.813	1092.38
388.038	1082.38
388.263	1083.38
388.488	1097.38
388.713	1077.38
388.938	1094.38
389.163	1056.38
389.387	1068.38
389.612	1027.38
389.837	1065.38
390.062	1071.38
390.287	1072.38
390.512	1079.38
390.736	1072.38
390.961	1070.38
391.186	1117.38
391.411	1179.38
391.636	1172.38
391.86	1233.38
392.085	1280.38
392.31	1260.38
392.534	1213.38
392.759	1187.38
392.984	1157.38
393.208	1147.38
393.433	1157.38
393.658	1194.38
393.882	1177.38
394.107	1159.38
394.331	1165.38
394.556	1165.38
394.78	1159.38
395.005	1177.38
395.229	1181.38
395.454	1209.38
395.678	1230.38
395.903	1242.38
396.127	1201.38
396.352	1190.38
396.576	1180.38
396.801	1195.38
397.025	1163.38
397.249	1229.38
397.474	1273.38
397.698	1237.38
397.922	1227.38
398.147	1231.38
398.371	1281.38
398.595	1341.38
398.82	1384.38
399.044	1445.38
399.268	1620.38
399.492	1885.38
399.717	2132.38
399.941	2128.38
400.165	1894.38
400.389	1726.38
400.613	1564.38
400.837	1450.38
401.062	1434.38
401.286	1416.38
401.51	1389.38
401.734	1389.38
401.958	1390.38
402.182	1393.38
402.406	1425.38
402.63	1469.38
402.854	1489.38
403.078	1507.38
403.302	1559.38
403.526	1568.38
403.75	1618.38
403.974	1616.38
404.198	1650.38
404.422	1621.38
404.645	1590.38
404.869	1575.38
405.093	1585.38
405.317	1554.38
405.541	1556.38
405.765	1529.38
405.988	1530.38
406.212	1549.38
406.436	1506.38
406.66	1563.38
406.883	1592.38
407.107	1686.38
407.331	1738.38
407.555	1801.38
407.778	1853.38
408.002	1741.38
408.226	1687.38
408.449	1682.38
408.673	1591.38
408.896	1573.38
409.12	1565.38
409.344	1572.38
409.567	1590.38
409.791	1563.38
410.014	1559.38
410.238	1527.38
410.461	1516.38
410.685	1553.38
410.908	1505.38
411.132	1484.38
411.355	1422.38
411.578	1421.38
411.802	1421.38
412.025	1447.38
412.249	1485.38
412.472	1450.38
412.695	1416.38
412.919	1407.38
413.142	1366.38
413.365	1392.38
413.589	1385.38
413.812	1391.38
414.035	1370.38
414.258	1371.38
414.482	1401.38
414.705	1381.38
414.928	1401.38
415.151	1413.38
415.374	1353.38
415.597	1359.38
415.821	1315.38
416.044	1333.38
416.267	1351.38
416.49	1327.38
416.713	1351.38
416.936	1336.38
417.159	1320.38
417.382	1356.38
417.605	1348.38
417.828	1325.38
418.051	1362.38
418.274	1379.38
418.497	1401.38
418.72	1406.38
418.943	1385.38
419.166	1467.38
419.389	1589.38
419.611	1543.38
419.834	1440.38
420.057	1454.38
420.28	1402.38
420.503	1371.38
420.726	1368.38
420.948	1340.38
421.171	1354.38
421.394	1348.38
421.617	1328.38
421.839	1373.38
422.062	1363.38
422.285	1366.38
422.507	1393.38
422.73	1381.38
422.953	1415.38
423.175	1408.38
423.398	1448.38
423.621	1420.38
423.843	1463.38
424.066	1465.38
424.288	1448.38
424.511	1431.38
424.733	1427.38
424.956	1372.38
425.178	1407.38
425.401	1352.38
425.623	1333.38
425.846	1331.38
426.068	1329.38
426.291	1312.38
426.513	1317.38
426.735	1268.38
426.958	1269.38
427.18	1259.38
427.402	1265.38
427.625	1255.38
427.847	1234.38
428.069	1216.38
428.292	1237.38
428.514	1224.38
428.736	1212.38
428.958	1193.38
429.181	1183.38
429.403	1139.38
429.625	1157.38
429.847	1157.38
430.069	1158.38
430.292	1150.38
430.514	1141.38
430.736	1157.38
430.958	1158.38
431.18	1182.38
431.402	1201.38
431.624	1207.38
431.846	1166.38
432.068	1228.38
432.29	1220.38
432.512	1186.38
432.734	1209.38
432.956	1177.38
433.178	1206.38
433.4	1213.38
433.622	1235.38
433.844	1227.38
434.066	1234.38
434.287	1240.38
434.509	1272.38
434.731	1321.38
434.953	1354.38
435.175	1395.38
435.397	1345.38
435.618	1269.38
435.84	1233.38
436.062	1230.38
436.284	1211.38
436.505	1167.38
436.727	1197.38
436.949	1205.38
437.17	1187.38
437.392	1187.38
437.614	1172.38
437.835	1150.38
438.057	1151.38
438.278	1127.38
438.5	1114.38
438.721	1152.38
438.943	1155.38
439.165	1155.38
439.386	1160.38
439.608	1214.38
439.829	1172.38
440.05	1203.38
440.272	1188.38
440.493	1199.38
440.715	1252.38
440.936	1241.38
441.158	1253.38
441.379	1272.38
441.6	1371.38
441.822	1375.38
442.043	1373.38
442.264	1348.38
442.486	1297.38
442.707	1323.38
442.928	1315.38
443.149	1314.38
443.371	1302.38
443.592	1335.38
443.813	1320.38
444.034	1363.38
444.255	1404.38
444.476	1485.38
444.698	1563.38
444.919	1600.38
445.14	1699.38
445.361	1557.38
445.582	1437.38
445.803	1347.38
446.024	1291.38
446.245	1273.38
446.466	1237.38
446.687	1228.38
446.908	1194.38
447.129	1191.38
447.35	1147.38
447.571	1150.38
447.792	1109.38
448.013	1117.38
448.234	1114.38
448.455	1085.38
448.675	1077.38
448.896	1106.38
449.117	1107.38
449.338	1115.38
449.559	1051.38
449.779	1081.38
450	1063.38
450.221	1074.38
450.442	1069.38
450.662	1097.38
450.883	1099.38
451.104	1134.38
451.324	1129.38
451.545	1098.38
451.766	1109.38
451.986	1086.38
452.207	1115.38
452.428	1109.38
452.648	1079.38
452.869	1081.38
453.089	1076.38
453.31	1093.38
453.53	1103.38
453.751	1059.38
453.971	1051.38
454.192	1039.38
454.412	1017.38
454.633	1035.38
454.853	1037.38
455.073	1021.38
455.294	1028.38
455.514	1043.38
455.734	1033.38
455.955	992.38
456.175	997.38
456.395	1032.38
456.616	1023.38
456.836	1036.38
457.056	1011.38
457.276	981.38
457.497	1031.38
457.717	1034.38
457.937	1040.38
458.157	1054.38
458.377	1012.38
458.598	1085.38
458.818	1077.38
459.038	1125.38
459.258	1169.38
459.478	1225.38
459.698	1239.38
459.918	1273.38
460.138	1318.38
460.358	1397.38
460.578	1435.38
460.798	1454.38
461.018	1481.38
461.238	1438.38
461.458	1423.38
461.678	1432.38
461.898	1447.38
462.118	1482.38
462.338	1497.38
462.558	1599.38
462.777	1630.38
462.997	1792.38
463.217	1924.38
463.437	1953.38
463.657	1744.38
463.876	1688.38
464.096	1689.38
464.316	1681.38
464.536	1665.38
464.755	1615.38
464.975	1572.38
465.195	1483.38
465.414	1377.38
465.634	1301.38
465.854	1242.38
466.073	1230.38
466.293	1206.38
466.512	1186.38
466.732	1179.38
466.951	1144.38
467.171	1140.38
467.391	1128.38
467.61	1120.38
467.829	1139.38
468.049	1144.38
468.268	1097.38
468.488	1080.38
468.707	1103.38
468.927	1096.38
469.146	1091.38
469.365	1096.38
469.585	1118.38
469.804	1140.38
470.023	1163.38
470.243	1207.38
470.462	1200.38
470.681	1173.38
470.901	1187.38
471.12	1183.38
471.339	1149.38
471.558	1160.38
471.777	1135.38
471.997	1161.38
472.216	1093.38
472.435	1071.38
472.654	1087.38
472.873	1086.38
473.092	1064.38
473.311	1053.38
473.53	1068.38
473.749	1065.38
473.968	1077.38
474.187	1071.38
474.406	1066.38
474.625	1082.38
474.844	1104.38
475.063	1091.38
475.282	1116.38
475.501	1091.38
475.72	1089.38
475.939	1099.38
476.158	1114.38
476.377	1111.38
476.596	1112.38
476.814	1134.38
477.033	1131.38
477.252	1148.38
477.471	1181.38
477.69	1203.38
477.908	1223.38
478.127	1286.38
478.346	1291.38
478.564	1343.38
478.783	1328.38
479.002	1375.38
479.22	1370.38
479.439	1366.38
479.658	1353.38
479.876	1340.38
480.095	1388.38
480.313	1423.38
480.532	1473.38
480.751	1486.38
480.969	1395.38
481.188	1345.38
481.406	1312.38
481.624	1270.38
481.843	1239.38
482.061	1255.38
482.28	1214.38
482.498	1213.38
482.717	1204.38
482.935	1217.38
483.153	1244.38
483.372	1248.38
483.59	1296.38
483.808	1238.38
484.027	1217.38
484.245	1243.38
484.463	1242.38
484.681	1256.38
484.9	1246.38
485.118	1261.38
485.336	1251.38
485.554	1322.38
485.772	1290.38
485.99	1301.38
486.209	1303.38
486.427	1313.38
486.645	1314.38
486.863	1293.38
487.081	1293.38
487.299	1306.38
487.517	1267.38
487.735	1286.38
487.953	1305.38
488.171	1272.38
488.389	1287.38
488.607	1271.38
488.825	1277.38
489.043	1308.38
489.261	1232.38
489.479	1300.38
489.696	1271.38
489.914	1283.38
490.132	1291.38
490.35	1313.38
490.568	1283.38
490.786	1278.38
491.003	1305.38
491.221	1309.38
491.439	1310.38
491.657	1303.38
491.874	1272.38
492.092	1355.38
492.31	1337.38
492.527	1321.38
492.745	1339.38
492.963	1342.38
493.18	1318.38
493.398	1352.38
493.615	1283.38
493.833	1352.38
494.05	1316.38
494.268	1372.38
494.485	1342.38
