Data from NiCl2@0.5M.TitratingCurve.Agarose3%dH2O.NegLispCup.LampEnergy10.LIBS07252019_HRD10591_18-21-05-571.txt Node
Date: Thu Jul 25 18:21:05 EDT 2019
User: cochatt
Spectrometer: HR+D1059
Trigger mode: 1
Integration Time (sec): 1.000000E-1
Scans to average: 1
Electric dark correction enabled: true
Nonlinearity correction enabled: false
Boxcar width: 0
XAxis mode: Wavelengths
Number of Pixels in Spectrum: 2048
>>>>>Begin Spectral Data<<<<<
223.165	-9.31
223.4	-9.31
223.635	-9.31
223.869	-11.31
224.104	-22.31
224.338	-22.31
224.573	-16.31
224.808	-1.31
225.042	-5.31
225.277	-13.31
225.511	4.69
225.746	-9.31
225.98	9.69
226.215	19.69
226.449	9.69
226.683	24.69
226.918	17.69
227.152	24.69
227.387	33.69
227.621	45.69
227.856	42.69
228.09	40.69
228.324	51.69
228.559	63.69
228.793	85.69
229.027	132.69
229.262	138.69
229.496	140.69
229.73	149.69
229.964	164.69
230.199	165.69
230.433	167.69
230.667	159.69
230.901	160.69
231.136	163.69
231.37	166.69
231.604	177.69
231.838	193.69
232.072	190.69
232.306	199.69
232.541	181.69
232.775	203.69
233.009	179.69
233.243	183.69
233.477	181.69
233.711	174.69
233.945	178.69
234.179	185.69
234.413	195.69
234.647	195.69
234.881	203.69
235.115	186.69
235.349	194.69
235.583	189.69
235.817	205.69
236.051	197.69
236.285	206.69
236.519	187.69
236.753	217.69
236.987	210.69
237.221	211.69
237.455	209.69
237.689	196.69
237.922	210.69
238.156	220.69
238.39	224.69
238.624	213.69
238.858	207.69
239.091	206.69
239.325	218.69
239.559	225.69
239.793	219.69
240.027	238.69
240.26	231.69
240.494	234.69
240.728	249.69
240.961	247.69
241.195	263.69
241.429	241.69
241.662	261.69
241.896	269.69
242.13	269.69
242.363	271.69
242.597	257.69
242.83	257.69
243.064	265.69
243.298	260.69
243.531	250.69
243.765	270.69
243.998	290.69
244.232	285.69
244.465	267.69
244.699	277.69
244.932	282.69
245.166	284.69
245.399	286.69
245.633	293.69
245.866	289.69
246.099	306.69
246.333	310.69
246.566	291.69
246.8	310.69
247.033	293.69
247.266	305.69
247.5	286.69
247.733	306.69
247.966	305.69
248.2	327.69
248.433	312.69
248.666	324.69
248.899	323.69
249.133	332.69
249.366	322.69
249.599	323.69
249.832	355.69
250.066	350.69
250.299	346.69
250.532	334.69
250.765	355.69
250.998	339.69
251.231	355.69
251.465	366.69
251.698	365.69
251.931	347.69
252.164	350.69
252.397	363.69
252.63	353.69
252.863	385.69
253.096	355.69
253.329	375.69
253.562	359.69
253.795	357.69
254.028	380.69
254.261	387.69
254.494	385.69
254.727	403.69
254.96	382.69
255.193	400.69
255.426	363.69
255.659	381.69
255.892	393.69
256.124	402.69
256.357	405.69
256.59	395.69
256.823	397.69
257.056	426.69
257.289	403.69
257.521	398.69
257.754	424.69
257.987	419.69
258.22	417.69
258.452	417.69
258.685	411.69
258.918	415.69
259.151	440.69
259.383	429.69
259.616	412.69
259.849	439.69
260.081	422.69
260.314	445.69
260.547	438.69
260.779	453.69
261.012	440.69
261.244	473.69
261.477	444.69
261.71	447.69
261.942	442.69
262.175	435.69
262.407	459.69
262.64	454.69
262.872	470.69
263.105	454.69
263.337	455.69
263.57	456.69
263.802	470.69
264.035	474.69
264.267	437.69
264.499	470.69
264.732	488.69
264.964	487.69
265.197	506.69
265.429	495.69
265.661	482.69
265.894	472.69
266.126	498.69
266.358	507.69
266.591	489.69
266.823	515.69
267.055	504.69
267.287	506.69
267.52	501.69
267.752	505.69
267.984	500.69
268.216	516.69
268.448	538.69
268.681	542.69
268.913	516.69
269.145	533.69
269.377	514.69
269.609	537.69
269.841	505.69
270.073	526.69
270.306	525.69
270.538	539.69
270.77	531.69
271.002	535.69
271.234	521.69
271.466	537.69
271.698	553.69
271.93	553.69
272.162	549.69
272.394	554.69
272.626	531.69
272.858	572.69
273.09	567.69
273.322	579.69
273.553	554.69
273.785	561.69
274.017	559.69
274.249	560.69
274.481	595.69
274.713	596.69
274.945	571.69
275.176	565.69
275.408	590.69
275.64	592.69
275.872	588.69
276.104	588.69
276.335	599.69
276.567	613.69
276.799	593.69
277.031	616.69
277.262	613.69
277.494	618.69
277.726	614.69
277.957	597.69
278.189	610.69
278.421	592.69
278.652	627.69
278.884	602.69
279.115	629.69
279.347	633.69
279.579	629.69
279.81	615.69
280.042	638.69
280.273	644.69
280.505	630.69
280.736	646.69
280.968	631.69
281.199	637.69
281.431	646.69
281.662	690.69
281.894	669.69
282.125	651.69
282.356	695.69
282.588	670.69
282.819	654.69
283.051	680.69
283.282	653.69
283.513	667.69
283.745	700.69
283.976	663.69
284.207	675.69
284.439	691.69
284.67	690.69
284.901	718.69
285.132	690.69
285.364	675.69
285.595	685.69
285.826	707.69
286.057	718.69
286.288	695.69
286.52	707.69
286.751	692.69
286.982	702.69
287.213	713.69
287.444	730.69
287.675	722.69
287.906	731.69
288.138	716.69
288.369	734.69
288.6	718.69
288.831	730.69
289.062	712.69
289.293	724.69
289.524	722.69
289.755	738.69
289.986	767.69
290.217	734.69
290.448	725.69
290.679	769.69
290.91	744.69
291.141	732.69
291.371	743.69
291.602	765.69
291.833	754.69
292.064	742.69
292.295	731.69
292.526	777.69
292.757	767.69
292.987	757.69
293.218	750.69
293.449	758.69
293.68	734.69
293.91	762.69
294.141	740.69
294.372	770.69
294.603	744.69
294.833	751.69
295.064	771.69
295.295	775.69
295.525	768.69
295.756	778.69
295.987	777.69
296.217	789.69
296.448	806.69
296.679	794.69
296.909	798.69
297.14	792.69
297.37	805.69
297.601	789.69
297.831	806.69
298.062	804.69
298.292	844.69
298.523	837.69
298.753	838.69
298.984	784.69
299.214	830.69
299.445	821.69
299.675	862.69
299.905	833.69
300.136	811.69
300.366	837.69
300.597	875.69
300.827	868.69
301.057	853.69
301.288	863.69
301.518	916.69
301.748	867.69
301.979	890.69
302.209	881.69
302.439	868.69
302.669	835.69
302.9	827.69
303.13	852.69
303.36	897.69
303.59	843.69
303.82	872.69
304.051	894.69
304.281	889.69
304.511	888.69
304.741	868.69
304.971	886.69
305.201	898.69
305.431	870.69
305.661	895.69
305.891	873.69
306.121	876.69
306.352	862.69
306.582	861.69
306.812	850.69
307.042	836.69
307.272	882.69
307.502	844.69
307.731	843.69
307.961	850.69
308.191	861.69
308.421	844.69
308.651	851.69
308.881	849.69
309.111	851.69
309.341	849.69
309.571	863.69
309.8	879.69
310.03	882.69
310.26	895.69
310.49	904.69
310.72	863.69
310.949	877.69
311.179	879.69
311.409	875.69
311.639	855.69
311.868	899.69
312.098	887.69
312.328	891.69
312.557	897.69
312.787	873.69
313.017	887.69
313.246	898.69
313.476	942.69
313.706	952.69
313.935	914.69
314.165	908.69
314.394	934.69
314.624	897.69
314.853	902.69
315.083	913.69
315.312	934.69
315.542	914.69
315.771	919.69
316.001	909.69
316.23	926.69
316.46	895.69
316.689	890.69
316.919	922.69
317.148	941.69
317.377	902.69
317.607	894.69
317.836	881.69
318.065	907.69
318.295	894.69
318.524	939.69
318.753	905.69
318.983	902.69
319.212	901.69
319.441	889.69
319.67	913.69
319.9	932.69
320.129	916.69
320.358	900.69
320.587	927.69
320.816	925.69
321.046	930.69
321.275	939.69
321.504	913.69
321.733	924.69
321.962	927.69
322.191	930.69
322.42	942.69
322.649	910.69
322.878	926.69
323.108	931.69
323.337	951.69
323.566	960.69
323.795	951.69
324.024	986.69
324.253	966.69
324.482	960.69
324.71	970.69
324.939	953.69
325.168	963.69
325.397	969.69
325.626	999.69
325.855	987.69
326.084	991.69
326.313	977.69
326.542	1001.69
326.77	1012.69
326.999	999.69
327.228	978.69
327.457	989.69
327.686	973.69
327.914	971.69
328.143	1007.69
328.372	1016.69
328.6	988.69
328.829	993.69
329.058	984.69
329.287	998.69
329.515	1023.69
329.744	985.69
329.972	1045.69
330.201	990.69
330.43	1037.69
330.658	1000.69
330.887	1033.69
331.115	1057.69
331.344	1054.69
331.572	1048.69
331.801	1074.69
332.03	1102.69
332.258	1087.69
332.486	1108.69
332.715	1107.69
332.943	1174.69
333.172	1177.69
333.4	1209.69
333.629	1258.69
333.857	1278.69
334.085	1259.69
334.314	1267.69
334.542	1260.69
334.771	1260.69
334.999	1267.69
335.227	1238.69
335.455	1252.69
335.684	1237.69
335.912	1234.69
336.14	1235.69
336.369	1270.69
336.597	1246.69
336.825	1247.69
337.053	1244.69
337.281	1234.69
337.51	1197.69
337.738	1169.69
337.966	1182.69
338.194	1167.69
338.422	1143.69
338.65	1120.69
338.878	1090.69
339.106	1095.69
339.334	1150.69
339.562	1123.69
339.79	1084.69
340.018	1069.69
340.246	1100.69
340.474	1048.69
340.702	1047.69
340.93	1075.69
341.158	1051.69
341.386	1127.69
341.614	1155.69
341.842	1125.69
342.07	1059.69
342.298	1069.69
342.526	1073.69
342.754	1077.69
342.981	1035.69
343.209	1058.69
343.437	1131.69
343.665	1148.69
343.893	1163.69
344.12	1231.69
344.348	1224.69
344.576	1203.69
344.804	1208.69
345.031	1130.69
345.259	1088.69
345.487	1096.69
345.714	1091.69
345.942	1101.69
346.17	1134.69
346.397	1125.69
346.625	1051.69
346.853	1027.69
347.08	1003.69
347.308	1015.69
347.535	1053.69
347.763	1032.69
347.99	1030.69
348.218	1025.69
348.445	1026.69
348.673	1007.69
348.9	1024.69
349.128	1025.69
349.355	1019.69
349.583	1055.69
349.81	1005.69
350.037	998.69
350.265	972.69
350.492	1011.69
350.72	973.69
350.947	992.69
351.174	983.69
351.402	1042.69
351.629	1012.69
351.856	1060.69
352.083	935.69
352.311	1022.69
352.538	1042.69
352.765	1027.69
352.992	989.69
353.22	929.69
353.447	964.69
353.674	954.69
353.901	944.69
354.128	938.69
354.355	934.69
354.583	945.69
354.81	959.69
355.037	946.69
355.264	945.69
355.491	963.69
355.718	934.69
355.945	966.69
356.172	981.69
356.399	956.69
356.626	1015.69
356.853	971.69
357.08	990.69
357.307	947.69
357.534	967.69
357.761	960.69
357.988	958.69
358.215	949.69
358.441	952.69
358.668	982.69
358.895	956.69
359.122	932.69
359.349	949.69
359.576	958.69
359.802	938.69
360.029	963.69
360.256	965.69
360.483	939.69
360.709	939.69
360.936	964.69
361.163	953.69
361.39	965.69
361.616	961.69
361.843	981.69
362.07	1040.69
362.296	1042.69
362.523	959.69
362.749	960.69
362.976	961.69
363.203	951.69
363.429	950.69
363.656	954.69
363.882	916.69
364.109	932.69
364.335	924.69
364.562	940.69
364.788	948.69
365.015	927.69
365.241	922.69
365.468	921.69
365.694	925.69
365.92	923.69
366.147	929.69
366.373	959.69
366.599	949.69
366.826	953.69
367.052	945.69
367.278	943.69
367.505	953.69
367.731	966.69
367.957	928.69
368.184	934.69
368.41	941.69
368.636	982.69
368.862	951.69
369.089	935.69
369.315	958.69
369.541	971.69
369.767	980.69
369.993	980.69
370.219	987.69
370.445	968.69
370.672	980.69
370.898	988.69
371.124	989.69
371.35	1014.69
371.576	1024.69
371.802	999.69
372.028	1017.69
372.254	1009.69
372.48	1037.69
372.706	1055.69
372.932	1031.69
373.158	1052.69
373.384	1011.69
373.61	1019.69
373.835	1025.69
374.061	1019.69
374.287	1022.69
374.513	1052.69
374.739	1064.69
374.965	1107.69
375.191	1119.69
375.416	1095.69
375.642	1081.69
375.868	1070.69
376.094	1046.69
376.319	1055.69
376.545	1030.69
376.771	1016.69
376.997	1017.69
377.222	1017.69
377.448	961.69
377.674	1025.69
377.899	998.69
378.125	1015.69
378.35	982.69
378.576	981.69
378.802	989.69
379.027	1034.69
379.253	983.69
379.478	973.69
379.704	987.69
379.929	1006.69
380.155	996.69
380.38	986.69
380.606	989.69
380.831	1003.69
381.057	1003.69
381.282	1025.69
381.507	981.69
381.733	1006.69
381.958	1047.69
382.184	1037.69
382.409	1048.69
382.634	1052.69
382.86	1020.69
383.085	1066.69
383.31	1077.69
383.535	1051.69
383.761	1076.69
383.986	1113.69
384.211	1107.69
384.436	1118.69
384.662	1109.69
384.887	1164.69
385.112	1170.69
385.337	1166.69
385.562	1170.69
385.787	1197.69
386.013	1209.69
386.238	1226.69
386.463	1220.69
386.688	1196.69
386.913	1177.69
387.138	1156.69
387.363	1219.69
387.588	1173.69
387.813	1181.69
388.038	1179.69
388.263	1160.69
388.488	1212.69
388.713	1223.69
388.938	1207.69
389.163	1158.69
389.387	1210.69
389.612	1166.69
389.837	1207.69
390.062	1154.69
390.287	1203.69
390.512	1151.69
390.736	1194.69
390.961	1226.69
391.186	1204.69
391.411	1222.69
391.636	1268.69
391.86	1289.69
392.085	1309.69
392.31	1284.69
392.534	1291.69
392.759	1271.69
392.984	1262.69
393.208	1253.69
393.433	1292.69
393.658	1256.69
393.882	1255.69
394.107	1276.69
394.331	1276.69
394.556	1225.69
394.78	1251.69
395.005	1275.69
395.229	1261.69
395.454	1325.69
395.678	1303.69
395.903	1326.69
396.127	1323.69
396.352	1285.69
396.576	1279.69
396.801	1318.69
397.025	1334.69
397.249	1287.69
397.474	1371.69
397.698	1344.69
397.922	1380.69
398.147	1377.69
398.371	1387.69
398.595	1455.69
398.82	1468.69
399.044	1617.69
399.268	1630.69
399.492	1813.69
399.717	1901.69
399.941	1942.69
400.165	1834.69
400.389	1746.69
400.613	1658.69
400.837	1605.69
401.062	1523.69
401.286	1541.69
401.51	1493.69
401.734	1487.69
401.958	1494.69
402.182	1501.69
402.406	1498.69
402.63	1508.69
402.854	1514.69
403.078	1486.69
403.302	1509.69
403.526	1545.69
403.75	1537.69
403.974	1575.69
404.198	1580.69
404.422	1612.69
404.645	1592.69
404.869	1602.69
405.093	1589.69
405.317	1609.69
405.541	1585.69
405.765	1609.69
405.988	1562.69
406.212	1610.69
406.436	1601.69
406.66	1653.69
406.883	1630.69
407.107	1721.69
407.331	1747.69
407.555	1850.69
407.778	1803.69
408.002	1804.69
408.226	1764.69
408.449	1771.69
408.673	1717.69
408.896	1671.69
409.12	1679.69
409.344	1675.69
409.567	1685.69
409.791	1673.69
410.014	1667.69
410.238	1633.69
410.461	1650.69
410.685	1612.69
410.908	1593.69
411.132	1583.69
411.355	1546.69
411.578	1544.69
411.802	1558.69
412.025	1549.69
412.249	1547.69
412.472	1543.69
412.695	1555.69
412.919	1534.69
413.142	1541.69
413.365	1453.69
413.589	1523.69
413.812	1524.69
414.035	1461.69
414.258	1497.69
414.482	1526.69
414.705	1515.69
414.928	1502.69
415.151	1508.69
415.374	1511.69
415.597	1480.69
415.821	1460.69
416.044	1465.69
416.267	1458.69
416.49	1452.69
416.713	1431.69
416.936	1492.69
417.159	1458.69
417.382	1466.69
417.605	1443.69
417.828	1433.69
418.051	1448.69
418.274	1474.69
418.497	1421.69
418.72	1496.69
418.943	1453.69
419.166	1594.69
419.389	1656.69
419.611	1656.69
419.834	1557.69
420.057	1556.69
420.28	1494.69
420.503	1463.69
420.726	1434.69
420.948	1430.69
421.171	1508.69
421.394	1463.69
421.617	1477.69
421.839	1483.69
422.062	1500.69
422.285	1402.69
422.507	1481.69
422.73	1478.69
422.953	1505.69
423.175	1473.69
423.398	1477.69
423.621	1463.69
423.843	1509.69
424.066	1497.69
424.288	1501.69
424.511	1450.69
424.733	1467.69
424.956	1437.69
425.178	1432.69
425.401	1449.69
425.623	1507.69
425.846	1426.69
426.068	1430.69
426.291	1417.69
426.513	1383.69
426.735	1398.69
426.958	1386.69
427.18	1357.69
427.402	1386.69
427.625	1380.69
427.847	1368.69
428.069	1374.69
428.292	1363.69
428.514	1370.69
428.736	1372.69
428.958	1375.69
429.181	1315.69
429.403	1324.69
429.625	1350.69
429.847	1318.69
430.069	1355.69
430.292	1329.69
430.514	1308.69
430.736	1322.69
430.958	1309.69
431.18	1348.69
431.402	1365.69
431.624	1357.69
431.846	1349.69
432.068	1347.69
432.29	1416.69
432.512	1341.69
432.734	1358.69
432.956	1380.69
433.178	1375.69
433.4	1378.69
433.622	1387.69
433.844	1365.69
434.066	1375.69
434.287	1365.69
434.509	1420.69
434.731	1453.69
434.953	1484.69
435.175	1485.69
435.397	1474.69
435.618	1431.69
435.84	1381.69
436.062	1406.69
436.284	1369.69
436.505	1374.69
436.727	1371.69
436.949	1381.69
437.17	1373.69
437.392	1330.69
437.614	1360.69
437.835	1286.69
438.057	1330.69
438.278	1252.69
438.5	1310.69
438.721	1353.69
438.943	1314.69
439.165	1310.69
439.386	1331.69
439.608	1335.69
439.829	1363.69
440.05	1345.69
440.272	1398.69
440.493	1372.69
440.715	1369.69
440.936	1418.69
441.158	1377.69
441.379	1413.69
441.6	1457.69
441.822	1476.69
442.043	1468.69
442.264	1450.69
442.486	1419.69
442.707	1432.69
442.928	1442.69
443.149	1462.69
443.371	1457.69
443.592	1510.69
443.813	1495.69
444.034	1476.69
444.255	1571.69
444.476	1599.69
444.698	1668.69
444.919	1653.69
445.14	1727.69
445.361	1660.69
445.582	1560.69
445.803	1474.69
446.024	1435.69
446.245	1427.69
446.466	1414.69
446.687	1381.69
446.908	1395.69
447.129	1317.69
447.35	1329.69
447.571	1355.69
447.792	1310.69
448.013	1301.69
448.234	1281.69
448.455	1272.69
448.675	1267.69
448.896	1281.69
449.117	1261.69
449.338	1233.69
449.559	1263.69
449.779	1254.69
450	1244.69
450.221	1217.69
450.442	1245.69
450.662	1258.69
450.883	1267.69
451.104	1282.69
451.324	1270.69
451.545	1221.69
451.766	1258.69
451.986	1234.69
452.207	1225.69
452.428	1241.69
452.648	1241.69
452.869	1254.69
453.089	1221.69
453.31	1233.69
453.53	1225.69
453.751	1197.69
453.971	1199.69
454.192	1214.69
454.412	1226.69
454.633	1188.69
454.853	1178.69
455.073	1189.69
455.294	1208.69
455.514	1183.69
455.734	1173.69
455.955	1186.69
456.175	1198.69
456.395	1185.69
456.616	1169.69
456.836	1177.69
457.056	1177.69
457.276	1179.69
457.497	1182.69
457.717	1179.69
457.937	1223.69
458.157	1197.69
458.377	1227.69
458.598	1269.69
458.818	1245.69
459.038	1299.69
459.258	1330.69
459.478	1415.69
459.698	1416.69
459.918	1461.69
460.138	1495.69
460.358	1529.69
460.578	1591.69
460.798	1585.69
461.018	1600.69
461.238	1573.69
461.458	1580.69
461.678	1588.69
461.898	1597.69
462.118	1611.69
462.338	1715.69
462.558	1714.69
462.777	1801.69
462.997	1874.69
463.217	1924.69
463.437	1932.69
463.657	1876.69
463.876	1843.69
464.096	1817.69
464.316	1766.69
464.536	1811.69
464.755	1738.69
464.975	1705.69
465.195	1618.69
465.414	1566.69
465.634	1480.69
465.854	1438.69
466.073	1412.69
466.293	1348.69
466.512	1339.69
466.732	1340.69
466.951	1373.69
467.171	1341.69
467.391	1336.69
467.61	1263.69
467.829	1310.69
468.049	1299.69
468.268	1288.69
468.488	1281.69
468.707	1275.69
468.927	1283.69
469.146	1286.69
469.365	1289.69
469.585	1291.69
469.804	1329.69
470.023	1326.69
470.243	1292.69
470.462	1307.69
470.681	1323.69
470.901	1333.69
471.12	1352.69
471.339	1352.69
471.558	1278.69
471.777	1331.69
471.997	1317.69
472.216	1294.69
472.435	1261.69
472.654	1274.69
472.873	1263.69
473.092	1256.69
473.311	1244.69
473.53	1275.69
473.749	1235.69
473.968	1219.69
474.187	1254.69
474.406	1257.69
474.625	1235.69
474.844	1265.69
475.063	1275.69
475.282	1256.69
475.501	1309.69
475.72	1285.69
475.939	1294.69
476.158	1291.69
476.377	1336.69
476.596	1334.69
476.814	1361.69
477.033	1325.69
477.252	1359.69
477.471	1378.69
477.69	1441.69
477.908	1436.69
478.127	1467.69
478.346	1482.69
478.564	1500.69
478.783	1534.69
479.002	1558.69
479.22	1570.69
479.439	1538.69
479.658	1537.69
479.876	1547.69
480.095	1585.69
480.313	1606.69
480.532	1653.69
480.751	1615.69
480.969	1589.69
481.188	1533.69
481.406	1520.69
481.624	1506.69
481.843	1495.69
482.061	1483.69
482.28	1503.69
482.498	1463.69
482.717	1477.69
482.935	1496.69
483.153	1465.69
483.372	1496.69
483.59	1488.69
483.808	1480.69
484.027	1472.69
484.245	1477.69
484.463	1466.69
484.681	1521.69
484.9	1517.69
485.118	1509.69
485.336	1497.69
485.554	1589.69
485.772	1585.69
485.99	1550.69
486.209	1533.69
486.427	1551.69
486.645	1534.69
486.863	1565.69
487.081	1541.69
487.299	1542.69
487.517	1573.69
487.735	1536.69
487.953	1540.69
488.171	1564.69
488.389	1509.69
488.607	1527.69
488.825	1505.69
489.043	1535.69
489.261	1546.69
489.479	1495.69
489.696	1536.69
489.914	1497.69
490.132	1541.69
490.35	1514.69
490.568	1561.69
490.786	1574.69
491.003	1528.69
491.221	1526.69
491.439	1563.69
491.657	1545.69
491.874	1569.69
492.092	1591.69
492.31	1565.69
492.527	1582.69
492.745	1549.69
492.963	1595.69
