Data from NiCl2@0.125M.TitratingCurve.Agarose3%dH2O.NegLispCup.LampEnergy10.LIBS07252019_HRD10591_18-28-55-574.txt Node
Date: Thu Jul 25 18:28:55 EDT 2019
User: cochatt
Spectrometer: HR+D1059
Trigger mode: 1
Integration Time (sec): 1.000000E-1
Scans to average: 1
Electric dark correction enabled: true
Nonlinearity correction enabled: false
Boxcar width: 0
XAxis mode: Wavelengths
Number of Pixels in Spectrum: 2048
>>>>>Begin Spectral Data<<<<<
223.165	-15
223.4	-15
223.635	-15
223.869	-10
224.104	-32
224.338	-16
224.573	-10
224.808	-6
225.042	5
225.277	-2
225.511	-2
225.746	-4
225.98	1
226.215	0
226.449	16
226.683	22
226.918	22
227.152	31
227.387	27
227.621	46
227.856	50
228.09	37
228.324	53
228.559	56
228.793	71
229.027	105
229.262	119
229.496	108
229.73	106
229.964	109
230.199	107
230.433	123
230.667	135
230.901	129
231.136	132
231.37	121
231.604	134
231.838	118
232.072	145
232.306	149
232.541	140
232.775	144
233.009	149
233.243	152
233.477	149
233.711	140
233.945	154
234.179	146
234.413	161
234.647	155
234.881	153
235.115	150
235.349	147
235.583	155
235.817	151
236.051	165
236.285	162
236.519	150
236.753	155
236.987	149
237.221	162
237.455	167
237.689	174
237.922	158
238.156	180
238.39	169
238.624	163
238.858	171
239.091	190
239.325	166
239.559	174
239.793	186
240.027	173
240.26	177
240.494	169
240.728	167
240.961	179
241.195	179
241.429	195
241.662	180
241.896	190
242.13	174
242.363	196
242.597	184
242.83	206
243.064	196
243.298	198
243.531	195
243.765	213
243.998	207
244.232	198
244.465	207
244.699	217
244.932	215
245.166	199
245.399	203
245.633	213
245.866	217
246.099	230
246.333	241
246.566	211
246.8	222
247.033	232
247.266	219
247.5	230
247.733	222
247.966	235
248.2	234
248.433	223
248.666	229
248.899	230
249.133	237
249.366	250
249.599	243
249.832	240
250.066	258
250.299	249
250.532	228
250.765	223
250.998	242
251.231	255
251.465	258
251.698	243
251.931	249
252.164	261
252.397	269
252.63	261
252.863	269
253.096	273
253.329	258
253.562	269
253.795	265
254.028	274
254.261	270
254.494	257
254.727	253
254.96	280
255.193	268
255.426	285
255.659	272
255.892	262
256.124	284
256.357	281
256.59	270
256.823	259
257.056	276
257.289	311
257.521	293
257.754	285
257.987	293
258.22	290
258.452	297
258.685	284
258.918	291
259.151	290
259.383	283
259.616	293
259.849	298
260.081	305
260.314	316
260.547	307
260.779	316
261.012	301
261.244	317
261.477	317
261.71	300
261.942	318
262.175	326
262.407	324
262.64	328
262.872	316
263.105	333
263.337	321
263.57	328
263.802	339
264.035	335
264.267	333
264.499	332
264.732	334
264.964	329
265.197	329
265.429	331
265.661	335
265.894	342
266.126	357
266.358	364
266.591	328
266.823	359
267.055	344
267.287	336
267.52	342
267.752	343
267.984	366
268.216	357
268.448	335
268.681	340
268.913	345
269.145	334
269.377	363
269.609	365
269.841	374
270.073	389
270.306	377
270.538	369
270.77	345
271.002	353
271.234	365
271.466	394
271.698	354
271.93	371
272.162	374
272.394	362
272.626	364
272.858	366
273.09	374
273.322	377
273.553	392
273.785	374
274.017	374
274.249	397
274.481	394
274.713	375
274.945	393
275.176	387
275.408	395
275.64	420
275.872	411
276.104	401
276.335	417
276.567	373
276.799	389
277.031	397
277.262	398
277.494	393
277.726	398
277.957	425
278.189	421
278.421	424
278.652	408
278.884	417
279.115	409
279.347	413
279.579	428
279.81	435
280.042	413
280.273	403
280.505	399
280.736	434
280.968	435
281.199	416
281.431	443
281.662	433
281.894	431
282.125	414
282.356	449
282.588	437
282.819	444
283.051	447
283.282	449
283.513	443
283.745	441
283.976	442
284.207	443
284.439	448
284.67	458
284.901	435
285.132	472
285.364	460
285.595	467
285.826	463
286.057	465
286.288	455
286.52	477
286.751	490
286.982	464
287.213	471
287.444	478
287.675	499
287.906	468
288.138	481
288.369	473
288.6	468
288.831	485
289.062	494
289.293	491
289.524	479
289.755	485
289.986	478
290.217	492
290.448	509
290.679	502
290.91	489
291.141	500
291.371	496
291.602	499
291.833	488
292.064	503
292.295	493
292.526	484
292.757	518
292.987	492
293.218	500
293.449	509
293.68	496
293.91	513
294.141	503
294.372	491
294.603	511
294.833	516
295.064	519
295.295	528
295.525	511
295.756	529
295.987	517
296.217	520
296.448	508
296.679	524
296.909	510
297.14	525
297.37	552
297.601	534
297.831	563
298.062	564
298.292	553
298.523	563
298.753	588
298.984	565
299.214	541
299.445	549
299.675	567
299.905	544
300.136	548
300.366	546
300.597	551
300.827	552
301.057	581
301.288	567
301.518	557
301.748	558
301.979	558
302.209	571
302.439	584
302.669	575
302.9	544
303.13	563
303.36	555
303.59	568
303.82	554
304.051	572
304.281	543
304.511	543
304.741	549
304.971	545
305.201	539
305.431	542
305.661	573
305.891	541
306.121	537
306.352	554
306.582	556
306.812	544
307.042	545
307.272	544
307.502	542
307.731	525
307.961	537
308.191	554
308.421	566
308.651	519
308.881	524
309.111	546
309.341	553
309.571	535
309.8	537
310.03	555
310.26	540
310.49	538
310.72	549
310.949	557
311.179	566
311.409	557
311.639	562
311.868	557
312.098	554
312.328	557
312.557	570
312.787	581
313.017	565
313.246	585
313.476	578
313.706	590
313.935	585
314.165	566
314.394	576
314.624	562
314.853	588
315.083	585
315.312	563
315.542	589
315.771	574
316.001	583
316.23	540
316.46	565
316.689	567
316.919	551
317.148	556
317.377	543
317.607	545
317.836	564
318.065	559
318.295	545
318.524	571
318.753	561
318.983	553
319.212	573
319.441	584
319.67	565
319.9	581
320.129	558
320.358	569
320.587	548
320.816	547
321.046	570
321.275	552
321.504	571
321.733	543
321.962	573
322.191	581
322.42	579
322.649	571
322.878	591
323.108	565
323.337	574
323.566	577
323.795	589
324.024	582
324.253	567
324.482	570
324.71	554
324.939	583
325.168	569
325.397	581
325.626	585
325.855	589
326.084	607
326.313	623
326.542	606
326.77	642
326.999	629
327.228	618
327.457	598
327.686	618
327.914	603
328.143	605
328.372	617
328.6	623
328.829	592
329.058	620
329.287	620
329.515	633
329.744	633
329.972	606
330.201	615
330.43	614
330.658	612
330.887	661
331.115	621
331.344	653
331.572	648
331.801	660
332.03	686
332.258	692
332.486	703
332.715	729
332.943	748
333.172	791
333.4	835
333.629	851
333.857	842
334.085	834
334.314	805
334.542	823
334.771	797
334.999	756
335.227	763
335.455	799
335.684	768
335.912	769
336.14	754
336.369	715
336.597	740
336.825	754
337.053	748
337.281	750
337.51	705
337.738	703
337.966	713
338.194	697
338.422	664
338.65	667
338.878	656
339.106	679
339.334	687
339.562	670
339.79	638
340.018	654
340.246	614
340.474	623
340.702	629
340.93	663
341.158	662
341.386	658
341.614	646
341.842	617
342.07	634
342.298	627
342.526	617
342.754	605
342.981	636
343.209	651
343.437	683
343.665	723
343.893	790
344.12	825
344.348	777
344.576	714
344.804	697
345.031	677
345.259	683
345.487	649
345.714	627
345.942	664
346.17	642
346.397	667
346.625	639
346.853	631
347.08	636
347.308	615
347.535	639
347.763	649
347.99	674
348.218	643
348.445	628
348.673	639
348.9	645
349.128	641
349.355	614
349.583	616
349.81	614
350.037	587
350.265	601
350.492	618
350.72	601
350.947	593
351.174	578
351.402	603
351.629	595
351.856	608
352.083	598
352.311	585
352.538	617
352.765	597
352.992	595
353.22	590
353.447	593
353.674	612
353.901	599
354.128	581
354.355	585
354.583	600
354.81	613
355.037	605
355.264	601
355.491	623
355.718	602
355.945	598
356.172	587
356.399	619
356.626	592
356.853	598
357.08	612
357.307	607
357.534	590
357.761	588
357.988	611
358.215	591
358.441	626
358.668	605
358.895	599
359.122	591
359.349	584
359.576	615
359.802	604
360.029	579
360.256	599
360.483	583
360.709	600
360.936	597
361.163	613
361.39	577
361.616	597
361.843	595
362.07	602
362.296	604
362.523	584
362.749	590
362.976	597
363.203	590
363.429	582
363.656	602
363.882	590
364.109	605
364.335	614
364.562	575
364.788	596
365.015	582
365.241	567
365.468	577
365.694	609
365.92	588
366.147	597
366.373	571
366.599	580
366.826	589
367.052	596
367.278	591
367.505	594
367.731	596
367.957	596
368.184	612
368.41	589
368.636	586
368.862	600
369.089	619
369.315	626
369.541	610
369.767	627
369.993	626
370.219	627
370.445	628
370.672	644
370.898	633
371.124	643
371.35	626
371.576	652
371.802	631
372.028	642
372.254	654
372.48	647
372.706	649
372.932	680
373.158	669
373.384	666
373.61	671
373.835	664
374.061	638
374.287	675
374.513	663
374.739	686
374.965	711
375.191	725
375.416	738
375.642	705
375.868	699
376.094	683
376.319	669
376.545	671
376.771	659
376.997	653
377.222	666
377.448	645
377.674	663
377.899	620
378.125	646
378.35	645
378.576	643
378.802	643
379.027	615
379.253	652
379.478	643
379.704	650
379.929	647
380.155	641
380.38	653
380.606	634
380.831	628
381.057	633
381.282	655
381.507	663
381.733	643
381.958	659
382.184	646
382.409	676
382.634	670
382.86	651
383.085	689
383.31	699
383.535	716
383.761	726
383.986	729
384.211	736
384.436	755
384.662	765
384.887	806
385.112	801
385.337	791
385.562	771
385.787	789
386.013	774
386.238	797
386.463	789
386.688	792
386.913	770
387.138	774
387.363	783
387.588	743
387.813	763
388.038	740
388.263	763
388.488	776
388.713	782
388.938	761
389.163	750
389.387	753
389.612	748
389.837	753
390.062	749
390.287	757
390.512	743
390.736	780
390.961	793
391.186	790
391.411	818
391.636	859
391.86	856
392.085	882
392.31	901
392.534	891
392.759	863
392.984	831
393.208	817
393.433	810
393.658	813
393.882	826
394.107	841
394.331	845
394.556	821
394.78	838
395.005	825
395.229	819
395.454	870
395.678	875
395.903	860
396.127	853
396.352	827
396.576	789
396.801	794
397.025	825
397.249	847
397.474	865
397.698	850
397.922	853
398.147	867
398.371	885
398.595	891
398.82	910
399.044	1020
399.268	1122
399.492	1251
399.717	1449
399.941	1484
400.165	1329
400.389	1174
400.613	1050
400.837	1009
401.062	959
401.286	970
401.51	947
401.734	966
401.958	975
402.182	959
402.406	1005
402.63	984
402.854	1012
403.078	1052
403.302	1073
403.526	1095
403.75	1103
403.974	1148
404.198	1170
404.422	1132
404.645	1116
404.869	1137
405.093	1113
405.317	1121
405.541	1093
405.765	1070
405.988	1066
406.212	1055
406.436	1074
406.66	1083
406.883	1099
407.107	1175
407.331	1228
407.555	1278
407.778	1242
408.002	1231
408.226	1213
408.449	1157
408.673	1135
408.896	1090
409.12	1100
409.344	1126
409.567	1098
409.791	1137
410.014	1097
410.238	1086
410.461	1098
410.685	1067
410.908	1043
411.132	1020
411.355	1005
411.578	999
411.802	999
412.025	998
412.249	1037
412.472	1036
412.695	987
412.919	975
413.142	972
413.365	974
413.589	992
413.812	961
414.035	967
414.258	995
414.482	963
414.705	947
414.928	967
415.151	962
415.374	981
415.597	958
415.821	940
416.044	921
416.267	909
416.49	935
416.713	922
416.936	941
417.159	974
417.382	972
417.605	955
417.828	952
418.051	979
418.274	991
418.497	969
418.72	970
418.943	991
419.166	1046
419.389	1125
419.611	1124
419.834	1037
420.057	1011
420.28	999
420.503	988
420.726	955
420.948	956
421.171	981
421.394	938
421.617	960
421.839	969
422.062	962
422.285	954
422.507	986
422.73	978
422.953	1010
423.175	1039
423.398	1037
423.621	1065
423.843	1066
424.066	1052
424.288	1071
424.511	1040
424.733	1015
424.956	1009
425.178	993
425.401	962
425.623	992
425.846	937
426.068	933
426.291	938
426.513	950
426.735	884
426.958	886
427.18	918
427.402	881
427.625	875
427.847	890
428.069	891
428.292	896
428.514	897
428.736	877
428.958	885
429.181	825
429.403	857
429.625	847
429.847	859
430.069	837
430.292	846
430.514	847
430.736	865
430.958	858
431.18	825
431.402	860
431.624	859
431.846	868
432.068	891
432.29	885
432.512	873
432.734	903
432.956	862
433.178	883
433.4	883
433.622	867
433.844	874
434.066	854
434.287	867
434.509	920
434.731	923
434.953	988
435.175	1001
435.397	989
435.618	924
435.84	893
436.062	903
436.284	886
436.505	894
436.727	860
436.949	894
437.17	890
437.392	865
437.614	865
437.835	830
438.057	863
438.278	849
438.5	845
438.721	830
438.943	866
439.165	861
439.386	840
439.608	901
439.829	892
440.05	868
440.272	875
440.493	897
440.715	905
440.936	929
441.158	948
441.379	979
441.6	1015
441.822	1015
442.043	1012
442.264	993
442.486	955
442.707	959
442.928	978
443.149	975
443.371	969
443.592	1016
443.813	1010
444.034	1021
444.255	1058
444.476	1085
444.698	1153
444.919	1196
445.14	1307
445.361	1122
445.582	1040
445.803	950
446.024	929
446.245	917
446.466	940
446.687	891
446.908	894
447.129	880
447.35	884
447.571	869
447.792	837
448.013	829
448.234	826
448.455	846
448.675	839
448.896	826
449.117	795
449.338	855
449.559	798
449.779	791
450	811
450.221	819
450.442	819
450.662	854
450.883	845
451.104	872
451.324	843
451.545	870
451.766	863
451.986	845
452.207	810
452.428	822
452.648	820
452.869	790
453.089	817
453.31	814
453.53	789
453.751	812
453.971	791
454.192	798
454.412	778
454.633	789
454.853	807
455.073	765
455.294	755
455.514	787
455.734	780
455.955	779
456.175	766
456.395	754
456.616	737
456.836	777
457.056	770
457.276	769
457.497	735
457.717	778
457.937	789
458.157	808
458.377	771
458.598	787
458.818	810
459.038	808
459.258	831
459.478	878
459.698	908
459.918	949
460.138	980
460.358	1032
460.578	1027
460.798	1048
461.018	1059
461.238	1034
461.458	1030
461.678	1033
461.898	1057
462.118	1015
462.338	1097
462.558	1147
462.777	1180
462.997	1276
463.217	1419
463.437	1457
463.657	1294
463.876	1245
464.096	1256
464.316	1211
464.536	1222
464.755	1207
464.975	1158
465.195	1069
465.414	999
465.634	964
465.854	909
466.073	934
466.293	917
466.512	868
466.732	855
466.951	861
467.171	851
467.391	868
467.61	844
467.829	849
468.049	867
468.268	822
468.488	816
468.707	815
468.927	819
469.146	793
469.365	838
469.585	821
469.804	834
470.023	891
470.243	860
470.462	861
470.681	869
470.901	900
471.12	842
471.339	861
471.558	829
471.777	843
471.997	827
472.216	826
472.435	809
472.654	813
472.873	804
473.092	778
473.311	775
473.53	779
473.749	780
473.968	784
474.187	776
474.406	766
474.625	777
474.844	774
475.063	787
475.282	810
475.501	819
475.72	795
475.939	832
476.158	825
476.377	798
476.596	824
476.814	838
477.033	837
477.252	837
477.471	857
477.69	889
477.908	890
478.127	921
478.346	947
478.564	966
478.783	926
479.002	962
479.22	991
479.439	983
479.658	960
479.876	973
480.095	1019
480.313	1013
480.532	1062
480.751	1064
480.969	990
481.188	970
481.406	947
481.624	925
481.843	899
482.061	879
482.28	886
482.498	891
482.717	892
482.935	868
483.153	886
483.372	885
483.59	919
483.808	916
484.027	893
484.245	898
484.463	885
484.681	909
484.9	905
485.118	949
485.336	897
485.554	925
485.772	971
485.99	973
486.209	1006
486.427	968
486.645	967
486.863	962
487.081	954
487.299	969
487.517	968
487.735	943
487.953	950
488.171	933
488.389	921
488.607	957
488.825	925
489.043	910
489.261	929
489.479	927
489.696	935
489.914	937
490.132	917
490.35	910
490.568	963
490.786	949
491.003	946
491.221	940
491.439	919
491.657	931
491.874	951
492.092	959
492.31	967
492.527	1011
492.745	946
492.963	986
493.18	967
493.398	971
493.615	984
493.833	964
494.05	996
494.268	1003
494.485	997
494.703	988
494.92	997
495.138	1000
495.355	1003
495.573	1017
495.79	1003
496.008	969
496.225	1002
496.442	1039
496.66	1031
496.877	1038
497.094	1035
497.312	1038
497.529	1093
497.746	1089
497.963	1142
498.181	1181
498.398	1224
498.615	1295
498.832	1376
499.049	1489
499.267	1625
499.484	1743
499.701	1949
499.918	2218
500.135	2519
500.352	2977
500.569	3102
500.786	3070
501.003	2862
501.22	2562
501.437	2189
501.654	1948
501.871	1732
502.088	1561
502.305	1487
502.522	1416
502.739	1378
502.956	1292
503.172	1236
503.389	1167
503.606	1160
503.823	1139
504.04	1115
504.256	1144
504.473	1138
504.69	1183
504.907	1177
505.123	1084
505.34	1017
505.557	1005
505.773	958
505.99	915
506.207	946
506.423	917
506.64	909
506.856	888
507.073	891
507.289	900
507.506	890
507.722	900
507.939	864
508.155	849
508.372	854
508.588	858
508.805	824
509.021	855
509.238	863
509.454	819
509.67	833
509.887	815
510.103	825
510.319	829
510.536	808
510.752	818
510.968	836
511.184	813
511.401	794
511.617	826
511.833	791
512.049	805
512.265	783
512.481	808
512.698	807
512.914	811
513.13	788
513.346	799
513.562	790
513.778	793
513.994	833
514.21	812
514.426	806
514.642	798
514.858	828
515.074	838
515.29	845
515.506	850
515.721	861
515.937	870
516.153	858
516.369	898
516.585	910
516.801	910
517.016	975
517.232	1021
517.448	1104
517.664	1145
517.879	1126
518.095	1148
518.311	1139
518.527	1075
518.742	1015
518.958	970
519.173	938
519.389	893
519.605	897
519.82	852
520.036	857
520.251	831
520.467	836
520.682	802
520.898	811
521.113	805
521.329	797
521.544	777
521.76	783
521.975	757
522.19	783
522.406	754
522.621	754
522.836	746
523.052	783
523.267	747
523.482	744
523.698	764
523.913	759
524.128	751
524.343	770
524.559	756
524.774	762
524.989	742
525.204	753
525.419	753
525.634	745
525.849	732
526.064	731
526.28	736
526.495	735
526.71	747
526.925	735
527.14	735
527.355	737
527.57	721
527.785	741
527.999	733
528.214	748
528.429	729
528.644	731
528.859	749
529.074	728
529.289	747
529.503	746
529.718	756
529.933	750
530.148	753
530.363	743
530.577	709
530.792	715
531.007	730
531.221	725
531.436	710
531.651	751
531.865	758
532.08	739
532.295	748
532.509	717
532.724	727
532.938	711
533.153	729
533.367	730
533.582	715
533.796	718
534.011	716
534.225	732
534.44	709
534.654	719
534.868	721
535.083	707
535.297	707
535.511	713
535.726	714
535.94	706
536.154	707
536.369	678
536.583	690
536.797	691
537.011	690
537.225	676
537.44	691
537.654	675
537.868	671
538.082	653
538.296	665
538.51	676
538.724	683
538.938	658
539.153	655
539.367	683
539.581	676
539.795	665
540.009	636
540.222	677
540.436	673
540.65	639
540.864	652
541.078	655
541.292	658
541.506	639
541.72	666
541.934	655
542.147	669
542.361	663
542.575	661
542.789	670
543.002	638
543.216	661
543.43	633
543.644	650
543.857	669
544.071	633
544.285	661
544.498	655
544.712	634
544.925	649
545.139	650
545.352	657
545.566	671
545.779	677
545.993	678
546.206	634
546.42	662
546.633	686
546.847	698
547.06	666
547.274	652
547.487	660
547.7	664
547.914	675
548.127	651
548.34	675
548.554	696
548.767	660
548.98	683
549.193	680
549.407	656
549.62	670
549.833	683
550.046	685
550.259	676
550.473	669
550.686	689
550.899	695
551.112	669
551.325	664
551.538	642
551.751	666
551.964	659
552.177	645
552.39	675
552.603	687
552.816	718
553.029	726
553.242	757
553.455	746
553.667	746
553.88	725
554.093	715
554.306	711
554.519	667
554.732	684
554.944	670
555.157	666
555.37	636
555.583	637
555.795	619
556.008	599
556.221	611
556.433	610
556.646	608
556.859	595
557.071	597
557.284	577
557.496	586
557.709	577
557.921	575
558.134	576
558.346	582
558.559	573
558.771	577
558.984	561
559.196	572
559.409	579
559.621	563
559.833	555
560.046	565
560.258	553
560.47	561
