Data from NiCl2@0.0625M.TitratingCurve.Agarose3%dH2O.NegLispCup.LampEnergy10.LIBS07252019_HRD10591_18-33-49-576.txt Node
Date: Thu Jul 25 18:33:49 EDT 2019
User: cochatt
Spectrometer: HR+D1059
Trigger mode: 1
Integration Time (sec): 1.000000E-1
Scans to average: 1
Electric dark correction enabled: true
Nonlinearity correction enabled: false
Boxcar width: 0
XAxis mode: Wavelengths
Number of Pixels in Spectrum: 2048
>>>>>Begin Spectral Data<<<<<
223.165	-18.19
223.4	-18.19
223.635	-18.19
223.869	-6.19
224.104	-23.19
224.338	-8.19
224.573	-3.19
224.808	-16.19
225.042	-7.19
225.277	-6.19
225.511	3.81
225.746	2.81
225.98	9.81
226.215	-3.19
226.449	11.81
226.683	21.81
226.918	19.81
227.152	21.81
227.387	33.81
227.621	28.81
227.856	37.81
228.09	37.81
228.324	57.81
228.559	60.81
228.793	76.81
229.027	122.81
229.262	143.81
229.496	154.81
229.73	166.81
229.964	173.81
230.199	173.81
230.433	180.81
230.667	184.81
230.901	177.81
231.136	161.81
231.37	182.81
231.604	174.81
231.838	178.81
232.072	183.81
232.306	189.81
232.541	205.81
232.775	188.81
233.009	201.81
233.243	199.81
233.477	196.81
233.711	193.81
233.945	188.81
234.179	197.81
234.413	204.81
234.647	193.81
234.881	211.81
235.115	211.81
235.349	210.81
235.583	202.81
235.817	221.81
236.051	206.81
236.285	224.81
236.519	217.81
236.753	233.81
236.987	221.81
237.221	228.81
237.455	218.81
237.689	231.81
237.922	238.81
238.156	243.81
238.39	217.81
238.624	231.81
238.858	232.81
239.091	243.81
239.325	251.81
239.559	256.81
239.793	252.81
240.027	260.81
240.26	262.81
240.494	259.81
240.728	272.81
240.961	257.81
241.195	261.81
241.429	263.81
241.662	265.81
241.896	275.81
242.13	288.81
242.363	263.81
242.597	292.81
242.83	287.81
243.064	285.81
243.298	291.81
243.531	309.81
243.765	292.81
243.998	305.81
244.232	321.81
244.465	304.81
244.699	304.81
244.932	295.81
245.166	339.81
245.399	339.81
245.633	336.81
245.866	308.81
246.099	333.81
246.333	335.81
246.566	322.81
246.8	347.81
247.033	323.81
247.266	341.81
247.5	353.81
247.733	346.81
247.966	331.81
248.2	360.81
248.433	363.81
248.666	353.81
248.899	370.81
249.133	354.81
249.366	367.81
249.599	390.81
249.832	368.81
250.066	392.81
250.299	374.81
250.532	397.81
250.765	383.81
250.998	393.81
251.231	391.81
251.465	407.81
251.698	383.81
251.931	398.81
252.164	389.81
252.397	410.81
252.63	427.81
252.863	414.81
253.096	407.81
253.329	415.81
253.562	423.81
253.795	433.81
254.028	416.81
254.261	440.81
254.494	428.81
254.727	432.81
254.96	427.81
255.193	425.81
255.426	439.81
255.659	443.81
255.892	434.81
256.124	431.81
256.357	437.81
256.59	435.81
256.823	454.81
257.056	449.81
257.289	469.81
257.521	479.81
257.754	461.81
257.987	443.81
258.22	485.81
258.452	490.81
258.685	464.81
258.918	485.81
259.151	479.81
259.383	477.81
259.616	483.81
259.849	483.81
260.081	487.81
260.314	493.81
260.547	528.81
260.779	488.81
261.012	488.81
261.244	505.81
261.477	514.81
261.71	498.81
261.942	488.81
262.175	511.81
262.407	526.81
262.64	519.81
262.872	523.81
263.105	529.81
263.337	527.81
263.57	521.81
263.802	515.81
264.035	568.81
264.267	543.81
264.499	541.81
264.732	550.81
264.964	552.81
265.197	536.81
265.429	545.81
265.661	540.81
265.894	557.81
266.126	552.81
266.358	550.81
266.591	571.81
266.823	577.81
267.055	565.81
267.287	580.81
267.52	584.81
267.752	573.81
267.984	576.81
268.216	567.81
268.448	600.81
268.681	572.81
268.913	616.81
269.145	588.81
269.377	600.81
269.609	599.81
269.841	589.81
270.073	589.81
270.306	569.81
270.538	605.81
270.77	603.81
271.002	630.81
271.234	625.81
271.466	614.81
271.698	607.81
271.93	613.81
272.162	635.81
272.394	630.81
272.626	624.81
272.858	638.81
273.09	625.81
273.322	649.81
273.553	623.81
273.785	653.81
274.017	632.81
274.249	676.81
274.481	662.81
274.713	639.81
274.945	641.81
275.176	664.81
275.408	680.81
275.64	680.81
275.872	683.81
276.104	678.81
276.335	693.81
276.567	672.81
276.799	685.81
277.031	680.81
277.262	687.81
277.494	701.81
277.726	692.81
277.957	696.81
278.189	718.81
278.421	700.81
278.652	703.81
278.884	712.81
279.115	710.81
279.347	723.81
279.579	731.81
279.81	711.81
280.042	704.81
280.273	725.81
280.505	723.81
280.736	755.81
280.968	754.81
281.199	755.81
281.431	771.81
281.662	751.81
281.894	723.81
282.125	744.81
282.356	763.81
282.588	763.81
282.819	766.81
283.051	766.81
283.282	750.81
283.513	786.81
283.745	790.81
283.976	774.81
284.207	783.81
284.439	789.81
284.67	777.81
284.901	793.81
285.132	821.81
285.364	771.81
285.595	796.81
285.826	796.81
286.057	791.81
286.288	783.81
286.52	816.81
286.751	796.81
286.982	788.81
287.213	806.81
287.444	829.81
287.675	801.81
287.906	799.81
288.138	832.81
288.369	830.81
288.6	830.81
288.831	831.81
289.062	870.81
289.293	832.81
289.524	825.81
289.755	841.81
289.986	839.81
290.217	828.81
290.448	808.81
290.679	829.81
290.91	859.81
291.141	844.81
291.371	843.81
291.602	861.81
291.833	832.81
292.064	877.81
292.295	824.81
292.526	865.81
292.757	846.81
292.987	841.81
293.218	847.81
293.449	866.81
293.68	838.81
293.91	867.81
294.141	868.81
294.372	885.81
294.603	870.81
294.833	872.81
295.064	863.81
295.295	861.81
295.525	855.81
295.756	863.81
295.987	872.81
296.217	868.81
296.448	883.81
296.679	897.81
296.909	873.81
297.14	899.81
297.37	883.81
297.601	925.81
297.831	909.81
298.062	909.81
298.292	942.81
298.523	918.81
298.753	903.81
298.984	933.81
299.214	931.81
299.445	897.81
299.675	918.81
299.905	917.81
300.136	934.81
300.366	930.81
300.597	933.81
300.827	963.81
301.057	944.81
301.288	959.81
301.518	944.81
301.748	1017.81
301.979	987.81
302.209	975.81
302.439	985.81
302.669	975.81
302.9	956.81
303.13	968.81
303.36	965.81
303.59	915.81
303.82	957.81
304.051	983.81
304.281	967.81
304.511	953.81
304.741	952.81
304.971	988.81
305.201	980.81
305.431	963.81
305.661	965.81
305.891	955.81
306.121	964.81
306.352	977.81
306.582	976.81
306.812	986.81
307.042	957.81
307.272	949.81
307.502	935.81
307.731	963.81
307.961	943.81
308.191	974.81
308.421	971.81
308.651	942.81
308.881	946.81
309.111	971.81
309.341	937.81
309.571	956.81
309.8	991.81
310.03	948.81
310.26	947.81
310.49	974.81
310.72	967.81
310.949	974.81
311.179	988.81
311.409	993.81
311.639	987.81
311.868	968.81
312.098	978.81
312.328	998.81
312.557	988.81
312.787	1037.81
313.017	1019.81
313.246	1024.81
313.476	1038.81
313.706	1037.81
313.935	1072.81
314.165	1056.81
314.394	1061.81
314.624	1055.81
314.853	1026.81
315.083	1007.81
315.312	1031.81
315.542	1017.81
315.771	1026.81
316.001	1027.81
316.23	1024.81
316.46	1026.81
316.689	1044.81
316.919	1004.81
317.148	1019.81
317.377	1030.81
317.607	1014.81
317.836	1014.81
318.065	1021.81
318.295	1019.81
318.524	1056.81
318.753	1021.81
318.983	1020.81
319.212	1018.81
319.441	988.81
319.67	999.81
319.9	1031.81
320.129	1037.81
320.358	1019.81
320.587	1029.81
320.816	1015.81
321.046	1034.81
321.275	1048.81
321.504	1029.81
321.733	1027.81
321.962	1075.81
322.191	1065.81
322.42	1040.81
322.649	1030.81
322.878	1047.81
323.108	1049.81
323.337	1063.81
323.566	1046.81
323.795	1091.81
324.024	1067.81
324.253	1064.81
324.482	1062.81
324.71	1041.81
324.939	1076.81
325.168	1091.81
325.397	1053.81
325.626	1064.81
325.855	1122.81
326.084	1101.81
326.313	1138.81
326.542	1123.81
326.77	1151.81
326.999	1124.81
327.228	1071.81
327.457	1102.81
327.686	1118.81
327.914	1105.81
328.143	1119.81
328.372	1096.81
328.6	1098.81
328.829	1085.81
329.058	1125.81
329.287	1149.81
329.515	1144.81
329.744	1125.81
329.972	1112.81
330.201	1114.81
330.43	1162.81
330.658	1176.81
330.887	1198.81
331.115	1165.81
331.344	1153.81
331.572	1177.81
331.801	1233.81
332.03	1226.81
332.258	1214.81
332.486	1264.81
332.715	1306.81
332.943	1348.81
333.172	1366.81
333.4	1424.81
333.629	1447.81
333.857	1459.81
334.085	1432.81
334.314	1437.81
334.542	1421.81
334.771	1450.81
334.999	1396.81
335.227	1416.81
335.455	1408.81
335.684	1403.81
335.912	1403.81
336.14	1378.81
336.369	1357.81
336.597	1327.81
336.825	1343.81
337.053	1352.81
337.281	1329.81
337.51	1316.81
337.738	1304.81
337.966	1267.81
338.194	1245.81
338.422	1225.81
338.65	1235.81
338.878	1221.81
339.106	1228.81
339.334	1240.81
339.562	1212.81
339.79	1203.81
340.018	1143.81
340.246	1184.81
340.474	1185.81
340.702	1157.81
340.93	1213.81
341.158	1209.81
341.386	1181.81
341.614	1180.81
341.842	1183.81
342.07	1197.81
342.298	1171.81
342.526	1200.81
342.754	1190.81
342.981	1207.81
343.209	1190.81
343.437	1231.81
343.665	1329.81
343.893	1338.81
344.12	1386.81
344.348	1371.81
344.576	1316.81
344.804	1284.81
345.031	1236.81
345.259	1227.81
345.487	1190.81
345.714	1149.81
345.942	1141.81
346.17	1183.81
346.397	1145.81
346.625	1143.81
346.853	1112.81
347.08	1132.81
347.308	1115.81
347.535	1131.81
347.763	1136.81
347.99	1130.81
348.218	1119.81
348.445	1131.81
348.673	1124.81
348.9	1121.81
349.128	1136.81
349.355	1114.81
349.583	1105.81
349.81	1097.81
350.037	1091.81
350.265	1108.81
350.492	1103.81
350.72	1109.81
350.947	1106.81
351.174	1107.81
351.402	1111.81
351.629	1076.81
351.856	1085.81
352.083	1075.81
352.311	1074.81
352.538	1066.81
352.765	1068.81
352.992	1088.81
353.22	1083.81
353.447	1071.81
353.674	1053.81
353.901	1064.81
354.128	1057.81
354.355	1084.81
354.583	1112.81
354.81	1097.81
355.037	1081.81
355.264	1091.81
355.491	1099.81
355.718	1080.81
355.945	1097.81
356.172	1084.81
356.399	1093.81
356.626	1083.81
356.853	1113.81
357.08	1154.81
357.307	1094.81
357.534	1088.81
357.761	1083.81
357.988	1084.81
358.215	1075.81
358.441	1087.81
358.668	1101.81
358.895	1101.81
359.122	1095.81
359.349	1100.81
359.576	1095.81
359.802	1104.81
360.029	1108.81
360.256	1137.81
360.483	1131.81
360.709	1083.81
360.936	1100.81
361.163	1079.81
361.39	1092.81
361.616	1071.81
361.843	1066.81
362.07	1100.81
362.296	1081.81
362.523	1116.81
362.749	1137.81
362.976	1125.81
363.203	1103.81
363.429	1085.81
363.656	1117.81
363.882	1092.81
364.109	1084.81
364.335	1106.81
364.562	1079.81
364.788	1094.81
365.015	1082.81
365.241	1078.81
365.468	1069.81
365.694	1110.81
365.92	1115.81
366.147	1105.81
366.373	1120.81
366.599	1104.81
366.826	1115.81
367.052	1078.81
367.278	1109.81
367.505	1097.81
367.731	1117.81
367.957	1103.81
368.184	1104.81
368.41	1142.81
368.636	1142.81
368.862	1135.81
369.089	1166.81
369.315	1157.81
369.541	1147.81
369.767	1104.81
369.993	1131.81
370.219	1139.81
370.445	1157.81
370.672	1160.81
370.898	1171.81
371.124	1155.81
371.35	1193.81
371.576	1217.81
371.802	1197.81
372.028	1197.81
372.254	1212.81
372.48	1222.81
372.706	1229.81
372.932	1242.81
373.158	1271.81
373.384	1189.81
373.61	1179.81
373.835	1197.81
374.061	1180.81
374.287	1232.81
374.513	1235.81
374.739	1253.81
374.965	1283.81
375.191	1294.81
375.416	1296.81
375.642	1251.81
375.868	1274.81
376.094	1270.81
376.319	1189.81
376.545	1208.81
376.771	1191.81
376.997	1182.81
377.222	1177.81
377.448	1157.81
377.674	1180.81
377.899	1167.81
378.125	1176.81
378.35	1181.81
378.576	1175.81
378.802	1187.81
379.027	1162.81
379.253	1179.81
379.478	1166.81
379.704	1185.81
379.929	1171.81
380.155	1165.81
380.38	1173.81
380.606	1157.81
380.831	1192.81
381.057	1201.81
381.282	1160.81
381.507	1183.81
381.733	1199.81
381.958	1216.81
382.184	1225.81
382.409	1250.81
382.634	1244.81
382.86	1275.81
383.085	1229.81
383.31	1287.81
383.535	1282.81
383.761	1309.81
383.986	1319.81
384.211	1326.81
384.436	1361.81
384.662	1324.81
384.887	1376.81
385.112	1384.81
385.337	1410.81
385.562	1387.81
385.787	1379.81
386.013	1435.81
386.238	1409.81
386.463	1442.81
386.688	1426.81
386.913	1405.81
387.138	1409.81
387.363	1398.81
387.588	1384.81
387.813	1409.81
388.038	1403.81
388.263	1400.81
388.488	1408.81
388.713	1427.81
388.938	1383.81
389.163	1383.81
389.387	1439.81
389.612	1392.81
389.837	1431.81
390.062	1400.81
390.287	1431.81
390.512	1403.81
390.736	1394.81
390.961	1412.81
391.186	1415.81
391.411	1449.81
391.636	1495.81
391.86	1534.81
392.085	1518.81
392.31	1595.81
392.534	1545.81
392.759	1535.81
392.984	1479.81
393.208	1487.81
393.433	1488.81
393.658	1553.81
393.882	1486.81
394.107	1464.81
394.331	1486.81
394.556	1531.81
394.78	1520.81
395.005	1527.81
395.229	1541.81
395.454	1556.81
395.678	1583.81
395.903	1574.81
396.127	1573.81
396.352	1568.81
396.576	1546.81
396.801	1548.81
397.025	1571.81
397.249	1566.81
397.474	1590.81
397.698	1590.81
397.922	1607.81
398.147	1595.81
398.371	1648.81
398.595	1678.81
398.82	1765.81
399.044	1806.81
399.268	1988.81
399.492	2187.81
399.717	2415.81
399.941	2462.81
400.165	2256.81
400.389	2091.81
400.613	2023.81
400.837	1867.81
401.062	1826.81
401.286	1802.81
401.51	1785.81
401.734	1741.81
401.958	1756.81
402.182	1776.81
402.406	1748.81
402.63	1812.81
402.854	1846.81
403.078	1808.81
403.302	1909.81
403.526	1885.81
403.75	1907.81
403.974	1929.81
404.198	1938.81
404.422	1923.81
404.645	1895.81
404.869	1920.81
405.093	1925.81
405.317	1873.81
405.541	1890.81
405.765	1832.81
405.988	1897.81
406.212	1923.81
406.436	1934.81
406.66	1993.81
406.883	1971.81
407.107	2081.81
407.331	2167.81
407.555	2241.81
407.778	2215.81
408.002	2143.81
408.226	2114.81
408.449	2083.81
408.673	2037.81
408.896	1984.81
409.12	1949.81
409.344	1987.81
409.567	1977.81
409.791	1957.81
410.014	1931.81
410.238	1932.81
410.461	1937.81
410.685	1944.81
410.908	1859.81
411.132	1867.81
411.355	1812.81
411.578	1815.81
411.802	1827.81
412.025	1839.81
412.249	1832.81
412.472	1857.81
412.695	1799.81
412.919	1757.81
413.142	1779.81
413.365	1740.81
413.589	1760.81
413.812	1761.81
414.035	1755.81
414.258	1755.81
414.482	1741.81
414.705	1740.81
414.928	1798.81
415.151	1748.81
415.374	1748.81
415.597	1735.81
415.821	1713.81
416.044	1695.81
416.267	1707.81
416.49	1709.81
416.713	1692.81
416.936	1701.81
417.159	1703.81
417.382	1652.81
417.605	1661.81
417.828	1686.81
418.051	1685.81
418.274	1701.81
418.497	1714.81
418.72	1727.81
418.943	1734.81
419.166	1798.81
419.389	1960.81
419.611	1923.81
419.834	1833.81
420.057	1783.81
420.28	1741.81
420.503	1691.81
420.726	1665.81
420.948	1693.81
421.171	1679.81
421.394	1707.81
421.617	1683.81
421.839	1702.81
422.062	1699.81
422.285	1672.81
422.507	1748.81
422.73	1710.81
422.953	1714.81
423.175	1733.81
423.398	1761.81
423.621	1743.81
423.843	1775.81
424.066	1768.81
424.288	1711.81
424.511	1723.81
424.733	1719.81
424.956	1676.81
425.178	1654.81
425.401	1732.81
425.623	1728.81
425.846	1637.81
426.068	1683.81
426.291	1655.81
426.513	1630.81
426.735	1630.81
426.958	1621.81
427.18	1563.81
427.402	1573.81
427.625	1621.81
427.847	1565.81
428.069	1558.81
428.292	1571.81
428.514	1555.81
428.736	1538.81
428.958	1571.81
429.181	1555.81
429.403	1537.81
429.625	1517.81
429.847	1495.81
430.069	1510.81
430.292	1507.81
430.514	1486.81
430.736	1511.81
430.958	1543.81
431.18	1493.81
431.402	1521.81
431.624	1510.81
431.846	1533.81
432.068	1569.81
432.29	1604.81
432.512	1565.81
432.734	1569.81
432.956	1518.81
433.178	1583.81
433.4	1550.81
433.622	1570.81
433.844	1606.81
434.066	1605.81
434.287	1608.81
434.509	1647.81
434.731	1697.81
434.953	1713.81
435.175	1711.81
435.397	1702.81
435.618	1650.81
435.84	1618.81
436.062	1589.81
436.284	1569.81
436.505	1541.81
436.727	1569.81
436.949	1540.81
437.17	1537.81
437.392	1525.81
437.614	1537.81
437.835	1496.81
438.057	1467.81
438.278	1468.81
438.5	1487.81
438.721	1473.81
438.943	1499.81
439.165	1483.81
439.386	1479.81
439.608	1517.81
439.829	1529.81
440.05	1536.81
440.272	1518.81
440.493	1532.81
440.715	1532.81
440.936	1590.81
441.158	1555.81
441.379	1608.81
441.6	1680.81
441.822	1673.81
442.043	1679.81
442.264	1639.81
442.486	1606.81
442.707	1615.81
442.928	1648.81
443.149	1647.81
443.371	1616.81
443.592	1639.81
443.813	1697.81
444.034	1683.81
444.255	1705.81
444.476	1802.81
444.698	1855.81
444.919	1909.81
445.14	1997.81
445.361	1823.81
445.582	1732.81
445.803	1671.81
446.024	1599.81
446.245	1597.81
446.466	1548.81
446.687	1538.81
446.908	1519.81
447.129	1490.81
447.35	1451.81
447.571	1424.81
447.792	1441.81
448.013	1423.81
448.234	1408.81
448.455	1422.81
448.675	1368.81
448.896	1362.81
449.117	1383.81
449.338	1365.81
449.559	1368.81
449.779	1343.81
450	1329.81
450.221	1379.81
450.442	1381.81
450.662	1393.81
450.883	1372.81
451.104	1387.81
451.324	1416.81
451.545	1415.81
451.766	1368.81
451.986	1374.81
452.207	1366.81
452.428	1363.81
452.648	1373.81
452.869	1342.81
453.089	1324.81
453.31	1352.81
453.53	1321.81
453.751	1292.81
453.971	1323.81
454.192	1325.81
454.412	1297.81
454.633	1277.81
454.853	1362.81
455.073	1272.81
455.294	1333.81
455.514	1295.81
455.734	1302.81
455.955	1264.81
456.175	1267.81
456.395	1263.81
456.616	1238.81
456.836	1269.81
457.056	1295.81
457.276	1249.81
457.497	1280.81
457.717	1307.81
457.937	1311.81
458.157	1325.81
458.377	1342.81
458.598	1392.81
458.818	1401.81
459.038	1452.81
459.258	1451.81
459.478	1502.81
459.698	1559.81
459.918	1605.81
460.138	1631.81
460.358	1684.81
460.578	1716.81
460.798	1719.81
461.018	1751.81
461.238	1731.81
461.458	1765.81
461.678	1727.81
461.898	1753.81
462.118	1761.81
462.338	1827.81
462.558	1845.81
462.777	1923.81
462.997	2078.81
463.217	2180.81
463.437	2194.81
463.657	2101.81
463.876	2035.81
464.096	2011.81
464.316	1958.81
464.536	1955.81
464.755	1903.81
464.975	1874.81
465.195	1821.81
465.414	1705.81
465.634	1625.81
465.854	1609.81
466.073	1559.81
466.293	1524.81
466.512	1485.81
466.732	1467.81
466.951	1480.81
467.171	1436.81
467.391	1473.81
467.61	1429.81
467.829	1407.81
468.049	1435.81
468.268	1463.81
468.488	1392.81
468.707	1412.81
468.927	1396.81
469.146	1422.81
469.365	1410.81
469.585	1417.81
469.804	1426.81
470.023	1434.81
470.243	1511.81
470.462	1509.81
470.681	1456.81
470.901	1488.81
471.12	1456.81
471.339	1462.81
471.558	1410.81
471.777	1403.81
471.997	1398.81
472.216	1405.81
472.435	1430.81
472.654	1411.81
472.873	1418.81
473.092	1395.81
473.311	1377.81
473.53	1410.81
473.749	1414.81
473.968	1395.81
474.187	1384.81
474.406	1395.81
474.625	1361.81
474.844	1371.81
475.063	1387.81
475.282	1399.81
475.501	1421.81
475.72	1437.81
475.939	1404.81
476.158	1462.81
476.377	1439.81
476.596	1405.81
476.814	1504.81
477.033	1501.81
477.252	1535.81
477.471	1532.81
477.69	1565.81
477.908	1589.81
478.127	1647.81
478.346	1646.81
478.564	1710.81
478.783	1672.81
479.002	1732.81
479.22	1756.81
479.439	1732.81
479.658	1750.81
479.876	1727.81
480.095	1768.81
480.313	1819.81
480.532	1827.81
480.751	1856.81
480.969	1812.81
481.188	1775.81
481.406	1723.81
481.624	1716.81
481.843	1664.81
482.061	1711.81
482.28	1677.81
482.498	1676.81
482.717	1654.81
482.935	1704.81
483.153	1717.81
483.372	1735.81
483.59	1741.81
483.808	1728.81
484.027	1768.81
484.245	1756.81
484.463	1777.81
484.681	1780.81
484.9	1825.81
485.118	1812.81
485.336	1875.81
485.554	1877.81
485.772	1900.81
485.99	1887.81
486.209	1860.81
486.427	1860.81
486.645	1831.81
486.863	1874.81
487.081	1860.81
487.299	1808.81
487.517	1858.81
487.735	1891.81
487.953	1808.81
488.171	1843.81
488.389	1812.81
488.607	1810.81
488.825	1772.81
489.043	1764.81
489.261	1751.81
489.479	1754.81
489.696	1749.81
489.914	1744.81
490.132	1742.81
490.35	1768.81
490.568	1749.81
490.786	1736.81
