Data from NiCl2@0.0625M.TitratingCurve.Agarose3%dH2O.NegLispCup.LampEnergy10.LIBS07252019_HRD10591_18-35-22-576.txt Node
Date: Thu Jul 25 18:35:22 EDT 2019
User: cochatt
Spectrometer: HR+D1059
Trigger mode: 1
Integration Time (sec): 1.000000E-1
Scans to average: 1
Electric dark correction enabled: true
Nonlinearity correction enabled: false
Boxcar width: 0
XAxis mode: Wavelengths
Number of Pixels in Spectrum: 2048
>>>>>Begin Spectral Data<<<<<
223.165	-29.44
223.4	-29.44
223.635	-29.44
223.869	-13.44
224.104	-10.44
224.338	-4.44
224.573	-0.44
224.808	-8.44
225.042	-7.44
225.277	5.56
225.511	-8.44
225.746	-7.44
225.98	7.56
226.215	8.56
226.449	16.56
226.683	18.56
226.918	18.56
227.152	14.56
227.387	40.56
227.621	45.56
227.856	39.56
228.09	62.56
228.324	70.56
228.559	59.56
228.793	86.56
229.027	131.56
229.262	141.56
229.496	150.56
229.73	150.56
229.964	152.56
230.199	168.56
230.433	164.56
230.667	170.56
230.901	164.56
231.136	164.56
231.37	162.56
231.604	171.56
231.838	183.56
232.072	187.56
232.306	184.56
232.541	180.56
232.775	187.56
233.009	200.56
233.243	206.56
233.477	208.56
233.711	180.56
233.945	195.56
234.179	198.56
234.413	197.56
234.647	195.56
234.881	191.56
235.115	194.56
235.349	204.56
235.583	182.56
235.817	192.56
236.051	205.56
236.285	198.56
236.519	214.56
236.753	209.56
236.987	219.56
237.221	229.56
237.455	222.56
237.689	213.56
237.922	218.56
238.156	226.56
238.39	225.56
238.624	207.56
238.858	245.56
239.091	232.56
239.325	231.56
239.559	238.56
239.793	247.56
240.027	248.56
240.26	247.56
240.494	239.56
240.728	237.56
240.961	262.56
241.195	248.56
241.429	242.56
241.662	251.56
241.896	291.56
242.13	267.56
242.363	269.56
242.597	262.56
242.83	282.56
243.064	275.56
243.298	259.56
243.531	287.56
243.765	285.56
243.998	293.56
244.232	298.56
244.465	282.56
244.699	288.56
244.932	309.56
245.166	314.56
245.399	308.56
245.633	294.56
245.866	312.56
246.099	314.56
246.333	309.56
246.566	315.56
246.8	315.56
247.033	319.56
247.266	331.56
247.5	342.56
247.733	330.56
247.966	322.56
248.2	351.56
248.433	342.56
248.666	322.56
248.899	342.56
249.133	340.56
249.366	335.56
249.599	346.56
249.832	329.56
250.066	360.56
250.299	342.56
250.532	373.56
250.765	367.56
250.998	380.56
251.231	372.56
251.465	363.56
251.698	380.56
251.931	386.56
252.164	361.56
252.397	386.56
252.63	401.56
252.863	382.56
253.096	400.56
253.329	393.56
253.562	394.56
253.795	394.56
254.028	399.56
254.261	417.56
254.494	396.56
254.727	389.56
254.96	412.56
255.193	388.56
255.426	403.56
255.659	415.56
255.892	410.56
256.124	422.56
256.357	430.56
256.59	425.56
256.823	420.56
257.056	415.56
257.289	429.56
257.521	440.56
257.754	436.56
257.987	431.56
258.22	422.56
258.452	454.56
258.685	427.56
258.918	420.56
259.151	418.56
259.383	470.56
259.616	467.56
259.849	448.56
260.081	454.56
260.314	459.56
260.547	464.56
260.779	453.56
261.012	448.56
261.244	466.56
261.477	488.56
261.71	471.56
261.942	503.56
262.175	487.56
262.407	467.56
262.64	470.56
262.872	483.56
263.105	487.56
263.337	501.56
263.57	495.56
263.802	514.56
264.035	503.56
264.267	500.56
264.499	488.56
264.732	500.56
264.964	514.56
265.197	528.56
265.429	502.56
265.661	512.56
265.894	532.56
266.126	508.56
266.358	510.56
266.591	525.56
266.823	530.56
267.055	528.56
267.287	538.56
267.52	518.56
267.752	550.56
267.984	572.56
268.216	557.56
268.448	538.56
268.681	527.56
268.913	548.56
269.145	570.56
269.377	551.56
269.609	536.56
269.841	551.56
270.073	542.56
270.306	543.56
270.538	559.56
270.77	545.56
271.002	549.56
271.234	570.56
271.466	589.56
271.698	557.56
271.93	568.56
272.162	603.56
272.394	594.56
272.626	587.56
272.858	573.56
273.09	584.56
273.322	599.56
273.553	589.56
273.785	601.56
274.017	616.56
274.249	621.56
274.481	602.56
274.713	607.56
274.945	610.56
275.176	620.56
275.408	614.56
275.64	619.56
275.872	630.56
276.104	622.56
276.335	613.56
276.567	600.56
276.799	628.56
277.031	639.56
277.262	648.56
277.494	644.56
277.726	620.56
277.957	654.56
278.189	652.56
278.421	664.56
278.652	662.56
278.884	660.56
279.115	669.56
279.347	664.56
279.579	667.56
279.81	646.56
280.042	675.56
280.273	650.56
280.505	662.56
280.736	688.56
280.968	688.56
281.199	698.56
281.431	681.56
281.662	684.56
281.894	686.56
282.125	716.56
282.356	691.56
282.588	706.56
282.819	704.56
283.051	698.56
283.282	712.56
283.513	702.56
283.745	718.56
283.976	724.56
284.207	713.56
284.439	720.56
284.67	728.56
284.901	732.56
285.132	736.56
285.364	717.56
285.595	704.56
285.826	729.56
286.057	756.56
286.288	717.56
286.52	757.56
286.751	751.56
286.982	734.56
287.213	740.56
287.444	774.56
287.675	748.56
287.906	736.56
288.138	761.56
288.369	764.56
288.6	787.56
288.831	784.56
289.062	761.56
289.293	754.56
289.524	756.56
289.755	759.56
289.986	795.56
290.217	766.56
290.448	782.56
290.679	782.56
290.91	775.56
291.141	782.56
291.371	773.56
291.602	786.56
291.833	776.56
292.064	798.56
292.295	774.56
292.526	788.56
292.757	777.56
292.987	811.56
293.218	788.56
293.449	790.56
293.68	792.56
293.91	779.56
294.141	791.56
294.372	794.56
294.603	799.56
294.833	808.56
295.064	806.56
295.295	792.56
295.525	772.56
295.756	783.56
295.987	792.56
296.217	815.56
296.448	828.56
296.679	816.56
296.909	800.56
297.14	792.56
297.37	822.56
297.601	851.56
297.831	822.56
298.062	859.56
298.292	858.56
298.523	867.56
298.753	890.56
298.984	836.56
299.214	839.56
299.445	872.56
299.675	860.56
299.905	855.56
300.136	841.56
300.366	860.56
300.597	875.56
300.827	864.56
301.057	896.56
301.288	907.56
301.518	888.56
301.748	927.56
301.979	919.56
302.209	898.56
302.439	902.56
302.669	925.56
302.9	898.56
303.13	902.56
303.36	870.56
303.59	887.56
303.82	884.56
304.051	894.56
304.281	900.56
304.511	888.56
304.741	894.56
304.971	886.56
305.201	921.56
305.431	908.56
305.661	895.56
305.891	912.56
306.121	894.56
306.352	863.56
306.582	902.56
306.812	888.56
307.042	899.56
307.272	901.56
307.502	859.56
307.731	916.56
307.961	887.56
308.191	868.56
308.421	871.56
308.651	893.56
308.881	878.56
309.111	861.56
309.341	896.56
309.571	893.56
309.8	889.56
310.03	903.56
310.26	936.56
310.49	872.56
310.72	896.56
310.949	898.56
311.179	898.56
311.409	912.56
311.639	907.56
311.868	902.56
312.098	922.56
312.328	923.56
312.557	905.56
312.787	932.56
313.017	948.56
313.246	931.56
313.476	919.56
313.706	928.56
313.935	972.56
314.165	939.56
314.394	944.56
314.624	972.56
314.853	944.56
315.083	963.56
315.312	959.56
315.542	981.56
315.771	937.56
316.001	922.56
316.23	950.56
316.46	959.56
316.689	941.56
316.919	935.56
317.148	972.56
317.377	911.56
317.607	936.56
317.836	912.56
318.065	936.56
318.295	925.56
318.524	957.56
318.753	963.56
318.983	903.56
319.212	949.56
319.441	937.56
319.67	920.56
319.9	932.56
320.129	928.56
320.358	959.56
320.587	966.56
320.816	949.56
321.046	942.56
321.275	927.56
321.504	938.56
321.733	954.56
321.962	962.56
322.191	956.56
322.42	963.56
322.649	941.56
322.878	963.56
323.108	958.56
323.337	957.56
323.566	952.56
323.795	1015.56
324.024	971.56
324.253	1008.56
324.482	969.56
324.71	975.56
324.939	983.56
325.168	967.56
325.397	970.56
325.626	1007.56
325.855	996.56
326.084	1058.56
326.313	1037.56
326.542	996.56
326.77	1036.56
326.999	1064.56
327.228	997.56
327.457	1028.56
327.686	1014.56
327.914	1050.56
328.143	1047.56
328.372	1021.56
328.6	1044.56
328.829	1036.56
329.058	1037.56
329.287	1040.56
329.515	1046.56
329.744	1026.56
329.972	1059.56
330.201	1054.56
330.43	1038.56
330.658	1071.56
330.887	1031.56
331.115	1054.56
331.344	1068.56
331.572	1080.56
331.801	1112.56
332.03	1130.56
332.258	1158.56
332.486	1163.56
332.715	1186.56
332.943	1188.56
333.172	1254.56
333.4	1300.56
333.629	1305.56
333.857	1304.56
334.085	1344.56
334.314	1308.56
334.542	1305.56
334.771	1297.56
334.999	1290.56
335.227	1306.56
335.455	1286.56
335.684	1311.56
335.912	1269.56
336.14	1241.56
336.369	1249.56
336.597	1262.56
336.825	1203.56
337.053	1230.56
337.281	1212.56
337.51	1208.56
337.738	1182.56
337.966	1172.56
338.194	1190.56
338.422	1153.56
338.65	1121.56
338.878	1142.56
339.106	1142.56
339.334	1120.56
339.562	1087.56
339.79	1078.56
340.018	1099.56
340.246	1091.56
340.474	1082.56
340.702	1104.56
340.93	1099.56
341.158	1090.56
341.386	1065.56
341.614	1110.56
341.842	1112.56
342.07	1087.56
342.298	1066.56
342.526	1079.56
342.754	1074.56
342.981	1051.56
343.209	1082.56
343.437	1133.56
343.665	1192.56
343.893	1251.56
344.12	1273.56
344.348	1273.56
344.576	1193.56
344.804	1180.56
345.031	1144.56
345.259	1111.56
345.487	1109.56
345.714	1087.56
345.942	1069.56
346.17	1071.56
346.397	1062.56
346.625	1028.56
346.853	1025.56
347.08	1007.56
347.308	1067.56
347.535	1077.56
347.763	1028.56
347.99	1038.56
348.218	1053.56
348.445	1038.56
348.673	1030.56
348.9	1029.56
349.128	1053.56
349.355	1012.56
349.583	1045.56
349.81	1030.56
350.037	1030.56
350.265	1007.56
350.492	1032.56
350.72	1036.56
350.947	1012.56
351.174	1036.56
351.402	1025.56
351.629	981.56
351.856	982.56
352.083	1008.56
352.311	1015.56
352.538	975.56
352.765	1006.56
352.992	989.56
353.22	958.56
353.447	983.56
353.674	990.56
353.901	992.56
354.128	1027.56
354.355	988.56
354.583	976.56
354.81	995.56
355.037	999.56
355.264	1002.56
355.491	993.56
355.718	954.56
355.945	1017.56
356.172	995.56
356.399	996.56
356.626	1018.56
356.853	999.56
357.08	1034.56
357.307	1024.56
357.534	994.56
357.761	1018.56
357.988	1004.56
358.215	1035.56
358.441	980.56
358.668	992.56
358.895	1026.56
359.122	1007.56
359.349	995.56
359.576	990.56
359.802	1007.56
360.029	1004.56
360.256	1017.56
360.483	980.56
360.709	988.56
360.936	1021.56
361.163	981.56
361.39	999.56
361.616	1005.56
361.843	992.56
362.07	996.56
362.296	1001.56
362.523	1008.56
362.749	995.56
362.976	1007.56
363.203	1011.56
363.429	978.56
363.656	1016.56
363.882	1023.56
364.109	1005.56
364.335	1000.56
364.562	1031.56
364.788	1023.56
365.015	982.56
365.241	997.56
365.468	991.56
365.694	1008.56
365.92	983.56
366.147	995.56
366.373	1010.56
366.599	982.56
366.826	1003.56
367.052	1024.56
367.278	1009.56
367.505	1016.56
367.731	988.56
367.957	997.56
368.184	1012.56
368.41	1010.56
368.636	1029.56
368.862	993.56
369.089	1004.56
369.315	1029.56
369.541	1053.56
369.767	1047.56
369.993	1023.56
370.219	1037.56
370.445	1053.56
370.672	1092.56
370.898	1076.56
371.124	1074.56
371.35	1097.56
371.576	1080.56
371.802	1094.56
372.028	1091.56
372.254	1074.56
372.48	1104.56
372.706	1103.56
372.932	1114.56
373.158	1165.56
373.384	1111.56
373.61	1070.56
373.835	1084.56
374.061	1105.56
374.287	1111.56
374.513	1127.56
374.739	1144.56
374.965	1182.56
375.191	1202.56
375.416	1186.56
375.642	1170.56
375.868	1159.56
376.094	1136.56
376.319	1125.56
376.545	1090.56
376.771	1094.56
376.997	1075.56
377.222	1087.56
377.448	1111.56
377.674	1079.56
377.899	1091.56
378.125	1092.56
378.35	1057.56
378.576	1086.56
378.802	1052.56
379.027	1091.56
379.253	1082.56
379.478	1061.56
379.704	1061.56
379.929	1074.56
380.155	1069.56
380.38	1096.56
380.606	1071.56
380.831	1062.56
381.057	1081.56
381.282	1056.56
381.507	1113.56
381.733	1109.56
381.958	1083.56
382.184	1105.56
382.409	1085.56
382.634	1139.56
382.86	1118.56
383.085	1162.56
383.31	1160.56
383.535	1191.56
383.761	1176.56
383.986	1167.56
384.211	1242.56
384.436	1206.56
384.662	1240.56
384.887	1260.56
385.112	1267.56
385.337	1250.56
385.562	1270.56
385.787	1296.56
386.013	1286.56
386.238	1285.56
386.463	1276.56
386.688	1320.56
386.913	1271.56
387.138	1282.56
387.363	1300.56
387.588	1295.56
387.813	1282.56
388.038	1271.56
388.263	1294.56
388.488	1282.56
388.713	1289.56
388.938	1295.56
389.163	1283.56
389.387	1272.56
389.612	1277.56
389.837	1270.56
390.062	1288.56
390.287	1303.56
390.512	1278.56
390.736	1263.56
390.961	1330.56
391.186	1319.56
391.411	1355.56
391.636	1385.56
391.86	1436.56
392.085	1428.56
392.31	1440.56
392.534	1394.56
392.759	1367.56
392.984	1356.56
393.208	1339.56
393.433	1360.56
393.658	1372.56
393.882	1350.56
394.107	1346.56
394.331	1351.56
394.556	1368.56
394.78	1363.56
395.005	1381.56
395.229	1383.56
395.454	1447.56
395.678	1430.56
395.903	1434.56
396.127	1401.56
396.352	1404.56
396.576	1382.56
396.801	1385.56
397.025	1411.56
397.249	1422.56
397.474	1478.56
397.698	1455.56
397.922	1469.56
398.147	1478.56
398.371	1483.56
398.595	1546.56
398.82	1620.56
399.044	1682.56
399.268	1811.56
399.492	2040.56
399.717	2201.56
399.941	2204.56
400.165	2077.56
400.389	1910.56
400.613	1792.56
400.837	1702.56
401.062	1648.56
401.286	1659.56
401.51	1656.56
401.734	1597.56
401.958	1622.56
402.182	1618.56
402.406	1613.56
402.63	1639.56
402.854	1671.56
403.078	1682.56
403.302	1685.56
403.526	1688.56
403.75	1747.56
403.974	1756.56
404.198	1785.56
404.422	1771.56
404.645	1728.56
404.869	1708.56
405.093	1735.56
405.317	1718.56
405.541	1772.56
405.765	1731.56
405.988	1737.56
406.212	1772.56
406.436	1756.56
406.66	1825.56
406.883	1809.56
407.107	1907.56
407.331	1993.56
407.555	2008.56
407.778	2014.56
408.002	2036.56
408.226	1985.56
408.449	1953.56
408.673	1824.56
408.896	1829.56
409.12	1805.56
409.344	1820.56
409.567	1777.56
409.791	1786.56
410.014	1791.56
410.238	1762.56
410.461	1760.56
410.685	1752.56
410.908	1720.56
411.132	1731.56
411.355	1678.56
411.578	1664.56
411.802	1658.56
412.025	1705.56
412.249	1707.56
412.472	1727.56
412.695	1651.56
412.919	1621.56
413.142	1589.56
413.365	1638.56
413.589	1621.56
413.812	1577.56
414.035	1578.56
414.258	1607.56
414.482	1600.56
414.705	1634.56
414.928	1650.56
415.151	1624.56
415.374	1594.56
415.597	1596.56
415.821	1579.56
416.044	1580.56
416.267	1566.56
416.49	1573.56
416.713	1555.56
416.936	1587.56
417.159	1527.56
417.382	1562.56
417.605	1535.56
417.828	1523.56
418.051	1583.56
418.274	1573.56
418.497	1541.56
418.72	1598.56
418.943	1559.56
419.166	1704.56
419.389	1812.56
419.611	1767.56
419.834	1677.56
420.057	1647.56
420.28	1586.56
420.503	1540.56
420.726	1534.56
420.948	1512.56
421.171	1525.56
421.394	1557.56
421.617	1522.56
421.839	1523.56
422.062	1520.56
422.285	1512.56
422.507	1591.56
422.73	1583.56
422.953	1581.56
423.175	1586.56
423.398	1596.56
423.621	1558.56
423.843	1621.56
424.066	1604.56
424.288	1599.56
424.511	1589.56
424.733	1544.56
424.956	1588.56
425.178	1520.56
425.401	1553.56
425.623	1542.56
425.846	1495.56
426.068	1499.56
426.291	1527.56
426.513	1503.56
426.735	1480.56
426.958	1517.56
427.18	1449.56
427.402	1443.56
427.625	1444.56
427.847	1431.56
428.069	1424.56
428.292	1432.56
428.514	1436.56
428.736	1408.56
428.958	1430.56
429.181	1426.56
429.403	1412.56
429.625	1404.56
429.847	1374.56
430.069	1394.56
430.292	1396.56
430.514	1404.56
430.736	1379.56
430.958	1390.56
431.18	1414.56
431.402	1436.56
431.624	1428.56
431.846	1387.56
432.068	1434.56
432.29	1447.56
432.512	1401.56
432.734	1450.56
432.956	1429.56
433.178	1398.56
433.4	1430.56
433.622	1437.56
433.844	1484.56
434.066	1460.56
434.287	1459.56
434.509	1502.56
434.731	1548.56
434.953	1558.56
435.175	1609.56
435.397	1560.56
435.618	1471.56
435.84	1467.56
436.062	1441.56
436.284	1442.56
436.505	1402.56
436.727	1452.56
436.949	1387.56
437.17	1437.56
437.392	1422.56
437.614	1411.56
437.835	1369.56
438.057	1359.56
438.278	1350.56
438.5	1327.56
438.721	1348.56
438.943	1385.56
439.165	1350.56
439.386	1358.56
439.608	1387.56
439.829	1371.56
440.05	1378.56
440.272	1376.56
440.493	1399.56
440.715	1462.56
440.936	1435.56
441.158	1485.56
441.379	1504.56
441.6	1570.56
441.822	1551.56
442.043	1543.56
442.264	1492.56
442.486	1487.56
442.707	1505.56
442.928	1497.56
443.149	1510.56
443.371	1509.56
443.592	1491.56
443.813	1531.56
444.034	1533.56
444.255	1596.56
444.476	1658.56
444.698	1705.56
444.919	1761.56
445.14	1846.56
445.361	1669.56
445.582	1605.56
445.803	1462.56
446.024	1453.56
446.245	1437.56
446.466	1387.56
446.687	1398.56
446.908	1400.56
447.129	1396.56
447.35	1313.56
447.571	1341.56
447.792	1311.56
448.013	1336.56
448.234	1299.56
448.455	1296.56
448.675	1275.56
448.896	1290.56
449.117	1228.56
449.338	1272.56
449.559	1257.56
449.779	1271.56
450	1285.56
450.221	1227.56
450.442	1265.56
450.662	1256.56
450.883	1263.56
451.104	1273.56
451.324	1281.56
451.545	1269.56
451.766	1247.56
451.986	1268.56
452.207	1242.56
452.428	1270.56
452.648	1251.56
452.869	1222.56
453.089	1198.56
453.31	1231.56
453.53	1204.56
453.751	1202.56
453.971	1222.56
454.192	1194.56
454.412	1207.56
454.633	1204.56
454.853	1212.56
455.073	1205.56
455.294	1193.56
455.514	1167.56
455.734	1223.56
455.955	1168.56
456.175	1192.56
456.395	1181.56
456.616	1189.56
456.836	1182.56
457.056	1190.56
457.276	1168.56
457.497	1212.56
457.717	1188.56
457.937	1214.56
458.157	1216.56
458.377	1219.56
458.598	1264.56
458.818	1316.56
459.038	1318.56
459.258	1352.56
459.478	1378.56
459.698	1425.56
459.918	1458.56
460.138	1451.56
460.358	1554.56
460.578	1612.56
460.798	1631.56
461.018	1592.56
461.238	1573.56
461.458	1610.56
461.678	1620.56
461.898	1589.56
462.118	1623.56
462.338	1724.56
462.558	1722.56
462.777	1823.56
462.997	1923.56
463.217	2010.56
463.437	2018.56
463.657	1933.56
463.876	1822.56
464.096	1846.56
464.316	1822.56
464.536	1829.56
464.755	1788.56
464.975	1729.56
465.195	1684.56
465.414	1595.56
465.634	1483.56
465.854	1445.56
466.073	1437.56
466.293	1402.56
466.512	1365.56
466.732	1362.56
466.951	1321.56
467.171	1337.56
467.391	1356.56
467.61	1311.56
467.829	1339.56
468.049	1335.56
468.268	1278.56
468.488	1284.56
468.707	1246.56
468.927	1274.56
469.146	1273.56
469.365	1293.56
469.585	1318.56
469.804	1302.56
470.023	1367.56
470.243	1351.56
470.462	1358.56
470.681	1369.56
470.901	1407.56
471.12	1317.56
471.339	1324.56
471.558	1329.56
471.777	1340.56
471.997	1291.56
472.216	1287.56
472.435	1288.56
472.654	1270.56
472.873	1246.56
473.092	1288.56
473.311	1255.56
473.53	1255.56
473.749	1264.56
473.968	1249.56
474.187	1263.56
474.406	1253.56
474.625	1263.56
474.844	1252.56
475.063	1270.56
475.282	1280.56
475.501	1301.56
475.72	1314.56
475.939	1308.56
476.158	1340.56
476.377	1368.56
476.596	1338.56
476.814	1356.56
477.033	1375.56
477.252	1368.56
477.471	1386.56
477.69	1410.56
477.908	1421.56
478.127	1479.56
478.346	1484.56
478.564	1522.56
478.783	1549.56
479.002	1590.56
479.22	1600.56
479.439	1601.56
479.658	1570.56
479.876	1575.56
480.095	1627.56
480.313	1652.56
480.532	1637.56
480.751	1664.56
480.969	1611.56
481.188	1596.56
481.406	1552.56
481.624	1556.56
481.843	1527.56
482.061	1539.56
482.28	1516.56
482.498	1517.56
482.717	1516.56
482.935	1531.56
483.153	1562.56
483.372	1547.56
483.59	1556.56
483.808	1551.56
484.027	1568.56
484.245	1589.56
484.463	1600.56
484.681	1648.56
484.9	1633.56
485.118	1662.56
485.336	1677.56
485.554	1646.56
485.772	1700.56
485.99	1711.56
486.209	1696.56
486.427	1718.56
486.645	1660.56
486.863	1702.56
487.081	1696.56
487.299	1664.56
487.517	1663.56
487.735	1631.56
487.953	1662.56
488.171	1654.56
488.389	1637.56
488.607	1615.56
488.825	1615.56
489.043	1577.56
489.261	1595.56
489.479	1604.56
489.696	1577.56
489.914	1596.56
490.132	1573.56
490.35	1581.56
490.568	1570.56
490.786	1587.56
491.003	1568.56
491.221	1579.56
491.439	1571.56
491.657	1589.56
491.874	1621.56
