Data from NiCl2@0.5M.TitratingCurve.Agarose3%dH2O.NegLispCup.LampEnergy10.LIBS07252019_HRD10591_18-18-47-571.txt Node
Date: Thu Jul 25 18:18:47 EDT 2019
User: cochatt
Spectrometer: HR+D1059
Trigger mode: 1
Integration Time (sec): 1.000000E-1
Scans to average: 1
Electric dark correction enabled: true
Nonlinearity correction enabled: false
Boxcar width: 0
XAxis mode: Wavelengths
Number of Pixels in Spectrum: 2048
>>>>>Begin Spectral Data<<<<<
223.165	-19.06
223.4	-19.06
223.635	-19.06
223.869	-18.06
224.104	-22.06
224.338	-23.06
224.573	-20.06
224.808	-5.06
225.042	-4.06
225.277	-5.06
225.511	0.94
225.746	2.94
225.98	11.94
226.215	17.94
226.449	21.94
226.683	12.94
226.918	6.94
227.152	40.94
227.387	34.94
227.621	28.94
227.856	45.94
228.09	55.94
228.324	56.94
228.559	58.94
228.793	71.94
229.027	144.94
229.262	156.94
229.496	152.94
229.73	153.94
229.964	166.94
230.199	163.94
230.433	190.94
230.667	170.94
230.901	199.94
231.136	190.94
231.37	200.94
231.604	204.94
231.838	209.94
232.072	197.94
232.306	210.94
232.541	196.94
232.775	204.94
233.009	210.94
233.243	201.94
233.477	188.94
233.711	205.94
233.945	216.94
234.179	210.94
234.413	203.94
234.647	215.94
234.881	205.94
235.115	216.94
235.349	227.94
235.583	222.94
235.817	205.94
236.051	206.94
236.285	228.94
236.519	221.94
236.753	213.94
236.987	224.94
237.221	204.94
237.455	223.94
237.689	235.94
237.922	242.94
238.156	244.94
238.39	227.94
238.624	244.94
238.858	238.94
239.091	251.94
239.325	268.94
239.559	258.94
239.793	264.94
240.027	271.94
240.26	271.94
240.494	269.94
240.728	264.94
240.961	271.94
241.195	267.94
241.429	281.94
241.662	310.94
241.896	298.94
242.13	292.94
242.363	308.94
242.597	301.94
242.83	297.94
243.064	300.94
243.298	295.94
243.531	296.94
243.765	311.94
243.998	330.94
244.232	294.94
244.465	311.94
244.699	306.94
244.932	335.94
245.166	331.94
245.399	343.94
245.633	335.94
245.866	333.94
246.099	317.94
246.333	323.94
246.566	347.94
246.8	327.94
247.033	336.94
247.266	354.94
247.5	329.94
247.733	347.94
247.966	360.94
248.2	362.94
248.433	366.94
248.666	363.94
248.899	373.94
249.133	375.94
249.366	370.94
249.599	378.94
249.832	368.94
250.066	359.94
250.299	376.94
250.532	396.94
250.765	394.94
250.998	407.94
251.231	408.94
251.465	414.94
251.698	395.94
251.931	404.94
252.164	384.94
252.397	394.94
252.63	423.94
252.863	429.94
253.096	422.94
253.329	434.94
253.562	423.94
253.795	429.94
254.028	428.94
254.261	428.94
254.494	428.94
254.727	438.94
254.96	416.94
255.193	440.94
255.426	445.94
255.659	455.94
255.892	462.94
256.124	432.94
256.357	447.94
256.59	469.94
256.823	457.94
257.056	454.94
257.289	456.94
257.521	469.94
257.754	472.94
257.987	483.94
258.22	483.94
258.452	486.94
258.685	481.94
258.918	503.94
259.151	494.94
259.383	502.94
259.616	500.94
259.849	492.94
260.081	495.94
260.314	498.94
260.547	500.94
260.779	501.94
261.012	507.94
261.244	498.94
261.477	514.94
261.71	528.94
261.942	490.94
262.175	537.94
262.407	544.94
262.64	525.94
262.872	538.94
263.105	534.94
263.337	519.94
263.57	513.94
263.802	533.94
264.035	551.94
264.267	551.94
264.499	556.94
264.732	529.94
264.964	574.94
265.197	574.94
265.429	552.94
265.661	570.94
265.894	552.94
266.126	573.94
266.358	563.94
266.591	580.94
266.823	577.94
267.055	558.94
267.287	594.94
267.52	576.94
267.752	565.94
267.984	586.94
268.216	598.94
268.448	610.94
268.681	626.94
268.913	592.94
269.145	589.94
269.377	594.94
269.609	594.94
269.841	591.94
270.073	582.94
270.306	616.94
270.538	605.94
270.77	612.94
271.002	647.94
271.234	632.94
271.466	621.94
271.698	613.94
271.93	653.94
272.162	630.94
272.394	652.94
272.626	613.94
272.858	638.94
273.09	647.94
273.322	645.94
273.553	664.94
273.785	650.94
274.017	662.94
274.249	683.94
274.481	675.94
274.713	668.94
274.945	653.94
275.176	667.94
275.408	667.94
275.64	676.94
275.872	697.94
276.104	682.94
276.335	694.94
276.567	692.94
276.799	678.94
277.031	718.94
277.262	704.94
277.494	688.94
277.726	698.94
277.957	706.94
278.189	711.94
278.421	717.94
278.652	731.94
278.884	731.94
279.115	701.94
279.347	710.94
279.579	739.94
279.81	736.94
280.042	759.94
280.273	750.94
280.505	747.94
280.736	747.94
280.968	742.94
281.199	780.94
281.431	759.94
281.662	763.94
281.894	781.94
282.125	764.94
282.356	778.94
282.588	778.94
282.819	781.94
283.051	771.94
283.282	784.94
283.513	811.94
283.745	790.94
283.976	797.94
284.207	793.94
284.439	780.94
284.67	824.94
284.901	824.94
285.132	811.94
285.364	828.94
285.595	830.94
285.826	839.94
286.057	815.94
286.288	814.94
286.52	821.94
286.751	830.94
286.982	826.94
287.213	832.94
287.444	841.94
287.675	856.94
287.906	855.94
288.138	836.94
288.369	840.94
288.6	846.94
288.831	854.94
289.062	889.94
289.293	842.94
289.524	861.94
289.755	859.94
289.986	842.94
290.217	866.94
290.448	880.94
290.679	892.94
290.91	896.94
291.141	871.94
291.371	875.94
291.602	884.94
291.833	905.94
292.064	854.94
292.295	882.94
292.526	869.94
292.757	863.94
292.987	877.94
293.218	869.94
293.449	907.94
293.68	894.94
293.91	891.94
294.141	870.94
294.372	899.94
294.603	887.94
294.833	898.94
295.064	895.94
295.295	911.94
295.525	890.94
295.756	897.94
295.987	886.94
296.217	900.94
296.448	920.94
296.679	918.94
296.909	910.94
297.14	929.94
297.37	933.94
297.601	942.94
297.831	934.94
298.062	942.94
298.292	935.94
298.523	969.94
298.753	982.94
298.984	951.94
299.214	978.94
299.445	985.94
299.675	988.94
299.905	993.94
300.136	972.94
300.366	1004.94
300.597	1029.94
300.827	1006.94
301.057	1002.94
301.288	1023.94
301.518	1052.94
301.748	1030.94
301.979	1007.94
302.209	993.94
302.439	1022.94
302.669	1009.94
302.9	995.94
303.13	995.94
303.36	1012.94
303.59	1028.94
303.82	1012.94
304.051	1063.94
304.281	1018.94
304.511	1002.94
304.741	1028.94
304.971	1040.94
305.201	1067.94
305.431	1046.94
305.661	1062.94
305.891	1052.94
306.121	1014.94
306.352	1034.94
306.582	1005.94
306.812	998.94
307.042	1019.94
307.272	984.94
307.502	990.94
307.731	975.94
307.961	981.94
308.191	1029.94
308.421	1027.94
308.651	1039.94
308.881	987.94
309.111	986.94
309.341	1026.94
309.571	1028.94
309.8	1031.94
310.03	1056.94
310.26	1087.94
310.49	1124.94
310.72	1067.94
310.949	1033.94
311.179	997.94
311.409	1008.94
311.639	1017.94
311.868	1046.94
312.098	1060.94
312.328	1044.94
312.557	1055.94
312.787	1037.94
313.017	1047.94
313.246	1069.94
313.476	1117.94
313.706	1086.94
313.935	1117.94
314.165	1094.94
314.394	1064.94
314.624	1096.94
314.853	1058.94
315.083	1060.94
315.312	1085.94
315.542	1082.94
315.771	1110.94
316.001	1064.94
316.23	1072.94
316.46	1098.94
316.689	1087.94
316.919	1077.94
317.148	1090.94
317.377	1076.94
317.607	1076.94
317.836	1062.94
318.065	1063.94
318.295	1061.94
318.524	1066.94
318.753	1061.94
318.983	1075.94
319.212	1070.94
319.441	1087.94
319.67	1062.94
319.9	1074.94
320.129	1070.94
320.358	1058.94
320.587	1059.94
320.816	1090.94
321.046	1087.94
321.275	1071.94
321.504	1093.94
321.733	1069.94
321.962	1098.94
322.191	1093.94
322.42	1094.94
322.649	1109.94
322.878	1104.94
323.108	1118.94
323.337	1143.94
323.566	1158.94
323.795	1144.94
324.024	1138.94
324.253	1138.94
324.482	1134.94
324.71	1122.94
324.939	1126.94
325.168	1127.94
325.397	1131.94
325.626	1126.94
325.855	1126.94
326.084	1171.94
326.313	1184.94
326.542	1172.94
326.77	1190.94
326.999	1165.94
327.228	1175.94
327.457	1187.94
327.686	1132.94
327.914	1174.94
328.143	1157.94
328.372	1158.94
328.6	1178.94
328.829	1220.94
329.058	1160.94
329.287	1174.94
329.515	1211.94
329.744	1208.94
329.972	1191.94
330.201	1207.94
330.43	1195.94
330.658	1204.94
330.887	1218.94
331.115	1227.94
331.344	1249.94
331.572	1259.94
331.801	1300.94
332.03	1345.94
332.258	1332.94
332.486	1378.94
332.715	1356.94
332.943	1419.94
333.172	1437.94
333.4	1498.94
333.629	1498.94
333.857	1534.94
334.085	1524.94
334.314	1524.94
334.542	1507.94
334.771	1493.94
334.999	1472.94
335.227	1488.94
335.455	1458.94
335.684	1454.94
335.912	1453.94
336.14	1464.94
336.369	1492.94
336.597	1495.94
336.825	1501.94
337.053	1474.94
337.281	1433.94
337.51	1382.94
337.738	1388.94
337.966	1373.94
338.194	1410.94
338.422	1370.94
338.65	1332.94
338.878	1291.94
339.106	1347.94
339.334	1400.94
339.562	1377.94
339.79	1254.94
340.018	1227.94
340.246	1211.94
340.474	1223.94
340.702	1277.94
340.93	1260.94
341.158	1258.94
341.386	1286.94
341.614	1400.94
341.842	1352.94
342.07	1232.94
342.298	1220.94
342.526	1268.94
342.754	1263.94
342.981	1238.94
343.209	1300.94
343.437	1350.94
343.665	1418.94
343.893	1462.94
344.12	1537.94
344.348	1448.94
344.576	1424.94
344.804	1412.94
345.031	1372.94
345.259	1298.94
345.487	1282.94
345.714	1331.94
345.942	1319.94
346.17	1368.94
346.397	1346.94
346.625	1216.94
346.853	1172.94
347.08	1197.94
347.308	1232.94
347.535	1251.94
347.763	1221.94
347.99	1158.94
348.218	1173.94
348.445	1181.94
348.673	1207.94
348.9	1200.94
349.128	1206.94
349.355	1261.94
349.583	1240.94
349.81	1176.94
350.037	1144.94
350.265	1175.94
350.492	1160.94
350.72	1147.94
350.947	1128.94
351.174	1228.94
351.402	1233.94
351.629	1268.94
351.856	1258.94
352.083	1164.94
352.311	1183.94
352.538	1252.94
352.765	1266.94
352.992	1162.94
353.22	1132.94
353.447	1107.94
353.674	1139.94
353.901	1087.94
354.128	1108.94
354.355	1087.94
354.583	1122.94
354.81	1140.94
355.037	1139.94
355.264	1140.94
355.491	1116.94
355.718	1122.94
355.945	1122.94
356.172	1116.94
356.399	1144.94
356.626	1181.94
356.853	1235.94
357.08	1160.94
357.307	1142.94
357.534	1142.94
357.761	1118.94
357.988	1114.94
358.215	1125.94
358.441	1128.94
358.668	1124.94
358.895	1107.94
359.122	1118.94
359.349	1140.94
359.576	1143.94
359.802	1160.94
360.029	1167.94
360.256	1175.94
360.483	1106.94
360.709	1116.94
360.936	1174.94
361.163	1174.94
361.39	1196.94
361.616	1173.94
361.843	1202.94
362.07	1269.94
362.296	1250.94
362.523	1156.94
362.749	1129.94
362.976	1144.94
363.203	1114.94
363.429	1092.94
363.656	1095.94
363.882	1114.94
364.109	1101.94
364.335	1127.94
364.562	1112.94
364.788	1082.94
365.015	1124.94
365.241	1098.94
365.468	1120.94
365.694	1065.94
365.92	1107.94
366.147	1126.94
366.373	1112.94
366.599	1108.94
366.826	1107.94
367.052	1120.94
367.278	1132.94
367.505	1101.94
367.731	1131.94
367.957	1101.94
368.184	1100.94
368.41	1130.94
368.636	1097.94
368.862	1123.94
369.089	1123.94
369.315	1156.94
369.541	1142.94
369.767	1120.94
369.993	1151.94
370.219	1144.94
370.445	1135.94
370.672	1178.94
370.898	1165.94
371.124	1172.94
371.35	1191.94
371.576	1167.94
371.802	1190.94
372.028	1183.94
372.254	1186.94
372.48	1179.94
372.706	1209.94
372.932	1232.94
373.158	1185.94
373.384	1197.94
373.61	1227.94
373.835	1188.94
374.061	1203.94
374.287	1198.94
374.513	1219.94
374.739	1250.94
374.965	1274.94
375.191	1299.94
375.416	1282.94
375.642	1287.94
375.868	1259.94
376.094	1257.94
376.319	1237.94
376.545	1216.94
376.771	1195.94
376.997	1170.94
377.222	1200.94
377.448	1190.94
377.674	1220.94
377.899	1198.94
378.125	1169.94
378.35	1178.94
378.576	1181.94
378.802	1168.94
379.027	1168.94
379.253	1174.94
379.478	1164.94
379.704	1167.94
379.929	1166.94
380.155	1176.94
380.38	1188.94
380.606	1180.94
380.831	1171.94
381.057	1204.94
381.282	1158.94
381.507	1192.94
381.733	1194.94
381.958	1202.94
382.184	1177.94
382.409	1220.94
382.634	1227.94
382.86	1223.94
383.085	1254.94
383.31	1246.94
383.535	1271.94
383.761	1301.94
383.986	1306.94
384.211	1335.94
384.436	1357.94
384.662	1352.94
384.887	1396.94
385.112	1373.94
385.337	1425.94
385.562	1424.94
385.787	1419.94
386.013	1500.94
386.238	1415.94
386.463	1433.94
386.688	1417.94
386.913	1370.94
387.138	1420.94
387.363	1395.94
387.588	1376.94
387.813	1393.94
388.038	1428.94
388.263	1401.94
388.488	1403.94
388.713	1416.94
388.938	1413.94
389.163	1396.94
389.387	1389.94
389.612	1378.94
389.837	1398.94
390.062	1369.94
390.287	1394.94
390.512	1374.94
390.736	1422.94
390.961	1438.94
391.186	1434.94
391.411	1471.94
391.636	1501.94
391.86	1552.94
392.085	1567.94
392.31	1610.94
392.534	1542.94
392.759	1510.94
392.984	1507.94
393.208	1464.94
393.433	1500.94
393.658	1486.94
393.882	1480.94
394.107	1476.94
394.331	1503.94
394.556	1502.94
394.78	1533.94
395.005	1517.94
395.229	1503.94
395.454	1552.94
395.678	1560.94
395.903	1581.94
396.127	1570.94
396.352	1526.94
396.576	1470.94
396.801	1490.94
397.025	1524.94
397.249	1544.94
397.474	1582.94
397.698	1609.94
397.922	1600.94
398.147	1583.94
398.371	1657.94
398.595	1674.94
398.82	1775.94
399.044	1886.94
399.268	2007.94
399.492	2307.94
399.717	2508.94
399.941	2503.94
400.165	2320.94
400.389	2145.94
400.613	1976.94
400.837	1864.94
401.062	1826.94
401.286	1778.94
401.51	1774.94
401.734	1757.94
401.958	1784.94
402.182	1804.94
402.406	1806.94
402.63	1849.94
402.854	1860.94
403.078	1859.94
403.302	1906.94
403.526	1945.94
403.75	1961.94
403.974	1965.94
404.198	1965.94
404.422	1980.94
404.645	1967.94
404.869	1970.94
405.093	1944.94
405.317	1930.94
405.541	1980.94
405.765	1954.94
405.988	1922.94
406.212	1945.94
406.436	1945.94
406.66	1976.94
406.883	1999.94
407.107	2093.94
407.331	2182.94
407.555	2274.94
407.778	2234.94
408.002	2167.94
408.226	2141.94
408.449	2090.94
408.673	2000.94
408.896	1964.94
409.12	1978.94
409.344	2023.94
409.567	1973.94
409.791	1982.94
410.014	1949.94
410.238	1865.94
410.461	1917.94
410.685	1906.94
410.908	1877.94
411.132	1911.94
411.355	1846.94
411.578	1812.94
411.802	1804.94
412.025	1839.94
412.249	1883.94
412.472	1866.94
412.695	1825.94
412.919	1799.94
413.142	1781.94
413.365	1728.94
413.589	1784.94
413.812	1773.94
414.035	1727.94
414.258	1764.94
414.482	1808.94
414.705	1795.94
414.928	1800.94
415.151	1790.94
415.374	1766.94
415.597	1766.94
415.821	1758.94
416.044	1707.94
416.267	1728.94
416.49	1704.94
416.713	1696.94
416.936	1730.94
417.159	1720.94
417.382	1729.94
417.605	1721.94
417.828	1734.94
418.051	1743.94
418.274	1739.94
418.497	1722.94
418.72	1772.94
418.943	1778.94
419.166	1921.94
419.389	1952.94
419.611	1941.94
419.834	1903.94
420.057	1861.94
420.28	1802.94
420.503	1722.94
420.726	1716.94
420.948	1720.94
421.171	1734.94
421.394	1760.94
421.617	1730.94
421.839	1782.94
422.062	1780.94
422.285	1703.94
422.507	1780.94
422.73	1762.94
422.953	1782.94
423.175	1796.94
423.398	1816.94
423.621	1853.94
423.843	1811.94
424.066	1822.94
424.288	1834.94
424.511	1813.94
424.733	1808.94
424.956	1798.94
425.178	1772.94
425.401	1768.94
425.623	1748.94
425.846	1670.94
426.068	1693.94
426.291	1710.94
426.513	1696.94
426.735	1667.94
426.958	1636.94
427.18	1633.94
427.402	1635.94
427.625	1637.94
427.847	1607.94
428.069	1579.94
428.292	1580.94
428.514	1582.94
428.736	1552.94
428.958	1579.94
429.181	1584.94
429.403	1566.94
429.625	1557.94
429.847	1520.94
430.069	1539.94
430.292	1558.94
430.514	1546.94
430.736	1555.94
430.958	1546.94
431.18	1575.94
431.402	1554.94
431.624	1579.94
431.846	1596.94
432.068	1606.94
432.29	1652.94
432.512	1538.94
432.734	1612.94
432.956	1569.94
433.178	1608.94
433.4	1620.94
433.622	1584.94
433.844	1616.94
434.066	1621.94
434.287	1667.94
434.509	1720.94
434.731	1768.94
434.953	1806.94
435.175	1800.94
435.397	1756.94
435.618	1677.94
435.84	1676.94
436.062	1637.94
436.284	1583.94
436.505	1590.94
436.727	1596.94
436.949	1605.94
437.17	1580.94
437.392	1577.94
437.614	1567.94
437.835	1501.94
438.057	1518.94
438.278	1511.94
438.5	1535.94
438.721	1532.94
438.943	1552.94
439.165	1529.94
439.386	1545.94
439.608	1559.94
439.829	1620.94
440.05	1592.94
440.272	1592.94
440.493	1638.94
440.715	1629.94
440.936	1617.94
441.158	1682.94
441.379	1728.94
441.6	1767.94
441.822	1767.94
442.043	1797.94
442.264	1750.94
442.486	1691.94
442.707	1733.94
442.928	1702.94
443.149	1700.94
443.371	1715.94
443.592	1786.94
443.813	1826.94
444.034	1800.94
444.255	1843.94
444.476	1865.94
444.698	2032.94
444.919	2046.94
445.14	2122.94
445.361	1920.94
445.582	1852.94
445.803	1750.94
446.024	1707.94
446.245	1630.94
446.466	1639.94
446.687	1624.94
446.908	1584.94
447.129	1580.94
447.35	1567.94
447.571	1546.94
447.792	1522.94
448.013	1498.94
448.234	1459.94
448.455	1408.94
448.675	1486.94
448.896	1477.94
449.117	1452.94
449.338	1430.94
449.559	1439.94
449.779	1426.94
450	1416.94
450.221	1454.94
450.442	1454.94
450.662	1485.94
450.883	1490.94
451.104	1480.94
451.324	1464.94
451.545	1475.94
451.766	1472.94
451.986	1459.94
452.207	1448.94
452.428	1428.94
452.648	1410.94
452.869	1402.94
453.089	1395.94
453.31	1421.94
453.53	1367.94
453.751	1382.94
453.971	1404.94
454.192	1405.94
454.412	1381.94
454.633	1385.94
454.853	1401.94
455.073	1387.94
455.294	1367.94
455.514	1351.94
455.734	1360.94
455.955	1362.94
456.175	1346.94
456.395	1345.94
456.616	1337.94
456.836	1384.94
457.056	1374.94
457.276	1339.94
457.497	1359.94
457.717	1357.94
457.937	1368.94
458.157	1405.94
458.377	1380.94
458.598	1445.94
458.818	1488.94
459.038	1501.94
459.258	1569.94
459.478	1614.94
459.698	1664.94
459.918	1714.94
460.138	1763.94
460.358	1819.94
460.578	1850.94
460.798	1886.94
461.018	1918.94
461.238	1886.94
461.458	1887.94
461.678	1839.94
461.898	1893.94
462.118	1917.94
462.338	1993.94
462.558	2074.94
462.777	2118.94
462.997	2287.94
463.217	2390.94
463.437	2386.94
463.657	2271.94
463.876	2208.94
464.096	2191.94
464.316	2180.94
464.536	2143.94
464.755	2114.94
464.975	2043.94
465.195	1925.94
465.414	1848.94
465.634	1726.94
465.854	1690.94
466.073	1670.94
466.293	1629.94
466.512	1599.94
466.732	1617.94
466.951	1532.94
467.171	1542.94
467.391	1548.94
467.61	1562.94
467.829	1492.94
468.049	1554.94
468.268	1482.94
468.488	1487.94
468.707	1483.94
468.927	1502.94
469.146	1462.94
469.365	1503.94
469.585	1508.94
469.804	1551.94
470.023	1543.94
470.243	1598.94
470.462	1576.94
470.681	1615.94
470.901	1580.94
471.12	1590.94
471.339	1540.94
471.558	1554.94
471.777	1544.94
471.997	1532.94
472.216	1483.94
472.435	1475.94
472.654	1472.94
472.873	1464.94
473.092	1475.94
473.311	1472.94
473.53	1448.94
473.749	1463.94
473.968	1454.94
474.187	1452.94
474.406	1470.94
474.625	1449.94
474.844	1440.94
475.063	1458.94
475.282	1497.94
475.501	1471.94
475.72	1493.94
475.939	1512.94
476.158	1522.94
476.377	1553.94
476.596	1553.94
476.814	1550.94
477.033	1599.94
477.252	1590.94
477.471	1636.94
477.69	1670.94
477.908	1698.94
478.127	1761.94
478.346	1765.94
478.564	1811.94
478.783	1816.94
479.002	1841.94
479.22	1864.94
479.439	1833.94
479.658	1852.94
479.876	1846.94
480.095	1895.94
480.313	1909.94
480.532	1980.94
480.751	1956.94
480.969	1906.94
481.188	1808.94
481.406	1778.94
481.624	1803.94
481.843	1710.94
482.061	1747.94
482.28	1734.94
482.498	1742.94
482.717	1707.94
482.935	1742.94
483.153	1754.94
483.372	1733.94
483.59	1761.94
483.808	1742.94
484.027	1736.94
484.245	1734.94
484.463	1762.94
484.681	1795.94
484.9	1802.94
485.118	1813.94
485.336	1784.94
485.554	1803.94
485.772	1807.94
485.99	1823.94
486.209	1868.94
486.427	1808.94
486.645	1820.94
486.863	1853.94
487.081	1813.94
487.299	1824.94
487.517	1814.94
487.735	1793.94
487.953	1856.94
488.171	1817.94
488.389	1814.94
488.607	1805.94
488.825	1758.94
489.043	1782.94
489.261	1794.94
489.479	1798.94
489.696	1808.94
489.914	1831.94
490.132	1773.94
