Data from NiCl2@0.0625M.TitratingCurve.Agarose3%dH2O.NegLispCup.LampEnergy10.LIBS07252019_HRD10591_18-33-35-576.txt Node
Date: Thu Jul 25 18:33:35 EDT 2019
User: cochatt
Spectrometer: HR+D1059
Trigger mode: 1
Integration Time (sec): 1.000000E-1
Scans to average: 1
Electric dark correction enabled: true
Nonlinearity correction enabled: false
Boxcar width: 0
XAxis mode: Wavelengths
Number of Pixels in Spectrum: 2048
>>>>>Begin Spectral Data<<<<<
223.165	-19.75
223.4	-19.75
223.635	-19.75
223.869	-22.75
224.104	-22.75
224.338	-10.75
224.573	-4.75
224.808	-18.75
225.042	-15.75
225.277	-11.75
225.511	-1.75
225.746	10.25
225.98	7.25
226.215	12.25
226.449	21.25
226.683	22.25
226.918	22.25
227.152	33.25
227.387	31.25
227.621	41.25
227.856	42.25
228.09	33.25
228.324	56.25
228.559	57.25
228.793	75.25
229.027	143.25
229.262	154.25
229.496	172.25
229.73	186.25
229.964	197.25
230.199	193.25
230.433	196.25
230.667	188.25
230.901	188.25
231.136	191.25
231.37	186.25
231.604	170.25
231.838	212.25
232.072	196.25
232.306	212.25
232.541	211.25
232.775	213.25
233.009	215.25
233.243	213.25
233.477	206.25
233.711	218.25
233.945	232.25
234.179	215.25
234.413	222.25
234.647	220.25
234.881	232.25
235.115	221.25
235.349	241.25
235.583	236.25
235.817	208.25
236.051	211.25
236.285	231.25
236.519	228.25
236.753	245.25
236.987	230.25
237.221	237.25
237.455	228.25
237.689	235.25
237.922	256.25
238.156	250.25
238.39	252.25
238.624	253.25
238.858	256.25
239.091	262.25
239.325	274.25
239.559	280.25
239.793	284.25
240.027	257.25
240.26	278.25
240.494	282.25
240.728	286.25
240.961	283.25
241.195	276.25
241.429	296.25
241.662	298.25
241.896	290.25
242.13	297.25
242.363	289.25
242.597	313.25
242.83	315.25
243.064	315.25
243.298	316.25
243.531	322.25
243.765	334.25
243.998	327.25
244.232	333.25
244.465	327.25
244.699	330.25
244.932	348.25
245.166	360.25
245.399	369.25
245.633	356.25
245.866	358.25
246.099	354.25
246.333	345.25
246.566	364.25
246.8	370.25
247.033	368.25
247.266	375.25
247.5	353.25
247.733	382.25
247.966	386.25
248.2	425.25
248.433	404.25
248.666	385.25
248.899	378.25
249.133	386.25
249.366	412.25
249.599	396.25
249.832	378.25
250.066	416.25
250.299	425.25
250.532	406.25
250.765	417.25
250.998	429.25
251.231	419.25
251.465	438.25
251.698	436.25
251.931	408.25
252.164	405.25
252.397	451.25
252.63	441.25
252.863	448.25
253.096	454.25
253.329	458.25
253.562	456.25
253.795	465.25
254.028	460.25
254.261	468.25
254.494	463.25
254.727	468.25
254.96	476.25
255.193	476.25
255.426	497.25
255.659	476.25
255.892	471.25
256.124	489.25
256.357	481.25
256.59	488.25
256.823	493.25
257.056	499.25
257.289	483.25
257.521	492.25
257.754	509.25
257.987	522.25
258.22	514.25
258.452	508.25
258.685	525.25
258.918	509.25
259.151	527.25
259.383	523.25
259.616	525.25
259.849	529.25
260.081	536.25
260.314	538.25
260.547	537.25
260.779	548.25
261.012	558.25
261.244	587.25
261.477	564.25
261.71	582.25
261.942	575.25
262.175	564.25
262.407	549.25
262.64	553.25
262.872	569.25
263.105	578.25
263.337	575.25
263.57	592.25
263.802	586.25
264.035	576.25
264.267	580.25
264.499	583.25
264.732	593.25
264.964	588.25
265.197	593.25
265.429	600.25
265.661	602.25
265.894	600.25
266.126	609.25
266.358	587.25
266.591	624.25
266.823	639.25
267.055	603.25
267.287	610.25
267.52	610.25
267.752	628.25
267.984	629.25
268.216	655.25
268.448	628.25
268.681	641.25
268.913	629.25
269.145	637.25
269.377	643.25
269.609	640.25
269.841	643.25
270.073	644.25
270.306	655.25
270.538	661.25
270.77	650.25
271.002	652.25
271.234	640.25
271.466	662.25
271.698	673.25
271.93	670.25
272.162	675.25
272.394	669.25
272.626	667.25
272.858	711.25
273.09	696.25
273.322	700.25
273.553	689.25
273.785	712.25
274.017	731.25
274.249	717.25
274.481	704.25
274.713	724.25
274.945	722.25
275.176	725.25
275.408	743.25
275.64	733.25
275.872	740.25
276.104	741.25
276.335	758.25
276.567	762.25
276.799	760.25
277.031	787.25
277.262	746.25
277.494	759.25
277.726	738.25
277.957	772.25
278.189	769.25
278.421	760.25
278.652	756.25
278.884	776.25
279.115	772.25
279.347	785.25
279.579	793.25
279.81	786.25
280.042	764.25
280.273	792.25
280.505	798.25
280.736	802.25
280.968	806.25
281.199	809.25
281.431	816.25
281.662	818.25
281.894	811.25
282.125	832.25
282.356	847.25
282.588	808.25
282.819	822.25
283.051	836.25
283.282	856.25
283.513	852.25
283.745	841.25
283.976	828.25
284.207	884.25
284.439	861.25
284.67	845.25
284.901	857.25
285.132	884.25
285.364	884.25
285.595	864.25
285.826	882.25
286.057	868.25
286.288	873.25
286.52	866.25
286.751	868.25
286.982	877.25
287.213	885.25
287.444	871.25
287.675	896.25
287.906	892.25
288.138	911.25
288.369	907.25
288.6	923.25
288.831	922.25
289.062	902.25
289.293	914.25
289.524	913.25
289.755	901.25
289.986	883.25
290.217	913.25
290.448	933.25
290.679	913.25
290.91	929.25
291.141	902.25
291.371	923.25
291.602	918.25
291.833	945.25
292.064	933.25
292.295	922.25
292.526	925.25
292.757	919.25
292.987	912.25
293.218	901.25
293.449	927.25
293.68	928.25
293.91	967.25
294.141	941.25
294.372	896.25
294.603	942.25
294.833	936.25
295.064	945.25
295.295	942.25
295.525	925.25
295.756	956.25
295.987	939.25
296.217	984.25
296.448	978.25
296.679	963.25
296.909	966.25
297.14	987.25
297.37	996.25
297.601	979.25
297.831	999.25
298.062	1002.25
298.292	969.25
298.523	1027.25
298.753	1029.25
298.984	988.25
299.214	1022.25
299.445	997.25
299.675	1019.25
299.905	995.25
300.136	971.25
300.366	1020.25
300.597	985.25
300.827	1033.25
301.057	1067.25
301.288	1037.25
301.518	1058.25
301.748	1056.25
301.979	1046.25
302.209	1080.25
302.439	1047.25
302.669	1027.25
302.9	1051.25
303.13	1044.25
303.36	1043.25
303.59	1032.25
303.82	1050.25
304.051	1046.25
304.281	1083.25
304.511	1050.25
304.741	1067.25
304.971	1032.25
305.201	1062.25
305.431	1069.25
305.661	1063.25
305.891	1039.25
306.121	1027.25
306.352	1020.25
306.582	1041.25
306.812	1052.25
307.042	1042.25
307.272	1025.25
307.502	1024.25
307.731	1063.25
307.961	1059.25
308.191	1026.25
308.421	1056.25
308.651	1044.25
308.881	1068.25
309.111	1055.25
309.341	1044.25
309.571	1088.25
309.8	1075.25
310.03	1063.25
310.26	1048.25
310.49	1033.25
310.72	1044.25
310.949	1069.25
311.179	1070.25
311.409	1061.25
311.639	1062.25
311.868	1085.25
312.098	1113.25
312.328	1088.25
312.557	1099.25
312.787	1082.25
313.017	1114.25
313.246	1111.25
313.476	1096.25
313.706	1133.25
313.935	1143.25
314.165	1128.25
314.394	1150.25
314.624	1122.25
314.853	1144.25
315.083	1125.25
315.312	1146.25
315.542	1139.25
315.771	1118.25
316.001	1124.25
316.23	1122.25
316.46	1117.25
316.689	1159.25
316.919	1108.25
317.148	1123.25
317.377	1170.25
317.607	1121.25
317.836	1108.25
318.065	1131.25
318.295	1137.25
318.524	1136.25
318.753	1108.25
318.983	1103.25
319.212	1117.25
319.441	1112.25
319.67	1115.25
319.9	1136.25
320.129	1111.25
320.358	1123.25
320.587	1139.25
320.816	1127.25
321.046	1140.25
321.275	1152.25
321.504	1128.25
321.733	1111.25
321.962	1142.25
322.191	1141.25
322.42	1149.25
322.649	1148.25
322.878	1148.25
323.108	1148.25
323.337	1133.25
323.566	1132.25
323.795	1195.25
324.024	1193.25
324.253	1188.25
324.482	1174.25
324.71	1162.25
324.939	1150.25
325.168	1191.25
325.397	1146.25
325.626	1204.25
325.855	1206.25
326.084	1225.25
326.313	1230.25
326.542	1217.25
326.77	1261.25
326.999	1232.25
327.228	1207.25
327.457	1173.25
327.686	1209.25
327.914	1216.25
328.143	1186.25
328.372	1226.25
328.6	1225.25
328.829	1230.25
329.058	1275.25
329.287	1226.25
329.515	1210.25
329.744	1229.25
329.972	1276.25
330.201	1260.25
330.43	1284.25
330.658	1243.25
330.887	1255.25
331.115	1277.25
331.344	1297.25
331.572	1296.25
331.801	1330.25
332.03	1344.25
332.258	1372.25
332.486	1357.25
332.715	1420.25
332.943	1425.25
333.172	1462.25
333.4	1508.25
333.629	1491.25
333.857	1562.25
334.085	1570.25
334.314	1543.25
334.542	1550.25
334.771	1521.25
334.999	1525.25
335.227	1505.25
335.455	1517.25
335.684	1484.25
335.912	1512.25
336.14	1482.25
336.369	1488.25
336.597	1475.25
336.825	1467.25
337.053	1468.25
337.281	1445.25
337.51	1430.25
337.738	1456.25
337.966	1398.25
338.194	1392.25
338.422	1373.25
338.65	1332.25
338.878	1351.25
339.106	1360.25
339.334	1370.25
339.562	1338.25
339.79	1320.25
340.018	1304.25
340.246	1283.25
340.474	1304.25
340.702	1293.25
340.93	1301.25
341.158	1310.25
341.386	1301.25
341.614	1315.25
341.842	1284.25
342.07	1248.25
342.298	1289.25
342.526	1263.25
342.754	1284.25
342.981	1289.25
343.209	1296.25
343.437	1384.25
343.665	1427.25
343.893	1478.25
344.12	1509.25
344.348	1460.25
344.576	1435.25
344.804	1397.25
345.031	1354.25
345.259	1346.25
345.487	1275.25
345.714	1287.25
345.942	1269.25
346.17	1314.25
346.397	1275.25
346.625	1252.25
346.853	1266.25
347.08	1256.25
347.308	1209.25
347.535	1238.25
347.763	1267.25
347.99	1227.25
348.218	1234.25
348.445	1223.25
348.673	1222.25
348.9	1220.25
349.128	1249.25
349.355	1240.25
349.583	1211.25
349.81	1222.25
350.037	1181.25
350.265	1226.25
350.492	1198.25
350.72	1206.25
350.947	1224.25
351.174	1201.25
351.402	1226.25
351.629	1220.25
351.856	1180.25
352.083	1194.25
352.311	1165.25
352.538	1187.25
352.765	1196.25
352.992	1203.25
353.22	1191.25
353.447	1193.25
353.674	1186.25
353.901	1196.25
354.128	1187.25
354.355	1167.25
354.583	1213.25
354.81	1169.25
355.037	1219.25
355.264	1193.25
355.491	1183.25
355.718	1191.25
355.945	1216.25
356.172	1197.25
356.399	1202.25
356.626	1210.25
356.853	1197.25
357.08	1174.25
357.307	1218.25
357.534	1208.25
357.761	1176.25
357.988	1207.25
358.215	1148.25
358.441	1189.25
358.668	1200.25
358.895	1210.25
359.122	1193.25
359.349	1212.25
359.576	1172.25
359.802	1158.25
360.029	1195.25
360.256	1214.25
360.483	1197.25
360.709	1160.25
360.936	1208.25
361.163	1222.25
361.39	1202.25
361.616	1211.25
361.843	1202.25
362.07	1219.25
362.296	1232.25
362.523	1207.25
362.749	1226.25
362.976	1208.25
363.203	1189.25
363.429	1213.25
363.656	1190.25
363.882	1198.25
364.109	1195.25
364.335	1212.25
364.562	1201.25
364.788	1221.25
365.015	1238.25
365.241	1225.25
365.468	1203.25
365.694	1180.25
365.92	1229.25
366.147	1176.25
366.373	1202.25
366.599	1197.25
366.826	1225.25
367.052	1192.25
367.278	1197.25
367.505	1211.25
367.731	1220.25
367.957	1225.25
368.184	1226.25
368.41	1256.25
368.636	1226.25
368.862	1213.25
369.089	1213.25
369.315	1256.25
369.541	1271.25
369.767	1244.25
369.993	1233.25
370.219	1244.25
370.445	1246.25
370.672	1250.25
370.898	1295.25
371.124	1237.25
371.35	1274.25
371.576	1316.25
371.802	1269.25
372.028	1316.25
372.254	1307.25
372.48	1298.25
372.706	1312.25
372.932	1308.25
373.158	1352.25
373.384	1338.25
373.61	1333.25
373.835	1273.25
374.061	1293.25
374.287	1327.25
374.513	1316.25
374.739	1388.25
374.965	1436.25
375.191	1434.25
375.416	1399.25
375.642	1401.25
375.868	1383.25
376.094	1337.25
376.319	1364.25
376.545	1346.25
376.771	1312.25
376.997	1255.25
377.222	1304.25
377.448	1259.25
377.674	1290.25
377.899	1256.25
378.125	1295.25
378.35	1283.25
378.576	1298.25
378.802	1300.25
379.027	1309.25
379.253	1269.25
379.478	1272.25
379.704	1245.25
379.929	1300.25
380.155	1298.25
380.38	1286.25
380.606	1292.25
380.831	1252.25
381.057	1288.25
381.282	1299.25
381.507	1311.25
381.733	1287.25
381.958	1294.25
382.184	1324.25
382.409	1319.25
382.634	1345.25
382.86	1336.25
383.085	1392.25
383.31	1345.25
383.535	1375.25
383.761	1388.25
383.986	1449.25
384.211	1450.25
384.436	1483.25
384.662	1447.25
384.887	1487.25
385.112	1511.25
385.337	1542.25
385.562	1558.25
385.787	1536.25
386.013	1562.25
386.238	1558.25
386.463	1580.25
386.688	1515.25
386.913	1524.25
387.138	1541.25
387.363	1527.25
387.588	1521.25
387.813	1536.25
388.038	1529.25
388.263	1548.25
388.488	1525.25
388.713	1543.25
388.938	1510.25
389.163	1540.25
389.387	1514.25
389.612	1512.25
389.837	1506.25
390.062	1515.25
390.287	1539.25
390.512	1545.25
390.736	1534.25
390.961	1574.25
391.186	1576.25
391.411	1630.25
391.636	1625.25
391.86	1642.25
392.085	1671.25
392.31	1707.25
392.534	1672.25
392.759	1635.25
392.984	1624.25
393.208	1630.25
393.433	1652.25
393.658	1650.25
393.882	1600.25
394.107	1623.25
394.331	1657.25
394.556	1612.25
394.78	1658.25
395.005	1648.25
395.229	1657.25
395.454	1683.25
395.678	1726.25
395.903	1725.25
396.127	1710.25
396.352	1650.25
396.576	1669.25
396.801	1625.25
397.025	1670.25
397.249	1716.25
397.474	1712.25
397.698	1683.25
397.922	1752.25
398.147	1732.25
398.371	1758.25
398.595	1768.25
398.82	1916.25
399.044	1962.25
399.268	2108.25
399.492	2380.25
399.717	2589.25
399.941	2623.25
400.165	2412.25
400.389	2246.25
400.613	2104.25
400.837	2038.25
401.062	1946.25
401.286	1946.25
401.51	1924.25
401.734	1912.25
401.958	1909.25
402.182	1954.25
402.406	1909.25
402.63	1932.25
402.854	1977.25
403.078	1959.25
403.302	2008.25
403.526	2009.25
403.75	2057.25
403.974	2092.25
404.198	2081.25
404.422	2046.25
404.645	2036.25
404.869	2059.25
405.093	2056.25
405.317	2062.25
405.541	2012.25
405.765	2025.25
405.988	2005.25
406.212	2032.25
406.436	2070.25
406.66	2081.25
406.883	2126.25
407.107	2260.25
407.331	2345.25
407.555	2388.25
407.778	2339.25
408.002	2365.25
408.226	2324.25
408.449	2226.25
408.673	2189.25
408.896	2176.25
409.12	2145.25
409.344	2146.25
409.567	2098.25
409.791	2127.25
410.014	2087.25
410.238	2037.25
410.461	2072.25
410.685	2101.25
410.908	2070.25
411.132	2030.25
411.355	1960.25
411.578	1970.25
411.802	1970.25
412.025	1946.25
412.249	2019.25
412.472	1990.25
412.695	1943.25
412.919	1942.25
413.142	1917.25
413.365	1869.25
413.589	1935.25
413.812	1884.25
414.035	1904.25
414.258	1908.25
414.482	1881.25
414.705	1946.25
414.928	1940.25
415.151	1921.25
415.374	1889.25
415.597	1920.25
415.821	1872.25
416.044	1833.25
416.267	1843.25
416.49	1800.25
416.713	1816.25
416.936	1842.25
417.159	1794.25
417.382	1821.25
417.605	1792.25
417.828	1818.25
418.051	1829.25
418.274	1822.25
418.497	1828.25
418.72	1901.25
418.943	1874.25
419.166	1939.25
419.389	2072.25
419.611	2075.25
419.834	1972.25
420.057	1936.25
420.28	1854.25
420.503	1845.25
420.726	1804.25
420.948	1773.25
421.171	1845.25
421.394	1809.25
421.617	1802.25
421.839	1813.25
422.062	1832.25
422.285	1847.25
422.507	1877.25
422.73	1868.25
422.953	1861.25
423.175	1905.25
423.398	1890.25
423.621	1848.25
423.843	1874.25
424.066	1907.25
424.288	1847.25
424.511	1893.25
424.733	1840.25
424.956	1850.25
425.178	1850.25
425.401	1818.25
425.623	1828.25
425.846	1776.25
426.068	1804.25
426.291	1767.25
426.513	1758.25
426.735	1750.25
426.958	1744.25
427.18	1718.25
427.402	1749.25
427.625	1679.25
427.847	1709.25
428.069	1694.25
428.292	1698.25
428.514	1673.25
428.736	1663.25
428.958	1692.25
429.181	1649.25
429.403	1645.25
429.625	1662.25
429.847	1643.25
430.069	1660.25
430.292	1677.25
430.514	1609.25
430.736	1642.25
430.958	1679.25
431.18	1657.25
431.402	1673.25
431.624	1656.25
431.846	1611.25
432.068	1716.25
432.29	1726.25
432.512	1681.25
432.734	1712.25
432.956	1672.25
433.178	1701.25
433.4	1720.25
433.622	1705.25
433.844	1748.25
434.066	1706.25
434.287	1757.25
434.509	1797.25
434.731	1812.25
434.953	1845.25
435.175	1882.25
435.397	1849.25
435.618	1812.25
435.84	1766.25
436.062	1684.25
436.284	1656.25
436.505	1686.25
436.727	1672.25
436.949	1673.25
437.17	1661.25
437.392	1670.25
437.614	1646.25
437.835	1602.25
438.057	1622.25
438.278	1601.25
438.5	1584.25
438.721	1606.25
438.943	1624.25
439.165	1608.25
439.386	1629.25
439.608	1629.25
439.829	1611.25
440.05	1655.25
440.272	1660.25
440.493	1653.25
440.715	1659.25
440.936	1693.25
441.158	1666.25
441.379	1698.25
441.6	1785.25
441.822	1813.25
442.043	1814.25
442.264	1809.25
442.486	1716.25
442.707	1744.25
442.928	1745.25
443.149	1801.25
443.371	1731.25
443.592	1809.25
443.813	1810.25
444.034	1789.25
444.255	1841.25
444.476	1890.25
444.698	1978.25
444.919	2029.25
445.14	2102.25
445.361	1993.25
445.582	1844.25
445.803	1749.25
446.024	1726.25
446.245	1732.25
446.466	1669.25
446.687	1638.25
446.908	1632.25
447.129	1602.25
447.35	1549.25
447.571	1577.25
447.792	1541.25
448.013	1529.25
448.234	1532.25
448.455	1519.25
448.675	1533.25
448.896	1490.25
449.117	1476.25
449.338	1501.25
449.559	1445.25
449.779	1479.25
450	1460.25
450.221	1470.25
450.442	1513.25
450.662	1487.25
450.883	1461.25
451.104	1518.25
451.324	1514.25
451.545	1474.25
451.766	1490.25
451.986	1441.25
452.207	1454.25
452.428	1459.25
452.648	1478.25
452.869	1418.25
453.089	1413.25
453.31	1453.25
453.53	1429.25
453.751	1417.25
453.971	1407.25
454.192	1413.25
454.412	1413.25
454.633	1417.25
454.853	1422.25
455.073	1375.25
455.294	1390.25
455.514	1372.25
455.734	1422.25
455.955	1385.25
456.175	1381.25
456.395	1371.25
456.616	1378.25
456.836	1403.25
457.056	1400.25
457.276	1402.25
457.497	1413.25
457.717	1422.25
457.937	1442.25
458.157	1423.25
458.377	1446.25
458.598	1484.25
458.818	1498.25
459.038	1536.25
459.258	1586.25
459.478	1641.25
459.698	1628.25
459.918	1734.25
460.138	1773.25
460.358	1828.25
460.578	1817.25
460.798	1874.25
461.018	1907.25
461.238	1869.25
461.458	1805.25
461.678	1882.25
461.898	1869.25
462.118	1864.25
462.338	2051.25
462.558	2031.25
462.777	2105.25
462.997	2242.25
463.217	2348.25
463.437	2371.25
463.657	2240.25
463.876	2143.25
464.096	2147.25
464.316	2129.25
464.536	2133.25
464.755	2148.25
464.975	1991.25
465.195	1948.25
465.414	1842.25
465.634	1738.25
465.854	1690.25
466.073	1654.25
466.293	1631.25
466.512	1636.25
466.732	1566.25
466.951	1608.25
467.171	1568.25
467.391	1568.25
467.61	1554.25
467.829	1557.25
468.049	1570.25
468.268	1505.25
468.488	1476.25
468.707	1520.25
468.927	1526.25
469.146	1531.25
469.365	1555.25
469.585	1501.25
469.804	1552.25
470.023	1549.25
470.243	1598.25
470.462	1600.25
470.681	1590.25
470.901	1634.25
471.12	1584.25
471.339	1549.25
471.558	1507.25
471.777	1547.25
471.997	1584.25
472.216	1539.25
472.435	1511.25
472.654	1521.25
472.873	1499.25
473.092	1497.25
473.311	1538.25
473.53	1494.25
473.749	1500.25
473.968	1472.25
474.187	1495.25
474.406	1466.25
474.625	1504.25
474.844	1506.25
475.063	1517.25
475.282	1553.25
475.501	1500.25
475.72	1551.25
475.939	1549.25
476.158	1591.25
476.377	1558.25
476.596	1615.25
476.814	1607.25
477.033	1583.25
477.252	1648.25
477.471	1666.25
477.69	1719.25
477.908	1742.25
478.127	1764.25
478.346	1770.25
478.564	1795.25
478.783	1819.25
479.002	1859.25
479.22	1918.25
479.439	1890.25
479.658	1893.25
479.876	1916.25
480.095	1928.25
480.313	1947.25
480.532	2029.25
480.751	2001.25
480.969	1944.25
481.188	1948.25
481.406	1909.25
481.624	1881.25
481.843	1877.25
482.061	1852.25
482.28	1853.25
482.498	1852.25
482.717	1833.25
482.935	1847.25
483.153	1818.25
483.372	1845.25
483.59	1869.25
483.808	1889.25
484.027	1920.25
484.245	1928.25
484.463	1969.25
484.681	1987.25
484.9	1997.25
485.118	2011.25
485.336	2018.25
485.554	1998.25
485.772	2017.25
485.99	2072.25
486.209	2060.25
486.427	2011.25
486.645	2038.25
486.863	2050.25
487.081	1997.25
487.299	1976.25
487.517	1991.25
487.735	2012.25
487.953	1997.25
488.171	1981.25
488.389	1965.25
488.607	1962.25
488.825	1910.25
489.043	1917.25
489.261	1906.25
489.479	1949.25
489.696	1938.25
489.914	1999.25
