Data from NiCl2@0.0625M.TitratingCurve.Agarose3%dH2O.NegLispCup.LampEnergy10.LIBS07252019_HRD10591_18-33-25-576.txt Node
Date: Thu Jul 25 18:33:25 EDT 2019
User: cochatt
Spectrometer: HR+D1059
Trigger mode: 1
Integration Time (sec): 1.000000E-1
Scans to average: 1
Electric dark correction enabled: true
Nonlinearity correction enabled: false
Boxcar width: 0
XAxis mode: Wavelengths
Number of Pixels in Spectrum: 2048
>>>>>Begin Spectral Data<<<<<
223.165	-16.81
223.4	-16.81
223.635	-16.81
223.869	-14.81
224.104	-29.81
224.338	-17.81
224.573	-13.81
224.808	-27.81
225.042	2.19
225.277	3.19
225.511	3.19
225.746	5.19
225.98	8.19
226.215	9.19
226.449	8.19
226.683	10.19
226.918	33.19
227.152	38.19
227.387	39.19
227.621	35.19
227.856	39.19
228.09	62.19
228.324	59.19
228.559	57.19
228.793	90.19
229.027	157.19
229.262	161.19
229.496	173.19
229.73	165.19
229.964	181.19
230.199	196.19
230.433	176.19
230.667	183.19
230.901	186.19
231.136	187.19
231.37	198.19
231.604	200.19
231.838	194.19
232.072	201.19
232.306	209.19
232.541	205.19
232.775	223.19
233.009	218.19
233.243	216.19
233.477	221.19
233.711	220.19
233.945	221.19
234.179	227.19
234.413	232.19
234.647	225.19
234.881	238.19
235.115	218.19
235.349	255.19
235.583	223.19
235.817	220.19
236.051	225.19
236.285	247.19
236.519	256.19
236.753	234.19
236.987	250.19
237.221	256.19
237.455	254.19
237.689	264.19
237.922	256.19
238.156	252.19
238.39	260.19
238.624	256.19
238.858	267.19
239.091	266.19
239.325	267.19
239.559	284.19
239.793	267.19
240.027	288.19
240.26	280.19
240.494	292.19
240.728	294.19
240.961	300.19
241.195	282.19
241.429	333.19
241.662	299.19
241.896	302.19
242.13	326.19
242.363	332.19
242.597	329.19
242.83	311.19
243.064	341.19
243.298	347.19
243.531	330.19
243.765	332.19
243.998	351.19
244.232	360.19
244.465	347.19
244.699	346.19
244.932	345.19
245.166	361.19
245.399	375.19
245.633	373.19
245.866	356.19
246.099	362.19
246.333	376.19
246.566	384.19
246.8	383.19
247.033	370.19
247.266	391.19
247.5	390.19
247.733	392.19
247.966	410.19
248.2	402.19
248.433	421.19
248.666	432.19
248.899	390.19
249.133	402.19
249.366	422.19
249.599	422.19
249.832	417.19
250.066	437.19
250.299	431.19
250.532	426.19
250.765	406.19
250.998	445.19
251.231	436.19
251.465	451.19
251.698	449.19
251.931	437.19
252.164	456.19
252.397	468.19
252.63	449.19
252.863	459.19
253.096	463.19
253.329	466.19
253.562	458.19
253.795	478.19
254.028	488.19
254.261	478.19
254.494	490.19
254.727	522.19
254.96	514.19
255.193	509.19
255.426	501.19
255.659	531.19
255.892	514.19
256.124	524.19
256.357	526.19
256.59	524.19
256.823	521.19
257.056	508.19
257.289	500.19
257.521	544.19
257.754	520.19
257.987	535.19
258.22	530.19
258.452	529.19
258.685	545.19
258.918	558.19
259.151	546.19
259.383	549.19
259.616	547.19
259.849	541.19
260.081	552.19
260.314	571.19
260.547	569.19
260.779	566.19
261.012	548.19
261.244	566.19
261.477	560.19
261.71	572.19
261.942	582.19
262.175	581.19
262.407	580.19
262.64	596.19
262.872	581.19
263.105	604.19
263.337	619.19
263.57	608.19
263.802	589.19
264.035	612.19
264.267	587.19
264.499	597.19
264.732	604.19
264.964	634.19
265.197	608.19
265.429	618.19
265.661	627.19
265.894	638.19
266.126	624.19
266.358	638.19
266.591	654.19
266.823	654.19
267.055	649.19
267.287	659.19
267.52	652.19
267.752	650.19
267.984	663.19
268.216	660.19
268.448	654.19
268.681	657.19
268.913	680.19
269.145	666.19
269.377	672.19
269.609	680.19
269.841	681.19
270.073	670.19
270.306	698.19
270.538	677.19
270.77	676.19
271.002	692.19
271.234	682.19
271.466	697.19
271.698	702.19
271.93	706.19
272.162	709.19
272.394	721.19
272.626	712.19
272.858	725.19
273.09	726.19
273.322	734.19
273.553	714.19
273.785	743.19
274.017	749.19
274.249	759.19
274.481	772.19
274.713	733.19
274.945	743.19
275.176	747.19
275.408	741.19
275.64	763.19
275.872	774.19
276.104	784.19
276.335	756.19
276.567	755.19
276.799	778.19
277.031	775.19
277.262	779.19
277.494	756.19
277.726	800.19
277.957	775.19
278.189	813.19
278.421	794.19
278.652	828.19
278.884	811.19
279.115	824.19
279.347	829.19
279.579	808.19
279.81	840.19
280.042	823.19
280.273	825.19
280.505	869.19
280.736	842.19
280.968	852.19
281.199	841.19
281.431	874.19
281.662	874.19
281.894	833.19
282.125	845.19
282.356	875.19
282.588	870.19
282.819	889.19
283.051	892.19
283.282	851.19
283.513	880.19
283.745	900.19
283.976	885.19
284.207	880.19
284.439	865.19
284.67	896.19
284.901	889.19
285.132	890.19
285.364	925.19
285.595	930.19
285.826	922.19
286.057	881.19
286.288	932.19
286.52	912.19
286.751	908.19
286.982	929.19
287.213	934.19
287.444	939.19
287.675	938.19
287.906	931.19
288.138	943.19
288.369	972.19
288.6	931.19
288.831	965.19
289.062	965.19
289.293	965.19
289.524	980.19
289.755	963.19
289.986	956.19
290.217	952.19
290.448	946.19
290.679	963.19
290.91	950.19
291.141	952.19
291.371	974.19
291.602	965.19
291.833	966.19
292.064	980.19
292.295	984.19
292.526	971.19
292.757	982.19
292.987	988.19
293.218	983.19
293.449	961.19
293.68	968.19
293.91	958.19
294.141	975.19
294.372	972.19
294.603	985.19
294.833	975.19
295.064	988.19
295.295	997.19
295.525	1016.19
295.756	977.19
295.987	989.19
296.217	1003.19
296.448	1015.19
296.679	1007.19
296.909	1019.19
297.14	1014.19
297.37	1058.19
297.601	1054.19
297.831	1014.19
298.062	1037.19
298.292	1068.19
298.523	1064.19
298.753	1046.19
298.984	1055.19
299.214	1060.19
299.445	1036.19
299.675	1054.19
299.905	1039.19
300.136	1036.19
300.366	1075.19
300.597	1069.19
300.827	1102.19
301.057	1116.19
301.288	1145.19
301.518	1121.19
301.748	1108.19
301.979	1102.19
302.209	1126.19
302.439	1128.19
302.669	1110.19
302.9	1094.19
303.13	1102.19
303.36	1140.19
303.59	1118.19
303.82	1126.19
304.051	1140.19
304.281	1125.19
304.511	1123.19
304.741	1113.19
304.971	1107.19
305.201	1074.19
305.431	1126.19
305.661	1111.19
305.891	1106.19
306.121	1101.19
306.352	1088.19
306.582	1083.19
306.812	1115.19
307.042	1075.19
307.272	1149.19
307.502	1086.19
307.731	1101.19
307.961	1088.19
308.191	1070.19
308.421	1111.19
308.651	1132.19
308.881	1092.19
309.111	1104.19
309.341	1068.19
309.571	1109.19
309.8	1111.19
310.03	1138.19
310.26	1104.19
310.49	1093.19
310.72	1099.19
310.949	1107.19
311.179	1121.19
311.409	1144.19
311.639	1120.19
311.868	1109.19
312.098	1158.19
312.328	1163.19
312.557	1146.19
312.787	1105.19
313.017	1158.19
313.246	1182.19
313.476	1154.19
313.706	1195.19
313.935	1206.19
314.165	1178.19
314.394	1182.19
314.624	1181.19
314.853	1176.19
315.083	1193.19
315.312	1156.19
315.542	1196.19
315.771	1160.19
316.001	1168.19
316.23	1182.19
316.46	1191.19
316.689	1178.19
316.919	1202.19
317.148	1176.19
317.377	1176.19
317.607	1178.19
317.836	1171.19
318.065	1165.19
318.295	1141.19
318.524	1182.19
318.753	1156.19
318.983	1172.19
319.212	1129.19
319.441	1180.19
319.67	1158.19
319.9	1181.19
320.129	1181.19
320.358	1154.19
320.587	1172.19
320.816	1189.19
321.046	1197.19
321.275	1190.19
321.504	1195.19
321.733	1216.19
321.962	1213.19
322.191	1193.19
322.42	1212.19
322.649	1207.19
322.878	1181.19
323.108	1184.19
323.337	1197.19
323.566	1202.19
323.795	1228.19
324.024	1219.19
324.253	1205.19
324.482	1200.19
324.71	1215.19
324.939	1228.19
325.168	1271.19
325.397	1257.19
325.626	1255.19
325.855	1265.19
326.084	1319.19
326.313	1312.19
326.542	1322.19
326.77	1312.19
326.999	1328.19
327.228	1254.19
327.457	1261.19
327.686	1274.19
327.914	1304.19
328.143	1309.19
328.372	1265.19
328.6	1272.19
328.829	1253.19
329.058	1320.19
329.287	1322.19
329.515	1317.19
329.744	1343.19
329.972	1311.19
330.201	1300.19
330.43	1324.19
330.658	1313.19
330.887	1352.19
331.115	1353.19
331.344	1356.19
331.572	1390.19
331.801	1385.19
332.03	1421.19
332.258	1413.19
332.486	1428.19
332.715	1501.19
332.943	1557.19
333.172	1562.19
333.4	1629.19
333.629	1678.19
333.857	1658.19
334.085	1689.19
334.314	1652.19
334.542	1664.19
334.771	1637.19
334.999	1593.19
335.227	1622.19
335.455	1606.19
335.684	1573.19
335.912	1564.19
336.14	1562.19
336.369	1548.19
336.597	1630.19
336.825	1531.19
337.053	1550.19
337.281	1534.19
337.51	1494.19
337.738	1491.19
337.966	1428.19
338.194	1470.19
338.422	1435.19
338.65	1403.19
338.878	1411.19
339.106	1422.19
339.334	1402.19
339.562	1406.19
339.79	1408.19
340.018	1356.19
340.246	1358.19
340.474	1358.19
340.702	1353.19
340.93	1365.19
341.158	1380.19
341.386	1364.19
341.614	1370.19
341.842	1359.19
342.07	1342.19
342.298	1344.19
342.526	1356.19
342.754	1338.19
342.981	1367.19
343.209	1389.19
343.437	1447.19
343.665	1474.19
343.893	1564.19
344.12	1627.19
344.348	1566.19
344.576	1483.19
344.804	1473.19
345.031	1426.19
345.259	1413.19
345.487	1335.19
345.714	1368.19
345.942	1336.19
346.17	1352.19
346.397	1334.19
346.625	1318.19
346.853	1293.19
347.08	1282.19
347.308	1289.19
347.535	1312.19
347.763	1292.19
347.99	1283.19
348.218	1294.19
348.445	1280.19
348.673	1294.19
348.9	1293.19
349.128	1291.19
349.355	1276.19
349.583	1264.19
349.81	1279.19
350.037	1292.19
350.265	1264.19
350.492	1282.19
350.72	1238.19
350.947	1226.19
351.174	1274.19
351.402	1252.19
351.629	1257.19
351.856	1286.19
352.083	1219.19
352.311	1248.19
352.538	1261.19
352.765	1255.19
352.992	1202.19
353.22	1195.19
353.447	1249.19
353.674	1247.19
353.901	1250.19
354.128	1245.19
354.355	1236.19
354.583	1235.19
354.81	1243.19
355.037	1266.19
355.264	1248.19
355.491	1256.19
355.718	1243.19
355.945	1298.19
356.172	1234.19
356.399	1251.19
356.626	1257.19
356.853	1254.19
357.08	1268.19
357.307	1247.19
357.534	1247.19
357.761	1243.19
357.988	1270.19
358.215	1243.19
358.441	1246.19
358.668	1265.19
358.895	1267.19
359.122	1261.19
359.349	1239.19
359.576	1238.19
359.802	1243.19
360.029	1236.19
360.256	1257.19
360.483	1266.19
360.709	1221.19
360.936	1265.19
361.163	1240.19
361.39	1285.19
361.616	1261.19
361.843	1259.19
362.07	1233.19
362.296	1240.19
362.523	1245.19
362.749	1270.19
362.976	1236.19
363.203	1241.19
363.429	1208.19
363.656	1264.19
363.882	1290.19
364.109	1270.19
364.335	1288.19
364.562	1265.19
364.788	1239.19
365.015	1254.19
365.241	1200.19
365.468	1243.19
365.694	1238.19
365.92	1227.19
366.147	1245.19
366.373	1240.19
366.599	1274.19
366.826	1229.19
367.052	1253.19
367.278	1293.19
367.505	1259.19
367.731	1268.19
367.957	1284.19
368.184	1242.19
368.41	1245.19
368.636	1277.19
368.862	1323.19
369.089	1276.19
369.315	1284.19
369.541	1325.19
369.767	1314.19
369.993	1292.19
370.219	1306.19
370.445	1332.19
370.672	1350.19
370.898	1350.19
371.124	1357.19
371.35	1397.19
371.576	1344.19
371.802	1355.19
372.028	1357.19
372.254	1374.19
372.48	1386.19
372.706	1372.19
372.932	1424.19
373.158	1373.19
373.384	1428.19
373.61	1381.19
373.835	1381.19
374.061	1346.19
374.287	1404.19
374.513	1357.19
374.739	1460.19
374.965	1478.19
375.191	1497.19
375.416	1498.19
375.642	1446.19
375.868	1425.19
376.094	1408.19
376.319	1408.19
376.545	1402.19
376.771	1365.19
376.997	1378.19
377.222	1397.19
377.448	1360.19
377.674	1357.19
377.899	1352.19
378.125	1347.19
378.35	1328.19
378.576	1336.19
378.802	1350.19
379.027	1347.19
379.253	1369.19
379.478	1337.19
379.704	1326.19
379.929	1352.19
380.155	1350.19
380.38	1341.19
380.606	1350.19
380.831	1334.19
381.057	1384.19
381.282	1350.19
381.507	1358.19
381.733	1370.19
381.958	1368.19
382.184	1421.19
382.409	1398.19
382.634	1445.19
382.86	1433.19
383.085	1455.19
383.31	1464.19
383.535	1454.19
383.761	1499.19
383.986	1543.19
384.211	1546.19
384.436	1565.19
384.662	1571.19
384.887	1613.19
385.112	1620.19
385.337	1635.19
385.562	1634.19
385.787	1612.19
386.013	1664.19
386.238	1629.19
386.463	1636.19
386.688	1634.19
386.913	1627.19
387.138	1619.19
387.363	1608.19
387.588	1596.19
387.813	1598.19
388.038	1592.19
388.263	1638.19
388.488	1662.19
388.713	1650.19
388.938	1657.19
389.163	1626.19
389.387	1588.19
389.612	1584.19
389.837	1628.19
390.062	1572.19
390.287	1629.19
390.512	1629.19
390.736	1644.19
390.961	1647.19
391.186	1675.19
391.411	1738.19
391.636	1730.19
391.86	1817.19
392.085	1841.19
392.31	1814.19
392.534	1764.19
392.759	1778.19
392.984	1770.19
393.208	1725.19
393.433	1787.19
393.658	1798.19
393.882	1737.19
394.107	1661.19
394.331	1726.19
394.556	1739.19
394.78	1746.19
395.005	1741.19
395.229	1724.19
395.454	1758.19
395.678	1824.19
395.903	1844.19
396.127	1786.19
396.352	1785.19
396.576	1819.19
396.801	1746.19
397.025	1822.19
397.249	1843.19
397.474	1796.19
397.698	1791.19
397.922	1847.19
398.147	1853.19
398.371	1890.19
398.595	1930.19
398.82	2012.19
399.044	2121.19
399.268	2312.19
399.492	2617.19
399.717	2860.19
399.941	2915.19
400.165	2690.19
400.389	2404.19
400.613	2250.19
400.837	2157.19
401.062	2093.19
401.286	2068.19
401.51	2026.19
401.734	2007.19
401.958	2036.19
402.182	2037.19
402.406	2049.19
402.63	2094.19
402.854	2170.19
403.078	2131.19
403.302	2133.19
403.526	2178.19
403.75	2228.19
403.974	2244.19
404.198	2224.19
404.422	2220.19
404.645	2237.19
404.869	2217.19
405.093	2238.19
405.317	2172.19
405.541	2226.19
405.765	2191.19
405.988	2198.19
406.212	2204.19
406.436	2176.19
406.66	2265.19
406.883	2281.19
407.107	2412.19
407.331	2514.19
407.555	2583.19
407.778	2516.19
408.002	2503.19
408.226	2424.19
408.449	2391.19
408.673	2300.19
408.896	2329.19
409.12	2274.19
409.344	2266.19
409.567	2268.19
409.791	2284.19
410.014	2254.19
410.238	2204.19
410.461	2196.19
410.685	2189.19
410.908	2192.19
411.132	2184.19
411.355	2098.19
411.578	2108.19
411.802	2131.19
412.025	2094.19
412.249	2150.19
412.472	2100.19
412.695	2122.19
412.919	2028.19
413.142	2086.19
413.365	2072.19
413.589	2035.19
413.812	2023.19
414.035	1988.19
414.258	2003.19
414.482	2010.19
414.705	2052.19
414.928	2011.19
415.151	2008.19
415.374	2016.19
415.597	1989.19
415.821	1962.19
416.044	1972.19
416.267	1936.19
416.49	1896.19
416.713	1957.19
416.936	1966.19
417.159	1930.19
417.382	1963.19
417.605	1922.19
417.828	1944.19
418.051	1952.19
418.274	1960.19
418.497	1935.19
418.72	1930.19
418.943	1945.19
419.166	2122.19
419.389	2251.19
419.611	2201.19
419.834	2110.19
420.057	2058.19
420.28	1996.19
420.503	1960.19
420.726	1927.19
420.948	1945.19
421.171	1951.19
421.394	1976.19
421.617	1905.19
421.839	1916.19
422.062	2005.19
422.285	1932.19
422.507	2008.19
422.73	1952.19
422.953	2002.19
423.175	1980.19
423.398	2005.19
423.621	2002.19
423.843	2008.19
424.066	2036.19
424.288	2029.19
424.511	1994.19
424.733	1989.19
424.956	1937.19
425.178	1972.19
425.401	1950.19
425.623	1947.19
425.846	1876.19
426.068	1874.19
426.291	1898.19
426.513	1917.19
426.735	1842.19
426.958	1833.19
427.18	1781.19
427.402	1841.19
427.625	1818.19
427.847	1790.19
428.069	1825.19
428.292	1835.19
428.514	1750.19
428.736	1736.19
428.958	1812.19
429.181	1765.19
429.403	1729.19
429.625	1755.19
429.847	1720.19
430.069	1725.19
430.292	1758.19
430.514	1725.19
430.736	1782.19
430.958	1789.19
431.18	1723.19
431.402	1778.19
431.624	1787.19
431.846	1771.19
432.068	1800.19
432.29	1838.19
432.512	1800.19
432.734	1802.19
432.956	1785.19
433.178	1766.19
433.4	1790.19
433.622	1844.19
433.844	1821.19
434.066	1830.19
434.287	1895.19
434.509	1846.19
434.731	1941.19
434.953	1956.19
435.175	1990.19
435.397	1963.19
435.618	1927.19
435.84	1850.19
436.062	1794.19
436.284	1799.19
436.505	1753.19
436.727	1782.19
436.949	1802.19
437.17	1756.19
437.392	1732.19
437.614	1733.19
437.835	1687.19
438.057	1716.19
438.278	1677.19
438.5	1682.19
438.721	1686.19
438.943	1729.19
439.165	1686.19
439.386	1688.19
439.608	1747.19
439.829	1703.19
440.05	1723.19
440.272	1765.19
440.493	1765.19
440.715	1754.19
440.936	1835.19
441.158	1791.19
441.379	1856.19
441.6	1922.19
441.822	1914.19
442.043	1933.19
442.264	1917.19
442.486	1866.19
442.707	1909.19
442.928	1864.19
443.149	1880.19
443.371	1882.19
443.592	1881.19
443.813	1918.19
444.034	1947.19
444.255	1997.19
444.476	2070.19
444.698	2184.19
444.919	2235.19
445.14	2264.19
445.361	2096.19
445.582	2009.19
445.803	1900.19
446.024	1836.19
446.245	1842.19
446.466	1778.19
446.687	1712.19
446.908	1758.19
447.129	1688.19
447.35	1670.19
447.571	1702.19
447.792	1640.19
448.013	1620.19
448.234	1633.19
448.455	1586.19
448.675	1586.19
448.896	1598.19
449.117	1614.19
449.338	1567.19
449.559	1578.19
449.779	1555.19
450	1526.19
450.221	1554.19
450.442	1593.19
450.662	1584.19
450.883	1595.19
451.104	1618.19
451.324	1602.19
451.545	1561.19
451.766	1591.19
451.986	1549.19
452.207	1549.19
452.428	1562.19
452.648	1560.19
452.869	1521.19
453.089	1514.19
453.31	1522.19
453.53	1532.19
453.751	1506.19
453.971	1524.19
454.192	1519.19
454.412	1497.19
454.633	1470.19
454.853	1489.19
455.073	1475.19
455.294	1484.19
455.514	1469.19
455.734	1532.19
455.955	1480.19
456.175	1492.19
456.395	1449.19
456.616	1467.19
456.836	1493.19
457.056	1476.19
457.276	1447.19
457.497	1506.19
457.717	1484.19
457.937	1478.19
458.157	1498.19
458.377	1538.19
458.598	1546.19
458.818	1629.19
459.038	1640.19
459.258	1699.19
459.478	1757.19
459.698	1789.19
459.918	1832.19
460.138	1854.19
460.358	1983.19
460.578	1962.19
460.798	1962.19
461.018	2028.19
461.238	1983.19
461.458	2007.19
461.678	1953.19
461.898	2031.19
462.118	1989.19
462.338	2106.19
462.558	2170.19
462.777	2267.19
462.997	2368.19
463.217	2488.19
463.437	2515.19
463.657	2399.19
463.876	2324.19
464.096	2284.19
464.316	2269.19
464.536	2250.19
464.755	2214.19
464.975	2154.19
465.195	2078.19
465.414	1960.19
465.634	1849.19
465.854	1840.19
466.073	1773.19
466.293	1731.19
466.512	1715.19
466.732	1679.19
466.951	1673.19
467.171	1653.19
467.391	1664.19
467.61	1664.19
467.829	1651.19
468.049	1671.19
468.268	1589.19
468.488	1595.19
468.707	1591.19
468.927	1596.19
469.146	1606.19
469.365	1606.19
469.585	1600.19
469.804	1631.19
470.023	1656.19
470.243	1647.19
470.462	1685.19
470.681	1700.19
470.901	1677.19
471.12	1688.19
471.339	1677.19
471.558	1641.19
471.777	1638.19
471.997	1621.19
472.216	1592.19
472.435	1575.19
472.654	1622.19
472.873	1571.19
473.092	1548.19
473.311	1592.19
473.53	1625.19
473.749	1564.19
473.968	1553.19
474.187	1584.19
474.406	1568.19
474.625	1605.19
474.844	1578.19
475.063	1603.19
475.282	1624.19
475.501	1632.19
475.72	1606.19
475.939	1660.19
476.158	1668.19
476.377	1656.19
476.596	1673.19
476.814	1692.19
477.033	1699.19
477.252	1701.19
477.471	1773.19
477.69	1774.19
477.908	1808.19
478.127	1842.19
478.346	1865.19
478.564	1924.19
478.783	1936.19
479.002	2005.19
479.22	2002.19
479.439	1981.19
479.658	1968.19
479.876	1977.19
480.095	2043.19
480.313	2102.19
480.532	2102.19
480.751	2119.19
480.969	2034.19
481.188	2001.19
481.406	1977.19
481.624	1940.19
481.843	1928.19
482.061	1946.19
482.28	1889.19
482.498	1899.19
482.717	1921.19
482.935	1924.19
483.153	1929.19
483.372	1943.19
483.59	1963.19
483.808	1973.19
484.027	1959.19
484.245	1981.19
484.463	1980.19
484.681	2054.19
484.9	2104.19
485.118	2061.19
485.336	2066.19
485.554	2098.19
485.772	2090.19
485.99	2143.19
486.209	2096.19
486.427	2088.19
486.645	2087.19
486.863	2076.19
487.081	2089.19
487.299	2080.19
487.517	2052.19
487.735	2042.19
487.953	2046.19
488.171	2068.19
488.389	2038.19
488.607	2041.19
488.825	2031.19
489.043	2005.19
489.261	1975.19
489.479	2001.19
489.696	2036.19
