Data from NiCl2@0.25M.TitratingCurve.Agarose3%dH2O.NegLispCup.LampEnergy10.LIBS07252019_HRD10591_18-23-40-572.txt Node
Date: Thu Jul 25 18:23:40 EDT 2019
User: cochatt
Spectrometer: HR+D1059
Trigger mode: 1
Integration Time (sec): 1.000000E-1
Scans to average: 1
Electric dark correction enabled: true
Nonlinearity correction enabled: false
Boxcar width: 0
XAxis mode: Wavelengths
Number of Pixels in Spectrum: 2048
>>>>>Begin Spectral Data<<<<<
223.165	-13.69
223.4	-13.69
223.635	-13.69
223.869	-9.69
224.104	-27.69
224.338	-11.69
224.573	-3.69
224.808	-13.69
225.042	-14.69
225.277	-0.69
225.511	-1.69
225.746	12.31
225.98	-9.69
226.215	11.31
226.449	7.31
226.683	15.31
226.918	31.31
227.152	29.31
227.387	34.31
227.621	38.31
227.856	54.31
228.09	52.31
228.324	54.31
228.559	77.31
228.793	75.31
229.027	119.31
229.262	124.31
229.496	133.31
229.73	137.31
229.964	119.31
230.199	155.31
230.433	157.31
230.667	152.31
230.901	150.31
231.136	153.31
231.37	170.31
231.604	160.31
231.838	169.31
232.072	176.31
232.306	150.31
232.541	166.31
232.775	171.31
233.009	168.31
233.243	170.31
233.477	174.31
233.711	180.31
233.945	192.31
234.179	180.31
234.413	194.31
234.647	174.31
234.881	173.31
235.115	173.31
235.349	192.31
235.583	196.31
235.817	184.31
236.051	189.31
236.285	195.31
236.519	192.31
236.753	198.31
236.987	195.31
237.221	194.31
237.455	207.31
237.689	203.31
237.922	203.31
238.156	198.31
238.39	199.31
238.624	212.31
238.858	198.31
239.091	215.31
239.325	213.31
239.559	216.31
239.793	212.31
240.027	212.31
240.26	215.31
240.494	209.31
240.728	213.31
240.961	220.31
241.195	220.31
241.429	220.31
241.662	233.31
241.896	235.31
242.13	233.31
242.363	250.31
242.597	256.31
242.83	254.31
243.064	273.31
243.298	265.31
243.531	242.31
243.765	259.31
243.998	264.31
244.232	250.31
244.465	246.31
244.699	286.31
244.932	279.31
245.166	291.31
245.399	271.31
245.633	276.31
245.866	279.31
246.099	276.31
246.333	290.31
246.566	284.31
246.8	285.31
247.033	278.31
247.266	293.31
247.5	310.31
247.733	292.31
247.966	293.31
248.2	295.31
248.433	317.31
248.666	299.31
248.899	317.31
249.133	293.31
249.366	309.31
249.599	318.31
249.832	314.31
250.066	315.31
250.299	323.31
250.532	321.31
250.765	321.31
250.998	330.31
251.231	338.31
251.465	327.31
251.698	327.31
251.931	332.31
252.164	338.31
252.397	336.31
252.63	333.31
252.863	350.31
253.096	347.31
253.329	361.31
253.562	357.31
253.795	365.31
254.028	348.31
254.261	345.31
254.494	349.31
254.727	360.31
254.96	345.31
255.193	357.31
255.426	373.31
255.659	379.31
255.892	368.31
256.124	376.31
256.357	370.31
256.59	384.31
256.823	390.31
257.056	394.31
257.289	362.31
257.521	380.31
257.754	404.31
257.987	403.31
258.22	386.31
258.452	392.31
258.685	396.31
258.918	388.31
259.151	390.31
259.383	401.31
259.616	385.31
259.849	408.31
260.081	420.31
260.314	410.31
260.547	416.31
260.779	409.31
261.012	413.31
261.244	420.31
261.477	423.31
261.71	418.31
261.942	429.31
262.175	432.31
262.407	429.31
262.64	414.31
262.872	436.31
263.105	459.31
263.337	437.31
263.57	441.31
263.802	443.31
264.035	451.31
264.267	435.31
264.499	453.31
264.732	448.31
264.964	429.31
265.197	445.31
265.429	452.31
265.661	451.31
265.894	466.31
266.126	429.31
266.358	453.31
266.591	462.31
266.823	473.31
267.055	466.31
267.287	475.31
267.52	468.31
267.752	476.31
267.984	491.31
268.216	477.31
268.448	472.31
268.681	481.31
268.913	501.31
269.145	487.31
269.377	489.31
269.609	488.31
269.841	491.31
270.073	480.31
270.306	492.31
270.538	508.31
270.77	502.31
271.002	496.31
271.234	499.31
271.466	505.31
271.698	533.31
271.93	497.31
272.162	527.31
272.394	501.31
272.626	500.31
272.858	521.31
273.09	507.31
273.322	539.31
273.553	527.31
273.785	539.31
274.017	533.31
274.249	528.31
274.481	533.31
274.713	548.31
274.945	524.31
275.176	544.31
275.408	541.31
275.64	560.31
275.872	568.31
276.104	566.31
276.335	589.31
276.567	539.31
276.799	562.31
277.031	570.31
277.262	554.31
277.494	578.31
277.726	560.31
277.957	585.31
278.189	548.31
278.421	585.31
278.652	596.31
278.884	572.31
279.115	579.31
279.347	582.31
279.579	572.31
279.81	597.31
280.042	580.31
280.273	596.31
280.505	604.31
280.736	603.31
280.968	593.31
281.199	613.31
281.431	605.31
281.662	605.31
281.894	616.31
282.125	607.31
282.356	627.31
282.588	631.31
282.819	613.31
283.051	648.31
283.282	654.31
283.513	634.31
283.745	630.31
283.976	628.31
284.207	648.31
284.439	640.31
284.67	652.31
284.901	674.31
285.132	633.31
285.364	634.31
285.595	663.31
285.826	647.31
286.057	642.31
286.288	647.31
286.52	681.31
286.751	657.31
286.982	675.31
287.213	680.31
287.444	667.31
287.675	650.31
287.906	685.31
288.138	682.31
288.369	691.31
288.6	694.31
288.831	668.31
289.062	681.31
289.293	680.31
289.524	690.31
289.755	673.31
289.986	672.31
290.217	697.31
290.448	696.31
290.679	708.31
290.91	685.31
291.141	709.31
291.371	702.31
291.602	697.31
291.833	696.31
292.064	699.31
292.295	715.31
292.526	714.31
292.757	710.31
292.987	694.31
293.218	692.31
293.449	711.31
293.68	696.31
293.91	706.31
294.141	684.31
294.372	692.31
294.603	700.31
294.833	700.31
295.064	739.31
295.295	724.31
295.525	710.31
295.756	719.31
295.987	718.31
296.217	726.31
296.448	721.31
296.679	741.31
296.909	741.31
297.14	720.31
297.37	765.31
297.601	745.31
297.831	744.31
298.062	757.31
298.292	736.31
298.523	781.31
298.753	781.31
298.984	777.31
299.214	769.31
299.445	755.31
299.675	767.31
299.905	754.31
300.136	770.31
300.366	785.31
300.597	792.31
300.827	792.31
301.057	795.31
301.288	808.31
301.518	816.31
301.748	805.31
301.979	824.31
302.209	838.31
302.439	820.31
302.669	810.31
302.9	795.31
303.13	777.31
303.36	777.31
303.59	789.31
303.82	780.31
304.051	824.31
304.281	798.31
304.511	784.31
304.741	794.31
304.971	788.31
305.201	802.31
305.431	809.31
305.661	782.31
305.891	808.31
306.121	780.31
306.352	775.31
306.582	781.31
306.812	777.31
307.042	784.31
307.272	778.31
307.502	794.31
307.731	788.31
307.961	803.31
308.191	802.31
308.421	782.31
308.651	781.31
308.881	773.31
309.111	766.31
309.341	783.31
309.571	824.31
309.8	804.31
310.03	806.31
310.26	785.31
310.49	784.31
310.72	758.31
310.949	769.31
311.179	784.31
311.409	777.31
311.639	792.31
311.868	810.31
312.098	810.31
312.328	844.31
312.557	812.31
312.787	814.31
313.017	821.31
313.246	826.31
313.476	822.31
313.706	844.31
313.935	841.31
314.165	865.31
314.394	850.31
314.624	851.31
314.853	846.31
315.083	842.31
315.312	852.31
315.542	841.31
315.771	854.31
316.001	830.31
316.23	845.31
316.46	813.31
316.689	808.31
316.919	804.31
317.148	841.31
317.377	816.31
317.607	824.31
317.836	801.31
318.065	816.31
318.295	809.31
318.524	831.31
318.753	812.31
318.983	834.31
319.212	820.31
319.441	824.31
319.67	812.31
319.9	826.31
320.129	811.31
320.358	844.31
320.587	856.31
320.816	828.31
321.046	823.31
321.275	826.31
321.504	846.31
321.733	840.31
321.962	861.31
322.191	834.31
322.42	827.31
322.649	858.31
322.878	828.31
323.108	841.31
323.337	875.31
323.566	859.31
323.795	854.31
324.024	890.31
324.253	861.31
324.482	852.31
324.71	871.31
324.939	879.31
325.168	875.31
325.397	886.31
325.626	890.31
325.855	881.31
326.084	901.31
326.313	890.31
326.542	906.31
326.77	920.31
326.999	908.31
327.228	891.31
327.457	886.31
327.686	905.31
327.914	910.31
328.143	915.31
328.372	922.31
328.6	923.31
328.829	925.31
329.058	909.31
329.287	907.31
329.515	909.31
329.744	964.31
329.972	955.31
330.201	941.31
330.43	950.31
330.658	931.31
330.887	969.31
331.115	965.31
331.344	972.31
331.572	959.31
331.801	987.31
332.03	1035.31
332.258	1050.31
332.486	1054.31
332.715	1098.31
332.943	1142.31
333.172	1174.31
333.4	1216.31
333.629	1254.31
333.857	1245.31
334.085	1219.31
334.314	1234.31
334.542	1193.31
334.771	1180.31
334.999	1150.31
335.227	1153.31
335.455	1125.31
335.684	1130.31
335.912	1124.31
336.14	1127.31
336.369	1080.31
336.597	1104.31
336.825	1083.31
337.053	1101.31
337.281	1092.31
337.51	1047.31
337.738	1086.31
337.966	1042.31
338.194	1024.31
338.422	1021.31
338.65	1017.31
338.878	1000.31
339.106	985.31
339.334	1010.31
339.562	1016.31
339.79	959.31
340.018	953.31
340.246	949.31
340.474	961.31
340.702	950.31
340.93	970.31
341.158	946.31
341.386	951.31
341.614	958.31
341.842	954.31
342.07	947.31
342.298	949.31
342.526	923.31
342.754	942.31
342.981	941.31
343.209	970.31
343.437	1013.31
343.665	1115.31
343.893	1176.31
344.12	1201.31
344.348	1175.31
344.576	1088.31
344.804	1048.31
345.031	995.31
345.259	976.31
345.487	960.31
345.714	978.31
345.942	944.31
346.17	946.31
346.397	926.31
346.625	915.31
346.853	939.31
347.08	901.31
347.308	953.31
347.535	946.31
347.763	909.31
347.99	931.31
348.218	940.31
348.445	921.31
348.673	908.31
348.9	921.31
349.128	921.31
349.355	889.31
349.583	916.31
349.81	898.31
350.037	892.31
350.265	874.31
350.492	882.31
350.72	890.31
350.947	895.31
351.174	877.31
351.402	909.31
351.629	894.31
351.856	876.31
352.083	914.31
352.311	900.31
352.538	896.31
352.765	892.31
352.992	858.31
353.22	856.31
353.447	882.31
353.674	876.31
353.901	865.31
354.128	845.31
354.355	870.31
354.583	876.31
354.81	859.31
355.037	879.31
355.264	880.31
355.491	882.31
355.718	899.31
355.945	877.31
356.172	892.31
356.399	886.31
356.626	917.31
356.853	900.31
357.08	903.31
357.307	871.31
357.534	885.31
357.761	888.31
357.988	893.31
358.215	904.31
358.441	872.31
358.668	882.31
358.895	862.31
359.122	885.31
359.349	844.31
359.576	849.31
359.802	873.31
360.029	878.31
360.256	862.31
360.483	892.31
360.709	892.31
360.936	866.31
361.163	884.31
361.39	863.31
361.616	871.31
361.843	881.31
362.07	877.31
362.296	889.31
362.523	883.31
362.749	900.31
362.976	867.31
363.203	851.31
363.429	860.31
363.656	877.31
363.882	889.31
364.109	868.31
364.335	859.31
364.562	891.31
364.788	850.31
365.015	858.31
365.241	862.31
365.468	883.31
365.694	864.31
365.92	894.31
366.147	852.31
366.373	900.31
366.599	873.31
366.826	885.31
367.052	872.31
367.278	850.31
367.505	873.31
367.731	887.31
367.957	896.31
368.184	848.31
368.41	890.31
368.636	900.31
368.862	896.31
369.089	901.31
369.315	922.31
369.541	903.31
369.767	920.31
369.993	918.31
370.219	901.31
370.445	921.31
370.672	929.31
370.898	937.31
371.124	959.31
371.35	985.31
371.576	963.31
371.802	961.31
372.028	944.31
372.254	942.31
372.48	965.31
372.706	959.31
372.932	1009.31
373.158	1002.31
373.384	987.31
373.61	955.31
373.835	948.31
374.061	957.31
374.287	968.31
374.513	980.31
374.739	1039.31
374.965	1053.31
375.191	1068.31
375.416	1034.31
375.642	1012.31
375.868	980.31
376.094	1007.31
376.319	999.31
376.545	966.31
376.771	968.31
376.997	965.31
377.222	978.31
377.448	957.31
377.674	934.31
377.899	972.31
378.125	948.31
378.35	945.31
378.576	940.31
378.802	954.31
379.027	950.31
379.253	963.31
379.478	944.31
379.704	961.31
379.929	931.31
380.155	944.31
380.38	944.31
380.606	955.31
380.831	963.31
381.057	960.31
381.282	937.31
381.507	960.31
381.733	945.31
381.958	968.31
382.184	991.31
382.409	976.31
382.634	984.31
382.86	992.31
383.085	1005.31
383.31	988.31
383.535	1032.31
383.761	1028.31
383.986	1065.31
384.211	1070.31
384.436	1107.31
384.662	1143.31
384.887	1127.31
385.112	1172.31
385.337	1156.31
385.562	1157.31
385.787	1134.31
386.013	1172.31
386.238	1163.31
386.463	1179.31
386.688	1179.31
386.913	1141.31
387.138	1130.31
387.363	1125.31
387.588	1145.31
387.813	1150.31
388.038	1141.31
388.263	1181.31
388.488	1177.31
388.713	1130.31
388.938	1140.31
389.163	1128.31
389.387	1136.31
389.612	1122.31
389.837	1108.31
390.062	1116.31
390.287	1110.31
390.512	1134.31
390.736	1131.31
390.961	1163.31
391.186	1152.31
391.411	1213.31
391.636	1251.31
391.86	1329.31
392.085	1361.31
392.31	1325.31
392.534	1281.31
392.759	1219.31
392.984	1196.31
393.208	1206.31
393.433	1241.31
393.658	1245.31
393.882	1235.31
394.107	1258.31
394.331	1238.31
394.556	1216.31
394.78	1268.31
395.005	1238.31
395.229	1235.31
395.454	1290.31
395.678	1319.31
395.903	1312.31
396.127	1282.31
396.352	1235.31
396.576	1240.31
396.801	1216.31
397.025	1246.31
397.249	1242.31
397.474	1282.31
397.698	1300.31
397.922	1345.31
398.147	1317.31
398.371	1351.31
398.595	1373.31
398.82	1441.31
399.044	1565.31
399.268	1712.31
399.492	2026.31
399.717	2269.31
399.941	2239.31
400.165	1968.31
400.389	1776.31
400.613	1635.31
400.837	1505.31
401.062	1520.31
401.286	1463.31
401.51	1453.31
401.734	1441.31
401.958	1486.31
402.182	1472.31
402.406	1536.31
402.63	1547.31
402.854	1573.31
403.078	1623.31
403.302	1643.31
403.526	1634.31
403.75	1672.31
403.974	1710.31
404.198	1703.31
404.422	1734.31
404.645	1668.31
404.869	1661.31
405.093	1660.31
405.317	1602.31
405.541	1618.31
405.765	1594.31
405.988	1607.31
406.212	1582.31
406.436	1585.31
406.66	1658.31
406.883	1682.31
407.107	1751.31
407.331	1849.31
407.555	1914.31
407.778	1910.31
408.002	1848.31
408.226	1814.31
408.449	1778.31
408.673	1706.31
408.896	1659.31
409.12	1645.31
409.344	1652.31
409.567	1628.31
409.791	1646.31
410.014	1614.31
410.238	1597.31
410.461	1613.31
410.685	1571.31
410.908	1564.31
411.132	1524.31
411.355	1528.31
411.578	1500.31
411.802	1502.31
412.025	1481.31
412.249	1534.31
412.472	1553.31
412.695	1469.31
412.919	1469.31
413.142	1484.31
413.365	1469.31
413.589	1480.31
413.812	1438.31
414.035	1409.31
414.258	1426.31
414.482	1433.31
414.705	1492.31
414.928	1500.31
415.151	1462.31
415.374	1436.31
415.597	1436.31
415.821	1413.31
416.044	1397.31
416.267	1434.31
416.49	1402.31
416.713	1371.31
416.936	1397.31
417.159	1404.31
417.382	1436.31
417.605	1411.31
417.828	1405.31
418.051	1453.31
418.274	1455.31
418.497	1450.31
418.72	1478.31
418.943	1464.31
419.166	1570.31
419.389	1696.31
419.611	1655.31
419.834	1542.31
420.057	1553.31
420.28	1483.31
420.503	1421.31
420.726	1437.31
420.948	1373.31
421.171	1443.31
421.394	1444.31
421.617	1404.31
421.839	1411.31
422.062	1424.31
422.285	1405.31
422.507	1433.31
422.73	1449.31
422.953	1469.31
423.175	1522.31
423.398	1524.31
423.621	1538.31
423.843	1524.31
424.066	1565.31
424.288	1522.31
424.511	1493.31
424.733	1489.31
424.956	1463.31
425.178	1450.31
425.401	1454.31
425.623	1452.31
425.846	1382.31
426.068	1377.31
426.291	1358.31
426.513	1338.31
426.735	1358.31
426.958	1323.31
427.18	1297.31
427.402	1300.31
427.625	1307.31
427.847	1300.31
428.069	1233.31
428.292	1296.31
428.514	1264.31
428.736	1249.31
428.958	1252.31
429.181	1246.31
429.403	1222.31
429.625	1215.31
429.847	1217.31
430.069	1221.31
430.292	1274.31
430.514	1193.31
430.736	1226.31
430.958	1208.31
431.18	1229.31
431.402	1210.31
431.624	1265.31
431.846	1252.31
432.068	1253.31
432.29	1267.31
432.512	1224.31
432.734	1216.31
432.956	1246.31
433.178	1261.31
433.4	1257.31
433.622	1257.31
433.844	1274.31
434.066	1264.31
434.287	1317.31
434.509	1309.31
434.731	1348.31
434.953	1400.31
435.175	1432.31
435.397	1398.31
435.618	1337.31
435.84	1328.31
436.062	1218.31
436.284	1275.31
436.505	1251.31
436.727	1234.31
436.949	1239.31
437.17	1238.31
437.392	1190.31
437.614	1236.31
437.835	1218.31
438.057	1206.31
438.278	1184.31
438.5	1191.31
438.721	1201.31
438.943	1202.31
439.165	1182.31
439.386	1181.31
439.608	1253.31
439.829	1240.31
440.05	1269.31
440.272	1246.31
440.493	1230.31
440.715	1272.31
440.936	1324.31
441.158	1327.31
441.379	1370.31
441.6	1428.31
441.822	1423.31
442.043	1421.31
442.264	1405.31
442.486	1388.31
442.707	1377.31
442.928	1413.31
443.149	1377.31
443.371	1404.31
443.592	1400.31
443.813	1418.31
444.034	1413.31
444.255	1475.31
444.476	1593.31
444.698	1648.31
444.919	1684.31
445.14	1779.31
445.361	1579.31
445.582	1471.31
445.803	1409.31
446.024	1309.31
446.245	1305.31
446.466	1289.31
446.687	1255.31
446.908	1254.31
447.129	1217.31
447.35	1194.31
447.571	1238.31
447.792	1164.31
448.013	1156.31
448.234	1171.31
448.455	1122.31
448.675	1106.31
448.896	1125.31
449.117	1115.31
449.338	1134.31
449.559	1096.31
449.779	1065.31
450	1098.31
450.221	1122.31
450.442	1141.31
450.662	1145.31
450.883	1150.31
451.104	1180.31
451.324	1136.31
451.545	1127.31
451.766	1148.31
451.986	1132.31
452.207	1150.31
452.428	1118.31
452.648	1141.31
452.869	1132.31
453.089	1089.31
453.31	1121.31
453.53	1102.31
453.751	1098.31
453.971	1089.31
454.192	1103.31
454.412	1080.31
454.633	1113.31
454.853	1112.31
455.073	1026.31
455.294	1056.31
455.514	1066.31
455.734	1062.31
455.955	1069.31
456.175	1089.31
456.395	1059.31
456.616	1068.31
456.836	1066.31
457.056	1064.31
457.276	1037.31
457.497	1048.31
457.717	1052.31
457.937	1079.31
458.157	1066.31
458.377	1062.31
458.598	1082.31
458.818	1149.31
459.038	1185.31
459.258	1240.31
459.478	1269.31
459.698	1284.31
459.918	1314.31
460.138	1416.31
460.358	1468.31
460.578	1461.31
460.798	1521.31
461.018	1538.31
461.238	1453.31
461.458	1464.31
461.678	1432.31
461.898	1485.31
462.118	1460.31
462.338	1579.31
462.558	1633.31
462.777	1717.31
462.997	1895.31
463.217	2001.31
463.437	1993.31
463.657	1868.31
463.876	1789.31
464.096	1753.31
464.316	1760.31
464.536	1740.31
464.755	1677.31
464.975	1616.31
465.195	1513.31
465.414	1435.31
465.634	1324.31
465.854	1308.31
466.073	1272.31
466.293	1250.31
466.512	1248.31
466.732	1196.31
466.951	1180.31
467.171	1201.31
467.391	1164.31
467.61	1173.31
467.829	1180.31
468.049	1158.31
468.268	1117.31
468.488	1122.31
468.707	1124.31
468.927	1149.31
469.146	1146.31
469.365	1147.31
469.585	1166.31
469.804	1202.31
470.023	1207.31
470.243	1240.31
470.462	1238.31
470.681	1225.31
470.901	1243.31
471.12	1202.31
471.339	1204.31
471.558	1149.31
471.777	1133.31
471.997	1134.31
472.216	1126.31
472.435	1128.31
472.654	1132.31
472.873	1113.31
473.092	1114.31
473.311	1112.31
473.53	1081.31
473.749	1082.31
473.968	1092.31
474.187	1106.31
474.406	1114.31
474.625	1104.31
474.844	1106.31
475.063	1111.31
475.282	1146.31
475.501	1127.31
475.72	1129.31
475.939	1137.31
476.158	1156.31
476.377	1161.31
476.596	1133.31
476.814	1180.31
477.033	1192.31
477.252	1213.31
477.471	1224.31
477.69	1230.31
477.908	1256.31
478.127	1315.31
478.346	1351.31
478.564	1334.31
478.783	1387.31
479.002	1416.31
479.22	1418.31
479.439	1418.31
479.658	1405.31
479.876	1400.31
480.095	1434.31
480.313	1496.31
480.532	1524.31
480.751	1533.31
480.969	1455.31
481.188	1389.31
481.406	1353.31
481.624	1335.31
481.843	1300.31
482.061	1288.31
482.28	1290.31
482.498	1265.31
482.717	1251.31
482.935	1251.31
483.153	1266.31
483.372	1253.31
483.59	1266.31
483.808	1277.31
484.027	1243.31
484.245	1284.31
484.463	1291.31
484.681	1330.31
484.9	1313.31
485.118	1308.31
485.336	1302.31
485.554	1318.31
485.772	1318.31
485.99	1336.31
486.209	1360.31
486.427	1338.31
486.645	1350.31
486.863	1345.31
487.081	1333.31
487.299	1317.31
487.517	1303.31
487.735	1309.31
487.953	1315.31
488.171	1354.31
488.389	1277.31
488.607	1314.31
488.825	1337.31
489.043	1323.31
489.261	1292.31
489.479	1323.31
489.696	1309.31
489.914	1330.31
490.132	1336.31
490.35	1341.31
490.568	1328.31
490.786	1321.31
491.003	1336.31
491.221	1358.31
491.439	1370.31
491.657	1342.31
491.874	1369.31
492.092	1382.31
492.31	1396.31
492.527	1362.31
492.745	1399.31
492.963	1366.31
493.18	1382.31
493.398	1396.31
493.615	1386.31
493.833	1386.31
494.05	1413.31
