Data from NiCl2@0.125M.TitratingCurve.Agarose3%dH2O.NegLispCup.LampEnergy10.LIBS07252019_HRD10591_18-27-13-574.txt Node
Date: Thu Jul 25 18:27:13 EDT 2019
User: cochatt
Spectrometer: HR+D1059
Trigger mode: 1
Integration Time (sec): 1.000000E-1
Scans to average: 1
Electric dark correction enabled: true
Nonlinearity correction enabled: false
Boxcar width: 0
XAxis mode: Wavelengths
Number of Pixels in Spectrum: 2048
>>>>>Begin Spectral Data<<<<<
223.165	-13.19
223.4	-13.19
223.635	-13.19
223.869	-11.19
224.104	-11.19
224.338	-11.19
224.573	-6.19
224.808	-19.19
225.042	-0.19
225.277	-20.19
225.511	1.81
225.746	13.81
225.98	3.81
226.215	6.81
226.449	6.81
226.683	13.81
226.918	8.81
227.152	36.81
227.387	35.81
227.621	33.81
227.856	30.81
228.09	35.81
228.324	61.81
228.559	53.81
228.793	75.81
229.027	144.81
229.262	134.81
229.496	150.81
229.73	161.81
229.964	155.81
230.199	167.81
230.433	183.81
230.667	181.81
230.901	173.81
231.136	175.81
231.37	165.81
231.604	185.81
231.838	184.81
232.072	181.81
232.306	199.81
232.541	203.81
232.775	191.81
233.009	194.81
233.243	197.81
233.477	203.81
233.711	195.81
233.945	201.81
234.179	202.81
234.413	194.81
234.647	201.81
234.881	208.81
235.115	200.81
235.349	203.81
235.583	210.81
235.817	205.81
236.051	209.81
236.285	209.81
236.519	210.81
236.753	212.81
236.987	201.81
237.221	225.81
237.455	205.81
237.689	233.81
237.922	201.81
238.156	242.81
238.39	245.81
238.624	249.81
238.858	233.81
239.091	224.81
239.325	226.81
239.559	241.81
239.793	259.81
240.027	244.81
240.26	248.81
240.494	238.81
240.728	240.81
240.961	250.81
241.195	255.81
241.429	258.81
241.662	272.81
241.896	266.81
242.13	266.81
242.363	268.81
242.597	278.81
242.83	273.81
243.064	274.81
243.298	271.81
243.531	309.81
243.765	275.81
243.998	296.81
244.232	277.81
244.465	320.81
244.699	295.81
244.932	313.81
245.166	315.81
245.399	307.81
245.633	300.81
245.866	295.81
246.099	294.81
246.333	294.81
246.566	300.81
246.8	312.81
247.033	324.81
247.266	326.81
247.5	311.81
247.733	320.81
247.966	327.81
248.2	348.81
248.433	331.81
248.666	343.81
248.899	346.81
249.133	339.81
249.366	334.81
249.599	346.81
249.832	364.81
250.066	348.81
250.299	353.81
250.532	381.81
250.765	381.81
250.998	371.81
251.231	380.81
251.465	372.81
251.698	383.81
251.931	384.81
252.164	374.81
252.397	406.81
252.63	389.81
252.863	398.81
253.096	397.81
253.329	412.81
253.562	395.81
253.795	395.81
254.028	424.81
254.261	417.81
254.494	392.81
254.727	406.81
254.96	405.81
255.193	434.81
255.426	406.81
255.659	411.81
255.892	409.81
256.124	432.81
256.357	421.81
256.59	432.81
256.823	428.81
257.056	435.81
257.289	440.81
257.521	410.81
257.754	432.81
257.987	417.81
258.22	436.81
258.452	450.81
258.685	453.81
258.918	451.81
259.151	454.81
259.383	465.81
259.616	441.81
259.849	472.81
260.081	456.81
260.314	488.81
260.547	453.81
260.779	468.81
261.012	465.81
261.244	460.81
261.477	452.81
261.71	495.81
261.942	469.81
262.175	483.81
262.407	496.81
262.64	472.81
262.872	479.81
263.105	476.81
263.337	497.81
263.57	496.81
263.802	506.81
264.035	499.81
264.267	504.81
264.499	514.81
264.732	503.81
264.964	513.81
265.197	526.81
265.429	536.81
265.661	511.81
265.894	508.81
266.126	533.81
266.358	515.81
266.591	539.81
266.823	522.81
267.055	543.81
267.287	547.81
267.52	529.81
267.752	521.81
267.984	537.81
268.216	530.81
268.448	551.81
268.681	556.81
268.913	539.81
269.145	567.81
269.377	551.81
269.609	559.81
269.841	554.81
270.073	559.81
270.306	587.81
270.538	559.81
270.77	554.81
271.002	589.81
271.234	550.81
271.466	565.81
271.698	578.81
271.93	588.81
272.162	561.81
272.394	596.81
272.626	579.81
272.858	579.81
273.09	581.81
273.322	589.81
273.553	608.81
273.785	624.81
274.017	635.81
274.249	623.81
274.481	603.81
274.713	598.81
274.945	624.81
275.176	609.81
275.408	635.81
275.64	631.81
275.872	623.81
276.104	643.81
276.335	635.81
276.567	642.81
276.799	619.81
277.031	643.81
277.262	634.81
277.494	613.81
277.726	643.81
277.957	673.81
278.189	632.81
278.421	641.81
278.652	663.81
278.884	662.81
279.115	668.81
279.347	657.81
279.579	684.81
279.81	667.81
280.042	671.81
280.273	683.81
280.505	671.81
280.736	688.81
280.968	689.81
281.199	680.81
281.431	705.81
281.662	700.81
281.894	696.81
282.125	711.81
282.356	713.81
282.588	696.81
282.819	722.81
283.051	708.81
283.282	708.81
283.513	713.81
283.745	728.81
283.976	727.81
284.207	734.81
284.439	719.81
284.67	722.81
284.901	720.81
285.132	748.81
285.364	728.81
285.595	757.81
285.826	739.81
286.057	751.81
286.288	740.81
286.52	753.81
286.751	758.81
286.982	767.81
287.213	743.81
287.444	747.81
287.675	780.81
287.906	772.81
288.138	763.81
288.369	757.81
288.6	793.81
288.831	779.81
289.062	795.81
289.293	774.81
289.524	777.81
289.755	787.81
289.986	769.81
290.217	799.81
290.448	784.81
290.679	784.81
290.91	771.81
291.141	778.81
291.371	797.81
291.602	795.81
291.833	792.81
292.064	810.81
292.295	768.81
292.526	818.81
292.757	805.81
292.987	796.81
293.218	795.81
293.449	802.81
293.68	809.81
293.91	828.81
294.141	830.81
294.372	782.81
294.603	804.81
294.833	811.81
295.064	826.81
295.295	811.81
295.525	812.81
295.756	809.81
295.987	819.81
296.217	839.81
296.448	844.81
296.679	827.81
296.909	817.81
297.14	807.81
297.37	841.81
297.601	898.81
297.831	858.81
298.062	847.81
298.292	885.81
298.523	891.81
298.753	880.81
298.984	885.81
299.214	878.81
299.445	866.81
299.675	881.81
299.905	857.81
300.136	864.81
300.366	887.81
300.597	879.81
300.827	891.81
301.057	910.81
301.288	927.81
301.518	899.81
301.748	916.81
301.979	954.81
302.209	927.81
302.439	907.81
302.669	902.81
302.9	898.81
303.13	899.81
303.36	940.81
303.59	903.81
303.82	905.81
304.051	926.81
304.281	908.81
304.511	898.81
304.741	913.81
304.971	914.81
305.201	902.81
305.431	915.81
305.661	895.81
305.891	885.81
306.121	927.81
306.352	894.81
306.582	896.81
306.812	886.81
307.042	883.81
307.272	904.81
307.502	900.81
307.731	921.81
307.961	860.81
308.191	925.81
308.421	935.81
308.651	893.81
308.881	860.81
309.111	901.81
309.341	883.81
309.571	895.81
309.8	904.81
310.03	911.81
310.26	876.81
310.49	888.81
310.72	913.81
310.949	888.81
311.179	909.81
311.409	917.81
311.639	921.81
311.868	940.81
312.098	900.81
312.328	952.81
312.557	924.81
312.787	930.81
313.017	937.81
313.246	945.81
313.476	926.81
313.706	938.81
313.935	993.81
314.165	968.81
314.394	972.81
314.624	945.81
314.853	949.81
315.083	982.81
315.312	959.81
315.542	942.81
315.771	953.81
316.001	947.81
316.23	966.81
316.46	959.81
316.689	959.81
316.919	935.81
317.148	959.81
317.377	934.81
317.607	919.81
317.836	922.81
318.065	951.81
318.295	971.81
318.524	951.81
318.753	931.81
318.983	961.81
319.212	934.81
319.441	939.81
319.67	956.81
319.9	954.81
320.129	961.81
320.358	928.81
320.587	951.81
320.816	923.81
321.046	950.81
321.275	963.81
321.504	927.81
321.733	965.81
321.962	961.81
322.191	956.81
322.42	980.81
322.649	996.81
322.878	948.81
323.108	948.81
323.337	980.81
323.566	970.81
323.795	994.81
324.024	1009.81
324.253	949.81
324.482	995.81
324.71	987.81
324.939	1028.81
325.168	1006.81
325.397	990.81
325.626	999.81
325.855	1022.81
326.084	1021.81
326.313	1009.81
326.542	1049.81
326.77	1062.81
326.999	1018.81
327.228	991.81
327.457	1039.81
327.686	1046.81
327.914	1044.81
328.143	1023.81
328.372	1064.81
328.6	1037.81
328.829	1035.81
329.058	1047.81
329.287	1051.81
329.515	1056.81
329.744	1032.81
329.972	1061.81
330.201	1076.81
330.43	1081.81
330.658	1082.81
330.887	1063.81
331.115	1093.81
331.344	1098.81
331.572	1117.81
331.801	1145.81
332.03	1140.81
332.258	1157.81
332.486	1181.81
332.715	1243.81
332.943	1264.81
333.172	1287.81
333.4	1344.81
333.629	1367.81
333.857	1387.81
334.085	1412.81
334.314	1367.81
334.542	1369.81
334.771	1372.81
334.999	1341.81
335.227	1290.81
335.455	1329.81
335.684	1305.81
335.912	1308.81
336.14	1291.81
336.369	1285.81
336.597	1280.81
336.825	1275.81
337.053	1264.81
337.281	1232.81
337.51	1250.81
337.738	1209.81
337.966	1165.81
338.194	1178.81
338.422	1126.81
338.65	1138.81
338.878	1151.81
339.106	1144.81
339.334	1145.81
339.562	1111.81
339.79	1096.81
340.018	1104.81
340.246	1084.81
340.474	1073.81
340.702	1072.81
340.93	1108.81
341.158	1098.81
341.386	1117.81
341.614	1106.81
341.842	1101.81
342.07	1077.81
342.298	1098.81
342.526	1065.81
342.754	1073.81
342.981	1064.81
343.209	1126.81
343.437	1169.81
343.665	1215.81
343.893	1292.81
344.12	1358.81
344.348	1313.81
344.576	1259.81
344.804	1223.81
345.031	1159.81
345.259	1120.81
345.487	1117.81
345.714	1079.81
345.942	1117.81
346.17	1108.81
346.397	1070.81
346.625	1025.81
346.853	1048.81
347.08	1047.81
347.308	1040.81
347.535	1081.81
347.763	1053.81
347.99	1025.81
348.218	1041.81
348.445	1042.81
348.673	1039.81
348.9	1055.81
349.128	1051.81
349.355	1025.81
349.583	1034.81
349.81	1044.81
350.037	1014.81
350.265	1023.81
350.492	1029.81
350.72	1027.81
350.947	1020.81
351.174	1061.81
351.402	1025.81
351.629	1007.81
351.856	999.81
352.083	999.81
352.311	997.81
352.538	1008.81
352.765	991.81
352.992	1001.81
353.22	1003.81
353.447	1018.81
353.674	1011.81
353.901	1009.81
354.128	1007.81
354.355	989.81
354.583	997.81
354.81	1000.81
355.037	1013.81
355.264	1020.81
355.491	1025.81
355.718	1028.81
355.945	1012.81
356.172	1036.81
356.399	1018.81
356.626	1007.81
356.853	1035.81
357.08	1036.81
357.307	1035.81
357.534	1009.81
357.761	1041.81
357.988	1026.81
358.215	969.81
358.441	1010.81
358.668	1008.81
358.895	1034.81
359.122	1010.81
359.349	1020.81
359.576	1019.81
359.802	1022.81
360.029	1019.81
360.256	992.81
360.483	991.81
360.709	1032.81
360.936	1033.81
361.163	1002.81
361.39	997.81
361.616	1018.81
361.843	1013.81
362.07	1033.81
362.296	1029.81
362.523	999.81
362.749	1012.81
362.976	1015.81
363.203	1001.81
363.429	992.81
363.656	998.81
363.882	1033.81
364.109	1014.81
364.335	1023.81
364.562	1003.81
364.788	1011.81
365.015	1001.81
365.241	984.81
365.468	985.81
365.694	998.81
365.92	1044.81
366.147	996.81
366.373	1012.81
366.599	1031.81
366.826	1024.81
367.052	1040.81
367.278	1026.81
367.505	1042.81
367.731	1028.81
367.957	1023.81
368.184	1015.81
368.41	1024.81
368.636	1036.81
368.862	1032.81
369.089	1062.81
369.315	1050.81
369.541	1031.81
369.767	1056.81
369.993	1077.81
370.219	1070.81
370.445	1103.81
370.672	1112.81
370.898	1095.81
371.124	1115.81
371.35	1155.81
371.576	1130.81
371.802	1094.81
372.028	1116.81
372.254	1114.81
372.48	1112.81
372.706	1141.81
372.932	1146.81
373.158	1134.81
373.384	1120.81
373.61	1108.81
373.835	1129.81
374.061	1103.81
374.287	1129.81
374.513	1108.81
374.739	1171.81
374.965	1202.81
375.191	1223.81
375.416	1191.81
375.642	1185.81
375.868	1168.81
376.094	1130.81
376.319	1170.81
376.545	1120.81
376.771	1147.81
376.997	1140.81
377.222	1133.81
377.448	1125.81
377.674	1109.81
377.899	1115.81
378.125	1091.81
378.35	1080.81
378.576	1095.81
378.802	1065.81
379.027	1107.81
379.253	1117.81
379.478	1066.81
379.704	1103.81
379.929	1111.81
380.155	1093.81
380.38	1112.81
380.606	1089.81
380.831	1089.81
381.057	1127.81
381.282	1073.81
381.507	1101.81
381.733	1117.81
381.958	1123.81
382.184	1148.81
382.409	1119.81
382.634	1161.81
382.86	1140.81
383.085	1166.81
383.31	1163.81
383.535	1183.81
383.761	1197.81
383.986	1256.81
384.211	1233.81
384.436	1275.81
384.662	1279.81
384.887	1276.81
385.112	1327.81
385.337	1313.81
385.562	1332.81
385.787	1338.81
386.013	1356.81
386.238	1360.81
386.463	1372.81
386.688	1317.81
386.913	1345.81
387.138	1338.81
387.363	1320.81
387.588	1343.81
387.813	1326.81
388.038	1331.81
388.263	1325.81
388.488	1321.81
388.713	1324.81
388.938	1308.81
389.163	1301.81
389.387	1321.81
389.612	1295.81
389.837	1341.81
390.062	1305.81
390.287	1319.81
390.512	1307.81
390.736	1329.81
390.961	1320.81
391.186	1375.81
391.411	1417.81
391.636	1425.81
391.86	1502.81
392.085	1514.81
392.31	1460.81
392.534	1459.81
392.759	1466.81
392.984	1431.81
393.208	1405.81
393.433	1441.81
393.658	1429.81
393.882	1430.81
394.107	1442.81
394.331	1424.81
394.556	1447.81
394.78	1412.81
395.005	1446.81
395.229	1467.81
395.454	1493.81
395.678	1474.81
395.903	1505.81
396.127	1512.81
396.352	1460.81
396.576	1436.81
396.801	1421.81
397.025	1498.81
397.249	1478.81
397.474	1513.81
397.698	1511.81
397.922	1508.81
398.147	1520.81
398.371	1564.81
398.595	1626.81
398.82	1669.81
399.044	1791.81
399.268	1949.81
399.492	2207.81
399.717	2439.81
399.941	2459.81
400.165	2244.81
400.389	2041.81
400.613	1898.81
400.837	1823.81
401.062	1796.81
401.286	1718.81
401.51	1687.81
401.734	1665.81
401.958	1735.81
402.182	1683.81
402.406	1692.81
402.63	1729.81
402.854	1757.81
403.078	1806.81
403.302	1842.81
403.526	1831.81
403.75	1856.81
403.974	1903.81
404.198	1891.81
404.422	1937.81
404.645	1922.81
404.869	1901.81
405.093	1868.81
405.317	1836.81
405.541	1850.81
405.765	1857.81
405.988	1827.81
406.212	1875.81
406.436	1815.81
406.66	1877.81
406.883	1903.81
407.107	2001.81
407.331	2085.81
407.555	2168.81
407.778	2106.81
408.002	2122.81
408.226	2007.81
408.449	2033.81
408.673	1933.81
408.896	1928.81
409.12	1917.81
409.344	1906.81
409.567	1890.81
409.791	1897.81
410.014	1881.81
410.238	1869.81
410.461	1880.81
410.685	1830.81
410.908	1793.81
411.132	1795.81
411.355	1729.81
411.578	1765.81
411.802	1755.81
412.025	1760.81
412.249	1777.81
412.472	1774.81
412.695	1691.81
412.919	1705.81
413.142	1685.81
413.365	1674.81
413.589	1700.81
413.812	1685.81
414.035	1653.81
414.258	1643.81
414.482	1702.81
414.705	1689.81
414.928	1729.81
415.151	1691.81
415.374	1676.81
415.597	1640.81
415.821	1611.81
416.044	1619.81
416.267	1633.81
416.49	1603.81
416.713	1653.81
416.936	1650.81
417.159	1632.81
417.382	1637.81
417.605	1638.81
417.828	1629.81
418.051	1680.81
418.274	1658.81
418.497	1639.81
418.72	1692.81
418.943	1716.81
419.166	1759.81
419.389	1888.81
419.611	1869.81
419.834	1799.81
420.057	1738.81
420.28	1698.81
420.503	1657.81
420.726	1619.81
420.948	1647.81
421.171	1618.81
421.394	1630.81
421.617	1626.81
421.839	1635.81
422.062	1669.81
422.285	1597.81
422.507	1687.81
422.73	1662.81
422.953	1720.81
423.175	1756.81
423.398	1777.81
423.621	1725.81
423.843	1729.81
424.066	1772.81
424.288	1712.81
424.511	1699.81
424.733	1723.81
424.956	1672.81
425.178	1651.81
425.401	1674.81
425.623	1650.81
425.846	1609.81
426.068	1593.81
426.291	1600.81
426.513	1566.81
426.735	1510.81
426.958	1566.81
427.18	1528.81
427.402	1536.81
427.625	1527.81
427.847	1506.81
428.069	1484.81
428.292	1524.81
428.514	1457.81
428.736	1476.81
428.958	1507.81
429.181	1439.81
429.403	1439.81
429.625	1459.81
429.847	1438.81
430.069	1439.81
430.292	1478.81
430.514	1425.81
430.736	1457.81
430.958	1461.81
431.18	1436.81
431.402	1456.81
431.624	1424.81
431.846	1483.81
432.068	1482.81
432.29	1473.81
432.512	1457.81
432.734	1453.81
432.956	1421.81
433.178	1425.81
433.4	1459.81
433.622	1506.81
433.844	1517.81
434.066	1514.81
434.287	1546.81
434.509	1560.81
434.731	1561.81
434.953	1659.81
435.175	1660.81
435.397	1612.81
435.618	1559.81
435.84	1515.81
436.062	1496.81
436.284	1465.81
436.505	1442.81
436.727	1481.81
436.949	1497.81
437.17	1471.81
437.392	1436.81
437.614	1430.81
437.835	1371.81
438.057	1408.81
438.278	1403.81
438.5	1391.81
438.721	1443.81
438.943	1429.81
439.165	1431.81
439.386	1406.81
439.608	1481.81
439.829	1432.81
440.05	1422.81
440.272	1505.81
440.493	1452.81
440.715	1484.81
440.936	1513.81
441.158	1505.81
441.379	1574.81
441.6	1618.81
441.822	1646.81
442.043	1649.81
442.264	1612.81
442.486	1583.81
442.707	1649.81
442.928	1619.81
443.149	1621.81
443.371	1658.81
443.592	1633.81
443.813	1619.81
444.034	1659.81
444.255	1721.81
444.476	1804.81
444.698	1855.81
444.919	1919.81
445.14	1949.81
445.361	1827.81
445.582	1696.81
445.803	1632.81
446.024	1570.81
446.245	1553.81
446.466	1521.81
446.687	1487.81
446.908	1494.81
447.129	1460.81
447.35	1419.81
447.571	1441.81
447.792	1366.81
448.013	1409.81
448.234	1351.81
448.455	1378.81
448.675	1335.81
448.896	1359.81
449.117	1295.81
449.338	1323.81
449.559	1319.81
449.779	1294.81
450	1315.81
450.221	1315.81
450.442	1331.81
450.662	1322.81
450.883	1349.81
451.104	1362.81
451.324	1358.81
451.545	1335.81
451.766	1337.81
451.986	1332.81
452.207	1329.81
452.428	1324.81
452.648	1309.81
452.869	1314.81
453.089	1269.81
453.31	1319.81
453.53	1290.81
453.751	1262.81
453.971	1267.81
454.192	1277.81
454.412	1261.81
454.633	1253.81
454.853	1267.81
455.073	1257.81
455.294	1253.81
455.514	1223.81
455.734	1248.81
455.955	1226.81
456.175	1204.81
456.395	1254.81
456.616	1220.81
456.836	1236.81
457.056	1267.81
457.276	1223.81
457.497	1235.81
457.717	1275.81
457.937	1268.81
458.157	1308.81
458.377	1314.81
458.598	1336.81
458.818	1347.81
459.038	1363.81
459.258	1433.81
459.478	1457.81
459.698	1499.81
459.918	1515.81
460.138	1632.81
460.358	1673.81
460.578	1669.81
460.798	1687.81
461.018	1747.81
461.238	1706.81
461.458	1669.81
461.678	1670.81
461.898	1723.81
462.118	1732.81
462.338	1836.81
462.558	1857.81
462.777	1928.81
462.997	2095.81
463.217	2214.81
463.437	2260.81
463.657	2125.81
463.876	2011.81
464.096	2003.81
464.316	1924.81
464.536	1984.81
464.755	1881.81
464.975	1861.81
465.195	1767.81
465.414	1701.81
465.634	1617.81
465.854	1506.81
466.073	1510.81
466.293	1497.81
466.512	1431.81
466.732	1449.81
466.951	1400.81
467.171	1415.81
467.391	1425.81
467.61	1385.81
467.829	1368.81
468.049	1378.81
468.268	1338.81
468.488	1352.81
468.707	1354.81
468.927	1337.81
469.146	1318.81
469.365	1389.81
469.585	1382.81
469.804	1394.81
470.023	1413.81
470.243	1409.81
470.462	1437.81
470.681	1441.81
470.901	1431.81
471.12	1413.81
471.339	1387.81
471.558	1397.81
471.777	1375.81
471.997	1377.81
472.216	1327.81
472.435	1333.81
472.654	1315.81
472.873	1352.81
473.092	1337.81
473.311	1322.81
473.53	1324.81
473.749	1345.81
473.968	1315.81
474.187	1289.81
474.406	1292.81
474.625	1295.81
474.844	1315.81
475.063	1320.81
475.282	1321.81
475.501	1350.81
475.72	1339.81
475.939	1371.81
476.158	1357.81
476.377	1365.81
476.596	1355.81
476.814	1407.81
477.033	1407.81
477.252	1460.81
477.471	1441.81
477.69	1501.81
477.908	1510.81
478.127	1563.81
478.346	1594.81
478.564	1589.81
478.783	1599.81
479.002	1673.81
479.22	1675.81
479.439	1679.81
479.658	1628.81
479.876	1641.81
480.095	1673.81
480.313	1753.81
480.532	1758.81
480.751	1752.81
480.969	1743.81
481.188	1665.81
481.406	1599.81
481.624	1597.81
481.843	1561.81
482.061	1529.81
482.28	1522.81
482.498	1522.81
482.717	1518.81
482.935	1551.81
483.153	1526.81
483.372	1549.81
483.59	1528.81
483.808	1530.81
484.027	1523.81
484.245	1533.81
484.463	1573.81
484.681	1595.81
484.9	1587.81
485.118	1633.81
485.336	1612.81
485.554	1610.81
485.772	1611.81
485.99	1581.81
486.209	1612.81
486.427	1606.81
486.645	1625.81
486.863	1637.81
487.081	1604.81
487.299	1613.81
487.517	1586.81
487.735	1600.81
487.953	1587.81
488.171	1609.81
488.389	1551.81
488.607	1588.81
488.825	1593.81
489.043	1575.81
489.261	1571.81
489.479	1542.81
489.696	1590.81
489.914	1594.81
490.132	1615.81
490.35	1612.81
490.568	1607.81
490.786	1633.81
491.003	1621.81
491.221	1610.81
491.439	1605.81
491.657	1658.81
