Data from NiCl2@0.0625M.TitratingCurve.Agarose3%dH2O.NegLispCup.LampEnergy10.LIBS07252019_HRD10591_18-32-51-576.txt Node
Date: Thu Jul 25 18:32:51 EDT 2019
User: cochatt
Spectrometer: HR+D1059
Trigger mode: 1
Integration Time (sec): 1.000000E-1
Scans to average: 1
Electric dark correction enabled: true
Nonlinearity correction enabled: false
Boxcar width: 0
XAxis mode: Wavelengths
Number of Pixels in Spectrum: 2048
>>>>>Begin Spectral Data<<<<<
223.165	-17.25
223.4	-17.25
223.635	-17.25
223.869	-5.25
224.104	-21.25
224.338	-1.25
224.573	-24.25
224.808	-11.25
225.042	-3.25
225.277	-0.25
225.511	-11.25
225.746	8.75
225.98	2.75
226.215	7.75
226.449	7.75
226.683	19.75
226.918	20.75
227.152	27.75
227.387	31.75
227.621	21.75
227.856	46.75
228.09	35.75
228.324	48.75
228.559	47.75
228.793	73.75
229.027	110.75
229.262	135.75
229.496	137.75
229.73	170.75
229.964	159.75
230.199	193.75
230.433	183.75
230.667	184.75
230.901	178.75
231.136	168.75
231.37	183.75
231.604	208.75
231.838	187.75
232.072	196.75
232.306	193.75
232.541	204.75
232.775	208.75
233.009	224.75
233.243	205.75
233.477	189.75
233.711	209.75
233.945	224.75
234.179	220.75
234.413	197.75
234.647	204.75
234.881	215.75
235.115	228.75
235.349	223.75
235.583	232.75
235.817	216.75
236.051	222.75
236.285	233.75
236.519	230.75
236.753	220.75
236.987	241.75
237.221	233.75
237.455	235.75
237.689	256.75
237.922	245.75
238.156	257.75
238.39	254.75
238.624	249.75
238.858	244.75
239.091	254.75
239.325	266.75
239.559	253.75
239.793	269.75
240.027	278.75
240.26	282.75
240.494	278.75
240.728	286.75
240.961	272.75
241.195	284.75
241.429	264.75
241.662	287.75
241.896	284.75
242.13	314.75
242.363	301.75
242.597	313.75
242.83	290.75
243.064	311.75
243.298	305.75
243.531	311.75
243.765	314.75
243.998	337.75
244.232	337.75
244.465	328.75
244.699	329.75
244.932	330.75
245.166	336.75
245.399	359.75
245.633	329.75
245.866	345.75
246.099	349.75
246.333	349.75
246.566	368.75
246.8	367.75
247.033	362.75
247.266	372.75
247.5	352.75
247.733	357.75
247.966	370.75
248.2	414.75
248.433	390.75
248.666	381.75
248.899	406.75
249.133	392.75
249.366	375.75
249.599	402.75
249.832	382.75
250.066	384.75
250.299	398.75
250.532	398.75
250.765	415.75
250.998	446.75
251.231	436.75
251.465	414.75
251.698	418.75
251.931	433.75
252.164	416.75
252.397	416.75
252.63	454.75
252.863	450.75
253.096	437.75
253.329	442.75
253.562	464.75
253.795	454.75
254.028	450.75
254.261	436.75
254.494	466.75
254.727	464.75
254.96	435.75
255.193	474.75
255.426	471.75
255.659	458.75
255.892	502.75
256.124	473.75
256.357	482.75
256.59	468.75
256.823	488.75
257.056	496.75
257.289	478.75
257.521	502.75
257.754	505.75
257.987	490.75
258.22	473.75
258.452	512.75
258.685	507.75
258.918	517.75
259.151	522.75
259.383	517.75
259.616	488.75
259.849	503.75
260.081	506.75
260.314	530.75
260.547	544.75
260.779	542.75
261.012	545.75
261.244	559.75
261.477	540.75
261.71	542.75
261.942	541.75
262.175	551.75
262.407	566.75
262.64	554.75
262.872	535.75
263.105	537.75
263.337	563.75
263.57	568.75
263.802	573.75
264.035	574.75
264.267	580.75
264.499	554.75
264.732	576.75
264.964	580.75
265.197	586.75
265.429	584.75
265.661	598.75
265.894	610.75
266.126	580.75
266.358	595.75
266.591	584.75
266.823	597.75
267.055	611.75
267.287	615.75
267.52	616.75
267.752	616.75
267.984	644.75
268.216	644.75
268.448	625.75
268.681	620.75
268.913	642.75
269.145	638.75
269.377	644.75
269.609	648.75
269.841	638.75
270.073	654.75
270.306	639.75
270.538	649.75
270.77	642.75
271.002	648.75
271.234	648.75
271.466	660.75
271.698	664.75
271.93	656.75
272.162	657.75
272.394	657.75
272.626	676.75
272.858	668.75
273.09	680.75
273.322	688.75
273.553	684.75
273.785	684.75
274.017	699.75
274.249	693.75
274.481	682.75
274.713	714.75
274.945	704.75
275.176	733.75
275.408	717.75
275.64	730.75
275.872	722.75
276.104	733.75
276.335	728.75
276.567	726.75
276.799	745.75
277.031	723.75
277.262	726.75
277.494	761.75
277.726	744.75
277.957	746.75
278.189	734.75
278.421	732.75
278.652	763.75
278.884	735.75
279.115	757.75
279.347	771.75
279.579	781.75
279.81	755.75
280.042	761.75
280.273	802.75
280.505	773.75
280.736	765.75
280.968	782.75
281.199	794.75
281.431	805.75
281.662	797.75
281.894	800.75
282.125	799.75
282.356	820.75
282.588	834.75
282.819	814.75
283.051	803.75
283.282	819.75
283.513	812.75
283.745	844.75
283.976	817.75
284.207	826.75
284.439	841.75
284.67	842.75
284.901	840.75
285.132	812.75
285.364	837.75
285.595	851.75
285.826	850.75
286.057	873.75
286.288	846.75
286.52	849.75
286.751	860.75
286.982	876.75
287.213	877.75
287.444	880.75
287.675	906.75
287.906	870.75
288.138	862.75
288.369	878.75
288.6	895.75
288.831	892.75
289.062	878.75
289.293	873.75
289.524	892.75
289.755	917.75
289.986	871.75
290.217	887.75
290.448	895.75
290.679	897.75
290.91	904.75
291.141	896.75
291.371	892.75
291.602	920.75
291.833	916.75
292.064	917.75
292.295	907.75
292.526	903.75
292.757	902.75
292.987	896.75
293.218	926.75
293.449	914.75
293.68	897.75
293.91	906.75
294.141	886.75
294.372	918.75
294.603	917.75
294.833	913.75
295.064	905.75
295.295	968.75
295.525	938.75
295.756	938.75
295.987	914.75
296.217	941.75
296.448	908.75
296.679	944.75
296.909	942.75
297.14	968.75
297.37	972.75
297.601	968.75
297.831	976.75
298.062	966.75
298.292	1010.75
298.523	1000.75
298.753	992.75
298.984	988.75
299.214	997.75
299.445	998.75
299.675	980.75
299.905	999.75
300.136	990.75
300.366	1000.75
300.597	995.75
300.827	1029.75
301.057	1047.75
301.288	1031.75
301.518	1048.75
301.748	1035.75
301.979	1039.75
302.209	1087.75
302.439	1039.75
302.669	1032.75
302.9	1032.75
303.13	1043.75
303.36	1019.75
303.59	1071.75
303.82	1060.75
304.051	1026.75
304.281	1056.75
304.511	1016.75
304.741	1056.75
304.971	1030.75
305.201	1052.75
305.431	1046.75
305.661	1054.75
305.891	1036.75
306.121	1018.75
306.352	1044.75
306.582	1027.75
306.812	1037.75
307.042	1048.75
307.272	1004.75
307.502	993.75
307.731	1026.75
307.961	1020.75
308.191	1017.75
308.421	1055.75
308.651	1029.75
308.881	1000.75
309.111	1015.75
309.341	1025.75
309.571	1065.75
309.8	1052.75
310.03	1028.75
310.26	1027.75
310.49	1045.75
310.72	1054.75
310.949	1049.75
311.179	1045.75
311.409	1054.75
311.639	1047.75
311.868	1034.75
312.098	1068.75
312.328	1064.75
312.557	1059.75
312.787	1081.75
313.017	1068.75
313.246	1076.75
313.476	1081.75
313.706	1081.75
313.935	1103.75
314.165	1100.75
314.394	1104.75
314.624	1094.75
314.853	1089.75
315.083	1103.75
315.312	1108.75
315.542	1129.75
315.771	1126.75
316.001	1097.75
316.23	1103.75
316.46	1121.75
316.689	1116.75
316.919	1085.75
317.148	1106.75
317.377	1130.75
317.607	1081.75
317.836	1084.75
318.065	1093.75
318.295	1096.75
318.524	1093.75
318.753	1115.75
318.983	1090.75
319.212	1048.75
319.441	1104.75
319.67	1085.75
319.9	1091.75
320.129	1116.75
320.358	1106.75
320.587	1121.75
320.816	1098.75
321.046	1106.75
321.275	1104.75
321.504	1081.75
321.733	1105.75
321.962	1106.75
322.191	1107.75
322.42	1107.75
322.649	1153.75
322.878	1086.75
323.108	1123.75
323.337	1116.75
323.566	1132.75
323.795	1143.75
324.024	1152.75
324.253	1127.75
324.482	1163.75
324.71	1138.75
324.939	1153.75
325.168	1168.75
325.397	1182.75
325.626	1147.75
325.855	1193.75
326.084	1191.75
326.313	1188.75
326.542	1202.75
326.77	1204.75
326.999	1192.75
327.228	1155.75
327.457	1164.75
327.686	1181.75
327.914	1191.75
328.143	1220.75
328.372	1216.75
328.6	1203.75
328.829	1208.75
329.058	1185.75
329.287	1217.75
329.515	1244.75
329.744	1235.75
329.972	1207.75
330.201	1197.75
330.43	1242.75
330.658	1226.75
330.887	1239.75
331.115	1271.75
331.344	1266.75
331.572	1280.75
331.801	1304.75
332.03	1280.75
332.258	1326.75
332.486	1375.75
332.715	1334.75
332.943	1433.75
333.172	1438.75
333.4	1504.75
333.629	1510.75
333.857	1567.75
334.085	1523.75
334.314	1525.75
334.542	1482.75
334.771	1515.75
334.999	1455.75
335.227	1468.75
335.455	1512.75
335.684	1461.75
335.912	1486.75
336.14	1475.75
336.369	1476.75
336.597	1477.75
336.825	1433.75
337.053	1414.75
337.281	1402.75
337.51	1385.75
337.738	1346.75
337.966	1354.75
338.194	1389.75
338.422	1300.75
338.65	1312.75
338.878	1294.75
339.106	1312.75
339.334	1297.75
339.562	1321.75
339.79	1305.75
340.018	1278.75
340.246	1270.75
340.474	1264.75
340.702	1252.75
340.93	1280.75
341.158	1313.75
341.386	1265.75
341.614	1270.75
341.842	1281.75
342.07	1276.75
342.298	1265.75
342.526	1259.75
342.754	1241.75
342.981	1267.75
343.209	1279.75
343.437	1350.75
343.665	1389.75
343.893	1457.75
344.12	1496.75
344.348	1464.75
344.576	1408.75
344.804	1381.75
345.031	1338.75
345.259	1302.75
345.487	1298.75
345.714	1283.75
345.942	1266.75
346.17	1263.75
346.397	1235.75
346.625	1215.75
346.853	1199.75
347.08	1209.75
347.308	1181.75
347.535	1206.75
347.763	1214.75
347.99	1225.75
348.218	1214.75
348.445	1236.75
348.673	1217.75
348.9	1206.75
349.128	1202.75
349.355	1188.75
349.583	1200.75
349.81	1204.75
350.037	1230.75
350.265	1200.75
350.492	1210.75
350.72	1173.75
350.947	1172.75
351.174	1181.75
351.402	1162.75
351.629	1166.75
351.856	1154.75
352.083	1141.75
352.311	1175.75
352.538	1189.75
352.765	1165.75
352.992	1147.75
353.22	1172.75
353.447	1172.75
353.674	1145.75
353.901	1168.75
354.128	1145.75
354.355	1168.75
354.583	1160.75
354.81	1147.75
355.037	1158.75
355.264	1171.75
355.491	1200.75
355.718	1155.75
355.945	1171.75
356.172	1187.75
356.399	1161.75
356.626	1153.75
356.853	1181.75
357.08	1186.75
357.307	1176.75
357.534	1161.75
357.761	1173.75
357.988	1189.75
358.215	1196.75
358.441	1161.75
358.668	1162.75
358.895	1154.75
359.122	1169.75
359.349	1206.75
359.576	1171.75
359.802	1152.75
360.029	1163.75
360.256	1167.75
360.483	1188.75
360.709	1148.75
360.936	1181.75
361.163	1168.75
361.39	1182.75
361.616	1172.75
361.843	1174.75
362.07	1175.75
362.296	1170.75
362.523	1158.75
362.749	1193.75
362.976	1186.75
363.203	1173.75
363.429	1150.75
363.656	1190.75
363.882	1166.75
364.109	1185.75
364.335	1168.75
364.562	1160.75
364.788	1160.75
365.015	1200.75
365.241	1169.75
365.468	1147.75
365.694	1178.75
365.92	1184.75
366.147	1154.75
366.373	1180.75
366.599	1190.75
366.826	1163.75
367.052	1203.75
367.278	1174.75
367.505	1170.75
367.731	1175.75
367.957	1155.75
368.184	1200.75
368.41	1185.75
368.636	1202.75
368.862	1183.75
369.089	1221.75
369.315	1174.75
369.541	1221.75
369.767	1224.75
369.993	1210.75
370.219	1220.75
370.445	1201.75
370.672	1255.75
370.898	1256.75
371.124	1286.75
371.35	1276.75
371.576	1272.75
371.802	1269.75
372.028	1223.75
372.254	1260.75
372.48	1266.75
372.706	1316.75
372.932	1326.75
373.158	1354.75
373.384	1302.75
373.61	1273.75
373.835	1272.75
374.061	1301.75
374.287	1313.75
374.513	1305.75
374.739	1352.75
374.965	1344.75
375.191	1381.75
375.416	1380.75
375.642	1336.75
375.868	1336.75
376.094	1317.75
376.319	1300.75
376.545	1315.75
376.771	1285.75
376.997	1296.75
377.222	1279.75
377.448	1286.75
377.674	1295.75
377.899	1257.75
378.125	1271.75
378.35	1248.75
378.576	1236.75
378.802	1264.75
379.027	1305.75
379.253	1274.75
379.478	1247.75
379.704	1257.75
379.929	1253.75
380.155	1228.75
380.38	1285.75
380.606	1264.75
380.831	1284.75
381.057	1255.75
381.282	1258.75
381.507	1251.75
381.733	1306.75
381.958	1265.75
382.184	1278.75
382.409	1329.75
382.634	1317.75
382.86	1315.75
383.085	1343.75
383.31	1365.75
383.535	1328.75
383.761	1371.75
383.986	1366.75
384.211	1412.75
384.436	1398.75
384.662	1442.75
384.887	1520.75
385.112	1480.75
385.337	1487.75
385.562	1503.75
385.787	1493.75
386.013	1557.75
386.238	1511.75
386.463	1509.75
386.688	1538.75
386.913	1513.75
387.138	1492.75
387.363	1517.75
387.588	1516.75
387.813	1500.75
388.038	1484.75
388.263	1537.75
388.488	1512.75
388.713	1526.75
388.938	1499.75
389.163	1498.75
389.387	1512.75
389.612	1491.75
389.837	1497.75
390.062	1479.75
390.287	1501.75
390.512	1495.75
390.736	1543.75
390.961	1564.75
391.186	1520.75
391.411	1588.75
391.636	1623.75
391.86	1639.75
392.085	1669.75
392.31	1686.75
392.534	1656.75
392.759	1605.75
392.984	1616.75
393.208	1625.75
393.433	1659.75
393.658	1710.75
393.882	1627.75
394.107	1604.75
394.331	1591.75
394.556	1640.75
394.78	1659.75
395.005	1609.75
395.229	1629.75
395.454	1683.75
395.678	1706.75
395.903	1675.75
396.127	1697.75
396.352	1660.75
396.576	1602.75
396.801	1613.75
397.025	1676.75
397.249	1705.75
397.474	1703.75
397.698	1693.75
397.922	1709.75
398.147	1710.75
398.371	1758.75
398.595	1772.75
398.82	1864.75
399.044	1992.75
399.268	2157.75
399.492	2357.75
399.717	2575.75
399.941	2595.75
400.165	2407.75
400.389	2228.75
400.613	2088.75
400.837	1948.75
401.062	1937.75
401.286	1941.75
401.51	1891.75
401.734	1888.75
401.958	1891.75
402.182	1860.75
402.406	1901.75
402.63	1893.75
402.854	1957.75
403.078	1931.75
403.302	1972.75
403.526	2018.75
403.75	2023.75
403.974	2096.75
404.198	2091.75
404.422	2041.75
404.645	2038.75
404.869	2050.75
405.093	2065.75
405.317	1989.75
405.541	2021.75
405.765	2019.75
405.988	2013.75
406.212	2056.75
406.436	2064.75
406.66	2075.75
406.883	2125.75
407.107	2214.75
407.331	2255.75
407.555	2354.75
407.778	2378.75
408.002	2319.75
408.226	2270.75
408.449	2232.75
408.673	2148.75
408.896	2091.75
409.12	2080.75
409.344	2109.75
409.567	2074.75
409.791	2079.75
410.014	2080.75
410.238	2035.75
410.461	2048.75
410.685	2025.75
410.908	2006.75
411.132	2001.75
411.355	1941.75
411.578	1948.75
411.802	1943.75
412.025	1929.75
412.249	1987.75
412.472	1959.75
412.695	1907.75
412.919	1903.75
413.142	1912.75
413.365	1861.75
413.589	1889.75
413.812	1887.75
414.035	1885.75
414.258	1878.75
414.482	1846.75
414.705	1899.75
414.928	1848.75
415.151	1863.75
415.374	1901.75
415.597	1888.75
415.821	1832.75
416.044	1844.75
416.267	1813.75
416.49	1832.75
416.713	1801.75
416.936	1823.75
417.159	1812.75
417.382	1779.75
417.605	1760.75
417.828	1778.75
418.051	1812.75
418.274	1792.75
418.497	1808.75
418.72	1850.75
418.943	1799.75
419.166	1948.75
419.389	2119.75
419.611	2021.75
419.834	1950.75
420.057	1901.75
420.28	1802.75
420.503	1799.75
420.726	1801.75
420.948	1778.75
421.171	1816.75
421.394	1801.75
421.617	1764.75
421.839	1802.75
422.062	1820.75
422.285	1797.75
422.507	1856.75
422.73	1857.75
422.953	1823.75
423.175	1818.75
423.398	1849.75
423.621	1841.75
423.843	1886.75
424.066	1820.75
424.288	1869.75
424.511	1853.75
424.733	1839.75
424.956	1846.75
425.178	1800.75
425.401	1809.75
425.623	1797.75
425.846	1738.75
426.068	1769.75
426.291	1739.75
426.513	1724.75
426.735	1706.75
426.958	1750.75
427.18	1694.75
427.402	1699.75
427.625	1698.75
427.847	1616.75
428.069	1658.75
428.292	1694.75
428.514	1674.75
428.736	1655.75
428.958	1670.75
429.181	1606.75
429.403	1586.75
429.625	1622.75
429.847	1636.75
430.069	1621.75
430.292	1603.75
430.514	1576.75
430.736	1631.75
430.958	1614.75
431.18	1649.75
431.402	1679.75
431.624	1652.75
431.846	1673.75
432.068	1685.75
432.29	1668.75
432.512	1648.75
432.734	1657.75
432.956	1609.75
433.178	1676.75
433.4	1704.75
433.622	1674.75
433.844	1709.75
434.066	1688.75
434.287	1752.75
434.509	1773.75
434.731	1817.75
434.953	1815.75
435.175	1792.75
435.397	1835.75
435.618	1753.75
435.84	1699.75
436.062	1678.75
436.284	1636.75
436.505	1666.75
436.727	1644.75
436.949	1670.75
437.17	1624.75
437.392	1600.75
437.614	1583.75
437.835	1587.75
438.057	1593.75
438.278	1558.75
438.5	1539.75
438.721	1571.75
438.943	1634.75
439.165	1595.75
439.386	1609.75
439.608	1591.75
439.829	1614.75
440.05	1637.75
440.272	1600.75
440.493	1649.75
440.715	1653.75
440.936	1685.75
441.158	1711.75
441.379	1711.75
441.6	1760.75
441.822	1806.75
442.043	1809.75
442.264	1737.75
442.486	1688.75
442.707	1740.75
442.928	1710.75
443.149	1776.75
443.371	1758.75
443.592	1769.75
443.813	1796.75
444.034	1798.75
444.255	1826.75
444.476	1916.75
444.698	2020.75
444.919	2041.75
445.14	2088.75
445.361	1920.75
445.582	1857.75
445.803	1773.75
446.024	1710.75
446.245	1690.75
446.466	1635.75
446.687	1620.75
446.908	1603.75
447.129	1616.75
447.35	1592.75
447.571	1573.75
447.792	1523.75
448.013	1535.75
448.234	1521.75
448.455	1491.75
448.675	1513.75
448.896	1482.75
449.117	1438.75
449.338	1461.75
449.559	1443.75
449.779	1461.75
450	1476.75
450.221	1494.75
450.442	1505.75
450.662	1482.75
450.883	1490.75
451.104	1443.75
451.324	1448.75
451.545	1466.75
451.766	1432.75
451.986	1482.75
452.207	1450.75
452.428	1442.75
452.648	1441.75
452.869	1416.75
453.089	1435.75
453.31	1413.75
453.53	1433.75
453.751	1416.75
453.971	1407.75
454.192	1443.75
454.412	1401.75
454.633	1392.75
454.853	1414.75
455.073	1368.75
455.294	1382.75
455.514	1361.75
455.734	1369.75
455.955	1321.75
456.175	1349.75
456.395	1398.75
456.616	1377.75
456.836	1364.75
457.056	1361.75
457.276	1353.75
457.497	1418.75
457.717	1364.75
457.937	1383.75
458.157	1443.75
458.377	1454.75
458.598	1488.75
458.818	1493.75
459.038	1511.75
459.258	1584.75
459.478	1633.75
459.698	1666.75
459.918	1706.75
460.138	1717.75
460.358	1773.75
460.578	1824.75
460.798	1824.75
461.018	1863.75
461.238	1850.75
461.458	1841.75
461.678	1805.75
461.898	1875.75
462.118	1908.75
462.338	2000.75
462.558	2000.75
462.777	2043.75
462.997	2207.75
463.217	2320.75
463.437	2328.75
463.657	2216.75
463.876	2147.75
464.096	2065.75
464.316	2109.75
464.536	2094.75
464.755	2010.75
464.975	1978.75
465.195	1915.75
465.414	1813.75
465.634	1714.75
465.854	1688.75
466.073	1674.75
466.293	1590.75
466.512	1582.75
466.732	1603.75
466.951	1599.75
467.171	1553.75
467.391	1552.75
467.61	1541.75
467.829	1506.75
468.049	1503.75
468.268	1471.75
468.488	1522.75
468.707	1513.75
468.927	1505.75
469.146	1508.75
469.365	1533.75
469.585	1518.75
469.804	1550.75
470.023	1552.75
470.243	1571.75
470.462	1547.75
470.681	1604.75
470.901	1594.75
471.12	1576.75
471.339	1556.75
471.558	1582.75
471.777	1553.75
471.997	1508.75
472.216	1499.75
472.435	1495.75
472.654	1480.75
472.873	1488.75
473.092	1486.75
473.311	1478.75
473.53	1506.75
473.749	1493.75
473.968	1498.75
474.187	1470.75
474.406	1495.75
474.625	1468.75
474.844	1490.75
475.063	1470.75
475.282	1488.75
475.501	1491.75
475.72	1509.75
475.939	1499.75
476.158	1532.75
476.377	1573.75
476.596	1554.75
476.814	1583.75
477.033	1584.75
477.252	1615.75
477.471	1610.75
477.69	1680.75
477.908	1746.75
478.127	1749.75
478.346	1720.75
478.564	1792.75
478.783	1842.75
479.002	1823.75
479.22	1854.75
479.439	1873.75
479.658	1832.75
479.876	1844.75
480.095	1880.75
480.313	1910.75
480.532	1974.75
480.751	1960.75
480.969	1930.75
481.188	1887.75
481.406	1856.75
481.624	1798.75
481.843	1781.75
482.061	1746.75
482.28	1815.75
482.498	1760.75
482.717	1746.75
482.935	1781.75
483.153	1793.75
483.372	1833.75
483.59	1806.75
483.808	1802.75
484.027	1816.75
484.245	1828.75
484.463	1832.75
484.681	1876.75
484.9	1870.75
485.118	1905.75
485.336	1862.75
485.554	1932.75
485.772	1918.75
485.99	1907.75
486.209	1898.75
486.427	1874.75
486.645	1913.75
486.863	1913.75
487.081	1887.75
487.299	1882.75
487.517	1875.75
487.735	1854.75
487.953	1865.75
488.171	1874.75
488.389	1902.75
488.607	1874.75
488.825	1840.75
489.043	1829.75
489.261	1880.75
489.479	1843.75
489.696	1862.75
489.914	1863.75
