Data from NiCl2@0.125M.TitratingCurve.Agarose3%dH2O.NegLispCup.LampEnergy10.LIBS07252019_HRD10591_18-27-40-574.txt Node
Date: Thu Jul 25 18:27:40 EDT 2019
User: cochatt
Spectrometer: HR+D1059
Trigger mode: 1
Integration Time (sec): 1.000000E-1
Scans to average: 1
Electric dark correction enabled: true
Nonlinearity correction enabled: false
Boxcar width: 0
XAxis mode: Wavelengths
Number of Pixels in Spectrum: 2048
>>>>>Begin Spectral Data<<<<<
223.165	-14.75
223.4	-14.75
223.635	-14.75
223.869	-16.75
224.104	-22.75
224.338	-10.75
224.573	-7.75
224.808	-6.75
225.042	-4.75
225.277	-3.75
225.511	-4.75
225.746	-7.75
225.98	12.25
226.215	10.25
226.449	5.25
226.683	16.25
226.918	18.25
227.152	38.25
227.387	36.25
227.621	45.25
227.856	45.25
228.09	40.25
228.324	53.25
228.559	30.25
228.793	61.25
229.027	85.25
229.262	106.25
229.496	97.25
229.73	116.25
229.964	122.25
230.199	117.25
230.433	122.25
230.667	115.25
230.901	128.25
231.136	129.25
231.37	118.25
231.604	133.25
231.838	121.25
232.072	123.25
232.306	126.25
232.541	125.25
232.775	134.25
233.009	133.25
233.243	128.25
233.477	135.25
233.711	149.25
233.945	142.25
234.179	154.25
234.413	144.25
234.647	131.25
234.881	135.25
235.115	136.25
235.349	135.25
235.583	131.25
235.817	149.25
236.051	143.25
236.285	146.25
236.519	129.25
236.753	141.25
236.987	147.25
237.221	156.25
237.455	149.25
237.689	150.25
237.922	163.25
238.156	159.25
238.39	144.25
238.624	144.25
238.858	174.25
239.091	157.25
239.325	147.25
239.559	140.25
239.793	162.25
240.027	156.25
240.26	156.25
240.494	187.25
240.728	163.25
240.961	169.25
241.195	169.25
241.429	177.25
241.662	176.25
241.896	174.25
242.13	179.25
242.363	191.25
242.597	187.25
242.83	178.25
243.064	174.25
243.298	179.25
243.531	190.25
243.765	187.25
243.998	179.25
244.232	162.25
244.465	194.25
244.699	206.25
244.932	201.25
245.166	202.25
245.399	203.25
245.633	190.25
245.866	203.25
246.099	217.25
246.333	203.25
246.566	216.25
246.8	220.25
247.033	198.25
247.266	215.25
247.5	193.25
247.733	219.25
247.966	221.25
248.2	229.25
248.433	215.25
248.666	214.25
248.899	221.25
249.133	214.25
249.366	207.25
249.599	219.25
249.832	223.25
250.066	228.25
250.299	233.25
250.532	224.25
250.765	247.25
250.998	250.25
251.231	227.25
251.465	251.25
251.698	234.25
251.931	236.25
252.164	241.25
252.397	238.25
252.63	253.25
252.863	255.25
253.096	257.25
253.329	249.25
253.562	257.25
253.795	258.25
254.028	257.25
254.261	268.25
254.494	260.25
254.727	257.25
254.96	246.25
255.193	251.25
255.426	241.25
255.659	259.25
255.892	267.25
256.124	259.25
256.357	257.25
256.59	262.25
256.823	271.25
257.056	267.25
257.289	269.25
257.521	277.25
257.754	291.25
257.987	281.25
258.22	265.25
258.452	287.25
258.685	279.25
258.918	278.25
259.151	282.25
259.383	286.25
259.616	278.25
259.849	285.25
260.081	295.25
260.314	282.25
260.547	282.25
260.779	279.25
261.012	273.25
261.244	283.25
261.477	279.25
261.71	279.25
261.942	301.25
262.175	308.25
262.407	313.25
262.64	292.25
262.872	301.25
263.105	308.25
263.337	322.25
263.57	329.25
263.802	297.25
264.035	318.25
264.267	300.25
264.499	324.25
264.732	325.25
264.964	331.25
265.197	306.25
265.429	324.25
265.661	307.25
265.894	314.25
266.126	319.25
266.358	335.25
266.591	336.25
266.823	325.25
267.055	343.25
267.287	341.25
267.52	303.25
267.752	322.25
267.984	339.25
268.216	331.25
268.448	326.25
268.681	337.25
268.913	338.25
269.145	342.25
269.377	338.25
269.609	338.25
269.841	344.25
270.073	340.25
270.306	341.25
270.538	343.25
270.77	356.25
271.002	356.25
271.234	344.25
271.466	341.25
271.698	354.25
271.93	337.25
272.162	364.25
272.394	344.25
272.626	355.25
272.858	372.25
273.09	359.25
273.322	373.25
273.553	369.25
273.785	366.25
274.017	362.25
274.249	393.25
274.481	360.25
274.713	356.25
274.945	362.25
275.176	372.25
275.408	373.25
275.64	369.25
275.872	380.25
276.104	388.25
276.335	383.25
276.567	384.25
276.799	380.25
277.031	375.25
277.262	399.25
277.494	398.25
277.726	390.25
277.957	398.25
278.189	412.25
278.421	389.25
278.652	387.25
278.884	387.25
279.115	406.25
279.347	407.25
279.579	408.25
279.81	391.25
280.042	404.25
280.273	409.25
280.505	398.25
280.736	408.25
280.968	430.25
281.199	421.25
281.431	403.25
281.662	445.25
281.894	419.25
282.125	419.25
282.356	416.25
282.588	433.25
282.819	426.25
283.051	428.25
283.282	435.25
283.513	435.25
283.745	407.25
283.976	437.25
284.207	439.25
284.439	456.25
284.67	431.25
284.901	409.25
285.132	451.25
285.364	438.25
285.595	434.25
285.826	455.25
286.057	466.25
286.288	451.25
286.52	463.25
286.751	448.25
286.982	455.25
287.213	474.25
287.444	453.25
287.675	461.25
287.906	474.25
288.138	468.25
288.369	460.25
288.6	475.25
288.831	469.25
289.062	473.25
289.293	479.25
289.524	456.25
289.755	480.25
289.986	473.25
290.217	489.25
290.448	459.25
290.679	478.25
290.91	491.25
291.141	486.25
291.371	480.25
291.602	471.25
291.833	481.25
292.064	456.25
292.295	456.25
292.526	469.25
292.757	477.25
292.987	485.25
293.218	464.25
293.449	464.25
293.68	471.25
293.91	491.25
294.141	480.25
294.372	490.25
294.603	471.25
294.833	494.25
295.064	493.25
295.295	502.25
295.525	479.25
295.756	489.25
295.987	497.25
296.217	505.25
296.448	497.25
296.679	510.25
296.909	499.25
297.14	509.25
297.37	504.25
297.601	535.25
297.831	532.25
298.062	514.25
298.292	509.25
298.523	524.25
298.753	521.25
298.984	516.25
299.214	502.25
299.445	533.25
299.675	531.25
299.905	524.25
300.136	533.25
300.366	531.25
300.597	547.25
300.827	547.25
301.057	526.25
301.288	528.25
301.518	529.25
301.748	533.25
301.979	542.25
302.209	562.25
302.439	562.25
302.669	543.25
302.9	545.25
303.13	540.25
303.36	539.25
303.59	522.25
303.82	526.25
304.051	527.25
304.281	551.25
304.511	546.25
304.741	537.25
304.971	540.25
305.201	545.25
305.431	542.25
305.661	553.25
305.891	538.25
306.121	537.25
306.352	550.25
306.582	541.25
306.812	533.25
307.042	545.25
307.272	541.25
307.502	522.25
307.731	540.25
307.961	547.25
308.191	511.25
308.421	522.25
308.651	553.25
308.881	530.25
309.111	535.25
309.341	521.25
309.571	527.25
309.8	534.25
310.03	536.25
310.26	524.25
310.49	548.25
310.72	529.25
310.949	537.25
311.179	541.25
311.409	557.25
311.639	558.25
311.868	535.25
312.098	554.25
312.328	578.25
312.557	552.25
312.787	548.25
313.017	556.25
313.246	557.25
313.476	566.25
313.706	578.25
313.935	589.25
314.165	574.25
314.394	590.25
314.624	585.25
314.853	576.25
315.083	573.25
315.312	589.25
315.542	577.25
315.771	578.25
316.001	583.25
316.23	588.25
316.46	557.25
316.689	569.25
316.919	579.25
317.148	571.25
317.377	583.25
317.607	554.25
317.836	551.25
318.065	540.25
318.295	565.25
318.524	567.25
318.753	554.25
318.983	573.25
319.212	581.25
319.441	564.25
319.67	563.25
319.9	579.25
320.129	562.25
320.358	567.25
320.587	544.25
320.816	547.25
321.046	534.25
321.275	559.25
321.504	564.25
321.733	590.25
321.962	571.25
322.191	575.25
322.42	588.25
322.649	553.25
322.878	595.25
323.108	603.25
323.337	598.25
323.566	580.25
323.795	581.25
324.024	572.25
324.253	564.25
324.482	591.25
324.71	581.25
324.939	586.25
325.168	589.25
325.397	587.25
325.626	602.25
325.855	595.25
326.084	611.25
326.313	623.25
326.542	593.25
326.77	645.25
326.999	602.25
327.228	583.25
327.457	596.25
327.686	608.25
327.914	613.25
328.143	623.25
328.372	605.25
328.6	604.25
328.829	613.25
329.058	617.25
329.287	631.25
329.515	639.25
329.744	631.25
329.972	634.25
330.201	644.25
330.43	625.25
330.658	614.25
330.887	645.25
331.115	641.25
331.344	647.25
331.572	654.25
331.801	670.25
332.03	685.25
332.258	675.25
332.486	707.25
332.715	707.25
332.943	732.25
333.172	769.25
333.4	799.25
333.629	805.25
333.857	825.25
334.085	831.25
334.314	805.25
334.542	808.25
334.771	787.25
334.999	787.25
335.227	777.25
335.455	765.25
335.684	774.25
335.912	791.25
336.14	790.25
336.369	751.25
336.597	739.25
336.825	743.25
337.053	725.25
337.281	730.25
337.51	743.25
337.738	726.25
337.966	718.25
338.194	693.25
338.422	682.25
338.65	678.25
338.878	670.25
339.106	661.25
339.334	690.25
339.562	659.25
339.79	663.25
340.018	662.25
340.246	621.25
340.474	637.25
340.702	656.25
340.93	670.25
341.158	650.25
341.386	669.25
341.614	661.25
341.842	644.25
342.07	655.25
342.298	662.25
342.526	644.25
342.754	677.25
342.981	644.25
343.209	661.25
343.437	701.25
343.665	741.25
343.893	745.25
344.12	786.25
344.348	806.25
344.576	755.25
344.804	727.25
345.031	699.25
345.259	673.25
345.487	670.25
345.714	653.25
345.942	638.25
346.17	661.25
346.397	627.25
346.625	620.25
346.853	635.25
347.08	629.25
347.308	618.25
347.535	634.25
347.763	619.25
347.99	645.25
348.218	625.25
348.445	657.25
348.673	629.25
348.9	633.25
349.128	636.25
349.355	623.25
349.583	649.25
349.81	602.25
350.037	613.25
350.265	635.25
350.492	623.25
350.72	616.25
350.947	622.25
351.174	618.25
351.402	604.25
351.629	631.25
351.856	598.25
352.083	625.25
352.311	620.25
352.538	627.25
352.765	625.25
352.992	585.25
353.22	644.25
353.447	600.25
353.674	616.25
353.901	608.25
354.128	609.25
354.355	616.25
354.583	585.25
354.81	604.25
355.037	602.25
355.264	613.25
355.491	604.25
355.718	582.25
355.945	629.25
356.172	633.25
356.399	636.25
356.626	599.25
356.853	598.25
357.08	617.25
357.307	616.25
357.534	619.25
357.761	599.25
357.988	641.25
358.215	625.25
358.441	602.25
358.668	610.25
358.895	617.25
359.122	615.25
359.349	608.25
359.576	601.25
359.802	620.25
360.029	597.25
360.256	608.25
360.483	619.25
360.709	625.25
360.936	636.25
361.163	619.25
361.39	621.25
361.616	613.25
361.843	607.25
362.07	609.25
362.296	626.25
362.523	577.25
362.749	623.25
362.976	621.25
363.203	590.25
363.429	583.25
363.656	598.25
363.882	589.25
364.109	611.25
364.335	632.25
364.562	599.25
364.788	617.25
365.015	597.25
365.241	619.25
365.468	582.25
365.694	586.25
365.92	598.25
366.147	590.25
366.373	601.25
366.599	608.25
366.826	582.25
367.052	588.25
367.278	599.25
367.505	618.25
367.731	602.25
367.957	619.25
368.184	612.25
368.41	615.25
368.636	609.25
368.862	604.25
369.089	635.25
369.315	607.25
369.541	604.25
369.767	637.25
369.993	638.25
370.219	639.25
370.445	656.25
370.672	633.25
370.898	653.25
371.124	628.25
371.35	666.25
371.576	673.25
371.802	661.25
372.028	654.25
372.254	652.25
372.48	680.25
372.706	691.25
372.932	702.25
373.158	699.25
373.384	671.25
373.61	649.25
373.835	645.25
374.061	671.25
374.287	681.25
374.513	682.25
374.739	714.25
374.965	722.25
375.191	726.25
375.416	757.25
375.642	716.25
375.868	705.25
376.094	671.25
376.319	700.25
376.545	696.25
376.771	638.25
376.997	675.25
377.222	679.25
377.448	675.25
377.674	653.25
377.899	669.25
378.125	649.25
378.35	629.25
378.576	657.25
378.802	663.25
379.027	667.25
379.253	642.25
379.478	663.25
379.704	653.25
379.929	647.25
380.155	670.25
380.38	636.25
380.606	651.25
380.831	667.25
381.057	659.25
381.282	661.25
381.507	660.25
381.733	666.25
381.958	678.25
382.184	676.25
382.409	690.25
382.634	728.25
382.86	687.25
383.085	699.25
383.31	693.25
383.535	737.25
383.761	703.25
383.986	723.25
384.211	742.25
384.436	739.25
384.662	750.25
384.887	777.25
385.112	797.25
385.337	802.25
385.562	794.25
385.787	810.25
386.013	823.25
386.238	814.25
386.463	810.25
386.688	821.25
386.913	805.25
387.138	788.25
387.363	836.25
387.588	798.25
387.813	802.25
388.038	801.25
388.263	809.25
388.488	774.25
388.713	784.25
388.938	791.25
389.163	745.25
389.387	793.25
389.612	784.25
389.837	783.25
390.062	761.25
390.287	784.25
390.512	808.25
390.736	806.25
390.961	821.25
391.186	829.25
391.411	842.25
391.636	852.25
391.86	925.25
392.085	883.25
392.31	890.25
392.534	873.25
392.759	854.25
392.984	835.25
393.208	849.25
393.433	856.25
393.658	860.25
393.882	853.25
394.107	857.25
394.331	860.25
394.556	845.25
394.78	877.25
395.005	843.25
395.229	864.25
395.454	901.25
395.678	895.25
395.903	911.25
396.127	899.25
396.352	870.25
396.576	851.25
396.801	860.25
397.025	897.25
397.249	891.25
397.474	920.25
397.698	921.25
397.922	899.25
398.147	909.25
398.371	927.25
398.595	982.25
398.82	1005.25
399.044	1085.25
399.268	1171.25
399.492	1286.25
399.717	1417.25
399.941	1447.25
400.165	1371.25
400.389	1263.25
400.613	1143.25
400.837	1110.25
401.062	1050.25
401.286	1027.25
401.51	1010.25
401.734	1006.25
401.958	993.25
402.182	1042.25
402.406	1051.25
402.63	1052.25
402.854	1047.25
403.078	1102.25
403.302	1055.25
403.526	1107.25
403.75	1096.25
403.974	1142.25
404.198	1113.25
404.422	1153.25
404.645	1131.25
404.869	1149.25
405.093	1146.25
405.317	1117.25
405.541	1115.25
405.765	1130.25
405.988	1085.25
406.212	1139.25
406.436	1117.25
406.66	1146.25
406.883	1133.25
407.107	1219.25
407.331	1249.25
407.555	1300.25
407.778	1311.25
408.002	1254.25
408.226	1240.25
408.449	1190.25
408.673	1157.25
408.896	1146.25
409.12	1123.25
409.344	1143.25
409.567	1126.25
409.791	1161.25
410.014	1150.25
410.238	1129.25
410.461	1122.25
410.685	1087.25
410.908	1101.25
411.132	1038.25
411.355	1052.25
411.578	1063.25
411.802	1034.25
412.025	1044.25
412.249	1067.25
412.472	1064.25
412.695	1049.25
412.919	1017.25
413.142	1016.25
413.365	990.25
413.589	1009.25
413.812	1018.25
414.035	985.25
414.258	1004.25
414.482	994.25
414.705	999.25
414.928	1023.25
415.151	1030.25
415.374	1007.25
415.597	985.25
415.821	963.25
416.044	979.25
416.267	993.25
416.49	953.25
416.713	965.25
416.936	1026.25
417.159	989.25
417.382	983.25
417.605	966.25
417.828	1010.25
418.051	989.25
418.274	978.25
418.497	1031.25
418.72	1035.25
418.943	1017.25
419.166	1088.25
419.389	1169.25
419.611	1147.25
419.834	1084.25
420.057	1036.25
420.28	1017.25
420.503	1034.25
420.726	989.25
420.948	994.25
421.171	979.25
421.394	996.25
421.617	982.25
421.839	1011.25
422.062	1009.25
422.285	990.25
422.507	1023.25
422.73	979.25
422.953	991.25
423.175	1023.25
423.398	1043.25
423.621	1027.25
423.843	1052.25
424.066	1075.25
424.288	1063.25
424.511	1041.25
424.733	1039.25
424.956	1021.25
425.178	988.25
425.401	993.25
425.623	1021.25
425.846	982.25
426.068	966.25
426.291	961.25
426.513	964.25
426.735	967.25
426.958	946.25
427.18	911.25
427.402	960.25
427.625	929.25
427.847	901.25
428.069	909.25
428.292	924.25
428.514	902.25
428.736	904.25
428.958	902.25
429.181	873.25
429.403	884.25
429.625	877.25
429.847	882.25
430.069	865.25
430.292	873.25
430.514	873.25
430.736	894.25
430.958	899.25
431.18	886.25
431.402	889.25
431.624	908.25
431.846	935.25
432.068	921.25
432.29	915.25
432.512	889.25
432.734	915.25
432.956	891.25
433.178	910.25
433.4	923.25
433.622	907.25
433.844	924.25
434.066	919.25
434.287	919.25
434.509	960.25
434.731	992.25
434.953	1012.25
435.175	1041.25
435.397	1012.25
435.618	971.25
435.84	940.25
436.062	936.25
436.284	931.25
436.505	924.25
436.727	926.25
436.949	914.25
437.17	909.25
437.392	893.25
437.614	878.25
437.835	884.25
438.057	845.25
438.278	853.25
438.5	851.25
438.721	868.25
438.943	876.25
439.165	876.25
439.386	910.25
439.608	913.25
439.829	915.25
440.05	904.25
440.272	910.25
440.493	927.25
440.715	915.25
440.936	927.25
441.158	951.25
441.379	972.25
441.6	996.25
441.822	1026.25
442.043	1033.25
442.264	1014.25
442.486	990.25
442.707	1031.25
442.928	971.25
443.149	995.25
443.371	946.25
443.592	986.25
443.813	1021.25
444.034	1022.25
444.255	1049.25
444.476	1097.25
444.698	1147.25
444.919	1164.25
445.14	1285.25
445.361	1168.25
445.582	1062.25
445.803	1009.25
446.024	977.25
446.245	962.25
446.466	963.25
446.687	911.25
446.908	925.25
447.129	896.25
447.35	903.25
447.571	909.25
447.792	862.25
448.013	854.25
448.234	856.25
448.455	858.25
448.675	837.25
448.896	840.25
449.117	840.25
449.338	830.25
449.559	810.25
449.779	826.25
450	809.25
450.221	812.25
450.442	831.25
450.662	859.25
450.883	858.25
451.104	848.25
451.324	853.25
451.545	860.25
451.766	835.25
451.986	833.25
452.207	832.25
452.428	851.25
452.648	837.25
452.869	809.25
453.089	797.25
453.31	798.25
453.53	823.25
453.751	810.25
453.971	798.25
454.192	798.25
454.412	773.25
454.633	765.25
454.853	795.25
455.073	806.25
455.294	785.25
455.514	798.25
455.734	774.25
455.955	773.25
456.175	764.25
456.395	784.25
456.616	786.25
456.836	784.25
457.056	783.25
457.276	762.25
457.497	775.25
457.717	787.25
457.937	791.25
458.157	807.25
458.377	812.25
458.598	808.25
458.818	856.25
459.038	862.25
459.258	897.25
459.478	917.25
459.698	926.25
459.918	967.25
460.138	1006.25
460.358	1061.25
460.578	1074.25
460.798	1081.25
461.018	1057.25
461.238	1068.25
461.458	1042.25
461.678	1100.25
461.898	1137.25
462.118	1102.25
462.338	1133.25
462.558	1170.25
462.777	1182.25
462.997	1300.25
463.217	1396.25
463.437	1401.25
463.657	1344.25
463.876	1281.25
464.096	1266.25
464.316	1266.25
464.536	1231.25
464.755	1201.25
464.975	1134.25
465.195	1095.25
465.414	1057.25
465.634	982.25
465.854	969.25
466.073	957.25
466.293	941.25
466.512	911.25
466.732	890.25
466.951	876.25
467.171	855.25
467.391	850.25
467.61	851.25
467.829	853.25
468.049	851.25
468.268	841.25
468.488	857.25
468.707	842.25
468.927	836.25
469.146	873.25
469.365	846.25
469.585	894.25
469.804	917.25
470.023	899.25
470.243	873.25
470.462	901.25
470.681	909.25
470.901	938.25
471.12	903.25
471.339	891.25
471.558	858.25
471.777	858.25
471.997	851.25
472.216	874.25
472.435	843.25
472.654	827.25
472.873	813.25
473.092	831.25
473.311	812.25
473.53	806.25
473.749	805.25
473.968	799.25
474.187	839.25
474.406	814.25
474.625	815.25
474.844	818.25
475.063	817.25
475.282	821.25
475.501	842.25
475.72	825.25
475.939	820.25
476.158	844.25
476.377	867.25
476.596	844.25
476.814	834.25
477.033	860.25
477.252	881.25
477.471	915.25
477.69	927.25
477.908	955.25
478.127	986.25
478.346	982.25
478.564	968.25
478.783	999.25
479.002	1045.25
479.22	1004.25
479.439	995.25
479.658	1032.25
479.876	1031.25
480.095	1047.25
480.313	1101.25
480.532	1084.25
480.751	1093.25
480.969	1052.25
481.188	1006.25
481.406	978.25
481.624	955.25
481.843	961.25
482.061	915.25
482.28	940.25
482.498	933.25
482.717	923.25
482.935	940.25
483.153	934.25
483.372	957.25
483.59	917.25
483.808	952.25
484.027	947.25
484.245	936.25
484.463	964.25
484.681	990.25
484.9	989.25
485.118	967.25
485.336	962.25
485.554	981.25
485.772	975.25
485.99	996.25
486.209	1004.25
486.427	982.25
486.645	997.25
486.863	987.25
487.081	988.25
487.299	978.25
487.517	999.25
487.735	991.25
487.953	1014.25
488.171	992.25
488.389	959.25
488.607	956.25
488.825	963.25
489.043	951.25
489.261	959.25
489.479	972.25
489.696	962.25
489.914	974.25
490.132	994.25
490.35	1001.25
490.568	992.25
490.786	998.25
491.003	990.25
491.221	1004.25
491.439	1001.25
491.657	995.25
491.874	981.25
492.092	1008.25
492.31	1021.25
492.527	1007.25
492.745	995.25
492.963	1030.25
493.18	1025.25
493.398	1066.25
493.615	1026.25
493.833	1024.25
494.05	1018.25
494.268	1059.25
494.485	1064.25
494.703	1065.25
494.92	1047.25
495.138	1023.25
495.355	1062.25
495.573	1046.25
495.79	1019.25
496.008	1068.25
496.225	1066.25
496.442	1105.25
496.66	1078.25
496.877	1060.25
497.094	1141.25
497.312	1143.25
497.529	1155.25
497.746	1181.25
497.963	1225.25
498.181	1269.25
498.398	1350.25
498.615	1418.25
498.832	1500.25
499.049	1617.25
