Data from NiCl2@0.25M.TitratingCurve.Agarose3%dH2O.NegLispCup.LampEnergy10.LIBS07252019_HRD10591_18-26-18-574.txt Node
Date: Thu Jul 25 18:26:18 EDT 2019
User: cochatt
Spectrometer: HR+D1059
Trigger mode: 1
Integration Time (sec): 1.000000E-1
Scans to average: 1
Electric dark correction enabled: true
Nonlinearity correction enabled: false
Boxcar width: 0
XAxis mode: Wavelengths
Number of Pixels in Spectrum: 2048
>>>>>Begin Spectral Data<<<<<
223.165	-11.56
223.4	-11.56
223.635	-11.56
223.869	-24.56
224.104	-22.56
224.338	-20.56
224.573	-10.56
224.808	-10.56
225.042	8.44
225.277	-7.56
225.511	7.44
225.746	7.44
225.98	6.44
226.215	-3.56
226.449	15.44
226.683	16.44
226.918	20.44
227.152	29.44
227.387	31.44
227.621	35.44
227.856	37.44
228.09	48.44
228.324	56.44
228.559	55.44
228.793	64.44
229.027	133.44
229.262	122.44
229.496	125.44
229.73	142.44
229.964	151.44
230.199	146.44
230.433	143.44
230.667	153.44
230.901	162.44
231.136	149.44
231.37	160.44
231.604	167.44
231.838	175.44
232.072	161.44
232.306	180.44
232.541	182.44
232.775	182.44
233.009	181.44
233.243	166.44
233.477	175.44
233.711	168.44
233.945	170.44
234.179	180.44
234.413	171.44
234.647	190.44
234.881	188.44
235.115	186.44
235.349	168.44
235.583	181.44
235.817	178.44
236.051	177.44
236.285	192.44
236.519	158.44
236.753	185.44
236.987	194.44
237.221	196.44
237.455	182.44
237.689	192.44
237.922	185.44
238.156	202.44
238.39	218.44
238.624	195.44
238.858	219.44
239.091	207.44
239.325	214.44
239.559	229.44
239.793	212.44
240.027	220.44
240.26	226.44
240.494	214.44
240.728	207.44
240.961	228.44
241.195	221.44
241.429	228.44
241.662	228.44
241.896	240.44
242.13	222.44
242.363	247.44
242.597	226.44
242.83	224.44
243.064	243.44
243.298	234.44
243.531	236.44
243.765	253.44
243.998	247.44
244.232	239.44
244.465	263.44
244.699	256.44
244.932	263.44
245.166	272.44
245.399	276.44
245.633	249.44
245.866	284.44
246.099	279.44
246.333	275.44
246.566	282.44
246.8	267.44
247.033	285.44
247.266	291.44
247.5	278.44
247.733	281.44
247.966	292.44
248.2	306.44
248.433	287.44
248.666	281.44
248.899	309.44
249.133	308.44
249.366	296.44
249.599	307.44
249.832	284.44
250.066	300.44
250.299	301.44
250.532	301.44
250.765	330.44
250.998	315.44
251.231	328.44
251.465	335.44
251.698	354.44
251.931	322.44
252.164	331.44
252.397	331.44
252.63	339.44
252.863	338.44
253.096	330.44
253.329	330.44
253.562	348.44
253.795	356.44
254.028	345.44
254.261	347.44
254.494	352.44
254.727	351.44
254.96	361.44
255.193	352.44
255.426	344.44
255.659	364.44
255.892	366.44
256.124	367.44
256.357	371.44
256.59	359.44
256.823	363.44
257.056	364.44
257.289	377.44
257.521	368.44
257.754	380.44
257.987	362.44
258.22	392.44
258.452	380.44
258.685	380.44
258.918	388.44
259.151	372.44
259.383	388.44
259.616	381.44
259.849	386.44
260.081	423.44
260.314	391.44
260.547	397.44
260.779	399.44
261.012	406.44
261.244	392.44
261.477	420.44
261.71	410.44
261.942	415.44
262.175	412.44
262.407	422.44
262.64	427.44
262.872	414.44
263.105	410.44
263.337	429.44
263.57	435.44
263.802	424.44
264.035	445.44
264.267	427.44
264.499	442.44
264.732	449.44
264.964	446.44
265.197	440.44
265.429	464.44
265.661	439.44
265.894	455.44
266.126	450.44
266.358	438.44
266.591	452.44
266.823	451.44
267.055	471.44
267.287	456.44
267.52	463.44
267.752	454.44
267.984	479.44
268.216	491.44
268.448	479.44
268.681	478.44
268.913	464.44
269.145	477.44
269.377	474.44
269.609	491.44
269.841	474.44
270.073	486.44
270.306	485.44
270.538	478.44
270.77	483.44
271.002	488.44
271.234	495.44
271.466	488.44
271.698	482.44
271.93	506.44
272.162	500.44
272.394	513.44
272.626	506.44
272.858	493.44
273.09	512.44
273.322	514.44
273.553	511.44
273.785	519.44
274.017	539.44
274.249	506.44
274.481	506.44
274.713	536.44
274.945	551.44
275.176	531.44
275.408	515.44
275.64	552.44
275.872	526.44
276.104	535.44
276.335	546.44
276.567	556.44
276.799	554.44
277.031	551.44
277.262	541.44
277.494	570.44
277.726	533.44
277.957	555.44
278.189	570.44
278.421	541.44
278.652	588.44
278.884	566.44
279.115	570.44
279.347	558.44
279.579	562.44
279.81	580.44
280.042	568.44
280.273	579.44
280.505	576.44
280.736	584.44
280.968	576.44
281.199	591.44
281.431	576.44
281.662	598.44
281.894	591.44
282.125	582.44
282.356	587.44
282.588	607.44
282.819	606.44
283.051	615.44
283.282	594.44
283.513	604.44
283.745	613.44
283.976	613.44
284.207	622.44
284.439	611.44
284.67	621.44
284.901	623.44
285.132	628.44
285.364	638.44
285.595	641.44
285.826	649.44
286.057	618.44
286.288	628.44
286.52	648.44
286.751	652.44
286.982	643.44
287.213	644.44
287.444	631.44
287.675	640.44
287.906	662.44
288.138	640.44
288.369	647.44
288.6	648.44
288.831	650.44
289.062	678.44
289.293	676.44
289.524	652.44
289.755	670.44
289.986	674.44
290.217	678.44
290.448	672.44
290.679	668.44
290.91	662.44
291.141	678.44
291.371	673.44
291.602	673.44
291.833	678.44
292.064	667.44
292.295	670.44
292.526	688.44
292.757	672.44
292.987	662.44
293.218	655.44
293.449	695.44
293.68	686.44
293.91	690.44
294.141	683.44
294.372	684.44
294.603	670.44
294.833	658.44
295.064	700.44
295.295	690.44
295.525	684.44
295.756	688.44
295.987	671.44
296.217	713.44
296.448	716.44
296.679	701.44
296.909	698.44
297.14	735.44
297.37	742.44
297.601	766.44
297.831	709.44
298.062	723.44
298.292	756.44
298.523	736.44
298.753	764.44
298.984	731.44
299.214	727.44
299.445	730.44
299.675	721.44
299.905	728.44
300.136	738.44
300.366	734.44
300.597	767.44
300.827	767.44
301.057	761.44
301.288	783.44
301.518	758.44
301.748	759.44
301.979	790.44
302.209	780.44
302.439	804.44
302.669	775.44
302.9	796.44
303.13	758.44
303.36	784.44
303.59	766.44
303.82	765.44
304.051	759.44
304.281	780.44
304.511	758.44
304.741	748.44
304.971	792.44
305.201	756.44
305.431	787.44
305.661	745.44
305.891	747.44
306.121	748.44
306.352	744.44
306.582	745.44
306.812	739.44
307.042	748.44
307.272	751.44
307.502	740.44
307.731	760.44
307.961	741.44
308.191	743.44
308.421	758.44
308.651	754.44
308.881	757.44
309.111	739.44
309.341	716.44
309.571	759.44
309.8	775.44
310.03	732.44
310.26	743.44
310.49	766.44
310.72	780.44
310.949	750.44
311.179	787.44
311.409	752.44
311.639	785.44
311.868	786.44
312.098	779.44
312.328	759.44
312.557	794.44
312.787	774.44
313.017	777.44
313.246	793.44
313.476	838.44
313.706	793.44
313.935	819.44
314.165	807.44
314.394	818.44
314.624	815.44
314.853	804.44
315.083	798.44
315.312	824.44
315.542	814.44
315.771	799.44
316.001	815.44
316.23	776.44
316.46	800.44
316.689	784.44
316.919	787.44
317.148	789.44
317.377	774.44
317.607	804.44
317.836	802.44
318.065	808.44
318.295	811.44
318.524	799.44
318.753	806.44
318.983	804.44
319.212	779.44
319.441	799.44
319.67	782.44
319.9	810.44
320.129	798.44
320.358	798.44
320.587	779.44
320.816	799.44
321.046	800.44
321.275	787.44
321.504	805.44
321.733	782.44
321.962	821.44
322.191	824.44
322.42	810.44
322.649	813.44
322.878	810.44
323.108	823.44
323.337	824.44
323.566	823.44
323.795	812.44
324.024	822.44
324.253	816.44
324.482	820.44
324.71	808.44
324.939	830.44
325.168	840.44
325.397	844.44
325.626	857.44
325.855	864.44
326.084	849.44
326.313	832.44
326.542	859.44
326.77	867.44
326.999	866.44
327.228	868.44
327.457	854.44
327.686	872.44
327.914	838.44
328.143	890.44
328.372	868.44
328.6	857.44
328.829	858.44
329.058	865.44
329.287	845.44
329.515	857.44
329.744	860.44
329.972	872.44
330.201	891.44
330.43	880.44
330.658	882.44
330.887	896.44
331.115	899.44
331.344	936.44
331.572	899.44
331.801	924.44
332.03	944.44
332.258	962.44
332.486	1002.44
332.715	983.44
332.943	1039.44
333.172	1067.44
333.4	1091.44
333.629	1148.44
333.857	1176.44
334.085	1186.44
334.314	1129.44
334.542	1120.44
334.771	1171.44
334.999	1114.44
335.227	1094.44
335.455	1104.44
335.684	1098.44
335.912	1084.44
336.14	1050.44
336.369	1095.44
336.597	1092.44
336.825	1048.44
337.053	1074.44
337.281	1045.44
337.51	1018.44
337.738	1020.44
337.966	991.44
338.194	989.44
338.422	961.44
338.65	951.44
338.878	948.44
339.106	931.44
339.334	948.44
339.562	952.44
339.79	911.44
340.018	919.44
340.246	912.44
340.474	886.44
340.702	903.44
340.93	941.44
341.158	915.44
341.386	926.44
341.614	966.44
341.842	912.44
342.07	929.44
342.298	912.44
342.526	905.44
342.754	899.44
342.981	912.44
343.209	940.44
343.437	960.44
343.665	1014.44
343.893	1056.44
344.12	1108.44
344.348	1101.44
344.576	1041.44
344.804	1036.44
345.031	973.44
345.259	930.44
345.487	954.44
345.714	921.44
345.942	905.44
346.17	918.44
346.397	909.44
346.625	894.44
346.853	891.44
347.08	900.44
347.308	888.44
347.535	890.44
347.763	902.44
347.99	904.44
348.218	891.44
348.445	904.44
348.673	859.44
348.9	873.44
349.128	874.44
349.355	871.44
349.583	895.44
349.81	868.44
350.037	838.44
350.265	836.44
350.492	822.44
350.72	834.44
350.947	846.44
351.174	852.44
351.402	859.44
351.629	861.44
351.856	875.44
352.083	852.44
352.311	831.44
352.538	846.44
352.765	858.44
352.992	854.44
353.22	824.44
353.447	859.44
353.674	845.44
353.901	839.44
354.128	838.44
354.355	851.44
354.583	837.44
354.81	839.44
355.037	861.44
355.264	838.44
355.491	835.44
355.718	861.44
355.945	836.44
356.172	867.44
356.399	849.44
356.626	860.44
356.853	867.44
357.08	842.44
357.307	873.44
357.534	828.44
357.761	839.44
357.988	853.44
358.215	834.44
358.441	834.44
358.668	832.44
358.895	847.44
359.122	831.44
359.349	850.44
359.576	846.44
359.802	852.44
360.029	835.44
360.256	861.44
360.483	838.44
360.709	844.44
360.936	875.44
361.163	849.44
361.39	880.44
361.616	846.44
361.843	888.44
362.07	866.44
362.296	867.44
362.523	874.44
362.749	833.44
362.976	827.44
363.203	845.44
363.429	822.44
363.656	845.44
363.882	838.44
364.109	839.44
364.335	856.44
364.562	864.44
364.788	828.44
365.015	840.44
365.241	857.44
365.468	858.44
365.694	828.44
365.92	851.44
366.147	831.44
366.373	867.44
366.599	835.44
366.826	847.44
367.052	823.44
367.278	853.44
367.505	851.44
367.731	824.44
367.957	827.44
368.184	842.44
368.41	852.44
368.636	869.44
368.862	882.44
369.089	876.44
369.315	893.44
369.541	883.44
369.767	898.44
369.993	880.44
370.219	897.44
370.445	868.44
370.672	884.44
370.898	884.44
371.124	915.44
371.35	934.44
371.576	931.44
371.802	923.44
372.028	930.44
372.254	948.44
372.48	940.44
372.706	946.44
372.932	956.44
373.158	954.44
373.384	959.44
373.61	946.44
373.835	943.44
374.061	954.44
374.287	966.44
374.513	962.44
374.739	964.44
374.965	1001.44
375.191	1034.44
375.416	1009.44
375.642	1007.44
375.868	982.44
376.094	958.44
376.319	942.44
376.545	980.44
376.771	932.44
376.997	932.44
377.222	926.44
377.448	906.44
377.674	938.44
377.899	930.44
378.125	927.44
378.35	923.44
378.576	908.44
378.802	924.44
379.027	947.44
379.253	957.44
379.478	932.44
379.704	898.44
379.929	904.44
380.155	916.44
380.38	924.44
380.606	943.44
380.831	884.44
381.057	921.44
381.282	921.44
381.507	937.44
381.733	925.44
381.958	930.44
382.184	943.44
382.409	970.44
382.634	942.44
382.86	976.44
383.085	968.44
383.31	979.44
383.535	995.44
383.761	1011.44
383.986	1004.44
384.211	1044.44
384.436	1048.44
384.662	1081.44
384.887	1082.44
385.112	1085.44
385.337	1107.44
385.562	1139.44
385.787	1106.44
386.013	1122.44
386.238	1118.44
386.463	1140.44
386.688	1130.44
386.913	1129.44
387.138	1136.44
387.363	1105.44
387.588	1106.44
387.813	1107.44
388.038	1111.44
388.263	1131.44
388.488	1123.44
388.713	1139.44
388.938	1152.44
389.163	1115.44
389.387	1104.44
389.612	1085.44
389.837	1077.44
390.062	1098.44
390.287	1101.44
390.512	1076.44
390.736	1130.44
390.961	1128.44
391.186	1150.44
391.411	1151.44
391.636	1192.44
391.86	1217.44
392.085	1293.44
392.31	1262.44
392.534	1243.44
392.759	1235.44
392.984	1168.44
393.208	1179.44
393.433	1175.44
393.658	1164.44
393.882	1193.44
394.107	1202.44
394.331	1194.44
394.556	1170.44
394.78	1222.44
395.005	1219.44
395.229	1238.44
395.454	1260.44
395.678	1259.44
395.903	1246.44
396.127	1244.44
396.352	1211.44
396.576	1212.44
396.801	1188.44
397.025	1190.44
397.249	1238.44
397.474	1267.44
397.698	1285.44
397.922	1263.44
398.147	1275.44
398.371	1342.44
398.595	1354.44
398.82	1432.44
399.044	1476.44
399.268	1611.44
399.492	1840.44
399.717	1987.44
399.941	2024.44
400.165	1914.44
400.389	1758.44
400.613	1636.44
400.837	1511.44
401.062	1522.44
401.286	1442.44
401.51	1426.44
401.734	1438.44
401.958	1460.44
402.182	1405.44
402.406	1451.44
402.63	1433.44
402.854	1505.44
403.078	1497.44
403.302	1488.44
403.526	1530.44
403.75	1552.44
403.974	1599.44
404.198	1585.44
404.422	1616.44
404.645	1569.44
404.869	1594.44
405.093	1561.44
405.317	1527.44
405.541	1587.44
405.765	1524.44
405.988	1524.44
406.212	1558.44
406.436	1585.44
406.66	1603.44
406.883	1636.44
407.107	1723.44
407.331	1741.44
407.555	1833.44
407.778	1790.44
408.002	1805.44
408.226	1747.44
408.449	1712.44
408.673	1667.44
408.896	1599.44
409.12	1562.44
409.344	1582.44
409.567	1593.44
409.791	1583.44
410.014	1595.44
410.238	1558.44
410.461	1564.44
410.685	1521.44
410.908	1526.44
411.132	1485.44
411.355	1456.44
411.578	1455.44
411.802	1459.44
412.025	1473.44
412.249	1487.44
412.472	1527.44
412.695	1459.44
412.919	1432.44
413.142	1448.44
413.365	1403.44
413.589	1448.44
413.812	1422.44
414.035	1365.44
414.258	1412.44
414.482	1413.44
414.705	1449.44
414.928	1432.44
415.151	1442.44
415.374	1399.44
415.597	1408.44
415.821	1358.44
416.044	1355.44
416.267	1399.44
416.49	1350.44
416.713	1362.44
416.936	1373.44
417.159	1353.44
417.382	1344.44
417.605	1388.44
417.828	1359.44
418.051	1428.44
418.274	1401.44
418.497	1360.44
418.72	1438.44
418.943	1388.44
419.166	1474.44
419.389	1632.44
419.611	1567.44
419.834	1508.44
420.057	1478.44
420.28	1405.44
420.503	1344.44
420.726	1358.44
420.948	1358.44
421.171	1403.44
421.394	1377.44
421.617	1333.44
421.839	1398.44
422.062	1418.44
422.285	1366.44
422.507	1406.44
422.73	1406.44
422.953	1415.44
423.175	1456.44
423.398	1455.44
423.621	1440.44
423.843	1458.44
424.066	1417.44
424.288	1418.44
424.511	1422.44
424.733	1401.44
424.956	1400.44
425.178	1405.44
425.401	1383.44
425.623	1386.44
425.846	1346.44
426.068	1385.44
426.291	1331.44
426.513	1340.44
426.735	1276.44
426.958	1333.44
427.18	1287.44
427.402	1261.44
427.625	1260.44
427.847	1253.44
428.069	1245.44
428.292	1243.44
428.514	1209.44
428.736	1248.44
428.958	1259.44
429.181	1238.44
429.403	1231.44
429.625	1214.44
429.847	1238.44
430.069	1221.44
430.292	1204.44
430.514	1209.44
430.736	1218.44
430.958	1227.44
431.18	1208.44
431.402	1233.44
431.624	1205.44
431.846	1230.44
432.068	1252.44
432.29	1239.44
432.512	1229.44
432.734	1248.44
432.956	1257.44
433.178	1231.44
433.4	1250.44
433.622	1276.44
433.844	1255.44
434.066	1250.44
434.287	1289.44
434.509	1282.44
434.731	1319.44
434.953	1377.44
435.175	1367.44
435.397	1369.44
435.618	1270.44
435.84	1294.44
436.062	1272.44
436.284	1236.44
436.505	1241.44
436.727	1263.44
436.949	1245.44
437.17	1231.44
437.392	1204.44
437.614	1209.44
437.835	1175.44
438.057	1206.44
438.278	1163.44
438.5	1170.44
438.721	1183.44
438.943	1189.44
439.165	1180.44
439.386	1190.44
439.608	1205.44
439.829	1214.44
440.05	1218.44
440.272	1223.44
440.493	1215.44
440.715	1202.44
440.936	1253.44
441.158	1302.44
441.379	1316.44
441.6	1381.44
441.822	1364.44
442.043	1370.44
442.264	1334.44
442.486	1303.44
442.707	1367.44
442.928	1355.44
443.149	1356.44
443.371	1311.44
443.592	1356.44
443.813	1343.44
444.034	1390.44
444.255	1406.44
444.476	1450.44
444.698	1550.44
444.919	1567.44
445.14	1618.44
445.361	1529.44
445.582	1419.44
445.803	1398.44
446.024	1310.44
446.245	1269.44
446.466	1297.44
446.687	1257.44
446.908	1241.44
447.129	1236.44
447.35	1172.44
447.571	1162.44
447.792	1148.44
448.013	1177.44
448.234	1161.44
448.455	1154.44
448.675	1112.44
448.896	1111.44
449.117	1134.44
449.338	1118.44
449.559	1116.44
449.779	1098.44
450	1124.44
450.221	1113.44
450.442	1114.44
450.662	1126.44
450.883	1103.44
451.104	1154.44
451.324	1110.44
451.545	1158.44
451.766	1120.44
451.986	1145.44
452.207	1130.44
452.428	1103.44
452.648	1118.44
452.869	1079.44
453.089	1068.44
453.31	1081.44
453.53	1074.44
453.751	1085.44
453.971	1081.44
454.192	1090.44
454.412	1102.44
454.633	1081.44
454.853	1029.44
455.073	1068.44
455.294	1061.44
455.514	1063.44
455.734	1055.44
455.955	1037.44
456.175	1017.44
456.395	1053.44
456.616	1046.44
456.836	1078.44
457.056	1048.44
457.276	1039.44
457.497	1054.44
457.717	1076.44
457.937	1078.44
458.157	1096.44
458.377	1075.44
458.598	1127.44
458.818	1181.44
459.038	1169.44
459.258	1168.44
459.478	1259.44
459.698	1284.44
459.918	1308.44
460.138	1336.44
460.358	1416.44
460.578	1458.44
460.798	1477.44
461.018	1459.44
461.238	1430.44
461.458	1440.44
461.678	1451.44
461.898	1485.44
462.118	1503.44
462.338	1574.44
462.558	1602.44
462.777	1635.44
462.997	1730.44
463.217	1858.44
463.437	1883.44
463.657	1752.44
463.876	1739.44
464.096	1726.44
464.316	1717.44
464.536	1697.44
464.755	1657.44
464.975	1588.44
465.195	1544.44
465.414	1417.44
465.634	1338.44
465.854	1285.44
466.073	1272.44
466.293	1266.44
466.512	1230.44
466.732	1192.44
466.951	1151.44
467.171	1212.44
467.391	1191.44
467.61	1184.44
467.829	1178.44
468.049	1174.44
468.268	1126.44
468.488	1138.44
468.707	1131.44
468.927	1130.44
469.146	1141.44
469.365	1151.44
469.585	1173.44
469.804	1180.44
470.023	1209.44
470.243	1188.44
470.462	1224.44
470.681	1230.44
470.901	1232.44
471.12	1242.44
471.339	1191.44
471.558	1144.44
471.777	1148.44
471.997	1144.44
472.216	1135.44
472.435	1144.44
472.654	1142.44
472.873	1107.44
473.092	1103.44
473.311	1135.44
473.53	1122.44
473.749	1103.44
473.968	1131.44
474.187	1098.44
474.406	1113.44
474.625	1094.44
474.844	1108.44
475.063	1110.44
475.282	1108.44
475.501	1154.44
475.72	1114.44
475.939	1150.44
476.158	1157.44
476.377	1159.44
476.596	1170.44
476.814	1196.44
477.033	1211.44
477.252	1212.44
477.471	1213.44
477.69	1243.44
477.908	1306.44
478.127	1305.44
478.346	1332.44
478.564	1355.44
478.783	1365.44
479.002	1418.44
479.22	1390.44
479.439	1406.44
479.658	1394.44
479.876	1428.44
480.095	1402.44
480.313	1463.44
480.532	1470.44
480.751	1478.44
480.969	1453.44
481.188	1383.44
481.406	1369.44
481.624	1344.44
481.843	1327.44
482.061	1304.44
482.28	1311.44
482.498	1322.44
482.717	1299.44
482.935	1289.44
483.153	1290.44
483.372	1292.44
483.59	1274.44
483.808	1288.44
484.027	1314.44
484.245	1295.44
484.463	1334.44
484.681	1371.44
484.9	1342.44
485.118	1348.44
485.336	1335.44
485.554	1372.44
485.772	1365.44
485.99	1360.44
486.209	1375.44
486.427	1372.44
486.645	1392.44
486.863	1391.44
487.081	1398.44
487.299	1375.44
487.517	1340.44
487.735	1336.44
487.953	1343.44
488.171	1319.44
488.389	1359.44
488.607	1333.44
488.825	1326.44
489.043	1346.44
489.261	1323.44
489.479	1374.44
489.696	1335.44
489.914	1367.44
490.132	1340.44
490.35	1338.44
490.568	1343.44
490.786	1397.44
491.003	1355.44
491.221	1387.44
491.439	1391.44
491.657	1315.44
491.874	1366.44
492.092	1394.44
492.31	1385.44
492.527	1396.44
492.745	1402.44
492.963	1394.44
493.18	1395.44
493.398	1416.44
493.615	1438.44
493.833	1378.44
494.05	1405.44
494.268	1414.44
