Data from NiCl2@0.25M.TitratingCurve.Agarose3%dH2O.NegLispCup.LampEnergy10.LIBS07252019_HRD10591_18-24-43-573.txt Node
Date: Thu Jul 25 18:24:43 EDT 2019
User: cochatt
Spectrometer: HR+D1059
Trigger mode: 1
Integration Time (sec): 1.000000E-1
Scans to average: 1
Electric dark correction enabled: true
Nonlinearity correction enabled: false
Boxcar width: 0
XAxis mode: Wavelengths
Number of Pixels in Spectrum: 2048
>>>>>Begin Spectral Data<<<<<
223.165	-9.69
223.4	-9.69
223.635	-9.69
223.869	-17.69
224.104	-20.69
224.338	1.31
224.573	-23.69
224.808	1.31
225.042	-11.69
225.277	-10.69
225.511	0.31
225.746	10.31
225.98	5.31
226.215	10.31
226.449	8.31
226.683	15.31
226.918	23.31
227.152	18.31
227.387	35.31
227.621	48.31
227.856	46.31
228.09	48.31
228.324	61.31
228.559	50.31
228.793	80.31
229.027	114.31
229.262	137.31
229.496	122.31
229.73	122.31
229.964	130.31
230.199	141.31
230.433	145.31
230.667	163.31
230.901	158.31
231.136	148.31
231.37	145.31
231.604	161.31
231.838	163.31
232.072	172.31
232.306	172.31
232.541	159.31
232.775	178.31
233.009	179.31
233.243	172.31
233.477	167.31
233.711	167.31
233.945	165.31
234.179	170.31
234.413	169.31
234.647	168.31
234.881	164.31
235.115	173.31
235.349	183.31
235.583	182.31
235.817	180.31
236.051	190.31
236.285	183.31
236.519	203.31
236.753	183.31
236.987	181.31
237.221	201.31
237.455	185.31
237.689	178.31
237.922	176.31
238.156	187.31
238.39	186.31
238.624	192.31
238.858	196.31
239.091	208.31
239.325	214.31
239.559	183.31
239.793	196.31
240.027	208.31
240.26	220.31
240.494	212.31
240.728	212.31
240.961	199.31
241.195	209.31
241.429	213.31
241.662	229.31
241.896	237.31
242.13	229.31
242.363	226.31
242.597	222.31
242.83	228.31
243.064	225.31
243.298	239.31
243.531	224.31
243.765	222.31
243.998	248.31
244.232	253.31
244.465	232.31
244.699	237.31
244.932	257.31
245.166	261.31
245.399	277.31
245.633	252.31
245.866	255.31
246.099	278.31
246.333	247.31
246.566	251.31
246.8	261.31
247.033	263.31
247.266	269.31
247.5	254.31
247.733	294.31
247.966	278.31
248.2	271.31
248.433	258.31
248.666	280.31
248.899	285.31
249.133	300.31
249.366	280.31
249.599	302.31
249.832	298.31
250.066	300.31
250.299	300.31
250.532	309.31
250.765	299.31
250.998	308.31
251.231	295.31
251.465	300.31
251.698	316.31
251.931	318.31
252.164	306.31
252.397	300.31
252.63	299.31
252.863	335.31
253.096	315.31
253.329	313.31
253.562	333.31
253.795	348.31
254.028	336.31
254.261	342.31
254.494	339.31
254.727	324.31
254.96	326.31
255.193	332.31
255.426	341.31
255.659	338.31
255.892	365.31
256.124	356.31
256.357	341.31
256.59	342.31
256.823	379.31
257.056	359.31
257.289	353.31
257.521	359.31
257.754	345.31
257.987	333.31
258.22	359.31
258.452	374.31
258.685	367.31
258.918	364.31
259.151	375.31
259.383	375.31
259.616	370.31
259.849	372.31
260.081	381.31
260.314	391.31
260.547	394.31
260.779	377.31
261.012	393.31
261.244	378.31
261.477	398.31
261.71	376.31
261.942	394.31
262.175	388.31
262.407	400.31
262.64	405.31
262.872	414.31
263.105	382.31
263.337	420.31
263.57	406.31
263.802	411.31
264.035	416.31
264.267	410.31
264.499	396.31
264.732	419.31
264.964	408.31
265.197	426.31
265.429	420.31
265.661	420.31
265.894	439.31
266.126	440.31
266.358	435.31
266.591	438.31
266.823	418.31
267.055	428.31
267.287	445.31
267.52	445.31
267.752	438.31
267.984	464.31
268.216	467.31
268.448	450.31
268.681	432.31
268.913	437.31
269.145	449.31
269.377	450.31
269.609	452.31
269.841	458.31
270.073	462.31
270.306	455.31
270.538	456.31
270.77	453.31
271.002	459.31
271.234	452.31
271.466	477.31
271.698	466.31
271.93	470.31
272.162	468.31
272.394	464.31
272.626	455.31
272.858	478.31
273.09	484.31
273.322	471.31
273.553	490.31
273.785	507.31
274.017	489.31
274.249	522.31
274.481	493.31
274.713	482.31
274.945	481.31
275.176	501.31
275.408	511.31
275.64	496.31
275.872	516.31
276.104	519.31
276.335	507.31
276.567	499.31
276.799	510.31
277.031	521.31
277.262	522.31
277.494	528.31
277.726	518.31
277.957	505.31
278.189	518.31
278.421	539.31
278.652	533.31
278.884	528.31
279.115	541.31
279.347	543.31
279.579	543.31
279.81	557.31
280.042	541.31
280.273	562.31
280.505	553.31
280.736	556.31
280.968	582.31
281.199	583.31
281.431	581.31
281.662	567.31
281.894	583.31
282.125	566.31
282.356	572.31
282.588	571.31
282.819	590.31
283.051	566.31
283.282	595.31
283.513	601.31
283.745	557.31
283.976	573.31
284.207	592.31
284.439	568.31
284.67	604.31
284.901	607.31
285.132	586.31
285.364	606.31
285.595	606.31
285.826	583.31
286.057	618.31
286.288	623.31
286.52	595.31
286.751	615.31
286.982	638.31
287.213	619.31
287.444	604.31
287.675	620.31
287.906	621.31
288.138	631.31
288.369	628.31
288.6	644.31
288.831	636.31
289.062	640.31
289.293	647.31
289.524	650.31
289.755	630.31
289.986	635.31
290.217	645.31
290.448	634.31
290.679	655.31
290.91	665.31
291.141	646.31
291.371	626.31
291.602	636.31
291.833	631.31
292.064	634.31
292.295	662.31
292.526	639.31
292.757	632.31
292.987	657.31
293.218	634.31
293.449	660.31
293.68	643.31
293.91	628.31
294.141	655.31
294.372	652.31
294.603	638.31
294.833	673.31
295.064	652.31
295.295	675.31
295.525	668.31
295.756	661.31
295.987	645.31
296.217	667.31
296.448	656.31
296.679	663.31
296.909	688.31
297.14	657.31
297.37	687.31
297.601	725.31
297.831	701.31
298.062	674.31
298.292	711.31
298.523	700.31
298.753	716.31
298.984	713.31
299.214	701.31
299.445	704.31
299.675	704.31
299.905	711.31
300.136	710.31
300.366	732.31
300.597	747.31
300.827	719.31
301.057	740.31
301.288	762.31
301.518	756.31
301.748	768.31
301.979	758.31
302.209	752.31
302.439	783.31
302.669	735.31
302.9	721.31
303.13	740.31
303.36	745.31
303.59	766.31
303.82	720.31
304.051	728.31
304.281	735.31
304.511	727.31
304.741	754.31
304.971	718.31
305.201	730.31
305.431	735.31
305.661	742.31
305.891	727.31
306.121	719.31
306.352	703.31
306.582	706.31
306.812	694.31
307.042	710.31
307.272	685.31
307.502	692.31
307.731	749.31
307.961	738.31
308.191	740.31
308.421	722.31
308.651	722.31
308.881	698.31
309.111	723.31
309.341	710.31
309.571	723.31
309.8	718.31
310.03	725.31
310.26	708.31
310.49	728.31
310.72	741.31
310.949	733.31
311.179	733.31
311.409	747.31
311.639	748.31
311.868	730.31
312.098	747.31
312.328	761.31
312.557	744.31
312.787	738.31
313.017	744.31
313.246	781.31
313.476	751.31
313.706	788.31
313.935	790.31
314.165	824.31
314.394	788.31
314.624	782.31
314.853	754.31
315.083	758.31
315.312	765.31
315.542	801.31
315.771	778.31
316.001	766.31
316.23	768.31
316.46	763.31
316.689	757.31
316.919	762.31
317.148	755.31
317.377	761.31
317.607	761.31
317.836	742.31
318.065	758.31
318.295	756.31
318.524	772.31
318.753	782.31
318.983	750.31
319.212	738.31
319.441	743.31
319.67	738.31
319.9	738.31
320.129	765.31
320.358	771.31
320.587	798.31
320.816	752.31
321.046	776.31
321.275	746.31
321.504	777.31
321.733	790.31
321.962	765.31
322.191	770.31
322.42	761.31
322.649	777.31
322.878	780.31
323.108	763.31
323.337	805.31
323.566	788.31
323.795	777.31
324.024	800.31
324.253	801.31
324.482	789.31
324.71	778.31
324.939	795.31
325.168	796.31
325.397	797.31
325.626	803.31
325.855	800.31
326.084	841.31
326.313	829.31
326.542	838.31
326.77	830.31
326.999	835.31
327.228	830.31
327.457	813.31
327.686	802.31
327.914	827.31
328.143	838.31
328.372	829.31
328.6	839.31
328.829	828.31
329.058	814.31
329.287	852.31
329.515	834.31
329.744	832.31
329.972	862.31
330.201	855.31
330.43	865.31
330.658	851.31
330.887	885.31
331.115	886.31
331.344	889.31
331.572	880.31
331.801	922.31
332.03	948.31
332.258	958.31
332.486	954.31
332.715	986.31
332.943	1013.31
333.172	1069.31
333.4	1135.31
333.629	1183.31
333.857	1135.31
334.085	1146.31
334.314	1124.31
334.542	1090.31
334.771	1125.31
334.999	1065.31
335.227	1056.31
335.455	1028.31
335.684	1064.31
335.912	1052.31
336.14	1022.31
336.369	1007.31
336.597	994.31
336.825	999.31
337.053	1017.31
337.281	972.31
337.51	977.31
337.738	992.31
337.966	965.31
338.194	941.31
338.422	903.31
338.65	879.31
338.878	884.31
339.106	928.31
339.334	910.31
339.562	922.31
339.79	887.31
340.018	891.31
340.246	861.31
340.474	882.31
340.702	878.31
340.93	894.31
341.158	898.31
341.386	887.31
341.614	912.31
341.842	890.31
342.07	876.31
342.298	862.31
342.526	853.31
342.754	847.31
342.981	872.31
343.209	901.31
343.437	938.31
343.665	967.31
343.893	1055.31
344.12	1086.31
344.348	1051.31
344.576	986.31
344.804	981.31
345.031	926.31
345.259	909.31
345.487	908.31
345.714	911.31
345.942	862.31
346.17	867.31
346.397	869.31
346.625	860.31
346.853	838.31
347.08	843.31
347.308	855.31
347.535	852.31
347.763	876.31
347.99	831.31
348.218	811.31
348.445	856.31
348.673	846.31
348.9	843.31
349.128	825.31
349.355	819.31
349.583	813.31
349.81	842.31
350.037	842.31
350.265	860.31
350.492	805.31
350.72	813.31
350.947	829.31
351.174	799.31
351.402	837.31
351.629	808.31
351.856	807.31
352.083	814.31
352.311	816.31
352.538	808.31
352.765	808.31
352.992	784.31
353.22	779.31
353.447	823.31
353.674	790.31
353.901	780.31
354.128	820.31
354.355	806.31
354.583	794.31
354.81	818.31
355.037	807.31
355.264	809.31
355.491	822.31
355.718	803.31
355.945	811.31
356.172	789.31
356.399	831.31
356.626	826.31
356.853	834.31
357.08	797.31
357.307	835.31
357.534	808.31
357.761	806.31
357.988	819.31
358.215	785.31
358.441	820.31
358.668	826.31
358.895	819.31
359.122	824.31
359.349	821.31
359.576	827.31
359.802	810.31
360.029	828.31
360.256	851.31
360.483	818.31
360.709	807.31
360.936	797.31
361.163	831.31
361.39	831.31
361.616	812.31
361.843	822.31
362.07	810.31
362.296	810.31
362.523	798.31
362.749	818.31
362.976	814.31
363.203	799.31
363.429	812.31
363.656	807.31
363.882	790.31
364.109	778.31
364.335	817.31
364.562	809.31
364.788	800.31
365.015	804.31
365.241	796.31
365.468	811.31
365.694	807.31
365.92	804.31
366.147	818.31
366.373	804.31
366.599	806.31
366.826	798.31
367.052	784.31
367.278	812.31
367.505	801.31
367.731	828.31
367.957	810.31
368.184	796.31
368.41	818.31
368.636	818.31
368.862	825.31
369.089	832.31
369.315	839.31
369.541	848.31
369.767	836.31
369.993	847.31
370.219	865.31
370.445	825.31
370.672	895.31
370.898	864.31
371.124	875.31
371.35	872.31
371.576	868.31
371.802	874.31
372.028	879.31
372.254	887.31
372.48	883.31
372.706	914.31
372.932	917.31
373.158	895.31
373.384	895.31
373.61	903.31
373.835	884.31
374.061	889.31
374.287	916.31
374.513	902.31
374.739	961.31
374.965	952.31
375.191	964.31
375.416	984.31
375.642	960.31
375.868	947.31
376.094	920.31
376.319	892.31
376.545	897.31
376.771	904.31
376.997	887.31
377.222	915.31
377.448	901.31
377.674	905.31
377.899	883.31
378.125	886.31
378.35	884.31
378.576	883.31
378.802	867.31
379.027	891.31
379.253	892.31
379.478	874.31
379.704	887.31
379.929	866.31
380.155	893.31
380.38	874.31
380.606	879.31
380.831	889.31
381.057	868.31
381.282	894.31
381.507	855.31
381.733	902.31
381.958	884.31
382.184	912.31
382.409	918.31
382.634	924.31
382.86	932.31
383.085	912.31
383.31	959.31
383.535	975.31
383.761	957.31
383.986	976.31
384.211	1054.31
384.436	1037.31
384.662	1042.31
384.887	1048.31
385.112	1072.31
385.337	1093.31
385.562	1107.31
385.787	1082.31
386.013	1084.31
386.238	1082.31
386.463	1106.31
386.688	1118.31
386.913	1071.31
387.138	1091.31
387.363	1081.31
387.588	1054.31
387.813	1054.31
388.038	1040.31
388.263	1083.31
388.488	1092.31
388.713	1049.31
388.938	1055.31
389.163	1055.31
389.387	1069.31
389.612	1046.31
389.837	1058.31
390.062	1053.31
390.287	1055.31
390.512	1042.31
390.736	1075.31
390.961	1066.31
391.186	1093.31
391.411	1145.31
391.636	1176.31
391.86	1196.31
392.085	1230.31
392.31	1237.31
392.534	1165.31
392.759	1166.31
392.984	1151.31
393.208	1149.31
393.433	1159.31
393.658	1131.31
393.882	1161.31
394.107	1154.31
394.331	1149.31
394.556	1144.31
394.78	1196.31
395.005	1185.31
395.229	1187.31
395.454	1203.31
395.678	1232.31
395.903	1243.31
396.127	1214.31
396.352	1174.31
396.576	1130.31
396.801	1139.31
397.025	1165.31
397.249	1192.31
397.474	1211.31
397.698	1233.31
397.922	1234.31
398.147	1251.31
398.371	1284.31
398.595	1267.31
398.82	1356.31
399.044	1498.31
399.268	1629.31
399.492	1841.31
399.717	2083.31
399.941	2084.31
400.165	1959.31
400.389	1703.31
400.613	1590.31
400.837	1494.31
401.062	1420.31
401.286	1417.31
401.51	1374.31
401.734	1352.31
401.958	1413.31
402.182	1414.31
402.406	1427.31
402.63	1458.31
402.854	1472.31
403.078	1462.31
403.302	1498.31
403.526	1548.31
403.75	1588.31
403.974	1622.31
404.198	1571.31
404.422	1604.31
404.645	1563.31
404.869	1578.31
405.093	1540.31
405.317	1523.31
405.541	1494.31
405.765	1529.31
405.988	1527.31
406.212	1539.31
406.436	1522.31
406.66	1534.31
406.883	1593.31
407.107	1688.31
407.331	1718.31
407.555	1808.31
407.778	1803.31
408.002	1767.31
408.226	1679.31
408.449	1634.31
408.673	1553.31
408.896	1555.31
409.12	1544.31
409.344	1586.31
409.567	1512.31
409.791	1580.31
410.014	1524.31
410.238	1497.31
410.461	1512.31
410.685	1497.31
410.908	1465.31
411.132	1454.31
411.355	1407.31
411.578	1442.31
411.802	1397.31
412.025	1419.31
412.249	1465.31
412.472	1461.31
412.695	1429.31
412.919	1380.31
413.142	1400.31
413.365	1389.31
413.589	1376.31
413.812	1370.31
414.035	1327.31
414.258	1368.31
414.482	1394.31
414.705	1388.31
414.928	1426.31
415.151	1387.31
415.374	1380.31
415.597	1347.31
415.821	1335.31
416.044	1314.31
416.267	1294.31
416.49	1330.31
416.713	1356.31
416.936	1335.31
417.159	1340.31
417.382	1329.31
417.605	1323.31
417.828	1350.31
418.051	1385.31
418.274	1340.31
418.497	1346.31
418.72	1380.31
418.943	1422.31
419.166	1482.31
419.389	1597.31
419.611	1546.31
419.834	1488.31
420.057	1446.31
420.28	1409.31
420.503	1349.31
420.726	1336.31
420.948	1314.31
421.171	1334.31
421.394	1352.31
421.617	1319.31
421.839	1323.31
422.062	1330.31
422.285	1330.31
422.507	1376.31
422.73	1387.31
422.953	1357.31
423.175	1400.31
423.398	1406.31
423.621	1429.31
423.843	1446.31
424.066	1440.31
424.288	1401.31
424.511	1396.31
424.733	1395.31
424.956	1379.31
425.178	1379.31
425.401	1353.31
425.623	1345.31
425.846	1331.31
426.068	1306.31
426.291	1268.31
426.513	1277.31
426.735	1284.31
426.958	1252.31
427.18	1210.31
427.402	1227.31
427.625	1236.31
427.847	1185.31
428.069	1191.31
428.292	1214.31
428.514	1200.31
428.736	1172.31
428.958	1198.31
429.181	1155.31
429.403	1144.31
429.625	1156.31
429.847	1128.31
430.069	1140.31
430.292	1173.31
430.514	1142.31
430.736	1179.31
430.958	1152.31
431.18	1165.31
431.402	1178.31
431.624	1135.31
431.846	1190.31
432.068	1195.31
432.29	1220.31
432.512	1202.31
432.734	1198.31
432.956	1163.31
433.178	1192.31
433.4	1194.31
433.622	1208.31
433.844	1212.31
434.066	1204.31
434.287	1198.31
434.509	1248.31
434.731	1296.31
434.953	1357.31
435.175	1344.31
435.397	1314.31
435.618	1263.31
435.84	1256.31
436.062	1207.31
436.284	1185.31
436.505	1205.31
436.727	1172.31
436.949	1203.31
437.17	1180.31
437.392	1188.31
437.614	1140.31
437.835	1120.31
438.057	1132.31
438.278	1144.31
438.5	1104.31
438.721	1111.31
438.943	1158.31
439.165	1142.31
439.386	1151.31
439.608	1157.31
439.829	1140.31
440.05	1188.31
440.272	1159.31
440.493	1186.31
440.715	1227.31
440.936	1245.31
441.158	1253.31
441.379	1283.31
441.6	1321.31
441.822	1362.31
442.043	1341.31
442.264	1300.31
442.486	1288.31
442.707	1290.31
442.928	1312.31
443.149	1316.31
443.371	1304.31
443.592	1335.31
443.813	1373.31
444.034	1358.31
444.255	1374.31
444.476	1477.31
444.698	1526.31
444.919	1628.31
445.14	1677.31
445.361	1526.31
445.582	1404.31
445.803	1299.31
446.024	1250.31
446.245	1247.31
446.466	1228.31
446.687	1188.31
446.908	1202.31
447.129	1179.31
447.35	1152.31
447.571	1149.31
447.792	1099.31
448.013	1100.31
448.234	1080.31
448.455	1083.31
448.675	1084.31
448.896	1067.31
449.117	1065.31
449.338	1083.31
449.559	1070.31
449.779	1033.31
450	1034.31
450.221	1031.31
450.442	1072.31
450.662	1066.31
450.883	1089.31
451.104	1086.31
451.324	1082.31
451.545	1092.31
451.766	1098.31
451.986	1097.31
452.207	1070.31
452.428	1056.31
452.648	1047.31
452.869	1055.31
453.089	1054.31
453.31	1070.31
453.53	1041.31
453.751	1020.31
453.971	1012.31
454.192	1016.31
454.412	997.31
454.633	1002.31
454.853	1040.31
455.073	1009.31
455.294	997.31
455.514	994.31
455.734	988.31
455.955	992.31
456.175	1019.31
456.395	974.31
456.616	979.31
456.836	1024.31
457.056	1006.31
457.276	996.31
457.497	1046.31
457.717	1029.31
457.937	1013.31
458.157	1032.31
458.377	1035.31
458.598	1032.31
458.818	1072.31
459.038	1120.31
459.258	1170.31
459.478	1207.31
459.698	1240.31
459.918	1251.31
460.138	1286.31
460.358	1379.31
460.578	1418.31
460.798	1416.31
461.018	1428.31
461.238	1390.31
461.458	1404.31
461.678	1430.31
461.898	1457.31
462.118	1411.31
462.338	1509.31
462.558	1590.31
462.777	1609.31
462.997	1741.31
463.217	1897.31
463.437	1910.31
463.657	1814.31
463.876	1694.31
464.096	1661.31
464.316	1680.31
464.536	1705.31
464.755	1583.31
464.975	1537.31
465.195	1452.31
465.414	1376.31
465.634	1286.31
465.854	1223.31
466.073	1192.31
466.293	1184.31
466.512	1159.31
466.732	1130.31
466.951	1156.31
467.171	1122.31
467.391	1124.31
467.61	1149.31
467.829	1117.31
468.049	1127.31
468.268	1092.31
468.488	1064.31
468.707	1072.31
468.927	1114.31
469.146	1071.31
469.365	1121.31
469.585	1088.31
469.804	1146.31
470.023	1164.31
470.243	1159.31
470.462	1177.31
470.681	1188.31
470.901	1194.31
471.12	1159.31
471.339	1132.31
471.558	1123.31
471.777	1124.31
471.997	1131.31
472.216	1093.31
472.435	1060.31
472.654	1066.31
472.873	1049.31
473.092	1078.31
473.311	1071.31
473.53	1068.31
473.749	1084.31
473.968	1065.31
474.187	1062.31
474.406	1047.31
474.625	1055.31
474.844	1056.31
475.063	1055.31
475.282	1070.31
475.501	1092.31
475.72	1087.31
475.939	1066.31
476.158	1099.31
476.377	1115.31
476.596	1115.31
476.814	1102.31
477.033	1088.31
477.252	1157.31
477.471	1170.31
477.69	1187.31
477.908	1227.31
478.127	1239.31
478.346	1240.31
478.564	1296.31
478.783	1332.31
479.002	1355.31
479.22	1359.31
479.439	1370.31
479.658	1343.31
479.876	1356.31
480.095	1340.31
480.313	1384.31
480.532	1453.31
480.751	1451.31
480.969	1420.31
481.188	1358.31
481.406	1294.31
481.624	1244.31
481.843	1234.31
482.061	1266.31
482.28	1215.31
482.498	1223.31
482.717	1186.31
482.935	1216.31
483.153	1215.31
483.372	1200.31
483.59	1190.31
483.808	1190.31
484.027	1226.31
484.245	1226.31
484.463	1204.31
484.681	1239.31
484.9	1253.31
485.118	1249.31
485.336	1219.31
485.554	1254.31
485.772	1266.31
485.99	1281.31
486.209	1266.31
486.427	1260.31
486.645	1272.31
486.863	1287.31
487.081	1268.31
487.299	1267.31
487.517	1243.31
487.735	1282.31
487.953	1270.31
488.171	1255.31
488.389	1262.31
488.607	1257.31
488.825	1231.31
489.043	1229.31
489.261	1269.31
489.479	1255.31
489.696	1256.31
489.914	1260.31
490.132	1276.31
490.35	1274.31
490.568	1262.31
490.786	1274.31
491.003	1278.31
491.221	1264.31
491.439	1294.31
491.657	1294.31
491.874	1287.31
492.092	1286.31
492.31	1285.31
492.527	1262.31
492.745	1309.31
492.963	1326.31
493.18	1300.31
493.398	1308.31
493.615	1316.31
493.833	1340.31
494.05	1328.31
494.268	1326.31
494.485	1353.31
494.703	1354.31
