Data from NiCl2@0.125M.TitratingCurve.Agarose3%dH2O.NegLispCup.LampEnergy10.LIBS07252019_HRD10591_18-27-24-575.txt Node
Date: Thu Jul 25 18:27:24 EDT 2019
User: cochatt
Spectrometer: HR+D1059
Trigger mode: 1
Integration Time (sec): 1.000000E-1
Scans to average: 1
Electric dark correction enabled: true
Nonlinearity correction enabled: false
Boxcar width: 0
XAxis mode: Wavelengths
Number of Pixels in Spectrum: 2048
>>>>>Begin Spectral Data<<<<<
223.165	-17.12
223.4	-17.12
223.635	-17.12
223.869	-13.12
224.104	-24.12
224.338	-11.12
224.573	-11.12
224.808	-18.12
225.042	-20.12
225.277	-3.12
225.511	-0.12
225.746	5.88
225.98	6.88
226.215	9.88
226.449	22.88
226.683	16.88
226.918	20.88
227.152	34.88
227.387	39.88
227.621	29.88
227.856	39.88
228.09	50.88
228.324	41.88
228.559	60.88
228.793	83.88
229.027	116.88
229.262	129.88
229.496	120.88
229.73	155.88
229.964	149.88
230.199	136.88
230.433	161.88
230.667	151.88
230.901	137.88
231.136	153.88
231.37	139.88
231.604	147.88
231.838	157.88
232.072	153.88
232.306	157.88
232.541	168.88
232.775	183.88
233.009	183.88
233.243	156.88
233.477	173.88
233.711	166.88
233.945	169.88
234.179	176.88
234.413	181.88
234.647	178.88
234.881	169.88
235.115	164.88
235.349	171.88
235.583	183.88
235.817	168.88
236.051	150.88
236.285	178.88
236.519	169.88
236.753	181.88
236.987	189.88
237.221	196.88
237.455	189.88
237.689	185.88
237.922	184.88
238.156	188.88
238.39	166.88
238.624	179.88
238.858	195.88
239.091	193.88
239.325	198.88
239.559	194.88
239.793	207.88
240.027	204.88
240.26	220.88
240.494	197.88
240.728	219.88
240.961	206.88
241.195	224.88
241.429	218.88
241.662	202.88
241.896	234.88
242.13	220.88
242.363	230.88
242.597	237.88
242.83	233.88
243.064	227.88
243.298	229.88
243.531	228.88
243.765	249.88
243.998	249.88
244.232	245.88
244.465	258.88
244.699	241.88
244.932	277.88
245.166	270.88
245.399	257.88
245.633	233.88
245.866	268.88
246.099	273.88
246.333	275.88
246.566	271.88
246.8	267.88
247.033	277.88
247.266	280.88
247.5	277.88
247.733	281.88
247.966	266.88
248.2	269.88
248.433	265.88
248.666	273.88
248.899	283.88
249.133	295.88
249.366	291.88
249.599	298.88
249.832	299.88
250.066	285.88
250.299	306.88
250.532	310.88
250.765	318.88
250.998	315.88
251.231	333.88
251.465	317.88
251.698	300.88
251.931	317.88
252.164	314.88
252.397	313.88
252.63	316.88
252.863	320.88
253.096	318.88
253.329	337.88
253.562	313.88
253.795	339.88
254.028	332.88
254.261	338.88
254.494	323.88
254.727	317.88
254.96	301.88
255.193	351.88
255.426	345.88
255.659	360.88
255.892	334.88
256.124	331.88
256.357	369.88
256.59	353.88
256.823	344.88
257.056	343.88
257.289	338.88
257.521	356.88
257.754	362.88
257.987	343.88
258.22	364.88
258.452	366.88
258.685	363.88
258.918	353.88
259.151	373.88
259.383	366.88
259.616	361.88
259.849	381.88
260.081	377.88
260.314	403.88
260.547	388.88
260.779	377.88
261.012	372.88
261.244	392.88
261.477	386.88
261.71	405.88
261.942	381.88
262.175	389.88
262.407	401.88
262.64	387.88
262.872	416.88
263.105	381.88
263.337	396.88
263.57	403.88
263.802	403.88
264.035	408.88
264.267	407.88
264.499	387.88
264.732	415.88
264.964	431.88
265.197	427.88
265.429	425.88
265.661	426.88
265.894	423.88
266.126	443.88
266.358	436.88
266.591	425.88
266.823	429.88
267.055	408.88
267.287	467.88
267.52	443.88
267.752	442.88
267.984	436.88
268.216	450.88
268.448	434.88
268.681	461.88
268.913	451.88
269.145	433.88
269.377	448.88
269.609	462.88
269.841	464.88
270.073	477.88
270.306	451.88
270.538	458.88
270.77	452.88
271.002	461.88
271.234	466.88
271.466	467.88
271.698	485.88
271.93	453.88
272.162	470.88
272.394	471.88
272.626	476.88
272.858	479.88
273.09	490.88
273.322	469.88
273.553	494.88
273.785	494.88
274.017	478.88
274.249	500.88
274.481	480.88
274.713	480.88
274.945	490.88
275.176	499.88
275.408	494.88
275.64	497.88
275.872	503.88
276.104	519.88
276.335	505.88
276.567	532.88
276.799	513.88
277.031	527.88
277.262	532.88
277.494	517.88
277.726	509.88
277.957	515.88
278.189	519.88
278.421	550.88
278.652	538.88
278.884	540.88
279.115	530.88
279.347	547.88
279.579	527.88
279.81	541.88
280.042	508.88
280.273	543.88
280.505	547.88
280.736	539.88
280.968	557.88
281.199	561.88
281.431	551.88
281.662	569.88
281.894	561.88
282.125	575.88
282.356	585.88
282.588	588.88
282.819	583.88
283.051	574.88
283.282	581.88
283.513	594.88
283.745	586.88
283.976	583.88
284.207	588.88
284.439	574.88
284.67	580.88
284.901	603.88
285.132	595.88
285.364	592.88
285.595	597.88
285.826	577.88
286.057	629.88
286.288	590.88
286.52	605.88
286.751	613.88
286.982	619.88
287.213	622.88
287.444	629.88
287.675	631.88
287.906	626.88
288.138	643.88
288.369	641.88
288.6	628.88
288.831	601.88
289.062	645.88
289.293	631.88
289.524	628.88
289.755	634.88
289.986	616.88
290.217	628.88
290.448	626.88
290.679	622.88
290.91	655.88
291.141	645.88
291.371	647.88
291.602	640.88
291.833	611.88
292.064	661.88
292.295	641.88
292.526	631.88
292.757	645.88
292.987	634.88
293.218	622.88
293.449	667.88
293.68	667.88
293.91	652.88
294.141	647.88
294.372	654.88
294.603	653.88
294.833	655.88
295.064	651.88
295.295	650.88
295.525	653.88
295.756	647.88
295.987	669.88
296.217	667.88
296.448	672.88
296.679	673.88
296.909	690.88
297.14	669.88
297.37	675.88
297.601	678.88
297.831	668.88
298.062	660.88
298.292	689.88
298.523	711.88
298.753	708.88
298.984	706.88
299.214	697.88
299.445	698.88
299.675	699.88
299.905	693.88
300.136	699.88
300.366	705.88
300.597	705.88
300.827	715.88
301.057	738.88
301.288	733.88
301.518	734.88
301.748	749.88
301.979	757.88
302.209	743.88
302.439	734.88
302.669	718.88
302.9	737.88
303.13	713.88
303.36	749.88
303.59	764.88
303.82	723.88
304.051	736.88
304.281	770.88
304.511	720.88
304.741	738.88
304.971	741.88
305.201	750.88
305.431	722.88
305.661	721.88
305.891	694.88
306.121	694.88
306.352	717.88
306.582	725.88
306.812	734.88
307.042	724.88
307.272	715.88
307.502	712.88
307.731	711.88
307.961	725.88
308.191	729.88
308.421	738.88
308.651	733.88
308.881	700.88
309.111	743.88
309.341	705.88
309.571	728.88
309.8	725.88
310.03	725.88
310.26	725.88
310.49	721.88
310.72	729.88
310.949	707.88
311.179	724.88
311.409	735.88
311.639	719.88
311.868	733.88
312.098	738.88
312.328	773.88
312.557	754.88
312.787	743.88
313.017	765.88
313.246	747.88
313.476	773.88
313.706	771.88
313.935	773.88
314.165	783.88
314.394	772.88
314.624	805.88
314.853	779.88
315.083	769.88
315.312	767.88
315.542	805.88
315.771	770.88
316.001	753.88
316.23	789.88
316.46	783.88
316.689	729.88
316.919	785.88
317.148	778.88
317.377	769.88
317.607	754.88
317.836	759.88
318.065	737.88
318.295	760.88
318.524	763.88
318.753	769.88
318.983	756.88
319.212	745.88
319.441	752.88
319.67	749.88
319.9	747.88
320.129	768.88
320.358	755.88
320.587	759.88
320.816	769.88
321.046	748.88
321.275	781.88
321.504	759.88
321.733	777.88
321.962	778.88
322.191	761.88
322.42	771.88
322.649	761.88
322.878	794.88
323.108	787.88
323.337	806.88
323.566	765.88
323.795	787.88
324.024	789.88
324.253	787.88
324.482	787.88
324.71	809.88
324.939	804.88
325.168	781.88
325.397	790.88
325.626	799.88
325.855	797.88
326.084	835.88
326.313	841.88
326.542	848.88
326.77	873.88
326.999	844.88
327.228	824.88
327.457	833.88
327.686	805.88
327.914	817.88
328.143	838.88
328.372	842.88
328.6	874.88
328.829	809.88
329.058	837.88
329.287	838.88
329.515	837.88
329.744	835.88
329.972	852.88
330.201	855.88
330.43	842.88
330.658	833.88
330.887	843.88
331.115	858.88
331.344	894.88
331.572	890.88
331.801	890.88
332.03	928.88
332.258	967.88
332.486	946.88
332.715	986.88
332.943	1013.88
333.172	1069.88
333.4	1103.88
333.629	1133.88
333.857	1129.88
334.085	1125.88
334.314	1084.88
334.542	1100.88
334.771	1068.88
334.999	1049.88
335.227	1054.88
335.455	1081.88
335.684	1031.88
335.912	1041.88
336.14	1014.88
336.369	1010.88
336.597	1019.88
336.825	987.88
337.053	1003.88
337.281	989.88
337.51	967.88
337.738	953.88
337.966	905.88
338.194	932.88
338.422	951.88
338.65	897.88
338.878	941.88
339.106	930.88
339.334	893.88
339.562	911.88
339.79	886.88
340.018	886.88
340.246	892.88
340.474	863.88
340.702	862.88
340.93	892.88
341.158	882.88
341.386	889.88
341.614	889.88
341.842	859.88
342.07	847.88
342.298	898.88
342.526	878.88
342.754	862.88
342.981	881.88
343.209	917.88
343.437	942.88
343.665	975.88
343.893	1043.88
344.12	1065.88
344.348	1043.88
344.576	1004.88
344.804	974.88
345.031	908.88
345.259	882.88
345.487	895.88
345.714	865.88
345.942	868.88
346.17	867.88
346.397	839.88
346.625	878.88
346.853	859.88
347.08	849.88
347.308	842.88
347.535	855.88
347.763	859.88
347.99	822.88
348.218	860.88
348.445	846.88
348.673	836.88
348.9	827.88
349.128	837.88
349.355	823.88
349.583	858.88
349.81	841.88
350.037	810.88
350.265	814.88
350.492	810.88
350.72	823.88
350.947	803.88
351.174	830.88
351.402	817.88
351.629	796.88
351.856	803.88
352.083	813.88
352.311	824.88
352.538	804.88
352.765	841.88
352.992	823.88
353.22	805.88
353.447	782.88
353.674	813.88
353.901	795.88
354.128	808.88
354.355	801.88
354.583	818.88
354.81	818.88
355.037	822.88
355.264	806.88
355.491	793.88
355.718	833.88
355.945	820.88
356.172	801.88
356.399	829.88
356.626	814.88
356.853	830.88
357.08	827.88
357.307	818.88
357.534	790.88
357.761	809.88
357.988	811.88
358.215	806.88
358.441	770.88
358.668	834.88
358.895	822.88
359.122	823.88
359.349	811.88
359.576	830.88
359.802	825.88
360.029	814.88
360.256	823.88
360.483	817.88
360.709	817.88
360.936	810.88
361.163	821.88
361.39	805.88
361.616	818.88
361.843	834.88
362.07	796.88
362.296	821.88
362.523	798.88
362.749	811.88
362.976	826.88
363.203	793.88
363.429	790.88
363.656	830.88
363.882	838.88
364.109	816.88
364.335	795.88
364.562	814.88
364.788	801.88
365.015	804.88
365.241	825.88
365.468	792.88
365.694	793.88
365.92	806.88
366.147	817.88
366.373	814.88
366.599	817.88
366.826	819.88
367.052	793.88
367.278	819.88
367.505	805.88
367.731	818.88
367.957	834.88
368.184	818.88
368.41	838.88
368.636	827.88
368.862	833.88
369.089	836.88
369.315	852.88
369.541	841.88
369.767	867.88
369.993	823.88
370.219	839.88
370.445	846.88
370.672	863.88
370.898	865.88
371.124	869.88
371.35	899.88
371.576	915.88
371.802	900.88
372.028	887.88
372.254	874.88
372.48	889.88
372.706	902.88
372.932	934.88
373.158	910.88
373.384	887.88
373.61	884.88
373.835	890.88
374.061	908.88
374.287	889.88
374.513	903.88
374.739	949.88
374.965	962.88
375.191	978.88
375.416	994.88
375.642	943.88
375.868	952.88
376.094	919.88
376.319	897.88
376.545	906.88
376.771	889.88
376.997	889.88
377.222	867.88
377.448	865.88
377.674	901.88
377.899	882.88
378.125	869.88
378.35	882.88
378.576	875.88
378.802	866.88
379.027	876.88
379.253	866.88
379.478	882.88
379.704	893.88
379.929	870.88
380.155	870.88
380.38	846.88
380.606	890.88
380.831	885.88
381.057	883.88
381.282	896.88
381.507	870.88
381.733	905.88
381.958	876.88
382.184	915.88
382.409	906.88
382.634	931.88
382.86	956.88
383.085	948.88
383.31	947.88
383.535	979.88
383.761	987.88
383.986	989.88
384.211	994.88
384.436	1011.88
384.662	1039.88
384.887	1081.88
385.112	1068.88
385.337	1047.88
385.562	1070.88
385.787	1081.88
386.013	1061.88
386.238	1053.88
386.463	1073.88
386.688	1085.88
386.913	1049.88
387.138	1074.88
387.363	1043.88
387.588	1054.88
387.813	1071.88
388.038	1053.88
388.263	1053.88
388.488	1082.88
388.713	1051.88
388.938	1038.88
389.163	1054.88
389.387	1045.88
389.612	1029.88
389.837	1051.88
390.062	1033.88
390.287	1069.88
390.512	1065.88
390.736	1080.88
390.961	1109.88
391.186	1114.88
391.411	1105.88
391.636	1125.88
391.86	1196.88
392.085	1190.88
392.31	1221.88
392.534	1177.88
392.759	1133.88
392.984	1137.88
393.208	1120.88
393.433	1148.88
393.658	1123.88
393.882	1143.88
394.107	1132.88
394.331	1173.88
394.556	1158.88
394.78	1169.88
395.005	1139.88
395.229	1148.88
395.454	1181.88
395.678	1223.88
395.903	1182.88
396.127	1198.88
396.352	1137.88
396.576	1102.88
396.801	1134.88
397.025	1171.88
397.249	1153.88
397.474	1196.88
397.698	1209.88
397.922	1220.88
398.147	1210.88
398.371	1238.88
398.595	1306.88
398.82	1325.88
399.044	1415.88
399.268	1575.88
399.492	1723.88
399.717	1991.88
399.941	1997.88
400.165	1778.88
400.389	1639.88
400.613	1513.88
400.837	1437.88
401.062	1387.88
401.286	1386.88
401.51	1340.88
401.734	1350.88
401.958	1374.88
402.182	1372.88
402.406	1403.88
402.63	1385.88
402.854	1429.88
403.078	1471.88
403.302	1518.88
403.526	1491.88
403.75	1526.88
403.974	1559.88
404.198	1554.88
404.422	1579.88
404.645	1535.88
404.869	1525.88
405.093	1494.88
405.317	1541.88
405.541	1463.88
405.765	1488.88
405.988	1452.88
406.212	1497.88
406.436	1467.88
406.66	1531.88
406.883	1545.88
407.107	1611.88
407.331	1672.88
407.555	1773.88
407.778	1729.88
408.002	1693.88
408.226	1627.88
408.449	1626.88
408.673	1572.88
408.896	1553.88
409.12	1529.88
409.344	1513.88
409.567	1501.88
409.791	1499.88
410.014	1497.88
410.238	1490.88
410.461	1461.88
410.685	1463.88
410.908	1471.88
411.132	1423.88
411.355	1400.88
411.578	1399.88
411.802	1435.88
412.025	1417.88
412.249	1436.88
412.472	1425.88
412.695	1367.88
412.919	1345.88
413.142	1342.88
413.365	1325.88
413.589	1354.88
413.812	1344.88
414.035	1311.88
414.258	1349.88
414.482	1352.88
414.705	1391.88
414.928	1344.88
415.151	1361.88
415.374	1362.88
415.597	1358.88
415.821	1338.88
416.044	1305.88
416.267	1310.88
416.49	1342.88
416.713	1345.88
416.936	1321.88
417.159	1324.88
417.382	1297.88
417.605	1301.88
417.828	1313.88
418.051	1339.88
418.274	1351.88
418.497	1329.88
418.72	1330.88
418.943	1363.88
419.166	1457.88
419.389	1546.88
419.611	1493.88
419.834	1457.88
420.057	1435.88
420.28	1358.88
420.503	1321.88
420.726	1317.88
420.948	1258.88
421.171	1313.88
421.394	1327.88
421.617	1287.88
421.839	1337.88
422.062	1335.88
422.285	1332.88
422.507	1371.88
422.73	1339.88
422.953	1388.88
423.175	1416.88
423.398	1383.88
423.621	1396.88
423.843	1422.88
424.066	1409.88
424.288	1391.88
424.511	1381.88
424.733	1402.88
424.956	1357.88
425.178	1356.88
425.401	1359.88
425.623	1353.88
425.846	1272.88
426.068	1297.88
426.291	1272.88
426.513	1261.88
426.735	1265.88
426.958	1270.88
427.18	1222.88
427.402	1192.88
427.625	1250.88
427.847	1228.88
428.069	1203.88
428.292	1197.88
428.514	1201.88
428.736	1168.88
428.958	1221.88
429.181	1187.88
429.403	1121.88
429.625	1143.88
429.847	1145.88
430.069	1125.88
430.292	1140.88
430.514	1159.88
430.736	1153.88
430.958	1147.88
431.18	1173.88
431.402	1159.88
431.624	1171.88
431.846	1148.88
432.068	1180.88
432.29	1206.88
432.512	1151.88
432.734	1189.88
432.956	1167.88
433.178	1162.88
433.4	1186.88
433.622	1160.88
433.844	1230.88
434.066	1225.88
434.287	1197.88
434.509	1231.88
434.731	1270.88
434.953	1359.88
435.175	1354.88
435.397	1324.88
435.618	1239.88
435.84	1227.88
436.062	1165.88
436.284	1202.88
436.505	1201.88
436.727	1163.88
436.949	1195.88
437.17	1175.88
437.392	1187.88
437.614	1185.88
437.835	1144.88
438.057	1139.88
438.278	1121.88
438.5	1149.88
438.721	1124.88
438.943	1193.88
439.165	1135.88
439.386	1136.88
439.608	1144.88
439.829	1185.88
440.05	1171.88
440.272	1182.88
440.493	1205.88
440.715	1186.88
440.936	1231.88
441.158	1249.88
441.379	1259.88
441.6	1338.88
441.822	1340.88
442.043	1314.88
442.264	1285.88
442.486	1265.88
442.707	1282.88
442.928	1305.88
443.149	1308.88
443.371	1319.88
443.592	1311.88
443.813	1381.88
444.034	1377.88
444.255	1374.88
444.476	1430.88
444.698	1557.88
444.919	1564.88
445.14	1671.88
445.361	1491.88
445.582	1385.88
445.803	1275.88
446.024	1275.88
446.245	1249.88
446.466	1250.88
446.687	1204.88
446.908	1193.88
447.129	1149.88
447.35	1141.88
447.571	1157.88
447.792	1117.88
448.013	1079.88
448.234	1124.88
448.455	1112.88
448.675	1102.88
448.896	1079.88
449.117	1084.88
449.338	1059.88
449.559	1051.88
449.779	1034.88
450	1073.88
450.221	1054.88
450.442	1056.88
450.662	1064.88
450.883	1074.88
451.104	1095.88
451.324	1082.88
451.545	1090.88
451.766	1100.88
451.986	1092.88
452.207	1075.88
452.428	1092.88
452.648	1078.88
452.869	1042.88
453.089	1059.88
453.31	1052.88
453.53	1045.88
453.751	1032.88
453.971	1025.88
454.192	1025.88
454.412	1010.88
454.633	1020.88
454.853	1047.88
455.073	986.88
455.294	1038.88
455.514	1002.88
455.734	992.88
455.955	996.88
456.175	997.88
456.395	979.88
456.616	979.88
456.836	1017.88
457.056	991.88
457.276	995.88
457.497	1005.88
457.717	1023.88
457.937	1013.88
458.157	1029.88
458.377	1058.88
458.598	1039.88
458.818	1107.88
459.038	1134.88
459.258	1117.88
459.478	1145.88
459.698	1198.88
459.918	1228.88
460.138	1263.88
460.358	1372.88
460.578	1368.88
460.798	1414.88
461.018	1395.88
461.238	1358.88
461.458	1361.88
461.678	1380.88
461.898	1420.88
462.118	1366.88
462.338	1515.88
462.558	1512.88
462.777	1605.88
462.997	1654.88
463.217	1843.88
463.437	1843.88
463.657	1693.88
463.876	1638.88
464.096	1608.88
464.316	1621.88
464.536	1647.88
464.755	1568.88
464.975	1516.88
465.195	1440.88
465.414	1373.88
465.634	1262.88
465.854	1265.88
466.073	1217.88
466.293	1165.88
466.512	1165.88
466.732	1152.88
466.951	1127.88
467.171	1125.88
467.391	1140.88
467.61	1135.88
467.829	1115.88
468.049	1139.88
468.268	1099.88
468.488	1077.88
468.707	1069.88
468.927	1075.88
469.146	1090.88
469.365	1087.88
469.585	1096.88
469.804	1135.88
470.023	1151.88
470.243	1166.88
470.462	1118.88
470.681	1168.88
470.901	1150.88
471.12	1148.88
471.339	1125.88
471.558	1151.88
471.777	1113.88
471.997	1089.88
472.216	1059.88
472.435	1052.88
472.654	1081.88
472.873	1044.88
473.092	1034.88
473.311	1084.88
473.53	1037.88
473.749	1049.88
473.968	1057.88
474.187	1061.88
474.406	1031.88
474.625	1065.88
474.844	1060.88
475.063	1041.88
475.282	1041.88
475.501	1094.88
475.72	1074.88
475.939	1077.88
476.158	1081.88
476.377	1092.88
476.596	1083.88
476.814	1125.88
477.033	1127.88
477.252	1137.88
477.471	1131.88
477.69	1170.88
477.908	1223.88
478.127	1233.88
478.346	1251.88
478.564	1289.88
478.783	1289.88
479.002	1300.88
479.22	1338.88
479.439	1291.88
479.658	1322.88
479.876	1312.88
480.095	1310.88
480.313	1387.88
480.532	1429.88
480.751	1397.88
480.969	1354.88
481.188	1318.88
481.406	1277.88
481.624	1258.88
481.843	1240.88
482.061	1227.88
482.28	1217.88
482.498	1220.88
482.717	1204.88
482.935	1194.88
483.153	1223.88
483.372	1221.88
483.59	1220.88
483.808	1209.88
484.027	1224.88
484.245	1226.88
484.463	1214.88
484.681	1246.88
484.9	1260.88
485.118	1238.88
485.336	1241.88
485.554	1262.88
485.772	1243.88
485.99	1266.88
486.209	1280.88
486.427	1304.88
486.645	1274.88
486.863	1304.88
487.081	1258.88
487.299	1250.88
487.517	1229.88
487.735	1251.88
487.953	1286.88
488.171	1279.88
488.389	1281.88
488.607	1258.88
488.825	1272.88
489.043	1254.88
489.261	1262.88
489.479	1232.88
489.696	1240.88
489.914	1275.88
490.132	1265.88
490.35	1241.88
490.568	1277.88
490.786	1241.88
491.003	1285.88
491.221	1305.88
491.439	1283.88
491.657	1283.88
491.874	1298.88
492.092	1260.88
492.31	1293.88
492.527	1321.88
492.745	1333.88
492.963	1300.88
493.18	1293.88
493.398	1327.88
493.615	1319.88
493.833	1350.88
494.05	1299.88
494.268	1337.88
494.485	1348.88
