Data from NiCl2@0.5M.TitratingCurve.Agarose3%dH2O.NegLispCup.LampEnergy10.LIBS07252019_HRD10591_18-19-24-572.txt Node
Date: Thu Jul 25 18:19:24 EDT 2019
User: cochatt
Spectrometer: HR+D1059
Trigger mode: 1
Integration Time (sec): 1.000000E-1
Scans to average: 1
Electric dark correction enabled: true
Nonlinearity correction enabled: false
Boxcar width: 0
XAxis mode: Wavelengths
Number of Pixels in Spectrum: 2048
>>>>>Begin Spectral Data<<<<<
223.165	-12.62
223.4	-12.62
223.635	-12.62
223.869	-12.62
224.104	-22.62
224.338	-11.62
224.573	-18.62
224.808	-19.62
225.042	-7.62
225.277	0.38
225.511	3.38
225.746	5.38
225.98	-5.62
226.215	-3.62
226.449	30.38
226.683	25.38
226.918	32.38
227.152	17.38
227.387	23.38
227.621	21.38
227.856	50.38
228.09	48.38
228.324	57.38
228.559	41.38
228.793	66.38
229.027	96.38
229.262	119.38
229.496	116.38
229.73	112.38
229.964	129.38
230.199	122.38
230.433	129.38
230.667	140.38
230.901	135.38
231.136	143.38
231.37	127.38
231.604	133.38
231.838	145.38
232.072	150.38
232.306	151.38
232.541	155.38
232.775	134.38
233.009	130.38
233.243	130.38
233.477	137.38
233.711	157.38
233.945	148.38
234.179	136.38
234.413	159.38
234.647	143.38
234.881	143.38
235.115	155.38
235.349	144.38
235.583	159.38
235.817	153.38
236.051	148.38
236.285	154.38
236.519	147.38
236.753	150.38
236.987	166.38
237.221	144.38
237.455	154.38
237.689	157.38
237.922	168.38
238.156	156.38
238.39	157.38
238.624	164.38
238.858	146.38
239.091	155.38
239.325	167.38
239.559	183.38
239.793	183.38
240.027	172.38
240.26	169.38
240.494	165.38
240.728	168.38
240.961	172.38
241.195	174.38
241.429	184.38
241.662	182.38
241.896	198.38
242.13	189.38
242.363	190.38
242.597	174.38
242.83	181.38
243.064	175.38
243.298	185.38
243.531	194.38
243.765	201.38
243.998	209.38
244.232	218.38
244.465	199.38
244.699	219.38
244.932	215.38
245.166	206.38
245.399	221.38
245.633	202.38
245.866	209.38
246.099	200.38
246.333	214.38
246.566	207.38
246.8	211.38
247.033	213.38
247.266	211.38
247.5	228.38
247.733	219.38
247.966	215.38
248.2	217.38
248.433	216.38
248.666	229.38
248.899	230.38
249.133	221.38
249.366	244.38
249.599	233.38
249.832	225.38
250.066	249.38
250.299	255.38
250.532	227.38
250.765	236.38
250.998	256.38
251.231	242.38
251.465	253.38
251.698	248.38
251.931	253.38
252.164	256.38
252.397	265.38
252.63	253.38
252.863	263.38
253.096	261.38
253.329	262.38
253.562	259.38
253.795	268.38
254.028	262.38
254.261	260.38
254.494	274.38
254.727	277.38
254.96	250.38
255.193	267.38
255.426	264.38
255.659	271.38
255.892	250.38
256.124	283.38
256.357	284.38
256.59	288.38
256.823	277.38
257.056	274.38
257.289	295.38
257.521	295.38
257.754	281.38
257.987	279.38
258.22	282.38
258.452	296.38
258.685	273.38
258.918	306.38
259.151	307.38
259.383	299.38
259.616	287.38
259.849	308.38
260.081	299.38
260.314	291.38
260.547	296.38
260.779	303.38
261.012	300.38
261.244	325.38
261.477	320.38
261.71	311.38
261.942	313.38
262.175	324.38
262.407	332.38
262.64	329.38
262.872	305.38
263.105	303.38
263.337	319.38
263.57	330.38
263.802	330.38
264.035	336.38
264.267	334.38
264.499	322.38
264.732	336.38
264.964	329.38
265.197	326.38
265.429	325.38
265.661	339.38
265.894	346.38
266.126	350.38
266.358	348.38
266.591	340.38
266.823	363.38
267.055	343.38
267.287	337.38
267.52	339.38
267.752	372.38
267.984	349.38
268.216	372.38
268.448	383.38
268.681	357.38
268.913	350.38
269.145	368.38
269.377	361.38
269.609	354.38
269.841	385.38
270.073	349.38
270.306	369.38
270.538	360.38
270.77	363.38
271.002	375.38
271.234	356.38
271.466	367.38
271.698	379.38
271.93	351.38
272.162	374.38
272.394	375.38
272.626	377.38
272.858	380.38
273.09	398.38
273.322	382.38
273.553	393.38
273.785	378.38
274.017	399.38
274.249	380.38
274.481	410.38
274.713	395.38
274.945	404.38
275.176	383.38
275.408	396.38
275.64	399.38
275.872	402.38
276.104	418.38
276.335	400.38
276.567	406.38
276.799	403.38
277.031	404.38
277.262	426.38
277.494	400.38
277.726	411.38
277.957	420.38
278.189	419.38
278.421	413.38
278.652	412.38
278.884	425.38
279.115	428.38
279.347	435.38
279.579	427.38
279.81	440.38
280.042	435.38
280.273	434.38
280.505	432.38
280.736	460.38
280.968	434.38
281.199	421.38
281.431	445.38
281.662	450.38
281.894	457.38
282.125	458.38
282.356	460.38
282.588	457.38
282.819	472.38
283.051	456.38
283.282	444.38
283.513	442.38
283.745	467.38
283.976	468.38
284.207	483.38
284.439	477.38
284.67	486.38
284.901	479.38
285.132	468.38
285.364	473.38
285.595	482.38
285.826	480.38
286.057	477.38
286.288	485.38
286.52	473.38
286.751	493.38
286.982	486.38
287.213	497.38
287.444	499.38
287.675	498.38
287.906	498.38
288.138	488.38
288.369	492.38
288.6	489.38
288.831	488.38
289.062	498.38
289.293	494.38
289.524	514.38
289.755	513.38
289.986	497.38
290.217	496.38
290.448	504.38
290.679	496.38
290.91	520.38
291.141	511.38
291.371	505.38
291.602	518.38
291.833	519.38
292.064	515.38
292.295	488.38
292.526	493.38
292.757	521.38
292.987	516.38
293.218	497.38
293.449	520.38
293.68	503.38
293.91	504.38
294.141	496.38
294.372	519.38
294.603	516.38
294.833	545.38
295.064	542.38
295.295	531.38
295.525	510.38
295.756	529.38
295.987	518.38
296.217	546.38
296.448	516.38
296.679	541.38
296.909	536.38
297.14	548.38
297.37	545.38
297.601	547.38
297.831	550.38
298.062	548.38
298.292	568.38
298.523	565.38
298.753	580.38
298.984	565.38
299.214	548.38
299.445	561.38
299.675	557.38
299.905	537.38
300.136	562.38
300.366	583.38
300.597	591.38
300.827	608.38
301.057	596.38
301.288	570.38
301.518	587.38
301.748	573.38
301.979	583.38
302.209	607.38
302.439	584.38
302.669	577.38
302.9	587.38
303.13	577.38
303.36	601.38
303.59	589.38
303.82	606.38
304.051	616.38
304.281	596.38
304.511	593.38
304.741	597.38
304.971	606.38
305.201	603.38
305.431	600.38
305.661	603.38
305.891	600.38
306.121	612.38
306.352	583.38
306.582	585.38
306.812	562.38
307.042	593.38
307.272	599.38
307.502	590.38
307.731	588.38
307.961	591.38
308.191	579.38
308.421	595.38
308.651	589.38
308.881	592.38
309.111	573.38
309.341	559.38
309.571	575.38
309.8	589.38
310.03	601.38
310.26	628.38
310.49	629.38
310.72	609.38
310.949	631.38
311.179	603.38
311.409	613.38
311.639	605.38
311.868	639.38
312.098	630.38
312.328	640.38
312.557	634.38
312.787	623.38
313.017	616.38
313.246	631.38
313.476	645.38
313.706	653.38
313.935	635.38
314.165	632.38
314.394	623.38
314.624	652.38
314.853	623.38
315.083	641.38
315.312	632.38
315.542	626.38
315.771	632.38
316.001	636.38
316.23	620.38
316.46	629.38
316.689	624.38
316.919	648.38
317.148	633.38
317.377	650.38
317.607	596.38
317.836	623.38
318.065	631.38
318.295	633.38
318.524	629.38
318.753	641.38
318.983	638.38
319.212	602.38
319.441	625.38
319.67	649.38
319.9	665.38
320.129	649.38
320.358	635.38
320.587	644.38
320.816	647.38
321.046	639.38
321.275	664.38
321.504	641.38
321.733	645.38
321.962	635.38
322.191	646.38
322.42	645.38
322.649	651.38
322.878	641.38
323.108	651.38
323.337	665.38
323.566	693.38
323.795	662.38
324.024	665.38
324.253	668.38
324.482	676.38
324.71	650.38
324.939	698.38
325.168	683.38
325.397	678.38
325.626	651.38
325.855	661.38
326.084	673.38
326.313	685.38
326.542	705.38
326.77	707.38
326.999	695.38
327.228	689.38
327.457	695.38
327.686	696.38
327.914	683.38
328.143	682.38
328.372	671.38
328.6	721.38
328.829	688.38
329.058	685.38
329.287	691.38
329.515	727.38
329.744	689.38
329.972	688.38
330.201	705.38
330.43	718.38
330.658	717.38
330.887	731.38
331.115	740.38
331.344	740.38
331.572	726.38
331.801	734.38
332.03	745.38
332.258	788.38
332.486	755.38
332.715	749.38
332.943	786.38
333.172	823.38
333.4	804.38
333.629	832.38
333.857	841.38
334.085	824.38
334.314	828.38
334.542	837.38
334.771	847.38
334.999	817.38
335.227	815.38
335.455	832.38
335.684	838.38
335.912	844.38
336.14	838.38
336.369	832.38
336.597	829.38
336.825	815.38
337.053	828.38
337.281	841.38
337.51	827.38
337.738	820.38
337.966	783.38
338.194	785.38
338.422	799.38
338.65	787.38
338.878	765.38
339.106	767.38
339.334	784.38
339.562	775.38
339.79	745.38
340.018	739.38
340.246	735.38
340.474	733.38
340.702	729.38
340.93	744.38
341.158	739.38
341.386	754.38
341.614	772.38
341.842	767.38
342.07	737.38
342.298	725.38
342.526	743.38
342.754	739.38
342.981	743.38
343.209	749.38
343.437	777.38
343.665	793.38
343.893	795.38
344.12	795.38
344.348	800.38
344.576	821.38
344.804	792.38
345.031	794.38
345.259	780.38
345.487	769.38
345.714	761.38
345.942	768.38
346.17	782.38
346.397	748.38
346.625	726.38
346.853	720.38
347.08	720.38
347.308	721.38
347.535	717.38
347.763	726.38
347.99	709.38
348.218	709.38
348.445	720.38
348.673	723.38
348.9	713.38
349.128	687.38
349.355	714.38
349.583	754.38
349.81	685.38
350.037	693.38
350.265	667.38
350.492	692.38
350.72	695.38
350.947	675.38
351.174	709.38
351.402	707.38
351.629	707.38
351.856	729.38
352.083	703.38
352.311	705.38
352.538	703.38
352.765	713.38
352.992	692.38
353.22	678.38
353.447	680.38
353.674	668.38
353.901	661.38
354.128	667.38
354.355	647.38
354.583	667.38
354.81	680.38
355.037	679.38
355.264	655.38
355.491	669.38
355.718	678.38
355.945	646.38
356.172	680.38
356.399	677.38
356.626	658.38
356.853	696.38
357.08	681.38
357.307	700.38
357.534	679.38
357.761	667.38
357.988	658.38
358.215	653.38
358.441	659.38
358.668	663.38
358.895	658.38
359.122	661.38
359.349	645.38
359.576	629.38
359.802	641.38
360.029	689.38
360.256	662.38
360.483	681.38
360.709	679.38
360.936	663.38
361.163	661.38
361.39	667.38
361.616	656.38
361.843	676.38
362.07	712.38
362.296	727.38
362.523	654.38
362.749	661.38
362.976	667.38
363.203	675.38
363.429	664.38
363.656	673.38
363.882	664.38
364.109	652.38
364.335	649.38
364.562	651.38
364.788	651.38
365.015	652.38
365.241	654.38
365.468	669.38
365.694	684.38
365.92	656.38
366.147	661.38
366.373	656.38
366.599	645.38
366.826	634.38
367.052	639.38
367.278	658.38
367.505	670.38
367.731	641.38
367.957	654.38
368.184	659.38
368.41	689.38
368.636	673.38
368.862	673.38
369.089	673.38
369.315	691.38
369.541	682.38
369.767	684.38
369.993	658.38
370.219	673.38
370.445	677.38
370.672	680.38
370.898	667.38
371.124	695.38
371.35	706.38
371.576	711.38
371.802	692.38
372.028	697.38
372.254	700.38
372.48	708.38
372.706	706.38
372.932	711.38
373.158	706.38
373.384	708.38
373.61	704.38
373.835	704.38
374.061	722.38
374.287	677.38
374.513	705.38
374.739	719.38
374.965	727.38
375.191	720.38
375.416	700.38
375.642	710.38
375.868	713.38
376.094	685.38
376.319	719.38
376.545	691.38
376.771	699.38
376.997	676.38
377.222	689.38
377.448	687.38
377.674	671.38
377.899	683.38
378.125	652.38
378.35	696.38
378.576	687.38
378.802	665.38
379.027	665.38
379.253	672.38
379.478	672.38
379.704	664.38
379.929	704.38
380.155	673.38
380.38	678.38
380.606	677.38
380.831	679.38
381.057	693.38
381.282	668.38
381.507	675.38
381.733	687.38
381.958	698.38
382.184	678.38
382.409	680.38
382.634	710.38
382.86	671.38
383.085	705.38
383.31	712.38
383.535	751.38
383.761	738.38
383.986	711.38
384.211	749.38
384.436	739.38
384.662	747.38
384.887	732.38
385.112	748.38
385.337	755.38
385.562	775.38
385.787	776.38
386.013	781.38
386.238	790.38
386.463	790.38
386.688	782.38
386.913	794.38
387.138	804.38
387.363	794.38
387.588	817.38
387.813	797.38
388.038	798.38
388.263	774.38
388.488	810.38
388.713	765.38
388.938	789.38
389.163	773.38
389.387	779.38
389.612	767.38
389.837	789.38
390.062	779.38
390.287	795.38
390.512	788.38
390.736	801.38
390.961	800.38
391.186	816.38
391.411	832.38
391.636	860.38
391.86	831.38
392.085	847.38
392.31	851.38
392.534	830.38
392.759	834.38
392.984	837.38
393.208	847.38
393.433	842.38
393.658	808.38
393.882	823.38
394.107	827.38
394.331	835.38
394.556	851.38
394.78	852.38
395.005	861.38
395.229	819.38
395.454	859.38
395.678	876.38
395.903	877.38
396.127	885.38
396.352	868.38
396.576	841.38
396.801	867.38
397.025	838.38
397.249	873.38
397.474	891.38
397.698	899.38
397.922	898.38
398.147	882.38
398.371	932.38
398.595	947.38
398.82	970.38
399.044	1013.38
399.268	1062.38
399.492	1144.38
399.717	1228.38
399.941	1208.38
400.165	1170.38
400.389	1119.38
400.613	1087.38
400.837	1030.38
401.062	1022.38
401.286	988.38
401.51	959.38
401.734	965.38
401.958	983.38
402.182	967.38
402.406	1003.38
402.63	988.38
402.854	1008.38
403.078	1002.38
403.302	997.38
403.526	1030.38
403.75	1011.38
403.974	1033.38
404.198	1022.38
404.422	1046.38
404.645	1048.38
404.869	1026.38
405.093	1004.38
405.317	1027.38
405.541	1041.38
405.765	1023.38
405.988	1023.38
406.212	1061.38
406.436	1032.38
406.66	1075.38
406.883	1047.38
407.107	1113.38
407.331	1130.38
407.555	1172.38
407.778	1178.38
408.002	1147.38
408.226	1135.38
408.449	1139.38
408.673	1084.38
408.896	1073.38
409.12	1099.38
409.344	1086.38
409.567	1089.38
409.791	1087.38
410.014	1073.38
410.238	1089.38
410.461	1072.38
410.685	1073.38
410.908	1076.38
411.132	1023.38
411.355	1011.38
411.578	1065.38
411.802	1032.38
412.025	1013.38
412.249	1047.38
412.472	1047.38
412.695	1022.38
412.919	991.38
413.142	1005.38
413.365	999.38
413.589	996.38
413.812	1000.38
414.035	993.38
414.258	965.38
414.482	988.38
414.705	1025.38
414.928	987.38
415.151	993.38
415.374	979.38
415.597	996.38
415.821	954.38
416.044	943.38
416.267	986.38
416.49	944.38
416.713	955.38
416.936	976.38
417.159	961.38
417.382	952.38
417.605	963.38
417.828	939.38
418.051	979.38
418.274	991.38
418.497	959.38
418.72	992.38
418.943	959.38
419.166	1044.38
419.389	1066.38
419.611	1074.38
419.834	1045.38
420.057	1013.38
420.28	997.38
420.503	970.38
420.726	963.38
420.948	959.38
421.171	961.38
421.394	976.38
421.617	953.38
421.839	975.38
422.062	962.38
422.285	965.38
422.507	973.38
422.73	980.38
422.953	975.38
423.175	1005.38
423.398	985.38
423.621	1003.38
423.843	993.38
424.066	1005.38
424.288	1001.38
424.511	1002.38
424.733	1000.38
424.956	980.38
425.178	959.38
425.401	960.38
425.623	994.38
425.846	960.38
426.068	970.38
426.291	963.38
426.513	935.38
426.735	944.38
426.958	947.38
427.18	926.38
427.402	951.38
427.625	948.38
427.847	895.38
428.069	921.38
428.292	936.38
428.514	898.38
428.736	912.38
428.958	937.38
429.181	928.38
429.403	895.38
429.625	926.38
429.847	928.38
430.069	899.38
430.292	905.38
430.514	876.38
430.736	894.38
430.958	905.38
431.18	919.38
431.402	948.38
431.624	903.38
431.846	936.38
432.068	944.38
432.29	944.38
432.512	934.38
432.734	949.38
432.956	929.38
433.178	953.38
433.4	943.38
433.622	980.38
433.844	945.38
434.066	919.38
434.287	963.38
434.509	953.38
434.731	1008.38
434.953	1002.38
435.175	1023.38
435.397	1005.38
435.618	984.38
435.84	927.38
436.062	937.38
436.284	950.38
436.505	964.38
436.727	933.38
436.949	934.38
437.17	915.38
437.392	927.38
437.614	943.38
437.835	879.38
438.057	876.38
438.278	905.38
438.5	901.38
438.721	904.38
438.943	915.38
439.165	915.38
439.386	911.38
439.608	923.38
439.829	921.38
440.05	939.38
440.272	945.38
440.493	924.38
440.715	932.38
440.936	975.38
441.158	957.38
441.379	973.38
441.6	1019.38
441.822	1009.38
442.043	1025.38
442.264	977.38
442.486	993.38
442.707	996.38
442.928	988.38
443.149	1003.38
443.371	1001.38
443.592	1041.38
443.813	994.38
444.034	1048.38
444.255	1066.38
444.476	1062.38
444.698	1101.38
444.919	1155.38
445.14	1224.38
445.361	1120.38
445.582	1064.38
445.803	1034.38
446.024	979.38
446.245	997.38
446.466	999.38
446.687	967.38
446.908	943.38
447.129	917.38
447.35	915.38
447.571	908.38
447.792	909.38
448.013	903.38
448.234	907.38
448.455	910.38
448.675	901.38
448.896	900.38
449.117	877.38
449.338	879.38
449.559	889.38
449.779	891.38
450	880.38
450.221	874.38
450.442	894.38
450.662	876.38
450.883	892.38
451.104	934.38
451.324	908.38
451.545	896.38
451.766	880.38
451.986	887.38
452.207	886.38
452.428	855.38
452.648	870.38
452.869	870.38
453.089	874.38
453.31	900.38
453.53	834.38
453.751	868.38
453.971	849.38
454.192	875.38
454.412	880.38
454.633	841.38
454.853	831.38
455.073	857.38
455.294	863.38
455.514	837.38
455.734	848.38
455.955	838.38
456.175	851.38
456.395	838.38
456.616	814.38
456.836	823.38
457.056	850.38
457.276	813.38
457.497	845.38
457.717	840.38
457.937	860.38
458.157	891.38
458.377	855.38
458.598	883.38
458.818	899.38
459.038	912.38
459.258	919.38
459.478	935.38
459.698	1011.38
459.918	1013.38
460.138	1046.38
460.358	1045.38
460.578	1059.38
460.798	1061.38
461.018	1105.38
461.238	1061.38
461.458	1071.38
461.678	1082.38
461.898	1089.38
462.118	1098.38
462.338	1117.38
462.558	1164.38
462.777	1189.38
462.997	1228.38
463.217	1303.38
463.437	1356.38
463.657	1265.38
463.876	1247.38
464.096	1227.38
464.316	1178.38
464.536	1217.38
464.755	1196.38
464.975	1150.38
465.195	1122.38
465.414	1078.38
465.634	1050.38
465.854	1007.38
466.073	991.38
466.293	983.38
466.512	938.38
466.732	940.38
466.951	972.38
467.171	950.38
467.391	940.38
467.61	939.38
467.829	937.38
468.049	927.38
468.268	928.38
468.488	912.38
468.707	894.38
468.927	897.38
469.146	937.38
469.365	905.38
469.585	929.38
469.804	950.38
470.023	945.38
470.243	935.38
470.462	965.38
470.681	923.38
470.901	962.38
471.12	935.38
471.339	942.38
471.558	953.38
471.777	900.38
471.997	939.38
472.216	949.38
472.435	901.38
472.654	897.38
472.873	883.38
473.092	913.38
473.311	905.38
473.53	918.38
473.749	914.38
473.968	921.38
474.187	901.38
474.406	893.38
474.625	925.38
474.844	920.38
475.063	908.38
475.282	925.38
475.501	940.38
475.72	931.38
475.939	926.38
476.158	933.38
476.377	950.38
476.596	939.38
476.814	939.38
477.033	964.38
477.252	946.38
477.471	967.38
477.69	1004.38
477.908	1026.38
478.127	1051.38
478.346	1026.38
478.564	1082.38
478.783	1092.38
479.002	1108.38
479.22	1116.38
479.439	1115.38
479.658	1096.38
479.876	1097.38
480.095	1116.38
480.313	1118.38
480.532	1155.38
480.751	1105.38
480.969	1119.38
481.188	1076.38
481.406	1091.38
481.624	1044.38
481.843	1032.38
482.061	1053.38
482.28	1029.38
482.498	1027.38
482.717	1050.38
482.935	1058.38
483.153	1044.38
483.372	1080.38
483.59	1057.38
483.808	1077.38
484.027	1060.38
484.245	1067.38
484.463	1083.38
484.681	1068.38
484.9	1044.38
485.118	1107.38
485.336	1070.38
485.554	1071.38
485.772	1091.38
485.99	1098.38
486.209	1059.38
486.427	1055.38
486.645	1099.38
486.863	1097.38
487.081	1101.38
487.299	1084.38
487.517	1100.38
487.735	1109.38
487.953	1131.38
488.171	1080.38
488.389	1129.38
488.607	1103.38
488.825	1090.38
489.043	1063.38
489.261	1045.38
489.479	1077.38
489.696	1105.38
489.914	1085.38
490.132	1105.38
490.35	1096.38
490.568	1100.38
490.786	1126.38
491.003	1104.38
491.221	1091.38
491.439	1130.38
491.657	1122.38
491.874	1183.38
492.092	1151.38
492.31	1157.38
492.527	1165.38
492.745	1174.38
492.963	1166.38
493.18	1184.38
493.398	1140.38
493.615	1151.38
493.833	1165.38
494.05	1183.38
494.268	1174.38
494.485	1141.38
494.703	1146.38
494.92	1177.38
495.138	1162.38
495.355	1155.38
495.573	1195.38
495.79	1173.38
496.008	1232.38
496.225	1201.38
496.442	1216.38
496.66	1268.38
496.877	1253.38
497.094	1290.38
497.312	1305.38
497.529	1334.38
497.746	1370.38
497.963	1384.38
498.181	1422.38
498.398	1469.38
498.615	1527.38
