Data from NiCl2@0.5M.TitratingCurve.Agarose3%dH2O.NegLispCup.LampEnergy10.LIBS07252019_HRD10591_18-20-48-571.txt Node
Date: Thu Jul 25 18:20:48 EDT 2019
User: cochatt
Spectrometer: HR+D1059
Trigger mode: 1
Integration Time (sec): 1.000000E-1
Scans to average: 1
Electric dark correction enabled: true
Nonlinearity correction enabled: false
Boxcar width: 0
XAxis mode: Wavelengths
Number of Pixels in Spectrum: 2048
>>>>>Begin Spectral Data<<<<<
223.165	-25.94
223.4	-25.94
223.635	-25.94
223.869	-18.94
224.104	-24.94
224.338	-19.94
224.573	-13.94
224.808	-10.94
225.042	2.06
225.277	-11.94
225.511	-9.94
225.746	23.06
225.98	-2.94
226.215	10.06
226.449	31.06
226.683	19.06
226.918	24.06
227.152	30.06
227.387	50.06
227.621	41.06
227.856	35.06
228.09	41.06
228.324	52.06
228.559	58.06
228.793	67.06
229.027	88.06
229.262	115.06
229.496	130.06
229.73	117.06
229.964	115.06
230.199	115.06
230.433	124.06
230.667	116.06
230.901	134.06
231.136	138.06
231.37	151.06
231.604	138.06
231.838	130.06
232.072	147.06
232.306	154.06
232.541	146.06
232.775	159.06
233.009	140.06
233.243	142.06
233.477	126.06
233.711	148.06
233.945	140.06
234.179	138.06
234.413	149.06
234.647	147.06
234.881	163.06
235.115	152.06
235.349	143.06
235.583	167.06
235.817	149.06
236.051	149.06
236.285	156.06
236.519	145.06
236.753	158.06
236.987	150.06
237.221	135.06
237.455	153.06
237.689	166.06
237.922	164.06
238.156	163.06
238.39	173.06
238.624	171.06
238.858	164.06
239.091	157.06
239.325	182.06
239.559	175.06
239.793	163.06
240.027	168.06
240.26	170.06
240.494	176.06
240.728	185.06
240.961	165.06
241.195	170.06
241.429	193.06
241.662	178.06
241.896	192.06
242.13	178.06
242.363	196.06
242.597	174.06
242.83	194.06
243.064	181.06
243.298	195.06
243.531	199.06
243.765	204.06
243.998	207.06
244.232	197.06
244.465	209.06
244.699	184.06
244.932	193.06
245.166	224.06
245.399	219.06
245.633	197.06
245.866	214.06
246.099	215.06
246.333	220.06
246.566	220.06
246.8	210.06
247.033	218.06
247.266	226.06
247.5	217.06
247.733	215.06
247.966	231.06
248.2	230.06
248.433	219.06
248.666	233.06
248.899	225.06
249.133	225.06
249.366	229.06
249.599	231.06
249.832	234.06
250.066	236.06
250.299	255.06
250.532	254.06
250.765	230.06
250.998	243.06
251.231	255.06
251.465	252.06
251.698	243.06
251.931	274.06
252.164	268.06
252.397	261.06
252.63	260.06
252.863	269.06
253.096	274.06
253.329	256.06
253.562	255.06
253.795	266.06
254.028	272.06
254.261	248.06
254.494	275.06
254.727	275.06
254.96	282.06
255.193	265.06
255.426	279.06
255.659	295.06
255.892	287.06
256.124	282.06
256.357	274.06
256.59	279.06
256.823	282.06
257.056	281.06
257.289	297.06
257.521	300.06
257.754	295.06
257.987	319.06
258.22	315.06
258.452	290.06
258.685	296.06
258.918	296.06
259.151	297.06
259.383	279.06
259.616	305.06
259.849	293.06
260.081	313.06
260.314	308.06
260.547	319.06
260.779	311.06
261.012	318.06
261.244	305.06
261.477	309.06
261.71	336.06
261.942	319.06
262.175	312.06
262.407	312.06
262.64	323.06
262.872	342.06
263.105	320.06
263.337	326.06
263.57	328.06
263.802	352.06
264.035	335.06
264.267	346.06
264.499	336.06
264.732	338.06
264.964	341.06
265.197	332.06
265.429	345.06
265.661	330.06
265.894	349.06
266.126	354.06
266.358	347.06
266.591	340.06
266.823	359.06
267.055	345.06
267.287	341.06
267.52	349.06
267.752	371.06
267.984	360.06
268.216	370.06
268.448	395.06
268.681	369.06
268.913	352.06
269.145	369.06
269.377	356.06
269.609	368.06
269.841	370.06
270.073	356.06
270.306	360.06
270.538	375.06
270.77	373.06
271.002	380.06
271.234	372.06
271.466	389.06
271.698	381.06
271.93	367.06
272.162	385.06
272.394	408.06
272.626	377.06
272.858	388.06
273.09	390.06
273.322	393.06
273.553	406.06
273.785	396.06
274.017	392.06
274.249	410.06
274.481	424.06
274.713	388.06
274.945	392.06
275.176	411.06
275.408	402.06
275.64	409.06
275.872	394.06
276.104	413.06
276.335	410.06
276.567	415.06
276.799	432.06
277.031	413.06
277.262	443.06
277.494	419.06
277.726	432.06
277.957	431.06
278.189	436.06
278.421	417.06
278.652	441.06
278.884	428.06
279.115	465.06
279.347	442.06
279.579	427.06
279.81	443.06
280.042	439.06
280.273	434.06
280.505	464.06
280.736	438.06
280.968	455.06
281.199	467.06
281.431	442.06
281.662	472.06
281.894	464.06
282.125	454.06
282.356	469.06
282.588	460.06
282.819	470.06
283.051	470.06
283.282	467.06
283.513	480.06
283.745	459.06
283.976	472.06
284.207	488.06
284.439	479.06
284.67	478.06
284.901	500.06
285.132	471.06
285.364	472.06
285.595	487.06
285.826	472.06
286.057	500.06
286.288	481.06
286.52	504.06
286.751	496.06
286.982	511.06
287.213	494.06
287.444	507.06
287.675	510.06
287.906	513.06
288.138	518.06
288.369	499.06
288.6	511.06
288.831	506.06
289.062	510.06
289.293	525.06
289.524	496.06
289.755	516.06
289.986	516.06
290.217	529.06
290.448	510.06
290.679	518.06
290.91	514.06
291.141	530.06
291.371	549.06
291.602	539.06
291.833	510.06
292.064	522.06
292.295	487.06
292.526	529.06
292.757	543.06
292.987	516.06
293.218	532.06
293.449	535.06
293.68	520.06
293.91	523.06
294.141	524.06
294.372	496.06
294.603	545.06
294.833	530.06
295.064	531.06
295.295	524.06
295.525	527.06
295.756	530.06
295.987	548.06
296.217	532.06
296.448	549.06
296.679	519.06
296.909	538.06
297.14	555.06
297.37	558.06
297.601	592.06
297.831	580.06
298.062	561.06
298.292	602.06
298.523	572.06
298.753	605.06
298.984	590.06
299.214	555.06
299.445	560.06
299.675	577.06
299.905	593.06
300.136	570.06
300.366	587.06
300.597	599.06
300.827	626.06
301.057	600.06
301.288	609.06
301.518	624.06
301.748	615.06
301.979	622.06
302.209	624.06
302.439	618.06
302.669	595.06
302.9	621.06
303.13	610.06
303.36	626.06
303.59	576.06
303.82	574.06
304.051	598.06
304.281	610.06
304.511	615.06
304.741	607.06
304.971	620.06
305.201	614.06
305.431	607.06
305.661	620.06
305.891	599.06
306.121	577.06
306.352	598.06
306.582	593.06
306.812	606.06
307.042	582.06
307.272	602.06
307.502	591.06
307.731	606.06
307.961	611.06
308.191	590.06
308.421	588.06
308.651	593.06
308.881	589.06
309.111	615.06
309.341	605.06
309.571	598.06
309.8	616.06
310.03	613.06
310.26	583.06
310.49	596.06
310.72	617.06
310.949	607.06
311.179	627.06
311.409	608.06
311.639	607.06
311.868	612.06
312.098	623.06
312.328	614.06
312.557	620.06
312.787	636.06
313.017	640.06
313.246	628.06
313.476	617.06
313.706	650.06
313.935	646.06
314.165	648.06
314.394	630.06
314.624	638.06
314.853	625.06
315.083	625.06
315.312	664.06
315.542	652.06
315.771	660.06
316.001	629.06
316.23	619.06
316.46	634.06
316.689	633.06
316.919	644.06
317.148	650.06
317.377	643.06
317.607	640.06
317.836	614.06
318.065	616.06
318.295	612.06
318.524	654.06
318.753	611.06
318.983	634.06
319.212	624.06
319.441	615.06
319.67	650.06
319.9	644.06
320.129	630.06
320.358	637.06
320.587	666.06
320.816	660.06
321.046	620.06
321.275	658.06
321.504	656.06
321.733	672.06
321.962	647.06
322.191	664.06
322.42	656.06
322.649	673.06
322.878	643.06
323.108	646.06
323.337	648.06
323.566	655.06
323.795	666.06
324.024	670.06
324.253	641.06
324.482	674.06
324.71	670.06
324.939	670.06
325.168	671.06
325.397	672.06
325.626	657.06
325.855	685.06
326.084	689.06
326.313	697.06
326.542	672.06
326.77	709.06
326.999	675.06
327.228	698.06
327.457	704.06
327.686	683.06
327.914	695.06
328.143	702.06
328.372	682.06
328.6	695.06
328.829	717.06
329.058	694.06
329.287	704.06
329.515	705.06
329.744	712.06
329.972	691.06
330.201	703.06
330.43	723.06
330.658	720.06
330.887	726.06
331.115	723.06
331.344	739.06
331.572	760.06
331.801	761.06
332.03	753.06
332.258	794.06
332.486	805.06
332.715	868.06
332.943	858.06
333.172	885.06
333.4	914.06
333.629	939.06
333.857	931.06
334.085	918.06
334.314	908.06
334.542	881.06
334.771	888.06
334.999	856.06
335.227	881.06
335.455	870.06
335.684	830.06
335.912	867.06
336.14	863.06
336.369	847.06
336.597	843.06
336.825	812.06
337.053	836.06
337.281	845.06
337.51	812.06
337.738	797.06
337.966	796.06
338.194	750.06
338.422	777.06
338.65	771.06
338.878	747.06
339.106	759.06
339.334	794.06
339.562	752.06
339.79	736.06
340.018	738.06
340.246	710.06
340.474	720.06
340.702	738.06
340.93	726.06
341.158	737.06
341.386	752.06
341.614	765.06
341.842	736.06
342.07	725.06
342.298	691.06
342.526	720.06
342.754	739.06
342.981	743.06
343.209	746.06
343.437	771.06
343.665	834.06
343.893	888.06
344.12	887.06
344.348	856.06
344.576	818.06
344.804	801.06
345.031	755.06
345.259	754.06
345.487	726.06
345.714	730.06
345.942	747.06
346.17	739.06
346.397	711.06
346.625	684.06
346.853	716.06
347.08	710.06
347.308	715.06
347.535	686.06
347.763	697.06
347.99	702.06
348.218	724.06
348.445	720.06
348.673	692.06
348.9	705.06
349.128	677.06
349.355	702.06
349.583	733.06
349.81	693.06
350.037	699.06
350.265	681.06
350.492	659.06
350.72	667.06
350.947	690.06
351.174	678.06
351.402	688.06
351.629	670.06
351.856	680.06
352.083	670.06
352.311	698.06
352.538	672.06
352.765	688.06
352.992	672.06
353.22	652.06
353.447	663.06
353.674	670.06
353.901	672.06
354.128	673.06
354.355	679.06
354.583	696.06
354.81	683.06
355.037	700.06
355.264	683.06
355.491	660.06
355.718	686.06
355.945	692.06
356.172	678.06
356.399	665.06
356.626	683.06
356.853	705.06
357.08	671.06
357.307	680.06
357.534	683.06
357.761	671.06
357.988	698.06
358.215	682.06
358.441	666.06
358.668	663.06
358.895	667.06
359.122	661.06
359.349	683.06
359.576	673.06
359.802	690.06
360.029	674.06
360.256	674.06
360.483	671.06
360.709	676.06
360.936	669.06
361.163	679.06
361.39	683.06
361.616	667.06
361.843	665.06
362.07	680.06
362.296	676.06
362.523	675.06
362.749	648.06
362.976	672.06
363.203	694.06
363.429	661.06
363.656	670.06
363.882	691.06
364.109	672.06
364.335	658.06
364.562	640.06
364.788	654.06
365.015	643.06
365.241	650.06
365.468	648.06
365.694	662.06
365.92	668.06
366.147	674.06
366.373	682.06
366.599	685.06
366.826	653.06
367.052	652.06
367.278	654.06
367.505	637.06
367.731	657.06
367.957	665.06
368.184	664.06
368.41	658.06
368.636	684.06
368.862	688.06
369.089	661.06
369.315	675.06
369.541	693.06
369.767	690.06
369.993	688.06
370.219	671.06
370.445	703.06
370.672	706.06
370.898	676.06
371.124	705.06
371.35	688.06
371.576	736.06
371.802	727.06
372.028	703.06
372.254	688.06
372.48	707.06
372.706	733.06
372.932	734.06
373.158	737.06
373.384	723.06
373.61	704.06
373.835	711.06
374.061	722.06
374.287	722.06
374.513	741.06
374.739	766.06
374.965	766.06
375.191	799.06
375.416	787.06
375.642	753.06
375.868	737.06
376.094	750.06
376.319	724.06
376.545	722.06
376.771	732.06
376.997	732.06
377.222	708.06
377.448	706.06
377.674	694.06
377.899	690.06
378.125	714.06
378.35	698.06
378.576	700.06
378.802	677.06
379.027	710.06
379.253	706.06
379.478	682.06
379.704	688.06
379.929	706.06
380.155	688.06
380.38	707.06
380.606	714.06
380.831	696.06
381.057	688.06
381.282	692.06
381.507	729.06
381.733	727.06
381.958	719.06
382.184	731.06
382.409	738.06
382.634	732.06
382.86	734.06
383.085	754.06
383.31	742.06
383.535	766.06
383.761	758.06
383.986	789.06
384.211	815.06
384.436	825.06
384.662	818.06
384.887	841.06
385.112	833.06
385.337	833.06
385.562	841.06
385.787	851.06
386.013	864.06
386.238	848.06
386.463	825.06
386.688	841.06
386.913	852.06
387.138	848.06
387.363	811.06
387.588	851.06
387.813	821.06
388.038	822.06
388.263	829.06
388.488	833.06
388.713	840.06
388.938	810.06
389.163	812.06
389.387	811.06
389.612	807.06
389.837	812.06
390.062	781.06
390.287	806.06
390.512	858.06
390.736	847.06
390.961	851.06
391.186	856.06
391.411	885.06
391.636	904.06
391.86	946.06
392.085	938.06
392.31	930.06
392.534	912.06
392.759	889.06
392.984	900.06
393.208	888.06
393.433	876.06
393.658	883.06
393.882	904.06
394.107	898.06
394.331	891.06
394.556	901.06
394.78	897.06
395.005	906.06
395.229	885.06
395.454	947.06
395.678	967.06
395.903	934.06
396.127	905.06
396.352	917.06
396.576	898.06
396.801	874.06
397.025	882.06
397.249	920.06
397.474	971.06
397.698	958.06
397.922	958.06
398.147	939.06
398.371	966.06
398.595	991.06
398.82	1042.06
399.044	1130.06
399.268	1208.06
399.492	1380.06
399.717	1555.06
399.941	1556.06
400.165	1372.06
400.389	1261.06
400.613	1165.06
400.837	1088.06
401.062	1054.06
401.286	1036.06
401.51	1072.06
401.734	1007.06
401.958	1063.06
402.182	1079.06
402.406	1059.06
402.63	1113.06
402.854	1118.06
403.078	1096.06
403.302	1150.06
403.526	1167.06
403.75	1206.06
403.974	1211.06
404.198	1195.06
404.422	1184.06
404.645	1203.06
404.869	1184.06
405.093	1160.06
405.317	1142.06
405.541	1163.06
405.765	1170.06
405.988	1148.06
406.212	1141.06
406.436	1137.06
406.66	1183.06
406.883	1196.06
407.107	1245.06
407.331	1323.06
407.555	1345.06
407.778	1381.06
408.002	1312.06
408.226	1264.06
408.449	1256.06
408.673	1218.06
408.896	1214.06
409.12	1198.06
409.344	1194.06
409.567	1151.06
409.791	1178.06
410.014	1178.06
410.238	1186.06
410.461	1144.06
410.685	1181.06
410.908	1134.06
411.132	1138.06
411.355	1089.06
411.578	1088.06
411.802	1113.06
412.025	1085.06
412.249	1113.06
412.472	1090.06
412.695	1092.06
412.919	1073.06
413.142	1055.06
413.365	1081.06
413.589	1089.06
413.812	1039.06
414.035	1037.06
414.258	1065.06
414.482	1068.06
414.705	1080.06
414.928	1082.06
415.151	1064.06
415.374	1077.06
415.597	1076.06
415.821	1059.06
416.044	1028.06
416.267	1030.06
416.49	1043.06
416.713	1022.06
416.936	1068.06
417.159	1052.06
417.382	1041.06
417.605	1008.06
417.828	1070.06
418.051	1051.06
418.274	1075.06
418.497	1050.06
418.72	1072.06
418.943	1066.06
419.166	1138.06
419.389	1218.06
419.611	1149.06
419.834	1119.06
420.057	1100.06
420.28	1054.06
420.503	1055.06
420.726	1052.06
420.948	1046.06
421.171	1018.06
421.394	1066.06
421.617	1036.06
421.839	1051.06
422.062	1032.06
422.285	1032.06
422.507	1066.06
422.73	1070.06
422.953	1050.06
423.175	1090.06
423.398	1098.06
423.621	1095.06
423.843	1116.06
424.066	1097.06
424.288	1100.06
424.511	1092.06
424.733	1087.06
424.956	1050.06
425.178	1078.06
425.401	1049.06
425.623	1047.06
425.846	1037.06
426.068	1036.06
426.291	1013.06
426.513	1000.06
426.735	1008.06
426.958	978.06
427.18	983.06
427.402	954.06
427.625	947.06
427.847	963.06
428.069	956.06
428.292	965.06
428.514	968.06
428.736	947.06
428.958	962.06
429.181	915.06
429.403	912.06
429.625	920.06
429.847	924.06
430.069	922.06
430.292	933.06
430.514	922.06
430.736	959.06
430.958	944.06
431.18	928.06
431.402	932.06
431.624	955.06
431.846	954.06
432.068	954.06
432.29	953.06
432.512	960.06
432.734	949.06
432.956	950.06
433.178	959.06
433.4	975.06
433.622	947.06
433.844	985.06
434.066	1003.06
434.287	966.06
434.509	1006.06
434.731	999.06
434.953	1037.06
435.175	1065.06
435.397	1055.06
435.618	1022.06
435.84	993.06
436.062	958.06
436.284	951.06
436.505	963.06
436.727	928.06
436.949	969.06
437.17	952.06
437.392	912.06
437.614	914.06
437.835	921.06
438.057	919.06
438.278	916.06
438.5	911.06
438.721	893.06
438.943	919.06
439.165	942.06
439.386	928.06
439.608	938.06
439.829	970.06
440.05	970.06
440.272	979.06
440.493	953.06
440.715	996.06
440.936	982.06
441.158	994.06
441.379	1042.06
441.6	1066.06
441.822	1085.06
442.043	1088.06
442.264	1059.06
442.486	1036.06
442.707	1049.06
442.928	1020.06
443.149	1024.06
443.371	1049.06
443.592	1051.06
443.813	1068.06
444.034	1085.06
444.255	1115.06
444.476	1181.06
444.698	1205.06
444.919	1266.06
445.14	1338.06
445.361	1235.06
445.582	1105.06
445.803	1038.06
446.024	1015.06
446.245	1026.06
446.466	1011.06
446.687	989.06
446.908	986.06
447.129	948.06
447.35	930.06
447.571	907.06
447.792	884.06
448.013	895.06
448.234	869.06
448.455	889.06
448.675	897.06
448.896	911.06
449.117	853.06
449.338	870.06
449.559	887.06
449.779	869.06
450	870.06
450.221	869.06
450.442	888.06
450.662	879.06
450.883	909.06
451.104	890.06
451.324	934.06
451.545	916.06
451.766	886.06
451.986	865.06
452.207	877.06
452.428	902.06
452.648	891.06
452.869	869.06
453.089	892.06
453.31	850.06
453.53	847.06
453.751	852.06
453.971	820.06
454.192	843.06
454.412	827.06
454.633	821.06
454.853	848.06
455.073	828.06
455.294	863.06
455.514	820.06
455.734	804.06
455.955	841.06
456.175	842.06
456.395	836.06
456.616	816.06
456.836	834.06
457.056	838.06
457.276	810.06
457.497	851.06
457.717	839.06
457.937	834.06
458.157	842.06
458.377	867.06
458.598	881.06
458.818	898.06
459.038	918.06
459.258	943.06
459.478	958.06
459.698	990.06
459.918	1056.06
460.138	1064.06
460.358	1105.06
460.578	1121.06
460.798	1124.06
461.018	1150.06
461.238	1134.06
461.458	1100.06
461.678	1102.06
461.898	1139.06
462.118	1137.06
462.338	1171.06
462.558	1260.06
462.777	1274.06
462.997	1388.06
463.217	1504.06
463.437	1451.06
463.657	1380.06
463.876	1314.06
464.096	1312.06
464.316	1302.06
464.536	1335.06
464.755	1305.06
464.975	1207.06
465.195	1156.06
465.414	1099.06
465.634	1004.06
465.854	998.06
466.073	1012.06
466.293	974.06
466.512	942.06
466.732	943.06
466.951	926.06
467.171	922.06
467.391	943.06
467.61	943.06
467.829	926.06
468.049	929.06
468.268	912.06
468.488	899.06
468.707	896.06
468.927	895.06
469.146	909.06
469.365	879.06
469.585	903.06
469.804	930.06
470.023	963.06
470.243	971.06
470.462	974.06
470.681	958.06
470.901	958.06
471.12	952.06
471.339	930.06
471.558	950.06
471.777	894.06
471.997	907.06
472.216	932.06
472.435	897.06
472.654	870.06
472.873	854.06
473.092	875.06
473.311	854.06
473.53	898.06
473.749	868.06
473.968	890.06
474.187	880.06
474.406	866.06
474.625	910.06
474.844	900.06
475.063	898.06
475.282	907.06
475.501	896.06
475.72	872.06
475.939	896.06
476.158	870.06
476.377	899.06
476.596	875.06
476.814	918.06
477.033	929.06
477.252	961.06
477.471	976.06
477.69	986.06
477.908	1027.06
478.127	1022.06
478.346	1062.06
478.564	1045.06
478.783	1084.06
479.002	1109.06
479.22	1103.06
479.439	1084.06
479.658	1101.06
479.876	1095.06
480.095	1111.06
480.313	1154.06
480.532	1165.06
480.751	1172.06
480.969	1140.06
481.188	1081.06
481.406	1076.06
481.624	1052.06
481.843	1013.06
482.061	1024.06
482.28	1062.06
482.498	1039.06
482.717	1005.06
482.935	1021.06
483.153	1026.06
483.372	1002.06
483.59	1032.06
483.808	1014.06
484.027	1034.06
484.245	1023.06
484.463	1031.06
484.681	1048.06
484.9	1047.06
485.118	1057.06
485.336	1070.06
485.554	1053.06
485.772	1057.06
485.99	1070.06
486.209	1088.06
486.427	1073.06
486.645	1057.06
486.863	1086.06
487.081	1098.06
487.299	1063.06
487.517	1061.06
487.735	1058.06
487.953	1060.06
488.171	1043.06
488.389	1036.06
488.607	1051.06
488.825	1037.06
489.043	1051.06
489.261	1043.06
489.479	1061.06
489.696	1043.06
489.914	1081.06
490.132	1060.06
490.35	1074.06
490.568	1100.06
490.786	1082.06
491.003	1097.06
491.221	1073.06
491.439	1070.06
491.657	1089.06
491.874	1054.06
492.092	1098.06
492.31	1116.06
492.527	1108.06
492.745	1132.06
492.963	1099.06
493.18	1107.06
493.398	1108.06
493.615	1127.06
493.833	1134.06
494.05	1130.06
494.268	1110.06
494.485	1130.06
494.703	1141.06
494.92	1138.06
495.138	1144.06
495.355	1140.06
495.573	1146.06
495.79	1137.06
496.008	1147.06
496.225	1165.06
496.442	1170.06
496.66	1177.06
496.877	1195.06
497.094	1208.06
497.312	1217.06
497.529	1254.06
497.746	1285.06
