Data from NiCl2@0.5M.TitratingCurve.Agarose3%dH2O.NegLispCup.LampEnergy10.LIBS07252019_HRD10591_18-19-44-571.txt Node
Date: Thu Jul 25 18:19:44 EDT 2019
User: cochatt
Spectrometer: HR+D1059
Trigger mode: 1
Integration Time (sec): 1.000000E-1
Scans to average: 1
Electric dark correction enabled: true
Nonlinearity correction enabled: false
Boxcar width: 0
XAxis mode: Wavelengths
Number of Pixels in Spectrum: 2048
>>>>>Begin Spectral Data<<<<<
223.165	-26.38
223.4	-26.38
223.635	-26.38
223.869	-12.38
224.104	-23.38
224.338	-9.38
224.573	-16.38
224.808	-4.38
225.042	2.62
225.277	-15.38
225.511	-10.38
225.746	-1.38
225.98	3.62
226.215	-0.38
226.449	26.62
226.683	13.62
226.918	36.62
227.152	36.62
227.387	24.62
227.621	41.62
227.856	25.62
228.09	52.62
228.324	54.62
228.559	52.62
228.793	52.62
229.027	87.62
229.262	107.62
229.496	101.62
229.73	105.62
229.964	114.62
230.199	105.62
230.433	104.62
230.667	93.62
230.901	125.62
231.136	116.62
231.37	124.62
231.604	127.62
231.838	133.62
232.072	136.62
232.306	132.62
232.541	124.62
232.775	131.62
233.009	131.62
233.243	124.62
233.477	107.62
233.711	121.62
233.945	137.62
234.179	140.62
234.413	133.62
234.647	123.62
234.881	131.62
235.115	129.62
235.349	126.62
235.583	129.62
235.817	132.62
236.051	120.62
236.285	138.62
236.519	128.62
236.753	129.62
236.987	128.62
237.221	153.62
237.455	132.62
237.689	134.62
237.922	128.62
238.156	139.62
238.39	122.62
238.624	138.62
238.858	128.62
239.091	144.62
239.325	134.62
239.559	144.62
239.793	149.62
240.027	164.62
240.26	147.62
240.494	135.62
240.728	143.62
240.961	150.62
241.195	139.62
241.429	162.62
241.662	151.62
241.896	169.62
242.13	160.62
242.363	166.62
242.597	151.62
242.83	165.62
243.064	134.62
243.298	162.62
243.531	165.62
243.765	164.62
243.998	168.62
244.232	157.62
244.465	160.62
244.699	142.62
244.932	160.62
245.166	166.62
245.399	167.62
245.633	186.62
245.866	169.62
246.099	162.62
246.333	181.62
246.566	180.62
246.8	169.62
247.033	159.62
247.266	171.62
247.5	166.62
247.733	168.62
247.966	189.62
248.2	175.62
248.433	204.62
248.666	185.62
248.899	195.62
249.133	188.62
249.366	189.62
249.599	185.62
249.832	198.62
250.066	187.62
250.299	172.62
250.532	195.62
250.765	186.62
250.998	186.62
251.231	222.62
251.465	194.62
251.698	192.62
251.931	179.62
252.164	210.62
252.397	202.62
252.63	208.62
252.863	211.62
253.096	201.62
253.329	189.62
253.562	195.62
253.795	204.62
254.028	211.62
254.261	221.62
254.494	218.62
254.727	218.62
254.96	207.62
255.193	227.62
255.426	221.62
255.659	227.62
255.892	214.62
256.124	216.62
256.357	228.62
256.59	211.62
256.823	213.62
257.056	225.62
257.289	230.62
257.521	246.62
257.754	219.62
257.987	228.62
258.22	215.62
258.452	245.62
258.685	234.62
258.918	221.62
259.151	234.62
259.383	233.62
259.616	243.62
259.849	233.62
260.081	244.62
260.314	234.62
260.547	237.62
260.779	235.62
261.012	258.62
261.244	234.62
261.477	237.62
261.71	237.62
261.942	229.62
262.175	249.62
262.407	264.62
262.64	256.62
262.872	249.62
263.105	251.62
263.337	256.62
263.57	248.62
263.802	264.62
264.035	241.62
264.267	242.62
264.499	283.62
264.732	256.62
264.964	251.62
265.197	279.62
265.429	273.62
265.661	260.62
265.894	260.62
266.126	262.62
266.358	284.62
266.591	256.62
266.823	262.62
267.055	266.62
267.287	268.62
267.52	265.62
267.752	279.62
267.984	274.62
268.216	265.62
268.448	274.62
268.681	278.62
268.913	282.62
269.145	276.62
269.377	283.62
269.609	284.62
269.841	292.62
270.073	278.62
270.306	296.62
270.538	285.62
270.77	292.62
271.002	286.62
271.234	293.62
271.466	289.62
271.698	300.62
271.93	296.62
272.162	286.62
272.394	289.62
272.626	294.62
272.858	301.62
273.09	300.62
273.322	298.62
273.553	294.62
273.785	281.62
274.017	308.62
274.249	304.62
274.481	307.62
274.713	324.62
274.945	324.62
275.176	323.62
275.408	313.62
275.64	328.62
275.872	286.62
276.104	301.62
276.335	297.62
276.567	300.62
276.799	305.62
277.031	327.62
277.262	323.62
277.494	301.62
277.726	306.62
277.957	330.62
278.189	320.62
278.421	326.62
278.652	321.62
278.884	322.62
279.115	313.62
279.347	341.62
279.579	326.62
279.81	318.62
280.042	348.62
280.273	349.62
280.505	322.62
280.736	357.62
280.968	317.62
281.199	342.62
281.431	330.62
281.662	348.62
281.894	345.62
282.125	332.62
282.356	345.62
282.588	345.62
282.819	340.62
283.051	344.62
283.282	337.62
283.513	342.62
283.745	352.62
283.976	340.62
284.207	350.62
284.439	347.62
284.67	344.62
284.901	359.62
285.132	377.62
285.364	363.62
285.595	370.62
285.826	373.62
286.057	373.62
286.288	369.62
286.52	374.62
286.751	361.62
286.982	380.62
287.213	365.62
287.444	368.62
287.675	368.62
287.906	381.62
288.138	376.62
288.369	388.62
288.6	363.62
288.831	378.62
289.062	406.62
289.293	390.62
289.524	359.62
289.755	382.62
289.986	380.62
290.217	379.62
290.448	388.62
290.679	384.62
290.91	383.62
291.141	387.62
291.371	395.62
291.602	383.62
291.833	389.62
292.064	405.62
292.295	380.62
292.526	387.62
292.757	389.62
292.987	385.62
293.218	382.62
293.449	388.62
293.68	385.62
293.91	390.62
294.141	373.62
294.372	395.62
294.603	399.62
294.833	404.62
295.064	390.62
295.295	403.62
295.525	385.62
295.756	420.62
295.987	406.62
296.217	407.62
296.448	406.62
296.679	404.62
296.909	429.62
297.14	417.62
297.37	411.62
297.601	409.62
297.831	433.62
298.062	425.62
298.292	436.62
298.523	442.62
298.753	436.62
298.984	418.62
299.214	410.62
299.445	433.62
299.675	429.62
299.905	439.62
300.136	440.62
300.366	433.62
300.597	460.62
300.827	459.62
301.057	446.62
301.288	455.62
301.518	452.62
301.748	449.62
301.979	457.62
302.209	447.62
302.439	442.62
302.669	428.62
302.9	458.62
303.13	459.62
303.36	454.62
303.59	456.62
303.82	440.62
304.051	459.62
304.281	451.62
304.511	462.62
304.741	449.62
304.971	442.62
305.201	457.62
305.431	466.62
305.661	450.62
305.891	459.62
306.121	455.62
306.352	456.62
306.582	448.62
306.812	428.62
307.042	414.62
307.272	461.62
307.502	449.62
307.731	460.62
307.961	439.62
308.191	438.62
308.421	425.62
308.651	455.62
308.881	452.62
309.111	436.62
309.341	430.62
309.571	440.62
309.8	438.62
310.03	463.62
310.26	446.62
310.49	451.62
310.72	468.62
310.949	448.62
311.179	466.62
311.409	461.62
311.639	460.62
311.868	460.62
312.098	460.62
312.328	474.62
312.557	473.62
312.787	468.62
313.017	461.62
313.246	466.62
313.476	483.62
313.706	493.62
313.935	473.62
314.165	483.62
314.394	458.62
314.624	479.62
314.853	476.62
315.083	467.62
315.312	464.62
315.542	476.62
315.771	489.62
316.001	482.62
316.23	481.62
316.46	472.62
316.689	485.62
316.919	496.62
317.148	490.62
317.377	483.62
317.607	458.62
317.836	474.62
318.065	474.62
318.295	487.62
318.524	468.62
318.753	468.62
318.983	472.62
319.212	458.62
319.441	461.62
319.67	484.62
319.9	484.62
320.129	499.62
320.358	478.62
320.587	467.62
320.816	469.62
321.046	490.62
321.275	508.62
321.504	478.62
321.733	464.62
321.962	497.62
322.191	486.62
322.42	469.62
322.649	484.62
322.878	469.62
323.108	486.62
323.337	493.62
323.566	468.62
323.795	512.62
324.024	503.62
324.253	481.62
324.482	484.62
324.71	510.62
324.939	492.62
325.168	514.62
325.397	505.62
325.626	504.62
325.855	518.62
326.084	515.62
326.313	528.62
326.542	524.62
326.77	523.62
326.999	544.62
327.228	538.62
327.457	520.62
327.686	498.62
327.914	518.62
328.143	525.62
328.372	512.62
328.6	522.62
328.829	528.62
329.058	491.62
329.287	530.62
329.515	510.62
329.744	545.62
329.972	532.62
330.201	533.62
330.43	523.62
330.658	549.62
330.887	532.62
331.115	523.62
331.344	541.62
331.572	550.62
331.801	573.62
332.03	582.62
332.258	565.62
332.486	601.62
332.715	605.62
332.943	619.62
333.172	603.62
333.4	631.62
333.629	630.62
333.857	635.62
334.085	634.62
334.314	627.62
334.542	664.62
334.771	642.62
334.999	658.62
335.227	628.62
335.455	637.62
335.684	654.62
335.912	637.62
336.14	640.62
336.369	621.62
336.597	650.62
336.825	644.62
337.053	637.62
337.281	613.62
337.51	608.62
337.738	634.62
337.966	577.62
338.194	601.62
338.422	579.62
338.65	569.62
338.878	584.62
339.106	569.62
339.334	569.62
339.562	572.62
339.79	552.62
340.018	558.62
340.246	539.62
340.474	576.62
340.702	538.62
340.93	561.62
341.158	532.62
341.386	566.62
341.614	583.62
341.842	576.62
342.07	547.62
342.298	546.62
342.526	576.62
342.754	541.62
342.981	524.62
343.209	567.62
343.437	573.62
343.665	604.62
343.893	616.62
344.12	611.62
344.348	611.62
344.576	607.62
344.804	614.62
345.031	582.62
345.259	564.62
345.487	587.62
345.714	554.62
345.942	557.62
346.17	543.62
346.397	528.62
346.625	545.62
346.853	530.62
347.08	535.62
347.308	579.62
347.535	537.62
347.763	544.62
347.99	542.62
348.218	523.62
348.445	557.62
348.673	531.62
348.9	532.62
349.128	517.62
349.355	540.62
349.583	542.62
349.81	512.62
350.037	521.62
350.265	516.62
350.492	503.62
350.72	546.62
350.947	528.62
351.174	518.62
351.402	546.62
351.629	528.62
351.856	542.62
352.083	526.62
352.311	522.62
352.538	571.62
352.765	543.62
352.992	519.62
353.22	503.62
353.447	499.62
353.674	504.62
353.901	507.62
354.128	499.62
354.355	485.62
354.583	526.62
354.81	501.62
355.037	505.62
355.264	514.62
355.491	500.62
355.718	499.62
355.945	513.62
356.172	506.62
356.399	512.62
356.626	512.62
356.853	522.62
357.08	531.62
357.307	517.62
357.534	501.62
357.761	486.62
357.988	488.62
358.215	521.62
358.441	516.62
358.668	511.62
358.895	502.62
359.122	499.62
359.349	497.62
359.576	514.62
359.802	512.62
360.029	484.62
360.256	509.62
360.483	507.62
360.709	509.62
360.936	525.62
361.163	508.62
361.39	507.62
361.616	507.62
361.843	522.62
362.07	539.62
362.296	530.62
362.523	501.62
362.749	496.62
362.976	507.62
363.203	494.62
363.429	489.62
363.656	497.62
363.882	476.62
364.109	489.62
364.335	506.62
364.562	504.62
364.788	493.62
365.015	518.62
365.241	489.62
365.468	511.62
365.694	472.62
365.92	501.62
366.147	491.62
366.373	497.62
366.599	486.62
366.826	500.62
367.052	496.62
367.278	522.62
367.505	490.62
367.731	501.62
367.957	483.62
368.184	477.62
368.41	499.62
368.636	517.62
368.862	488.62
369.089	500.62
369.315	500.62
369.541	504.62
369.767	522.62
369.993	545.62
370.219	507.62
370.445	522.62
370.672	540.62
370.898	527.62
371.124	527.62
371.35	536.62
371.576	537.62
371.802	537.62
372.028	535.62
372.254	550.62
372.48	535.62
372.706	564.62
372.932	555.62
373.158	540.62
373.384	557.62
373.61	544.62
373.835	541.62
374.061	520.62
374.287	561.62
374.513	542.62
374.739	556.62
374.965	556.62
375.191	589.62
375.416	568.62
375.642	571.62
375.868	557.62
376.094	571.62
376.319	542.62
376.545	546.62
376.771	540.62
376.997	523.62
377.222	541.62
377.448	536.62
377.674	553.62
377.899	542.62
378.125	524.62
378.35	542.62
378.576	533.62
378.802	523.62
379.027	545.62
379.253	527.62
379.478	512.62
379.704	522.62
379.929	531.62
380.155	518.62
380.38	532.62
380.606	510.62
380.831	533.62
381.057	532.62
381.282	514.62
381.507	504.62
381.733	532.62
381.958	522.62
382.184	532.62
382.409	549.62
382.634	541.62
382.86	545.62
383.085	566.62
383.31	553.62
383.535	554.62
383.761	575.62
383.986	581.62
384.211	591.62
384.436	586.62
384.662	570.62
384.887	576.62
385.112	603.62
385.337	600.62
385.562	614.62
385.787	626.62
386.013	642.62
386.238	624.62
386.463	600.62
386.688	616.62
386.913	600.62
387.138	606.62
387.363	594.62
387.588	604.62
387.813	612.62
388.038	629.62
388.263	624.62
388.488	629.62
388.713	619.62
388.938	603.62
389.163	611.62
389.387	613.62
389.612	590.62
389.837	604.62
390.062	599.62
390.287	605.62
390.512	604.62
390.736	621.62
390.961	631.62
391.186	628.62
391.411	626.62
391.636	654.62
391.86	637.62
392.085	682.62
392.31	686.62
392.534	672.62
392.759	653.62
392.984	648.62
393.208	660.62
393.433	641.62
393.658	660.62
393.882	642.62
394.107	639.62
394.331	672.62
394.556	669.62
394.78	650.62
395.005	670.62
395.229	647.62
395.454	645.62
395.678	692.62
395.903	664.62
396.127	680.62
396.352	669.62
396.576	668.62
396.801	648.62
397.025	681.62
397.249	689.62
397.474	681.62
397.698	674.62
397.922	684.62
398.147	671.62
398.371	709.62
398.595	717.62
398.82	728.62
399.044	772.62
399.268	866.62
399.492	930.62
399.717	1005.62
399.941	1009.62
400.165	945.62
400.389	877.62
400.613	839.62
400.837	808.62
401.062	760.62
401.286	746.62
401.51	770.62
401.734	749.62
401.958	752.62
402.182	766.62
402.406	772.62
402.63	782.62
402.854	817.62
403.078	784.62
403.302	839.62
403.526	826.62
403.75	800.62
403.974	833.62
404.198	841.62
404.422	838.62
404.645	805.62
404.869	813.62
405.093	846.62
405.317	793.62
405.541	825.62
405.765	804.62
405.988	800.62
406.212	826.62
406.436	838.62
406.66	850.62
406.883	866.62
407.107	896.62
407.331	888.62
407.555	931.62
407.778	948.62
408.002	922.62
408.226	896.62
408.449	902.62
408.673	894.62
408.896	879.62
409.12	871.62
409.344	880.62
409.567	859.62
409.791	838.62
410.014	881.62
410.238	844.62
410.461	846.62
410.685	833.62
410.908	845.62
411.132	807.62
411.355	803.62
411.578	801.62
411.802	789.62
412.025	803.62
412.249	804.62
412.472	797.62
412.695	797.62
412.919	765.62
413.142	795.62
413.365	766.62
413.589	743.62
413.812	791.62
414.035	754.62
414.258	768.62
414.482	763.62
414.705	786.62
414.928	798.62
415.151	809.62
415.374	811.62
415.597	768.62
415.821	773.62
416.044	748.62
416.267	727.62
416.49	758.62
416.713	747.62
416.936	754.62
417.159	754.62
417.382	774.62
417.605	750.62
417.828	754.62
418.051	769.62
418.274	761.62
418.497	749.62
418.72	788.62
418.943	784.62
419.166	805.62
419.389	881.62
419.611	835.62
419.834	820.62
420.057	796.62
420.28	773.62
420.503	771.62
420.726	757.62
420.948	738.62
421.171	754.62
421.394	753.62
421.617	747.62
421.839	747.62
422.062	752.62
422.285	764.62
422.507	778.62
422.73	758.62
422.953	798.62
423.175	772.62
423.398	789.62
423.621	788.62
423.843	772.62
424.066	793.62
424.288	801.62
424.511	769.62
424.733	790.62
424.956	759.62
425.178	754.62
425.401	765.62
425.623	760.62
425.846	748.62
426.068	779.62
426.291	739.62
426.513	729.62
426.735	747.62
426.958	753.62
427.18	724.62
427.402	712.62
427.625	733.62
427.847	747.62
428.069	715.62
428.292	728.62
428.514	720.62
428.736	707.62
428.958	726.62
429.181	699.62
429.403	704.62
429.625	717.62
429.847	702.62
430.069	693.62
430.292	700.62
430.514	691.62
430.736	713.62
430.958	692.62
431.18	707.62
431.402	708.62
431.624	718.62
431.846	706.62
432.068	737.62
432.29	746.62
432.512	708.62
432.734	713.62
432.956	716.62
433.178	723.62
433.4	717.62
433.622	733.62
433.844	737.62
434.066	744.62
434.287	742.62
434.509	768.62
434.731	776.62
434.953	779.62
435.175	766.62
435.397	754.62
435.618	762.62
435.84	742.62
436.062	702.62
436.284	723.62
436.505	708.62
436.727	737.62
436.949	707.62
437.17	707.62
437.392	724.62
437.614	695.62
437.835	698.62
438.057	698.62
438.278	689.62
438.5	696.62
438.721	708.62
438.943	680.62
439.165	713.62
439.386	698.62
439.608	725.62
439.829	720.62
440.05	724.62
440.272	743.62
440.493	733.62
440.715	727.62
440.936	738.62
441.158	761.62
441.379	763.62
441.6	802.62
441.822	780.62
442.043	812.62
442.264	794.62
442.486	769.62
442.707	779.62
442.928	786.62
443.149	794.62
443.371	778.62
443.592	813.62
443.813	796.62
444.034	812.62
444.255	813.62
444.476	833.62
444.698	893.62
444.919	916.62
445.14	987.62
445.361	873.62
445.582	824.62
445.803	800.62
446.024	781.62
446.245	756.62
446.466	741.62
446.687	750.62
446.908	761.62
447.129	728.62
447.35	704.62
447.571	724.62
447.792	681.62
448.013	692.62
448.234	702.62
448.455	697.62
448.675	694.62
448.896	674.62
449.117	672.62
449.338	696.62
449.559	647.62
449.779	699.62
450	702.62
450.221	704.62
450.442	667.62
450.662	671.62
450.883	668.62
451.104	699.62
451.324	676.62
451.545	680.62
451.766	696.62
451.986	661.62
452.207	688.62
452.428	685.62
452.648	659.62
452.869	662.62
453.089	637.62
453.31	679.62
453.53	632.62
453.751	647.62
453.971	649.62
454.192	642.62
454.412	642.62
454.633	636.62
454.853	642.62
455.073	621.62
455.294	648.62
455.514	624.62
455.734	617.62
455.955	636.62
456.175	636.62
456.395	637.62
456.616	619.62
456.836	661.62
457.056	642.62
457.276	616.62
457.497	660.62
457.717	635.62
457.937	643.62
458.157	645.62
458.377	661.62
458.598	678.62
458.818	675.62
459.038	708.62
459.258	704.62
459.478	752.62
459.698	756.62
459.918	764.62
460.138	792.62
460.358	821.62
460.578	817.62
460.798	805.62
461.018	845.62
461.238	834.62
461.458	838.62
461.678	837.62
461.898	832.62
462.118	872.62
462.338	884.62
462.558	900.62
462.777	926.62
462.997	997.62
463.217	1010.62
463.437	1014.62
463.657	996.62
463.876	956.62
464.096	960.62
464.316	941.62
464.536	913.62
464.755	932.62
464.975	919.62
465.195	884.62
465.414	828.62
465.634	790.62
465.854	773.62
466.073	764.62
466.293	755.62
466.512	726.62
466.732	736.62
466.951	717.62
467.171	712.62
467.391	726.62
467.61	713.62
467.829	696.62
468.049	690.62
468.268	701.62
468.488	680.62
468.707	682.62
468.927	697.62
469.146	694.62
469.365	696.62
469.585	708.62
469.804	739.62
470.023	732.62
470.243	732.62
470.462	710.62
470.681	722.62
470.901	721.62
471.12	725.62
471.339	728.62
471.558	705.62
471.777	742.62
471.997	719.62
472.216	710.62
472.435	671.62
472.654	660.62
472.873	646.62
473.092	701.62
473.311	673.62
473.53	693.62
473.749	690.62
473.968	690.62
474.187	675.62
474.406	699.62
474.625	682.62
474.844	676.62
475.063	710.62
475.282	693.62
475.501	705.62
475.72	713.62
475.939	706.62
476.158	721.62
476.377	707.62
476.596	703.62
476.814	701.62
477.033	739.62
477.252	738.62
477.471	745.62
477.69	723.62
477.908	776.62
478.127	788.62
478.346	783.62
478.564	813.62
478.783	824.62
479.002	828.62
479.22	838.62
479.439	862.62
479.658	834.62
479.876	816.62
480.095	823.62
480.313	897.62
480.532	878.62
480.751	890.62
480.969	850.62
481.188	833.62
481.406	822.62
481.624	824.62
481.843	793.62
482.061	802.62
482.28	783.62
482.498	801.62
482.717	778.62
482.935	785.62
483.153	807.62
483.372	810.62
483.59	812.62
483.808	801.62
484.027	787.62
484.245	794.62
484.463	818.62
484.681	832.62
484.9	828.62
485.118	845.62
485.336	815.62
485.554	826.62
485.772	816.62
485.99	790.62
486.209	835.62
486.427	841.62
486.645	837.62
486.863	871.62
487.081	840.62
487.299	825.62
487.517	842.62
487.735	850.62
487.953	858.62
488.171	845.62
488.389	843.62
488.607	840.62
488.825	841.62
489.043	820.62
489.261	828.62
489.479	829.62
489.696	836.62
489.914	849.62
490.132	827.62
490.35	837.62
490.568	835.62
490.786	856.62
491.003	846.62
491.221	878.62
491.439	858.62
491.657	822.62
491.874	860.62
492.092	886.62
492.31	890.62
492.527	862.62
492.745	873.62
492.963	891.62
493.18	886.62
493.398	865.62
493.615	882.62
493.833	890.62
494.05	873.62
494.268	875.62
494.485	890.62
494.703	891.62
494.92	908.62
495.138	896.62
495.355	909.62
495.573	906.62
495.79	884.62
496.008	894.62
496.225	895.62
496.442	916.62
496.66	935.62
496.877	957.62
497.094	966.62
497.312	961.62
497.529	969.62
497.746	984.62
497.963	1039.62
498.181	1053.62
498.398	1112.62
498.615	1141.62
498.832	1197.62
499.049	1277.62
499.267	1350.62
499.484	1432.62
499.701	1576.62
499.918	1689.62
500.135	1848.62
500.352	2032.62
500.569	2133.62
500.786	2076.62
501.003	1926.62
501.22	1858.62
501.437	1675.62
