Data from NiCl2@0.25M.TitratingCurve.Agarose3%dH2O.NegLispCup.LampEnergy10.LIBS07252019_HRD10591_18-24-28-572.txt Node
Date: Thu Jul 25 18:24:28 EDT 2019
User: cochatt
Spectrometer: HR+D1059
Trigger mode: 1
Integration Time (sec): 1.000000E-1
Scans to average: 1
Electric dark correction enabled: true
Nonlinearity correction enabled: false
Boxcar width: 0
XAxis mode: Wavelengths
Number of Pixels in Spectrum: 2048
>>>>>Begin Spectral Data<<<<<
223.165	-5.31
223.4	-5.31
223.635	-5.31
223.869	-9.31
224.104	-18.31
224.338	-14.31
224.573	-18.31
224.808	-7.31
225.042	-13.31
225.277	-9.31
225.511	3.69
225.746	-0.31
225.98	6.69
226.215	-8.31
226.449	22.69
226.683	10.69
226.918	22.69
227.152	37.69
227.387	23.69
227.621	29.69
227.856	31.69
228.09	47.69
228.324	46.69
228.559	56.69
228.793	57.69
229.027	102.69
229.262	97.69
229.496	93.69
229.73	114.69
229.964	119.69
230.199	113.69
230.433	110.69
230.667	118.69
230.901	129.69
231.136	120.69
231.37	130.69
231.604	122.69
231.838	136.69
232.072	143.69
232.306	147.69
232.541	135.69
232.775	128.69
233.009	131.69
233.243	134.69
233.477	143.69
233.711	149.69
233.945	139.69
234.179	154.69
234.413	142.69
234.647	125.69
234.881	151.69
235.115	134.69
235.349	133.69
235.583	141.69
235.817	151.69
236.051	145.69
236.285	147.69
236.519	151.69
236.753	151.69
236.987	154.69
237.221	136.69
237.455	158.69
237.689	147.69
237.922	152.69
238.156	154.69
238.39	165.69
238.624	145.69
238.858	154.69
239.091	156.69
239.325	147.69
239.559	159.69
239.793	150.69
240.027	167.69
240.26	167.69
240.494	165.69
240.728	176.69
240.961	164.69
241.195	159.69
241.429	162.69
241.662	171.69
241.896	181.69
242.13	186.69
242.363	169.69
242.597	186.69
242.83	183.69
243.064	188.69
243.298	189.69
243.531	170.69
243.765	186.69
243.998	182.69
244.232	189.69
244.465	182.69
244.699	202.69
244.932	209.69
245.166	205.69
245.399	185.69
245.633	208.69
245.866	204.69
246.099	201.69
246.333	186.69
246.566	222.69
246.8	216.69
247.033	203.69
247.266	196.69
247.5	215.69
247.733	207.69
247.966	219.69
248.2	223.69
248.433	215.69
248.666	215.69
248.899	212.69
249.133	215.69
249.366	239.69
249.599	226.69
249.832	228.69
250.066	219.69
250.299	233.69
250.532	238.69
250.765	243.69
250.998	230.69
251.231	223.69
251.465	241.69
251.698	240.69
251.931	262.69
252.164	238.69
252.397	240.69
252.63	237.69
252.863	260.69
253.096	243.69
253.329	269.69
253.562	233.69
253.795	241.69
254.028	247.69
254.261	242.69
254.494	247.69
254.727	253.69
254.96	258.69
255.193	248.69
255.426	268.69
255.659	261.69
255.892	281.69
256.124	261.69
256.357	273.69
256.59	247.69
256.823	257.69
257.056	261.69
257.289	266.69
257.521	272.69
257.754	282.69
257.987	267.69
258.22	263.69
258.452	291.69
258.685	273.69
258.918	280.69
259.151	288.69
259.383	292.69
259.616	270.69
259.849	270.69
260.081	287.69
260.314	290.69
260.547	294.69
260.779	299.69
261.012	294.69
261.244	296.69
261.477	295.69
261.71	314.69
261.942	307.69
262.175	301.69
262.407	299.69
262.64	289.69
262.872	293.69
263.105	299.69
263.337	310.69
263.57	312.69
263.802	305.69
264.035	322.69
264.267	315.69
264.499	330.69
264.732	325.69
264.964	322.69
265.197	301.69
265.429	328.69
265.661	304.69
265.894	310.69
266.126	318.69
266.358	315.69
266.591	323.69
266.823	321.69
267.055	290.69
267.287	334.69
267.52	321.69
267.752	325.69
267.984	328.69
268.216	344.69
268.448	350.69
268.681	334.69
268.913	334.69
269.145	351.69
269.377	352.69
269.609	337.69
269.841	364.69
270.073	350.69
270.306	346.69
270.538	352.69
270.77	351.69
271.002	348.69
271.234	328.69
271.466	340.69
271.698	345.69
271.93	353.69
272.162	374.69
272.394	354.69
272.626	364.69
272.858	349.69
273.09	348.69
273.322	382.69
273.553	371.69
273.785	356.69
274.017	374.69
274.249	372.69
274.481	370.69
274.713	354.69
274.945	379.69
275.176	366.69
275.408	365.69
275.64	391.69
275.872	394.69
276.104	381.69
276.335	392.69
276.567	363.69
276.799	399.69
277.031	383.69
277.262	396.69
277.494	386.69
277.726	404.69
277.957	402.69
278.189	387.69
278.421	403.69
278.652	402.69
278.884	407.69
279.115	383.69
279.347	406.69
279.579	408.69
279.81	390.69
280.042	401.69
280.273	401.69
280.505	411.69
280.736	421.69
280.968	408.69
281.199	412.69
281.431	415.69
281.662	428.69
281.894	402.69
282.125	426.69
282.356	438.69
282.588	429.69
282.819	425.69
283.051	426.69
283.282	443.69
283.513	432.69
283.745	443.69
283.976	444.69
284.207	438.69
284.439	435.69
284.67	443.69
284.901	437.69
285.132	450.69
285.364	438.69
285.595	459.69
285.826	451.69
286.057	445.69
286.288	433.69
286.52	461.69
286.751	460.69
286.982	463.69
287.213	480.69
287.444	458.69
287.675	442.69
287.906	471.69
288.138	449.69
288.369	475.69
288.6	474.69
288.831	453.69
289.062	454.69
289.293	468.69
289.524	456.69
289.755	475.69
289.986	490.69
290.217	483.69
290.448	471.69
290.679	464.69
290.91	472.69
291.141	457.69
291.371	481.69
291.602	482.69
291.833	509.69
292.064	497.69
292.295	477.69
292.526	447.69
292.757	453.69
292.987	463.69
293.218	478.69
293.449	475.69
293.68	462.69
293.91	473.69
294.141	483.69
294.372	484.69
294.603	470.69
294.833	488.69
295.064	504.69
295.295	488.69
295.525	497.69
295.756	524.69
295.987	506.69
296.217	511.69
296.448	498.69
296.679	520.69
296.909	513.69
297.14	524.69
297.37	524.69
297.601	520.69
297.831	503.69
298.062	518.69
298.292	518.69
298.523	547.69
298.753	537.69
298.984	514.69
299.214	508.69
299.445	547.69
299.675	534.69
299.905	515.69
300.136	507.69
300.366	499.69
300.597	540.69
300.827	542.69
301.057	550.69
301.288	550.69
301.518	568.69
301.748	558.69
301.979	551.69
302.209	559.69
302.439	561.69
302.669	554.69
302.9	526.69
303.13	550.69
303.36	536.69
303.59	540.69
303.82	552.69
304.051	536.69
304.281	544.69
304.511	538.69
304.741	536.69
304.971	539.69
305.201	521.69
305.431	565.69
305.661	529.69
305.891	554.69
306.121	539.69
306.352	546.69
306.582	556.69
306.812	539.69
307.042	517.69
307.272	539.69
307.502	529.69
307.731	539.69
307.961	551.69
308.191	543.69
308.421	519.69
308.651	533.69
308.881	531.69
309.111	535.69
309.341	537.69
309.571	551.69
309.8	541.69
310.03	534.69
310.26	545.69
310.49	538.69
310.72	541.69
310.949	542.69
311.179	541.69
311.409	530.69
311.639	540.69
311.868	559.69
312.098	559.69
312.328	552.69
312.557	546.69
312.787	539.69
313.017	539.69
313.246	544.69
313.476	575.69
313.706	567.69
313.935	559.69
314.165	586.69
314.394	601.69
314.624	581.69
314.853	568.69
315.083	565.69
315.312	581.69
315.542	552.69
315.771	583.69
316.001	571.69
316.23	541.69
316.46	570.69
316.689	570.69
316.919	560.69
317.148	549.69
317.377	560.69
317.607	563.69
317.836	557.69
318.065	550.69
318.295	581.69
318.524	582.69
318.753	564.69
318.983	561.69
319.212	556.69
319.441	559.69
319.67	550.69
319.9	549.69
320.129	569.69
320.358	553.69
320.587	536.69
320.816	547.69
321.046	554.69
321.275	578.69
321.504	542.69
321.733	577.69
321.962	568.69
322.191	562.69
322.42	552.69
322.649	565.69
322.878	574.69
323.108	559.69
323.337	581.69
323.566	570.69
323.795	571.69
324.024	586.69
324.253	580.69
324.482	572.69
324.71	593.69
324.939	615.69
325.168	592.69
325.397	610.69
325.626	593.69
325.855	600.69
326.084	598.69
326.313	624.69
326.542	609.69
326.77	640.69
326.999	611.69
327.228	609.69
327.457	592.69
327.686	639.69
327.914	625.69
328.143	630.69
328.372	624.69
328.6	619.69
328.829	637.69
329.058	616.69
329.287	597.69
329.515	607.69
329.744	621.69
329.972	614.69
330.201	593.69
330.43	641.69
330.658	624.69
330.887	635.69
331.115	639.69
331.344	639.69
331.572	649.69
331.801	669.69
332.03	695.69
332.258	702.69
332.486	741.69
332.715	714.69
332.943	766.69
333.172	815.69
333.4	830.69
333.629	804.69
333.857	858.69
334.085	858.69
334.314	842.69
334.542	821.69
334.771	813.69
334.999	771.69
335.227	773.69
335.455	790.69
335.684	765.69
335.912	792.69
336.14	769.69
336.369	746.69
336.597	773.69
336.825	743.69
337.053	727.69
337.281	730.69
337.51	703.69
337.738	705.69
337.966	708.69
338.194	690.69
338.422	652.69
338.65	658.69
338.878	680.69
339.106	673.69
339.334	647.69
339.562	645.69
339.79	648.69
340.018	652.69
340.246	645.69
340.474	630.69
340.702	658.69
340.93	645.69
341.158	659.69
341.386	638.69
341.614	656.69
341.842	645.69
342.07	659.69
342.298	632.69
342.526	622.69
342.754	655.69
342.981	641.69
343.209	651.69
343.437	691.69
343.665	703.69
343.893	795.69
344.12	818.69
344.348	762.69
344.576	732.69
344.804	699.69
345.031	656.69
345.259	646.69
345.487	661.69
345.714	656.69
345.942	658.69
346.17	672.69
346.397	647.69
346.625	633.69
346.853	610.69
347.08	626.69
347.308	614.69
347.535	636.69
347.763	632.69
347.99	658.69
348.218	652.69
348.445	614.69
348.673	617.69
348.9	617.69
349.128	623.69
349.355	618.69
349.583	635.69
349.81	633.69
350.037	597.69
350.265	591.69
350.492	597.69
350.72	602.69
350.947	601.69
351.174	597.69
351.402	605.69
351.629	613.69
351.856	600.69
352.083	601.69
352.311	591.69
352.538	614.69
352.765	612.69
352.992	596.69
353.22	597.69
353.447	597.69
353.674	588.69
353.901	602.69
354.128	608.69
354.355	605.69
354.583	625.69
354.81	605.69
355.037	593.69
355.264	611.69
355.491	604.69
355.718	592.69
355.945	628.69
356.172	616.69
356.399	606.69
356.626	628.69
356.853	600.69
357.08	607.69
357.307	611.69
357.534	598.69
357.761	603.69
357.988	602.69
358.215	581.69
358.441	594.69
358.668	584.69
358.895	595.69
359.122	587.69
359.349	587.69
359.576	612.69
359.802	601.69
360.029	610.69
360.256	575.69
360.483	590.69
360.709	607.69
360.936	613.69
361.163	613.69
361.39	602.69
361.616	615.69
361.843	596.69
362.07	606.69
362.296	605.69
362.523	597.69
362.749	597.69
362.976	602.69
363.203	606.69
363.429	592.69
363.656	578.69
363.882	575.69
364.109	603.69
364.335	597.69
364.562	600.69
364.788	609.69
365.015	581.69
365.241	608.69
365.468	586.69
365.694	588.69
365.92	589.69
366.147	586.69
366.373	593.69
366.599	593.69
366.826	584.69
367.052	575.69
367.278	613.69
367.505	615.69
367.731	601.69
367.957	575.69
368.184	618.69
368.41	612.69
368.636	625.69
368.862	616.69
369.089	618.69
369.315	600.69
369.541	626.69
369.767	621.69
369.993	619.69
370.219	629.69
370.445	643.69
370.672	629.69
370.898	638.69
371.124	632.69
371.35	639.69
371.576	627.69
371.802	641.69
372.028	647.69
372.254	646.69
372.48	665.69
372.706	691.69
372.932	697.69
373.158	687.69
373.384	695.69
373.61	658.69
373.835	649.69
374.061	663.69
374.287	666.69
374.513	684.69
374.739	693.69
374.965	714.69
375.191	720.69
375.416	707.69
375.642	717.69
375.868	713.69
376.094	669.69
376.319	661.69
376.545	678.69
376.771	651.69
376.997	652.69
377.222	639.69
377.448	651.69
377.674	652.69
377.899	631.69
378.125	642.69
378.35	641.69
378.576	632.69
378.802	639.69
379.027	645.69
379.253	641.69
379.478	649.69
379.704	657.69
379.929	650.69
380.155	631.69
380.38	643.69
380.606	651.69
380.831	643.69
381.057	638.69
381.282	662.69
381.507	639.69
381.733	665.69
381.958	678.69
382.184	673.69
382.409	676.69
382.634	674.69
382.86	691.69
383.085	692.69
383.31	716.69
383.535	698.69
383.761	679.69
383.986	728.69
384.211	751.69
384.436	749.69
384.662	737.69
384.887	769.69
385.112	769.69
385.337	756.69
385.562	769.69
385.787	769.69
386.013	827.69
386.238	797.69
386.463	778.69
386.688	790.69
386.913	783.69
387.138	776.69
387.363	765.69
387.588	751.69
387.813	773.69
388.038	751.69
388.263	758.69
388.488	800.69
388.713	776.69
388.938	757.69
389.163	744.69
389.387	746.69
389.612	757.69
389.837	749.69
390.062	783.69
390.287	774.69
390.512	777.69
390.736	790.69
390.961	783.69
391.186	796.69
391.411	840.69
391.636	851.69
391.86	886.69
392.085	890.69
392.31	862.69
392.534	878.69
392.759	879.69
392.984	838.69
393.208	821.69
393.433	853.69
393.658	839.69
393.882	831.69
394.107	813.69
394.331	836.69
394.556	838.69
394.78	813.69
395.005	848.69
395.229	826.69
395.454	876.69
395.678	869.69
395.903	893.69
396.127	890.69
396.352	834.69
396.576	854.69
396.801	818.69
397.025	837.69
397.249	855.69
397.474	871.69
397.698	860.69
397.922	870.69
398.147	912.69
398.371	913.69
398.595	917.69
398.82	997.69
399.044	1043.69
399.268	1158.69
399.492	1329.69
399.717	1437.69
399.941	1493.69
400.165	1349.69
400.389	1198.69
400.613	1091.69
400.837	1007.69
401.062	1026.69
401.286	992.69
401.51	974.69
401.734	965.69
401.958	979.69
402.182	994.69
402.406	998.69
402.63	1037.69
402.854	1066.69
403.078	1093.69
403.302	1097.69
403.526	1089.69
403.75	1105.69
403.974	1146.69
404.198	1130.69
404.422	1137.69
404.645	1119.69
404.869	1091.69
405.093	1121.69
405.317	1079.69
405.541	1115.69
405.765	1071.69
405.988	1057.69
406.212	1073.69
406.436	1061.69
406.66	1094.69
406.883	1126.69
407.107	1174.69
407.331	1257.69
407.555	1290.69
407.778	1272.69
408.002	1261.69
408.226	1192.69
408.449	1167.69
408.673	1141.69
408.896	1114.69
409.12	1095.69
409.344	1113.69
409.567	1103.69
409.791	1141.69
410.014	1090.69
410.238	1106.69
410.461	1085.69
410.685	1073.69
410.908	1042.69
411.132	1026.69
411.355	1018.69
411.578	997.69
411.802	1023.69
412.025	1002.69
412.249	1041.69
412.472	1036.69
412.695	992.69
412.919	966.69
413.142	986.69
413.365	967.69
413.589	997.69
413.812	989.69
414.035	971.69
414.258	993.69
414.482	991.69
414.705	997.69
414.928	974.69
415.151	994.69
415.374	976.69
415.597	949.69
415.821	951.69
416.044	954.69
416.267	979.69
416.49	982.69
416.713	934.69
416.936	944.69
417.159	974.69
417.382	954.69
417.605	966.69
417.828	975.69
418.051	975.69
418.274	962.69
418.497	945.69
418.72	1000.69
418.943	987.69
419.166	1025.69
419.389	1102.69
419.611	1094.69
419.834	1069.69
420.057	1036.69
420.28	991.69
420.503	970.69
420.726	953.69
420.948	969.69
421.171	969.69
421.394	962.69
421.617	946.69
421.839	960.69
422.062	964.69
422.285	966.69
422.507	980.69
422.73	998.69
422.953	1010.69
423.175	1007.69
423.398	1022.69
423.621	1008.69
423.843	1024.69
424.066	1024.69
424.288	1024.69
424.511	1011.69
424.733	985.69
424.956	998.69
425.178	993.69
425.401	973.69
425.623	971.69
425.846	969.69
426.068	959.69
426.291	901.69
426.513	928.69
426.735	874.69
426.958	931.69
427.18	890.69
427.402	864.69
427.625	895.69
427.847	859.69
428.069	859.69
428.292	886.69
428.514	888.69
428.736	865.69
428.958	885.69
429.181	870.69
429.403	865.69
429.625	858.69
429.847	852.69
430.069	850.69
430.292	847.69
430.514	835.69
430.736	832.69
430.958	854.69
431.18	860.69
431.402	861.69
431.624	849.69
431.846	885.69
432.068	870.69
432.29	864.69
432.512	877.69
432.734	859.69
432.956	859.69
433.178	877.69
433.4	875.69
433.622	883.69
433.844	861.69
434.066	887.69
434.287	885.69
434.509	893.69
434.731	961.69
434.953	955.69
435.175	976.69
435.397	951.69
435.618	916.69
435.84	899.69
436.062	877.69
436.284	883.69
436.505	853.69
436.727	871.69
436.949	885.69
437.17	847.69
437.392	840.69
437.614	837.69
437.835	777.69
438.057	822.69
438.278	822.69
438.5	828.69
438.721	815.69
438.943	844.69
439.165	827.69
439.386	844.69
439.608	825.69
439.829	863.69
440.05	872.69
440.272	850.69
440.493	889.69
440.715	906.69
440.936	906.69
441.158	888.69
441.379	912.69
441.6	976.69
441.822	984.69
442.043	1004.69
442.264	962.69
442.486	932.69
442.707	948.69
442.928	950.69
443.149	958.69
443.371	928.69
443.592	938.69
443.813	949.69
444.034	958.69
444.255	994.69
444.476	1029.69
444.698	1100.69
444.919	1143.69
445.14	1238.69
445.361	1097.69
445.582	1001.69
445.803	945.69
446.024	895.69
446.245	894.69
446.466	882.69
446.687	852.69
446.908	869.69
447.129	847.69
447.35	856.69
447.571	837.69
447.792	817.69
448.013	829.69
448.234	811.69
448.455	794.69
448.675	798.69
448.896	818.69
449.117	794.69
449.338	789.69
449.559	776.69
449.779	777.69
450	791.69
450.221	791.69
450.442	805.69
450.662	800.69
450.883	809.69
451.104	816.69
451.324	811.69
451.545	797.69
451.766	798.69
451.986	811.69
452.207	786.69
452.428	819.69
452.648	791.69
452.869	782.69
453.089	776.69
453.31	791.69
453.53	785.69
453.751	793.69
453.971	744.69
454.192	747.69
454.412	724.69
454.633	742.69
454.853	767.69
455.073	761.69
455.294	768.69
455.514	750.69
455.734	744.69
455.955	717.69
456.175	760.69
456.395	728.69
456.616	737.69
456.836	757.69
457.056	723.69
457.276	725.69
457.497	751.69
457.717	736.69
457.937	738.69
458.157	750.69
458.377	742.69
458.598	799.69
458.818	830.69
459.038	837.69
459.258	869.69
459.478	870.69
459.698	884.69
459.918	932.69
460.138	932.69
460.358	1010.69
460.578	1009.69
460.798	1022.69
461.018	1034.69
461.238	1005.69
461.458	991.69
461.678	1009.69
461.898	1042.69
462.118	1021.69
462.338	1081.69
462.558	1095.69
462.777	1206.69
462.997	1251.69
463.217	1343.69
463.437	1359.69
463.657	1257.69
463.876	1203.69
464.096	1214.69
464.316	1185.69
464.536	1213.69
464.755	1161.69
464.975	1110.69
465.195	1060.69
465.414	1030.69
465.634	946.69
465.854	897.69
466.073	889.69
466.293	859.69
466.512	824.69
466.732	806.69
466.951	789.69
467.171	807.69
467.391	837.69
467.61	841.69
467.829	814.69
468.049	824.69
468.268	770.69
468.488	805.69
468.707	787.69
468.927	795.69
469.146	774.69
469.365	812.69
469.585	836.69
469.804	829.69
470.023	854.69
470.243	862.69
470.462	850.69
470.681	875.69
470.901	856.69
471.12	855.69
471.339	809.69
471.558	821.69
471.777	822.69
471.997	806.69
472.216	796.69
472.435	810.69
472.654	808.69
472.873	782.69
473.092	770.69
473.311	786.69
473.53	794.69
473.749	770.69
473.968	797.69
474.187	771.69
474.406	763.69
474.625	781.69
474.844	768.69
475.063	757.69
475.282	779.69
475.501	792.69
475.72	810.69
475.939	786.69
476.158	805.69
476.377	813.69
476.596	791.69
476.814	825.69
477.033	814.69
477.252	829.69
477.471	850.69
477.69	886.69
477.908	883.69
478.127	923.69
478.346	925.69
478.564	915.69
478.783	953.69
479.002	981.69
479.22	1007.69
479.439	994.69
479.658	963.69
479.876	943.69
480.095	961.69
480.313	993.69
480.532	1043.69
480.751	1009.69
480.969	971.69
481.188	943.69
481.406	939.69
481.624	901.69
481.843	933.69
482.061	887.69
482.28	889.69
482.498	884.69
482.717	880.69
482.935	895.69
483.153	882.69
483.372	899.69
483.59	883.69
483.808	873.69
484.027	871.69
484.245	855.69
484.463	882.69
484.681	913.69
484.9	903.69
485.118	881.69
485.336	877.69
485.554	907.69
485.772	917.69
485.99	933.69
486.209	933.69
486.427	956.69
486.645	947.69
486.863	936.69
487.081	936.69
487.299	936.69
487.517	913.69
487.735	923.69
487.953	933.69
488.171	911.69
488.389	917.69
488.607	926.69
488.825	919.69
489.043	904.69
489.261	917.69
489.479	908.69
489.696	898.69
489.914	928.69
490.132	948.69
490.35	953.69
490.568	961.69
490.786	943.69
491.003	944.69
491.221	945.69
491.439	921.69
491.657	934.69
491.874	936.69
492.092	927.69
492.31	953.69
492.527	975.69
492.745	959.69
492.963	960.69
493.18	955.69
493.398	993.69
493.615	977.69
493.833	959.69
494.05	990.69
494.268	997.69
494.485	1009.69
494.703	1019.69
494.92	990.69
495.138	992.69
495.355	999.69
495.573	1000.69
495.79	988.69
496.008	984.69
496.225	1001.69
496.442	1046.69
496.66	1027.69
496.877	1064.69
497.094	1042.69
497.312	1107.69
497.529	1071.69
497.746	1145.69
497.963	1175.69
498.181	1200.69
498.398	1273.69
498.615	1328.69
498.832	1441.69
499.049	1557.69
499.267	1689.69
499.484	1851.69
499.701	2059.69
499.918	2230.69
