Data from NiCl2@0.25M.TitratingCurve.Agarose3%dH2O.NegLispCup.LampEnergy10.LIBS07252019_HRD10591_18-25-56-573.txt Node
Date: Thu Jul 25 18:25:56 EDT 2019
User: cochatt
Spectrometer: HR+D1059
Trigger mode: 1
Integration Time (sec): 1.000000E-1
Scans to average: 1
Electric dark correction enabled: true
Nonlinearity correction enabled: false
Boxcar width: 0
XAxis mode: Wavelengths
Number of Pixels in Spectrum: 2048
>>>>>Begin Spectral Data<<<<<
223.165	-26.38
223.4	-26.38
223.635	-26.38
223.869	-24.38
224.104	-25.38
224.338	-2.38
224.573	0.62
224.808	-20.38
225.042	-8.38
225.277	2.62
225.511	12.62
225.746	18.62
225.98	11.62
226.215	-3.38
226.449	11.62
226.683	16.62
226.918	12.62
227.152	23.62
227.387	32.62
227.621	39.62
227.856	39.62
228.09	45.62
228.324	53.62
228.559	44.62
228.793	63.62
229.027	131.62
229.262	144.62
229.496	140.62
229.73	153.62
229.964	159.62
230.199	166.62
230.433	177.62
230.667	147.62
230.901	165.62
231.136	174.62
231.37	176.62
231.604	177.62
231.838	166.62
232.072	168.62
232.306	176.62
232.541	181.62
232.775	173.62
233.009	177.62
233.243	194.62
233.477	192.62
233.711	180.62
233.945	192.62
234.179	189.62
234.413	198.62
234.647	183.62
234.881	175.62
235.115	174.62
235.349	194.62
235.583	206.62
235.817	190.62
236.051	201.62
236.285	192.62
236.519	213.62
236.753	199.62
236.987	202.62
237.221	216.62
237.455	205.62
237.689	199.62
237.922	208.62
238.156	216.62
238.39	208.62
238.624	221.62
238.858	230.62
239.091	217.62
239.325	230.62
239.559	212.62
239.793	213.62
240.027	244.62
240.26	224.62
240.494	225.62
240.728	239.62
240.961	246.62
241.195	251.62
241.429	241.62
241.662	253.62
241.896	239.62
242.13	274.62
242.363	239.62
242.597	263.62
242.83	262.62
243.064	263.62
243.298	243.62
243.531	256.62
243.765	279.62
243.998	275.62
244.232	285.62
244.465	278.62
244.699	282.62
244.932	296.62
245.166	281.62
245.399	302.62
245.633	291.62
245.866	281.62
246.099	288.62
246.333	311.62
246.566	297.62
246.8	305.62
247.033	298.62
247.266	316.62
247.5	293.62
247.733	301.62
247.966	321.62
248.2	327.62
248.433	314.62
248.666	302.62
248.899	330.62
249.133	319.62
249.366	329.62
249.599	332.62
249.832	342.62
250.066	355.62
250.299	339.62
250.532	315.62
250.765	339.62
250.998	329.62
251.231	369.62
251.465	358.62
251.698	348.62
251.931	366.62
252.164	375.62
252.397	358.62
252.63	348.62
252.863	377.62
253.096	382.62
253.329	373.62
253.562	371.62
253.795	384.62
254.028	394.62
254.261	366.62
254.494	389.62
254.727	365.62
254.96	374.62
255.193	375.62
255.426	380.62
255.659	369.62
255.892	384.62
256.124	398.62
256.357	399.62
256.59	408.62
256.823	415.62
257.056	413.62
257.289	414.62
257.521	419.62
257.754	423.62
257.987	427.62
258.22	403.62
258.452	422.62
258.685	426.62
258.918	432.62
259.151	419.62
259.383	436.62
259.616	426.62
259.849	441.62
260.081	432.62
260.314	448.62
260.547	447.62
260.779	446.62
261.012	459.62
261.244	457.62
261.477	457.62
261.71	443.62
261.942	452.62
262.175	465.62
262.407	470.62
262.64	464.62
262.872	462.62
263.105	449.62
263.337	460.62
263.57	460.62
263.802	463.62
264.035	459.62
264.267	469.62
264.499	487.62
264.732	478.62
264.964	483.62
265.197	508.62
265.429	517.62
265.661	490.62
265.894	497.62
266.126	486.62
266.358	509.62
266.591	512.62
266.823	495.62
267.055	499.62
267.287	511.62
267.52	495.62
267.752	494.62
267.984	504.62
268.216	538.62
268.448	511.62
268.681	538.62
268.913	513.62
269.145	515.62
269.377	545.62
269.609	505.62
269.841	525.62
270.073	510.62
270.306	522.62
270.538	523.62
270.77	528.62
271.002	514.62
271.234	541.62
271.466	538.62
271.698	565.62
271.93	524.62
272.162	555.62
272.394	542.62
272.626	554.62
272.858	546.62
273.09	555.62
273.322	575.62
273.553	582.62
273.785	547.62
274.017	577.62
274.249	592.62
274.481	579.62
274.713	573.62
274.945	581.62
275.176	586.62
275.408	568.62
275.64	600.62
275.872	595.62
276.104	582.62
276.335	594.62
276.567	613.62
276.799	593.62
277.031	595.62
277.262	621.62
277.494	626.62
277.726	622.62
277.957	627.62
278.189	601.62
278.421	592.62
278.652	608.62
278.884	609.62
279.115	631.62
279.347	617.62
279.579	652.62
279.81	614.62
280.042	639.62
280.273	641.62
280.505	632.62
280.736	671.62
280.968	641.62
281.199	666.62
281.431	659.62
281.662	670.62
281.894	646.62
282.125	672.62
282.356	663.62
282.588	677.62
282.819	687.62
283.051	685.62
283.282	655.62
283.513	678.62
283.745	688.62
283.976	689.62
284.207	683.62
284.439	695.62
284.67	698.62
284.901	709.62
285.132	709.62
285.364	709.62
285.595	672.62
285.826	690.62
286.057	721.62
286.288	699.62
286.52	726.62
286.751	722.62
286.982	712.62
287.213	728.62
287.444	753.62
287.675	733.62
287.906	726.62
288.138	742.62
288.369	737.62
288.6	754.62
288.831	716.62
289.062	728.62
289.293	737.62
289.524	751.62
289.755	741.62
289.986	755.62
290.217	755.62
290.448	742.62
290.679	752.62
290.91	723.62
291.141	753.62
291.371	744.62
291.602	736.62
291.833	740.62
292.064	766.62
292.295	747.62
292.526	768.62
292.757	771.62
292.987	762.62
293.218	757.62
293.449	753.62
293.68	759.62
293.91	754.62
294.141	749.62
294.372	745.62
294.603	743.62
294.833	792.62
295.064	771.62
295.295	813.62
295.525	764.62
295.756	793.62
295.987	775.62
296.217	773.62
296.448	745.62
296.679	787.62
296.909	780.62
297.14	802.62
297.37	806.62
297.601	794.62
297.831	779.62
298.062	810.62
298.292	801.62
298.523	836.62
298.753	837.62
298.984	822.62
299.214	826.62
299.445	802.62
299.675	824.62
299.905	818.62
300.136	833.62
300.366	853.62
300.597	857.62
300.827	848.62
301.057	848.62
301.288	859.62
301.518	862.62
301.748	872.62
301.979	881.62
302.209	889.62
302.439	856.62
302.669	853.62
302.9	851.62
303.13	850.62
303.36	883.62
303.59	859.62
303.82	857.62
304.051	863.62
304.281	872.62
304.511	850.62
304.741	871.62
304.971	891.62
305.201	893.62
305.431	878.62
305.661	852.62
305.891	827.62
306.121	818.62
306.352	854.62
306.582	835.62
306.812	867.62
307.042	849.62
307.272	829.62
307.502	836.62
307.731	837.62
307.961	831.62
308.191	830.62
308.421	834.62
308.651	849.62
308.881	833.62
309.111	819.62
309.341	819.62
309.571	828.62
309.8	844.62
310.03	839.62
310.26	835.62
310.49	837.62
310.72	845.62
310.949	834.62
311.179	855.62
311.409	852.62
311.639	849.62
311.868	862.62
312.098	891.62
312.328	874.62
312.557	895.62
312.787	884.62
313.017	899.62
313.246	895.62
313.476	922.62
313.706	899.62
313.935	920.62
314.165	898.62
314.394	916.62
314.624	914.62
314.853	907.62
315.083	909.62
315.312	915.62
315.542	912.62
315.771	879.62
316.001	902.62
316.23	896.62
316.46	890.62
316.689	898.62
316.919	885.62
317.148	909.62
317.377	879.62
317.607	899.62
317.836	890.62
318.065	894.62
318.295	872.62
318.524	866.62
318.753	881.62
318.983	891.62
319.212	882.62
319.441	870.62
319.67	877.62
319.9	875.62
320.129	879.62
320.358	872.62
320.587	901.62
320.816	869.62
321.046	897.62
321.275	874.62
321.504	884.62
321.733	883.62
321.962	894.62
322.191	904.62
322.42	871.62
322.649	890.62
322.878	922.62
323.108	873.62
323.337	907.62
323.566	920.62
323.795	900.62
324.024	942.62
324.253	918.62
324.482	896.62
324.71	907.62
324.939	918.62
325.168	917.62
325.397	933.62
325.626	932.62
325.855	981.62
326.084	954.62
326.313	963.62
326.542	968.62
326.77	983.62
326.999	968.62
327.228	969.62
327.457	949.62
327.686	945.62
327.914	978.62
328.143	983.62
328.372	955.62
328.6	967.62
328.829	980.62
329.058	969.62
329.287	970.62
329.515	971.62
329.744	973.62
329.972	983.62
330.201	984.62
330.43	974.62
330.658	1029.62
330.887	990.62
331.115	1025.62
331.344	1035.62
331.572	1053.62
331.801	1055.62
332.03	1065.62
332.258	1089.62
332.486	1149.62
332.715	1143.62
332.943	1165.62
333.172	1230.62
333.4	1244.62
333.629	1293.62
333.857	1329.62
334.085	1339.62
334.314	1314.62
334.542	1313.62
334.771	1304.62
334.999	1261.62
335.227	1261.62
335.455	1241.62
335.684	1209.62
335.912	1230.62
336.14	1208.62
336.369	1205.62
336.597	1210.62
336.825	1171.62
337.053	1186.62
337.281	1207.62
337.51	1149.62
337.738	1127.62
337.966	1094.62
338.194	1065.62
338.422	1110.62
338.65	1042.62
338.878	1090.62
339.106	1056.62
339.334	1100.62
339.562	1059.62
339.79	1075.62
340.018	1012.62
340.246	1018.62
340.474	1011.62
340.702	1038.62
340.93	1006.62
341.158	1030.62
341.386	1016.62
341.614	1027.62
341.842	1042.62
342.07	1022.62
342.298	1009.62
342.526	1025.62
342.754	1015.62
342.981	1044.62
343.209	1041.62
343.437	1075.62
343.665	1148.62
343.893	1233.62
344.12	1250.62
344.348	1230.62
344.576	1185.62
344.804	1156.62
345.031	1082.62
345.259	1067.62
345.487	1040.62
345.714	1049.62
345.942	1019.62
346.17	997.62
346.397	996.62
346.625	1001.62
346.853	1025.62
347.08	987.62
347.308	976.62
347.535	966.62
347.763	985.62
347.99	978.62
348.218	986.62
348.445	987.62
348.673	983.62
348.9	975.62
349.128	962.62
349.355	973.62
349.583	981.62
349.81	965.62
350.037	917.62
350.265	945.62
350.492	952.62
350.72	948.62
350.947	913.62
351.174	953.62
351.402	932.62
351.629	949.62
351.856	949.62
352.083	947.62
352.311	935.62
352.538	961.62
352.765	945.62
352.992	953.62
353.22	934.62
353.447	913.62
353.674	915.62
353.901	954.62
354.128	926.62
354.355	915.62
354.583	921.62
354.81	944.62
355.037	937.62
355.264	934.62
355.491	949.62
355.718	946.62
355.945	931.62
356.172	935.62
356.399	957.62
356.626	973.62
356.853	941.62
357.08	935.62
357.307	939.62
357.534	951.62
357.761	934.62
357.988	950.62
358.215	921.62
358.441	940.62
358.668	895.62
358.895	923.62
359.122	953.62
359.349	916.62
359.576	943.62
359.802	930.62
360.029	928.62
360.256	935.62
360.483	933.62
360.709	944.62
360.936	937.62
361.163	947.62
361.39	934.62
361.616	921.62
361.843	917.62
362.07	936.62
362.296	927.62
362.523	936.62
362.749	932.62
362.976	952.62
363.203	959.62
363.429	955.62
363.656	936.62
363.882	957.62
364.109	949.62
364.335	915.62
364.562	945.62
364.788	951.62
365.015	953.62
365.241	936.62
365.468	958.62
365.694	966.62
365.92	931.62
366.147	926.62
366.373	945.62
366.599	912.62
366.826	935.62
367.052	960.62
367.278	933.62
367.505	936.62
367.731	959.62
367.957	952.62
368.184	977.62
368.41	981.62
368.636	964.62
368.862	955.62
369.089	976.62
369.315	963.62
369.541	973.62
369.767	965.62
369.993	968.62
370.219	981.62
370.445	998.62
370.672	1024.62
370.898	1025.62
371.124	1023.62
371.35	1031.62
371.576	1053.62
371.802	1031.62
372.028	1015.62
372.254	1041.62
372.48	1033.62
372.706	1051.62
372.932	1063.62
373.158	1071.62
373.384	1042.62
373.61	1027.62
373.835	1049.62
374.061	997.62
374.287	1043.62
374.513	1039.62
374.739	1106.62
374.965	1125.62
375.191	1160.62
375.416	1169.62
375.642	1113.62
375.868	1093.62
376.094	1064.62
376.319	1074.62
376.545	1058.62
376.771	1066.62
376.997	1047.62
377.222	1035.62
377.448	1009.62
377.674	1045.62
377.899	1041.62
378.125	1021.62
378.35	1005.62
378.576	1031.62
378.802	1028.62
379.027	1035.62
379.253	1046.62
379.478	1011.62
379.704	1044.62
379.929	998.62
380.155	1009.62
380.38	1019.62
380.606	1002.62
380.831	1035.62
381.057	1020.62
381.282	1041.62
381.507	1008.62
381.733	1049.62
381.958	1037.62
382.184	1049.62
382.409	1081.62
382.634	1102.62
382.86	1063.62
383.085	1096.62
383.31	1117.62
383.535	1126.62
383.761	1134.62
383.986	1132.62
384.211	1179.62
384.436	1173.62
384.662	1198.62
384.887	1264.62
385.112	1233.62
385.337	1248.62
385.562	1237.62
385.787	1258.62
386.013	1254.62
386.238	1292.62
386.463	1281.62
386.688	1283.62
386.913	1251.62
387.138	1255.62
387.363	1274.62
387.588	1256.62
387.813	1242.62
388.038	1243.62
388.263	1249.62
388.488	1274.62
388.713	1277.62
388.938	1277.62
389.163	1246.62
389.387	1286.62
389.612	1233.62
389.837	1232.62
390.062	1258.62
390.287	1219.62
390.512	1246.62
390.736	1297.62
390.961	1301.62
391.186	1325.62
391.411	1353.62
391.636	1352.62
391.86	1397.62
392.085	1478.62
392.31	1396.62
392.534	1409.62
392.759	1415.62
392.984	1381.62
393.208	1376.62
393.433	1378.62
393.658	1351.62
393.882	1343.62
394.107	1358.62
394.331	1376.62
394.556	1365.62
394.78	1366.62
395.005	1353.62
395.229	1373.62
395.454	1393.62
395.678	1412.62
395.903	1442.62
396.127	1455.62
396.352	1425.62
396.576	1374.62
396.801	1367.62
397.025	1432.62
397.249	1405.62
397.474	1441.62
397.698	1428.62
397.922	1476.62
398.147	1457.62
398.371	1458.62
398.595	1528.62
398.82	1606.62
399.044	1718.62
399.268	1901.62
399.492	2091.62
399.717	2336.62
399.941	2387.62
400.165	2215.62
400.389	2072.62
400.613	1894.62
400.837	1769.62
401.062	1712.62
401.286	1703.62
401.51	1682.62
401.734	1630.62
401.958	1635.62
402.182	1650.62
402.406	1686.62
402.63	1684.62
402.854	1693.62
403.078	1681.62
403.302	1768.62
403.526	1771.62
403.75	1797.62
403.974	1807.62
404.198	1801.62
404.422	1865.62
404.645	1843.62
404.869	1825.62
405.093	1809.62
405.317	1776.62
405.541	1801.62
405.765	1792.62
405.988	1717.62
406.212	1762.62
406.436	1791.62
406.66	1825.62
406.883	1885.62
407.107	1999.62
407.331	2039.62
407.555	2158.62
407.778	2093.62
408.002	2066.62
408.226	2049.62
408.449	1985.62
408.673	1885.62
408.896	1859.62
409.12	1830.62
409.344	1860.62
409.567	1842.62
409.791	1860.62
410.014	1847.62
410.238	1834.62
410.461	1817.62
410.685	1773.62
410.908	1767.62
411.132	1699.62
411.355	1677.62
411.578	1696.62
411.802	1704.62
412.025	1676.62
412.249	1689.62
412.472	1675.62
412.695	1709.62
412.919	1673.62
413.142	1608.62
413.365	1617.62
413.589	1628.62
413.812	1611.62
414.035	1583.62
414.258	1593.62
414.482	1613.62
414.705	1649.62
414.928	1654.62
415.151	1639.62
415.374	1634.62
415.597	1634.62
415.821	1586.62
416.044	1569.62
416.267	1550.62
416.49	1525.62
416.713	1560.62
416.936	1582.62
417.159	1509.62
417.382	1581.62
417.605	1570.62
417.828	1568.62
418.051	1550.62
418.274	1603.62
418.497	1566.62
418.72	1626.62
418.943	1609.62
419.166	1764.62
419.389	1885.62
419.611	1818.62
419.834	1767.62
420.057	1692.62
420.28	1652.62
420.503	1608.62
420.726	1573.62
420.948	1558.62
421.171	1566.62
421.394	1600.62
421.617	1583.62
421.839	1590.62
422.062	1584.62
422.285	1547.62
422.507	1566.62
422.73	1594.62
422.953	1614.62
423.175	1617.62
423.398	1614.62
423.621	1621.62
423.843	1614.62
424.066	1657.62
424.288	1661.62
424.511	1652.62
424.733	1592.62
424.956	1639.62
425.178	1602.62
425.401	1574.62
425.623	1595.62
425.846	1551.62
426.068	1542.62
426.291	1524.62
426.513	1515.62
426.735	1478.62
426.958	1496.62
427.18	1445.62
427.402	1433.62
427.625	1450.62
427.847	1428.62
428.069	1418.62
428.292	1438.62
428.514	1391.62
428.736	1405.62
428.958	1411.62
429.181	1398.62
429.403	1351.62
429.625	1346.62
429.847	1362.62
430.069	1366.62
430.292	1363.62
430.514	1320.62
430.736	1365.62
430.958	1363.62
431.18	1352.62
431.402	1391.62
431.624	1391.62
431.846	1398.62
432.068	1426.62
432.29	1448.62
432.512	1378.62
432.734	1384.62
432.956	1410.62
433.178	1377.62
433.4	1413.62
433.622	1403.62
433.844	1419.62
434.066	1424.62
434.287	1473.62
434.509	1497.62
434.731	1552.62
434.953	1570.62
435.175	1568.62
435.397	1557.62
435.618	1512.62
435.84	1469.62
436.062	1417.62
436.284	1423.62
436.505	1390.62
436.727	1397.62
436.949	1391.62
437.17	1381.62
437.392	1374.62
437.614	1381.62
437.835	1339.62
438.057	1368.62
438.278	1338.62
438.5	1310.62
438.721	1313.62
438.943	1349.62
439.165	1350.62
439.386	1350.62
439.608	1384.62
439.829	1395.62
440.05	1389.62
440.272	1402.62
440.493	1405.62
440.715	1393.62
440.936	1464.62
441.158	1445.62
441.379	1509.62
441.6	1572.62
441.822	1592.62
442.043	1573.62
442.264	1556.62
442.486	1543.62
442.707	1509.62
442.928	1496.62
443.149	1572.62
443.371	1505.62
443.592	1558.62
443.813	1562.62
444.034	1584.62
444.255	1602.62
444.476	1717.62
444.698	1777.62
444.919	1857.62
445.14	1903.62
445.361	1757.62
445.582	1650.62
445.803	1564.62
446.024	1509.62
446.245	1465.62
446.466	1477.62
446.687	1406.62
446.908	1402.62
447.129	1386.62
447.35	1361.62
447.571	1335.62
447.792	1297.62
448.013	1277.62
448.234	1285.62
448.455	1268.62
448.675	1249.62
448.896	1289.62
449.117	1266.62
449.338	1237.62
449.559	1240.62
449.779	1245.62
450	1253.62
450.221	1251.62
450.442	1265.62
450.662	1258.62
450.883	1292.62
451.104	1307.62
451.324	1298.62
451.545	1285.62
451.766	1270.62
451.986	1229.62
452.207	1272.62
452.428	1262.62
452.648	1246.62
452.869	1230.62
453.089	1217.62
453.31	1257.62
453.53	1253.62
453.751	1223.62
453.971	1225.62
454.192	1200.62
454.412	1179.62
454.633	1213.62
454.853	1203.62
455.073	1203.62
455.294	1210.62
455.514	1190.62
455.734	1190.62
455.955	1183.62
456.175	1154.62
456.395	1208.62
456.616	1176.62
456.836	1191.62
457.056	1195.62
457.276	1198.62
457.497	1224.62
457.717	1212.62
457.937	1175.62
458.157	1206.62
458.377	1219.62
458.598	1280.62
458.818	1303.62
459.038	1327.62
459.258	1376.62
459.478	1419.62
459.698	1467.62
459.918	1488.62
460.138	1533.62
460.358	1606.62
460.578	1647.62
460.798	1651.62
461.018	1654.62
461.238	1687.62
461.458	1638.62
461.678	1663.62
461.898	1717.62
462.118	1721.62
462.338	1817.62
462.558	1825.62
462.777	1892.62
462.997	2073.62
463.217	2146.62
463.437	2163.62
463.657	2080.62
463.876	1981.62
464.096	1969.62
464.316	1953.62
464.536	1950.62
464.755	1880.62
464.975	1823.62
465.195	1731.62
465.414	1618.62
465.634	1530.62
465.854	1503.62
466.073	1481.62
466.293	1421.62
466.512	1386.62
466.732	1370.62
466.951	1371.62
467.171	1333.62
467.391	1323.62
467.61	1316.62
467.829	1315.62
468.049	1305.62
468.268	1319.62
468.488	1264.62
468.707	1271.62
468.927	1314.62
469.146	1307.62
469.365	1325.62
469.585	1309.62
469.804	1335.62
470.023	1355.62
470.243	1358.62
470.462	1394.62
470.681	1384.62
470.901	1378.62
471.12	1363.62
471.339	1321.62
471.558	1341.62
471.777	1316.62
471.997	1309.62
472.216	1270.62
472.435	1249.62
472.654	1272.62
472.873	1261.62
473.092	1259.62
473.311	1240.62
473.53	1240.62
473.749	1201.62
473.968	1247.62
474.187	1207.62
474.406	1253.62
474.625	1238.62
474.844	1232.62
475.063	1273.62
475.282	1285.62
475.501	1262.62
475.72	1257.62
475.939	1310.62
476.158	1305.62
476.377	1333.62
476.596	1335.62
476.814	1321.62
477.033	1325.62
477.252	1366.62
477.471	1332.62
477.69	1410.62
477.908	1445.62
478.127	1503.62
478.346	1494.62
478.564	1520.62
478.783	1568.62
479.002	1593.62
479.22	1583.62
479.439	1574.62
479.658	1574.62
479.876	1576.62
480.095	1598.62
480.313	1636.62
480.532	1654.62
480.751	1728.62
480.969	1636.62
481.188	1597.62
481.406	1553.62
481.624	1509.62
481.843	1457.62
482.061	1458.62
482.28	1477.62
482.498	1457.62
482.717	1449.62
482.935	1459.62
483.153	1435.62
483.372	1409.62
483.59	1472.62
483.808	1440.62
484.027	1432.62
484.245	1434.62
484.463	1438.62
484.681	1484.62
484.9	1478.62
485.118	1471.62
485.336	1492.62
485.554	1511.62
485.772	1555.62
485.99	1521.62
486.209	1554.62
486.427	1533.62
486.645	1498.62
486.863	1525.62
487.081	1542.62
487.299	1501.62
487.517	1537.62
487.735	1537.62
487.953	1543.62
488.171	1551.62
488.389	1497.62
488.607	1490.62
488.825	1461.62
489.043	1448.62
489.261	1509.62
489.479	1515.62
489.696	1458.62
489.914	1525.62
490.132	1545.62
490.35	1525.62
490.568	1527.62
490.786	1524.62
491.003	1515.62
491.221	1553.62
491.439	1508.62
491.657	1504.62
491.874	1549.62
492.092	1544.62
492.31	1570.62
492.527	1544.62
492.745	1554.62
492.963	1572.62
493.18	1553.62
