Data from NiCl2@0.125M.TitratingCurve.Agarose3%dH2O.NegLispCup.LampEnergy10.LIBS07252019_HRD10591_18-28-56-574.txt Node
Date: Thu Jul 25 18:28:56 EDT 2019
User: cochatt
Spectrometer: HR+D1059
Trigger mode: 1
Integration Time (sec): 1.000000E-1
Scans to average: 1
Electric dark correction enabled: true
Nonlinearity correction enabled: false
Boxcar width: 0
XAxis mode: Wavelengths
Number of Pixels in Spectrum: 2048
>>>>>Begin Spectral Data<<<<<
223.165	-26.25
223.4	-26.25
223.635	-26.25
223.869	-21.25
224.104	-7.25
224.338	-18.25
224.573	-25.25
224.808	-23.25
225.042	-13.25
225.277	6.75
225.511	-5.25
225.746	6.75
225.98	9.75
226.215	6.75
226.449	14.75
226.683	17.75
226.918	26.75
227.152	50.75
227.387	26.75
227.621	23.75
227.856	58.75
228.09	46.75
228.324	54.75
228.559	62.75
228.793	68.75
229.027	116.75
229.262	98.75
229.496	127.75
229.73	117.75
229.964	118.75
230.199	126.75
230.433	136.75
230.667	148.75
230.901	127.75
231.136	137.75
231.37	142.75
231.604	140.75
231.838	132.75
232.072	144.75
232.306	142.75
232.541	160.75
232.775	147.75
233.009	157.75
233.243	151.75
233.477	146.75
233.711	140.75
233.945	154.75
234.179	151.75
234.413	159.75
234.647	153.75
234.881	147.75
235.115	141.75
235.349	147.75
235.583	158.75
235.817	147.75
236.051	155.75
236.285	154.75
236.519	168.75
236.753	148.75
236.987	159.75
237.221	154.75
237.455	157.75
237.689	167.75
237.922	151.75
238.156	169.75
238.39	170.75
238.624	182.75
238.858	176.75
239.091	164.75
239.325	157.75
239.559	180.75
239.793	173.75
240.027	166.75
240.26	169.75
240.494	190.75
240.728	172.75
240.961	170.75
241.195	180.75
241.429	194.75
241.662	185.75
241.896	183.75
242.13	188.75
242.363	199.75
242.597	202.75
242.83	195.75
243.064	210.75
243.298	210.75
243.531	192.75
243.765	210.75
243.998	213.75
244.232	212.75
244.465	223.75
244.699	223.75
244.932	207.75
245.166	213.75
245.399	214.75
245.633	224.75
245.866	242.75
246.099	223.75
246.333	235.75
246.566	236.75
246.8	230.75
247.033	214.75
247.266	227.75
247.5	238.75
247.733	237.75
247.966	230.75
248.2	251.75
248.433	234.75
248.666	254.75
248.899	238.75
249.133	240.75
249.366	266.75
249.599	262.75
249.832	257.75
250.066	251.75
250.299	260.75
250.532	254.75
250.765	246.75
250.998	257.75
251.231	270.75
251.465	240.75
251.698	261.75
251.931	258.75
252.164	279.75
252.397	278.75
252.63	251.75
252.863	274.75
253.096	269.75
253.329	288.75
253.562	273.75
253.795	275.75
254.028	278.75
254.261	251.75
254.494	268.75
254.727	277.75
254.96	294.75
255.193	278.75
255.426	289.75
255.659	290.75
255.892	292.75
256.124	294.75
256.357	292.75
256.59	298.75
256.823	297.75
257.056	294.75
257.289	302.75
257.521	322.75
257.754	306.75
257.987	311.75
258.22	319.75
258.452	301.75
258.685	298.75
258.918	306.75
259.151	314.75
259.383	299.75
259.616	328.75
259.849	307.75
260.081	314.75
260.314	333.75
260.547	312.75
260.779	307.75
261.012	325.75
261.244	303.75
261.477	328.75
261.71	324.75
261.942	325.75
262.175	323.75
262.407	320.75
262.64	315.75
262.872	315.75
263.105	330.75
263.337	333.75
263.57	348.75
263.802	343.75
264.035	347.75
264.267	355.75
264.499	334.75
264.732	320.75
264.964	351.75
265.197	358.75
265.429	370.75
265.661	352.75
265.894	366.75
266.126	353.75
266.358	370.75
266.591	359.75
266.823	358.75
267.055	377.75
267.287	348.75
267.52	364.75
267.752	364.75
267.984	370.75
268.216	366.75
268.448	382.75
268.681	382.75
268.913	370.75
269.145	378.75
269.377	381.75
269.609	376.75
269.841	354.75
270.073	348.75
270.306	367.75
270.538	375.75
270.77	364.75
271.002	389.75
271.234	378.75
271.466	363.75
271.698	384.75
271.93	374.75
272.162	371.75
272.394	395.75
272.626	391.75
272.858	385.75
273.09	390.75
273.322	380.75
273.553	390.75
273.785	395.75
274.017	382.75
274.249	408.75
274.481	405.75
274.713	392.75
274.945	403.75
275.176	400.75
275.408	416.75
275.64	418.75
275.872	399.75
276.104	407.75
276.335	416.75
276.567	415.75
276.799	414.75
277.031	438.75
277.262	401.75
277.494	429.75
277.726	412.75
277.957	415.75
278.189	408.75
278.421	424.75
278.652	443.75
278.884	432.75
279.115	410.75
279.347	437.75
279.579	446.75
279.81	429.75
280.042	427.75
280.273	449.75
280.505	452.75
280.736	447.75
280.968	442.75
281.199	447.75
281.431	458.75
281.662	442.75
281.894	449.75
282.125	454.75
282.356	459.75
282.588	445.75
282.819	472.75
283.051	458.75
283.282	484.75
283.513	470.75
283.745	486.75
283.976	463.75
284.207	456.75
284.439	484.75
284.67	457.75
284.901	478.75
285.132	507.75
285.364	468.75
285.595	486.75
285.826	496.75
286.057	496.75
286.288	472.75
286.52	495.75
286.751	502.75
286.982	511.75
287.213	500.75
287.444	483.75
287.675	487.75
287.906	503.75
288.138	507.75
288.369	525.75
288.6	506.75
288.831	522.75
289.062	515.75
289.293	518.75
289.524	519.75
289.755	491.75
289.986	524.75
290.217	504.75
290.448	509.75
290.679	502.75
290.91	503.75
291.141	535.75
291.371	526.75
291.602	536.75
291.833	508.75
292.064	498.75
292.295	527.75
292.526	518.75
292.757	517.75
292.987	528.75
293.218	520.75
293.449	521.75
293.68	527.75
293.91	522.75
294.141	520.75
294.372	537.75
294.603	517.75
294.833	528.75
295.064	519.75
295.295	537.75
295.525	550.75
295.756	555.75
295.987	524.75
296.217	544.75
296.448	544.75
296.679	544.75
296.909	519.75
297.14	556.75
297.37	559.75
297.601	563.75
297.831	542.75
298.062	568.75
298.292	576.75
298.523	592.75
298.753	590.75
298.984	568.75
299.214	567.75
299.445	573.75
299.675	549.75
299.905	572.75
300.136	576.75
300.366	573.75
300.597	563.75
300.827	581.75
301.057	618.75
301.288	603.75
301.518	581.75
301.748	601.75
301.979	601.75
302.209	597.75
302.439	603.75
302.669	590.75
302.9	590.75
303.13	567.75
303.36	585.75
303.59	570.75
303.82	551.75
304.051	582.75
304.281	577.75
304.511	589.75
304.741	571.75
304.971	583.75
305.201	611.75
305.431	580.75
305.661	579.75
305.891	596.75
306.121	595.75
306.352	593.75
306.582	568.75
306.812	553.75
307.042	557.75
307.272	580.75
307.502	579.75
307.731	558.75
307.961	564.75
308.191	566.75
308.421	554.75
308.651	566.75
308.881	559.75
309.111	598.75
309.341	565.75
309.571	559.75
309.8	585.75
310.03	568.75
310.26	556.75
310.49	564.75
310.72	574.75
310.949	585.75
311.179	593.75
311.409	565.75
311.639	575.75
311.868	584.75
312.098	566.75
312.328	572.75
312.557	608.75
312.787	596.75
313.017	586.75
313.246	608.75
313.476	592.75
313.706	578.75
313.935	577.75
314.165	619.75
314.394	602.75
314.624	630.75
314.853	599.75
315.083	605.75
315.312	597.75
315.542	573.75
315.771	628.75
316.001	595.75
316.23	602.75
316.46	589.75
316.689	576.75
316.919	584.75
317.148	591.75
317.377	600.75
317.607	588.75
317.836	580.75
318.065	582.75
318.295	592.75
318.524	585.75
318.753	591.75
318.983	584.75
319.212	580.75
319.441	605.75
319.67	594.75
319.9	581.75
320.129	580.75
320.358	608.75
320.587	570.75
320.816	583.75
321.046	606.75
321.275	591.75
321.504	601.75
321.733	597.75
321.962	593.75
322.191	600.75
322.42	572.75
322.649	592.75
322.878	617.75
323.108	614.75
323.337	598.75
323.566	602.75
323.795	608.75
324.024	628.75
324.253	585.75
324.482	608.75
324.71	608.75
324.939	632.75
325.168	623.75
325.397	620.75
325.626	614.75
325.855	624.75
326.084	639.75
326.313	677.75
326.542	657.75
326.77	658.75
326.999	661.75
327.228	636.75
327.457	622.75
327.686	642.75
327.914	638.75
328.143	644.75
328.372	634.75
328.6	648.75
328.829	635.75
329.058	642.75
329.287	650.75
329.515	659.75
329.744	645.75
329.972	637.75
330.201	623.75
330.43	631.75
330.658	663.75
330.887	669.75
331.115	675.75
331.344	683.75
331.572	650.75
331.801	684.75
332.03	684.75
332.258	695.75
332.486	724.75
332.715	771.75
332.943	784.75
333.172	846.75
333.4	853.75
333.629	870.75
333.857	878.75
334.085	880.75
334.314	862.75
334.542	856.75
334.771	811.75
334.999	799.75
335.227	790.75
335.455	813.75
335.684	804.75
335.912	810.75
336.14	776.75
336.369	780.75
336.597	784.75
336.825	789.75
337.053	790.75
337.281	772.75
337.51	738.75
337.738	739.75
337.966	740.75
338.194	720.75
338.422	698.75
338.65	688.75
338.878	707.75
339.106	724.75
339.334	697.75
339.562	706.75
339.79	690.75
340.018	679.75
340.246	657.75
340.474	654.75
340.702	673.75
340.93	677.75
341.158	667.75
341.386	702.75
341.614	665.75
341.842	666.75
342.07	660.75
342.298	659.75
342.526	665.75
342.754	674.75
342.981	665.75
343.209	669.75
343.437	701.75
343.665	733.75
343.893	814.75
344.12	848.75
344.348	795.75
344.576	763.75
344.804	744.75
345.031	723.75
345.259	685.75
345.487	690.75
345.714	663.75
345.942	665.75
346.17	679.75
346.397	645.75
346.625	657.75
346.853	638.75
347.08	679.75
347.308	645.75
347.535	667.75
347.763	671.75
347.99	688.75
348.218	658.75
348.445	658.75
348.673	683.75
348.9	662.75
349.128	653.75
349.355	640.75
349.583	637.75
349.81	623.75
350.037	644.75
350.265	644.75
350.492	636.75
350.72	638.75
350.947	626.75
351.174	624.75
351.402	629.75
351.629	640.75
351.856	634.75
352.083	630.75
352.311	628.75
352.538	607.75
352.765	633.75
352.992	640.75
353.22	627.75
353.447	605.75
353.674	629.75
353.901	608.75
354.128	604.75
354.355	636.75
354.583	630.75
354.81	638.75
355.037	638.75
355.264	633.75
355.491	636.75
355.718	623.75
355.945	636.75
356.172	602.75
356.399	616.75
356.626	625.75
356.853	636.75
357.08	640.75
357.307	612.75
357.534	631.75
357.761	610.75
357.988	658.75
358.215	622.75
358.441	639.75
358.668	622.75
358.895	621.75
359.122	637.75
359.349	619.75
359.576	644.75
359.802	636.75
360.029	632.75
360.256	629.75
360.483	621.75
360.709	639.75
360.936	628.75
361.163	630.75
361.39	622.75
361.616	610.75
361.843	639.75
362.07	650.75
362.296	638.75
362.523	620.75
362.749	627.75
362.976	614.75
363.203	594.75
363.429	608.75
363.656	630.75
363.882	653.75
364.109	639.75
364.335	613.75
364.562	606.75
364.788	616.75
365.015	636.75
365.241	614.75
365.468	606.75
365.694	612.75
365.92	620.75
366.147	616.75
366.373	603.75
366.599	614.75
366.826	624.75
367.052	630.75
367.278	615.75
367.505	630.75
367.731	614.75
367.957	605.75
368.184	619.75
368.41	618.75
368.636	641.75
368.862	640.75
369.089	651.75
369.315	639.75
369.541	646.75
369.767	632.75
369.993	625.75
370.219	643.75
370.445	662.75
370.672	660.75
370.898	664.75
371.124	654.75
371.35	664.75
371.576	696.75
371.802	662.75
372.028	667.75
372.254	687.75
372.48	667.75
372.706	677.75
372.932	709.75
373.158	707.75
373.384	711.75
373.61	702.75
373.835	686.75
374.061	677.75
374.287	695.75
374.513	692.75
374.739	697.75
374.965	731.75
375.191	778.75
375.416	754.75
375.642	735.75
375.868	738.75
376.094	735.75
376.319	701.75
376.545	730.75
376.771	683.75
376.997	687.75
377.222	693.75
377.448	690.75
377.674	678.75
377.899	689.75
378.125	677.75
378.35	668.75
378.576	682.75
378.802	665.75
379.027	672.75
379.253	690.75
379.478	678.75
379.704	681.75
379.929	658.75
380.155	656.75
380.38	662.75
380.606	670.75
380.831	670.75
381.057	668.75
381.282	668.75
381.507	668.75
381.733	686.75
381.958	684.75
382.184	687.75
382.409	702.75
382.634	711.75
382.86	696.75
383.085	741.75
383.31	724.75
383.535	736.75
383.761	738.75
383.986	738.75
384.211	782.75
384.436	824.75
384.662	797.75
384.887	798.75
385.112	814.75
385.337	837.75
385.562	797.75
385.787	828.75
386.013	858.75
386.238	838.75
386.463	816.75
386.688	823.75
386.913	796.75
387.138	810.75
387.363	793.75
387.588	802.75
387.813	804.75
388.038	777.75
388.263	775.75
388.488	799.75
388.713	816.75
388.938	804.75
389.163	787.75
389.387	783.75
389.612	782.75
389.837	767.75
390.062	805.75
390.287	765.75
390.512	788.75
390.736	802.75
390.961	826.75
391.186	824.75
391.411	854.75
391.636	864.75
391.86	891.75
392.085	935.75
392.31	946.75
392.534	878.75
392.759	854.75
392.984	888.75
393.208	842.75
393.433	866.75
393.658	885.75
393.882	852.75
394.107	888.75
394.331	862.75
394.556	861.75
394.78	857.75
395.005	854.75
395.229	866.75
395.454	904.75
395.678	911.75
395.903	933.75
396.127	912.75
396.352	830.75
396.576	852.75
396.801	844.75
397.025	852.75
397.249	883.75
397.474	912.75
397.698	907.75
397.922	914.75
398.147	885.75
398.371	901.75
398.595	946.75
398.82	984.75
399.044	1056.75
399.268	1153.75
399.492	1361.75
399.717	1601.75
399.941	1574.75
400.165	1411.75
400.389	1243.75
400.613	1135.75
400.837	1074.75
401.062	1045.75
401.286	1028.75
401.51	986.75
401.734	1030.75
401.958	1025.75
402.182	1044.75
402.406	1058.75
402.63	1077.75
402.854	1096.75
403.078	1092.75
403.302	1162.75
403.526	1173.75
403.75	1192.75
403.974	1202.75
404.198	1194.75
404.422	1218.75
404.645	1198.75
404.869	1188.75
405.093	1200.75
405.317	1164.75
405.541	1192.75
405.765	1141.75
405.988	1125.75
406.212	1135.75
406.436	1147.75
406.66	1158.75
406.883	1174.75
407.107	1238.75
407.331	1272.75
407.555	1356.75
407.778	1359.75
408.002	1291.75
408.226	1250.75
408.449	1236.75
408.673	1197.75
408.896	1127.75
409.12	1166.75
409.344	1166.75
409.567	1168.75
409.791	1174.75
410.014	1138.75
410.238	1168.75
410.461	1177.75
410.685	1145.75
410.908	1126.75
411.132	1103.75
411.355	1038.75
411.578	1037.75
411.802	1039.75
412.025	1060.75
412.249	1085.75
412.472	1030.75
412.695	1032.75
412.919	993.75
413.142	1007.75
413.365	990.75
413.589	1032.75
413.812	983.75
414.035	1005.75
414.258	987.75
414.482	1026.75
414.705	1031.75
414.928	1051.75
415.151	1047.75
415.374	1034.75
415.597	1012.75
415.821	1004.75
416.044	994.75
416.267	982.75
416.49	998.75
416.713	987.75
416.936	1012.75
417.159	1027.75
417.382	1011.75
417.605	1018.75
417.828	1001.75
418.051	1030.75
418.274	1023.75
418.497	1007.75
418.72	1074.75
418.943	1068.75
419.166	1108.75
419.389	1222.75
419.611	1169.75
419.834	1130.75
420.057	1058.75
420.28	1034.75
420.503	1006.75
420.726	1023.75
420.948	1010.75
421.171	1011.75
421.394	980.75
421.617	1005.75
421.839	1007.75
422.062	1024.75
422.285	1023.75
422.507	1068.75
422.73	1018.75
422.953	1015.75
423.175	1065.75
423.398	1093.75
423.621	1100.75
423.843	1108.75
424.066	1098.75
424.288	1104.75
424.511	1118.75
424.733	1083.75
424.956	1069.75
425.178	1012.75
425.401	1062.75
425.623	1018.75
425.846	996.75
426.068	976.75
426.291	939.75
426.513	983.75
426.735	959.75
426.958	959.75
427.18	914.75
427.402	942.75
427.625	935.75
427.847	928.75
428.069	922.75
428.292	916.75
428.514	910.75
428.736	893.75
428.958	900.75
429.181	864.75
429.403	907.75
429.625	873.75
429.847	864.75
430.069	864.75
430.292	895.75
430.514	876.75
430.736	896.75
430.958	898.75
431.18	902.75
431.402	903.75
431.624	910.75
431.846	896.75
432.068	924.75
432.29	943.75
432.512	922.75
432.734	931.75
432.956	907.75
433.178	911.75
433.4	909.75
433.622	923.75
433.844	907.75
434.066	917.75
434.287	942.75
434.509	984.75
434.731	1014.75
434.953	1024.75
435.175	1063.75
435.397	1035.75
435.618	977.75
435.84	949.75
436.062	987.75
436.284	920.75
436.505	918.75
436.727	920.75
436.949	906.75
437.17	946.75
437.392	904.75
437.614	898.75
437.835	868.75
438.057	877.75
438.278	891.75
438.5	871.75
438.721	884.75
438.943	903.75
439.165	893.75
439.386	896.75
439.608	892.75
439.829	923.75
440.05	904.75
440.272	940.75
440.493	921.75
440.715	933.75
440.936	977.75
441.158	980.75
441.379	991.75
441.6	1028.75
441.822	1040.75
442.043	1081.75
442.264	1034.75
442.486	1016.75
442.707	1019.75
442.928	1030.75
443.149	1015.75
443.371	1016.75
443.592	1014.75
443.813	1055.75
444.034	1012.75
444.255	1089.75
444.476	1135.75
444.698	1226.75
444.919	1262.75
445.14	1371.75
445.361	1210.75
445.582	1086.75
445.803	1025.75
446.024	984.75
446.245	947.75
446.466	963.75
446.687	960.75
446.908	932.75
447.129	877.75
447.35	888.75
447.571	862.75
447.792	892.75
448.013	871.75
448.234	867.75
448.455	872.75
448.675	877.75
448.896	870.75
449.117	862.75
449.338	833.75
449.559	854.75
449.779	836.75
450	860.75
450.221	838.75
450.442	873.75
450.662	864.75
450.883	898.75
451.104	874.75
451.324	870.75
451.545	874.75
451.766	876.75
451.986	905.75
452.207	867.75
452.428	849.75
452.648	874.75
452.869	828.75
453.089	850.75
453.31	851.75
453.53	822.75
453.751	824.75
453.971	816.75
454.192	846.75
454.412	822.75
454.633	814.75
454.853	774.75
455.073	796.75
455.294	796.75
455.514	801.75
455.734	802.75
455.955	779.75
456.175	785.75
456.395	798.75
456.616	785.75
456.836	783.75
457.056	777.75
457.276	777.75
457.497	800.75
457.717	790.75
457.937	798.75
458.157	806.75
458.377	822.75
458.598	813.75
458.818	855.75
459.038	868.75
459.258	896.75
459.478	936.75
459.698	953.75
459.918	1004.75
460.138	1021.75
460.358	1076.75
460.578	1125.75
460.798	1104.75
461.018	1138.75
461.238	1088.75
461.458	1074.75
461.678	1071.75
461.898	1091.75
462.118	1086.75
462.338	1171.75
462.558	1185.75
462.777	1214.75
462.997	1357.75
463.217	1527.75
463.437	1544.75
463.657	1414.75
463.876	1350.75
464.096	1292.75
464.316	1274.75
464.536	1288.75
464.755	1268.75
464.975	1202.75
465.195	1135.75
465.414	1082.75
465.634	1024.75
465.854	951.75
466.073	953.75
466.293	911.75
466.512	931.75
466.732	901.75
466.951	889.75
467.171	874.75
467.391	892.75
467.61	867.75
467.829	895.75
468.049	872.75
468.268	849.75
468.488	836.75
468.707	845.75
468.927	835.75
469.146	852.75
469.365	885.75
469.585	862.75
469.804	870.75
470.023	900.75
470.243	900.75
470.462	901.75
470.681	899.75
470.901	916.75
471.12	895.75
471.339	888.75
471.558	888.75
471.777	854.75
471.997	855.75
472.216	823.75
472.435	809.75
472.654	832.75
472.873	829.75
473.092	800.75
473.311	813.75
473.53	811.75
473.749	793.75
473.968	806.75
474.187	822.75
474.406	792.75
474.625	843.75
474.844	825.75
475.063	822.75
475.282	818.75
475.501	827.75
475.72	843.75
475.939	838.75
476.158	822.75
476.377	849.75
476.596	858.75
476.814	848.75
477.033	876.75
477.252	892.75
477.471	909.75
477.69	923.75
477.908	967.75
478.127	948.75
478.346	974.75
478.564	954.75
478.783	1004.75
479.002	1011.75
479.22	1046.75
479.439	1022.75
479.658	983.75
479.876	1013.75
480.095	1036.75
480.313	1080.75
480.532	1096.75
480.751	1103.75
480.969	1098.75
481.188	1026.75
481.406	969.75
481.624	936.75
481.843	950.75
482.061	942.75
482.28	944.75
482.498	912.75
482.717	908.75
482.935	902.75
483.153	950.75
483.372	911.75
483.59	919.75
483.808	935.75
484.027	934.75
484.245	926.75
484.463	924.75
484.681	958.75
484.9	948.75
485.118	968.75
485.336	964.75
485.554	968.75
485.772	956.75
485.99	1029.75
486.209	1020.75
486.427	992.75
486.645	1031.75
486.863	996.75
487.081	1004.75
487.299	970.75
487.517	1003.75
487.735	1000.75
487.953	966.75
488.171	950.75
488.389	979.75
488.607	959.75
488.825	941.75
489.043	948.75
489.261	956.75
489.479	976.75
489.696	959.75
489.914	976.75
490.132	984.75
490.35	989.75
490.568	980.75
490.786	971.75
491.003	969.75
491.221	1002.75
491.439	1020.75
491.657	988.75
491.874	993.75
492.092	971.75
492.31	997.75
492.527	991.75
492.745	1000.75
492.963	1016.75
493.18	993.75
493.398	998.75
493.615	990.75
493.833	1013.75
494.05	1017.75
494.268	1040.75
494.485	1017.75
494.703	1047.75
494.92	1053.75
495.138	1069.75
495.355	1027.75
495.573	1036.75
495.79	1020.75
496.008	1051.75
496.225	1067.75
496.442	1058.75
496.66	1069.75
496.877	1110.75
497.094	1100.75
497.312	1127.75
497.529	1115.75
497.746	1183.75
497.963	1176.75
498.181	1231.75
498.398	1296.75
498.615	1347.75
498.832	1444.75
