Data from NiCl2@0.25M.TitratingCurve.Agarose3%dH2O.NegLispCup.LampEnergy10.LIBS07252019_HRD10591_18-23-23-572.txt Node
Date: Thu Jul 25 18:23:23 EDT 2019
User: cochatt
Spectrometer: HR+D1059
Trigger mode: 1
Integration Time (sec): 1.000000E-1
Scans to average: 1
Electric dark correction enabled: true
Nonlinearity correction enabled: false
Boxcar width: 0
XAxis mode: Wavelengths
Number of Pixels in Spectrum: 2048
>>>>>Begin Spectral Data<<<<<
223.165	-17.75
223.4	-17.75
223.635	-17.75
223.869	-25.75
224.104	-16.75
224.338	-12.75
224.573	-14.75
224.808	-8.75
225.042	-3.75
225.277	-3.75
225.511	-3.75
225.746	-0.75
225.98	3.25
226.215	18.25
226.449	22.25
226.683	32.25
226.918	14.25
227.152	18.25
227.387	27.25
227.621	33.25
227.856	39.25
228.09	39.25
228.324	63.25
228.559	52.25
228.793	64.25
229.027	71.25
229.262	86.25
229.496	95.25
229.73	104.25
229.964	96.25
230.199	110.25
230.433	106.25
230.667	108.25
230.901	95.25
231.136	103.25
231.37	92.25
231.604	118.25
231.838	111.25
232.072	110.25
232.306	123.25
232.541	126.25
232.775	109.25
233.009	111.25
233.243	114.25
233.477	108.25
233.711	123.25
233.945	130.25
234.179	123.25
234.413	122.25
234.647	120.25
234.881	117.25
235.115	121.25
235.349	117.25
235.583	120.25
235.817	125.25
236.051	128.25
236.285	115.25
236.519	123.25
236.753	119.25
236.987	126.25
237.221	120.25
237.455	124.25
237.689	119.25
237.922	108.25
238.156	122.25
238.39	126.25
238.624	117.25
238.858	139.25
239.091	122.25
239.325	139.25
239.559	139.25
239.793	126.25
240.027	125.25
240.26	119.25
240.494	153.25
240.728	132.25
240.961	132.25
241.195	138.25
241.429	139.25
241.662	120.25
241.896	135.25
242.13	139.25
242.363	149.25
242.597	153.25
242.83	147.25
243.064	136.25
243.298	148.25
243.531	138.25
243.765	145.25
243.998	140.25
244.232	144.25
244.465	162.25
244.699	152.25
244.932	146.25
245.166	166.25
245.399	146.25
245.633	150.25
245.866	166.25
246.099	138.25
246.333	153.25
246.566	148.25
246.8	152.25
247.033	144.25
247.266	147.25
247.5	152.25
247.733	145.25
247.966	189.25
248.2	159.25
248.433	152.25
248.666	165.25
248.899	166.25
249.133	188.25
249.366	171.25
249.599	164.25
249.832	169.25
250.066	165.25
250.299	192.25
250.532	176.25
250.765	171.25
250.998	175.25
251.231	190.25
251.465	202.25
251.698	179.25
251.931	190.25
252.164	180.25
252.397	183.25
252.63	181.25
252.863	199.25
253.096	196.25
253.329	163.25
253.562	186.25
253.795	183.25
254.028	182.25
254.261	199.25
254.494	192.25
254.727	196.25
254.96	193.25
255.193	205.25
255.426	194.25
255.659	195.25
255.892	201.25
256.124	190.25
256.357	193.25
256.59	194.25
256.823	207.25
257.056	200.25
257.289	196.25
257.521	210.25
257.754	208.25
257.987	219.25
258.22	198.25
258.452	218.25
258.685	211.25
258.918	228.25
259.151	213.25
259.383	228.25
259.616	181.25
259.849	207.25
260.081	218.25
260.314	206.25
260.547	206.25
260.779	228.25
261.012	222.25
261.244	217.25
261.477	214.25
261.71	216.25
261.942	225.25
262.175	233.25
262.407	227.25
262.64	207.25
262.872	230.25
263.105	239.25
263.337	230.25
263.57	225.25
263.802	203.25
264.035	227.25
264.267	223.25
264.499	249.25
264.732	221.25
264.964	239.25
265.197	245.25
265.429	246.25
265.661	234.25
265.894	249.25
266.126	243.25
266.358	247.25
266.591	245.25
266.823	253.25
267.055	223.25
267.287	246.25
267.52	247.25
267.752	247.25
267.984	221.25
268.216	238.25
268.448	243.25
268.681	240.25
268.913	247.25
269.145	258.25
269.377	238.25
269.609	245.25
269.841	261.25
270.073	256.25
270.306	257.25
270.538	248.25
270.77	251.25
271.002	258.25
271.234	231.25
271.466	257.25
271.698	245.25
271.93	266.25
272.162	249.25
272.394	269.25
272.626	260.25
272.858	260.25
273.09	267.25
273.322	274.25
273.553	245.25
273.785	272.25
274.017	262.25
274.249	274.25
274.481	278.25
274.713	265.25
274.945	260.25
275.176	276.25
275.408	268.25
275.64	266.25
275.872	260.25
276.104	267.25
276.335	258.25
276.567	264.25
276.799	275.25
277.031	272.25
277.262	292.25
277.494	276.25
277.726	275.25
277.957	279.25
278.189	273.25
278.421	277.25
278.652	284.25
278.884	301.25
279.115	284.25
279.347	283.25
279.579	289.25
279.81	302.25
280.042	296.25
280.273	305.25
280.505	308.25
280.736	291.25
280.968	295.25
281.199	267.25
281.431	284.25
281.662	300.25
281.894	304.25
282.125	303.25
282.356	318.25
282.588	300.25
282.819	299.25
283.051	297.25
283.282	295.25
283.513	322.25
283.745	318.25
283.976	318.25
284.207	303.25
284.439	310.25
284.67	321.25
284.901	304.25
285.132	312.25
285.364	308.25
285.595	312.25
285.826	329.25
286.057	327.25
286.288	321.25
286.52	318.25
286.751	319.25
286.982	328.25
287.213	332.25
287.444	314.25
287.675	314.25
287.906	333.25
288.138	329.25
288.369	328.25
288.6	344.25
288.831	323.25
289.062	338.25
289.293	327.25
289.524	331.25
289.755	324.25
289.986	336.25
290.217	336.25
290.448	334.25
290.679	353.25
290.91	338.25
291.141	352.25
291.371	343.25
291.602	332.25
291.833	362.25
292.064	347.25
292.295	343.25
292.526	355.25
292.757	338.25
292.987	344.25
293.218	342.25
293.449	376.25
293.68	345.25
293.91	322.25
294.141	361.25
294.372	356.25
294.603	339.25
294.833	354.25
295.064	346.25
295.295	360.25
295.525	329.25
295.756	353.25
295.987	346.25
296.217	353.25
296.448	362.25
296.679	355.25
296.909	348.25
297.14	352.25
297.37	372.25
297.601	368.25
297.831	373.25
298.062	373.25
298.292	378.25
298.523	387.25
298.753	399.25
298.984	374.25
299.214	364.25
299.445	346.25
299.675	358.25
299.905	384.25
300.136	384.25
300.366	376.25
300.597	397.25
300.827	378.25
301.057	377.25
301.288	384.25
301.518	399.25
301.748	384.25
301.979	419.25
302.209	412.25
302.439	394.25
302.669	392.25
302.9	382.25
303.13	395.25
303.36	397.25
303.59	381.25
303.82	383.25
304.051	367.25
304.281	413.25
304.511	391.25
304.741	386.25
304.971	368.25
305.201	391.25
305.431	404.25
305.661	375.25
305.891	390.25
306.121	379.25
306.352	406.25
306.582	384.25
306.812	376.25
307.042	390.25
307.272	380.25
307.502	356.25
307.731	382.25
307.961	370.25
308.191	364.25
308.421	382.25
308.651	377.25
308.881	370.25
309.111	373.25
309.341	373.25
309.571	378.25
309.8	373.25
310.03	376.25
310.26	374.25
310.49	385.25
310.72	397.25
310.949	374.25
311.179	380.25
311.409	376.25
311.639	389.25
311.868	389.25
312.098	405.25
312.328	390.25
312.557	398.25
312.787	388.25
313.017	386.25
313.246	394.25
313.476	394.25
313.706	397.25
313.935	423.25
314.165	399.25
314.394	411.25
314.624	404.25
314.853	392.25
315.083	400.25
315.312	421.25
315.542	415.25
315.771	421.25
316.001	411.25
316.23	414.25
316.46	399.25
316.689	410.25
316.919	410.25
317.148	391.25
317.377	394.25
317.607	403.25
317.836	400.25
318.065	392.25
318.295	404.25
318.524	433.25
318.753	395.25
318.983	404.25
319.212	405.25
319.441	390.25
319.67	368.25
319.9	410.25
320.129	408.25
320.358	383.25
320.587	407.25
320.816	419.25
321.046	411.25
321.275	424.25
321.504	419.25
321.733	394.25
321.962	398.25
322.191	394.25
322.42	407.25
322.649	402.25
322.878	409.25
323.108	407.25
323.337	401.25
323.566	415.25
323.795	411.25
324.024	448.25
324.253	414.25
324.482	428.25
324.71	419.25
324.939	433.25
325.168	417.25
325.397	414.25
325.626	425.25
325.855	416.25
326.084	435.25
326.313	451.25
326.542	433.25
326.77	457.25
326.999	431.25
327.228	431.25
327.457	454.25
327.686	436.25
327.914	440.25
328.143	437.25
328.372	427.25
328.6	456.25
328.829	430.25
329.058	443.25
329.287	448.25
329.515	453.25
329.744	442.25
329.972	467.25
330.201	461.25
330.43	459.25
330.658	451.25
330.887	473.25
331.115	462.25
331.344	494.25
331.572	468.25
331.801	472.25
332.03	485.25
332.258	490.25
332.486	492.25
332.715	528.25
332.943	541.25
333.172	536.25
333.4	570.25
333.629	554.25
333.857	584.25
334.085	564.25
334.314	572.25
334.542	584.25
334.771	572.25
334.999	536.25
335.227	529.25
335.455	570.25
335.684	528.25
335.912	538.25
336.14	540.25
336.369	535.25
336.597	526.25
336.825	535.25
337.053	523.25
337.281	536.25
337.51	500.25
337.738	490.25
337.966	508.25
338.194	494.25
338.422	483.25
338.65	477.25
338.878	474.25
339.106	477.25
339.334	471.25
339.562	474.25
339.79	462.25
340.018	470.25
340.246	465.25
340.474	448.25
340.702	465.25
340.93	450.25
341.158	461.25
341.386	448.25
341.614	451.25
341.842	474.25
342.07	469.25
342.298	448.25
342.526	456.25
342.754	471.25
342.981	478.25
343.209	465.25
343.437	475.25
343.665	513.25
343.893	545.25
344.12	543.25
344.348	554.25
344.576	520.25
344.804	498.25
345.031	484.25
345.259	456.25
345.487	467.25
345.714	458.25
345.942	459.25
346.17	469.25
346.397	465.25
346.625	455.25
346.853	431.25
347.08	458.25
347.308	469.25
347.535	464.25
347.763	449.25
347.99	444.25
348.218	467.25
348.445	461.25
348.673	470.25
348.9	453.25
349.128	446.25
349.355	445.25
349.583	449.25
349.81	449.25
350.037	424.25
350.265	426.25
350.492	437.25
350.72	431.25
350.947	438.25
351.174	430.25
351.402	438.25
351.629	421.25
351.856	427.25
352.083	443.25
352.311	430.25
352.538	427.25
352.765	448.25
352.992	426.25
353.22	412.25
353.447	435.25
353.674	426.25
353.901	444.25
354.128	443.25
354.355	427.25
354.583	414.25
354.81	441.25
355.037	430.25
355.264	437.25
355.491	411.25
355.718	443.25
355.945	449.25
356.172	427.25
356.399	452.25
356.626	432.25
356.853	432.25
357.08	433.25
357.307	427.25
357.534	421.25
357.761	434.25
357.988	418.25
358.215	445.25
358.441	421.25
358.668	426.25
358.895	437.25
359.122	433.25
359.349	448.25
359.576	427.25
359.802	437.25
360.029	440.25
360.256	427.25
360.483	438.25
360.709	439.25
360.936	436.25
361.163	443.25
361.39	439.25
361.616	440.25
361.843	449.25
362.07	442.25
362.296	435.25
362.523	439.25
362.749	442.25
362.976	447.25
363.203	443.25
363.429	412.25
363.656	436.25
363.882	426.25
364.109	425.25
364.335	446.25
364.562	431.25
364.788	432.25
365.015	412.25
365.241	442.25
365.468	424.25
365.694	421.25
365.92	439.25
366.147	430.25
366.373	416.25
366.599	425.25
366.826	421.25
367.052	450.25
367.278	440.25
367.505	427.25
367.731	446.25
367.957	420.25
368.184	443.25
368.41	425.25
368.636	436.25
368.862	451.25
369.089	455.25
369.315	447.25
369.541	456.25
369.767	442.25
369.993	448.25
370.219	451.25
370.445	465.25
370.672	470.25
370.898	494.25
371.124	455.25
371.35	479.25
371.576	480.25
371.802	463.25
372.028	465.25
372.254	449.25
372.48	467.25
372.706	487.25
372.932	506.25
373.158	490.25
373.384	501.25
373.61	466.25
373.835	473.25
374.061	475.25
374.287	505.25
374.513	474.25
374.739	496.25
374.965	495.25
375.191	499.25
375.416	536.25
375.642	504.25
375.868	483.25
376.094	486.25
376.319	490.25
376.545	486.25
376.771	490.25
376.997	475.25
377.222	464.25
377.448	467.25
377.674	470.25
377.899	479.25
378.125	475.25
378.35	476.25
378.576	478.25
378.802	451.25
379.027	468.25
379.253	463.25
379.478	452.25
379.704	452.25
379.929	489.25
380.155	460.25
380.38	468.25
380.606	464.25
380.831	465.25
381.057	471.25
381.282	473.25
381.507	466.25
381.733	457.25
381.958	488.25
382.184	499.25
382.409	488.25
382.634	495.25
382.86	477.25
383.085	483.25
383.31	513.25
383.535	530.25
383.761	508.25
383.986	502.25
384.211	517.25
384.436	522.25
384.662	519.25
384.887	550.25
385.112	552.25
385.337	563.25
385.562	551.25
385.787	555.25
386.013	561.25
386.238	561.25
386.463	574.25
386.688	567.25
386.913	545.25
387.138	544.25
387.363	548.25
387.588	548.25
387.813	554.25
388.038	554.25
388.263	535.25
388.488	542.25
388.713	550.25
388.938	551.25
389.163	524.25
389.387	539.25
389.612	546.25
389.837	536.25
390.062	543.25
390.287	516.25
390.512	529.25
390.736	561.25
390.961	561.25
391.186	579.25
391.411	575.25
391.636	588.25
391.86	612.25
392.085	618.25
392.31	599.25
392.534	609.25
392.759	608.25
392.984	587.25
393.208	570.25
393.433	586.25
393.658	584.25
393.882	585.25
394.107	574.25
394.331	576.25
394.556	572.25
394.78	615.25
395.005	619.25
395.229	595.25
395.454	622.25
395.678	628.25
395.903	607.25
396.127	595.25
396.352	607.25
396.576	584.25
396.801	596.25
397.025	587.25
397.249	622.25
397.474	616.25
397.698	613.25
397.922	607.25
398.147	599.25
398.371	626.25
398.595	644.25
398.82	679.25
399.044	770.25
399.268	804.25
399.492	904.25
399.717	1006.25
399.941	1004.25
400.165	878.25
400.389	812.25
400.613	732.25
400.837	734.25
401.062	703.25
401.286	708.25
401.51	679.25
401.734	666.25
401.958	698.25
402.182	707.25
402.406	706.25
402.63	704.25
402.854	735.25
403.078	751.25
403.302	734.25
403.526	770.25
403.75	771.25
403.974	800.25
404.198	791.25
404.422	784.25
404.645	756.25
404.869	763.25
405.093	779.25
405.317	729.25
405.541	735.25
405.765	755.25
405.988	719.25
406.212	751.25
406.436	748.25
406.66	778.25
406.883	802.25
407.107	820.25
407.331	842.25
407.555	856.25
407.778	892.25
408.002	834.25
408.226	842.25
408.449	809.25
408.673	802.25
408.896	804.25
409.12	767.25
409.344	787.25
409.567	766.25
409.791	770.25
410.014	785.25
410.238	763.25
410.461	783.25
410.685	752.25
410.908	745.25
411.132	716.25
411.355	696.25
411.578	715.25
411.802	696.25
412.025	720.25
412.249	726.25
412.472	717.25
412.695	701.25
412.919	714.25
413.142	707.25
413.365	718.25
413.589	676.25
413.812	672.25
414.035	669.25
414.258	701.25
414.482	678.25
414.705	706.25
414.928	692.25
415.151	671.25
415.374	712.25
415.597	689.25
415.821	687.25
416.044	675.25
416.267	682.25
416.49	690.25
416.713	670.25
416.936	672.25
417.159	687.25
417.382	684.25
417.605	682.25
417.828	662.25
418.051	665.25
418.274	690.25
418.497	698.25
418.72	704.25
418.943	682.25
419.166	730.25
419.389	766.25
419.611	741.25
419.834	741.25
420.057	739.25
420.28	708.25
420.503	666.25
420.726	687.25
420.948	682.25
421.171	675.25
421.394	669.25
421.617	665.25
421.839	678.25
422.062	679.25
422.285	688.25
422.507	673.25
422.73	693.25
422.953	692.25
423.175	725.25
423.398	722.25
423.621	729.25
423.843	752.25
424.066	696.25
424.288	712.25
424.511	704.25
424.733	706.25
424.956	689.25
425.178	662.25
425.401	685.25
425.623	695.25
425.846	653.25
426.068	670.25
426.291	659.25
426.513	639.25
426.735	646.25
426.958	628.25
427.18	636.25
427.402	633.25
427.625	631.25
427.847	623.25
428.069	624.25
428.292	618.25
428.514	611.25
428.736	595.25
428.958	629.25
429.181	593.25
429.403	620.25
429.625	590.25
429.847	604.25
430.069	574.25
430.292	578.25
430.514	591.25
430.736	582.25
430.958	603.25
431.18	631.25
431.402	599.25
431.624	580.25
431.846	634.25
432.068	621.25
432.29	638.25
432.512	599.25
432.734	613.25
432.956	622.25
433.178	631.25
433.4	617.25
433.622	598.25
433.844	605.25
434.066	609.25
434.287	633.25
434.509	648.25
434.731	666.25
434.953	656.25
435.175	677.25
435.397	690.25
435.618	650.25
435.84	623.25
436.062	617.25
436.284	617.25
436.505	603.25
436.727	620.25
436.949	608.25
437.17	602.25
437.392	598.25
437.614	611.25
437.835	588.25
438.057	598.25
438.278	578.25
438.5	592.25
438.721	594.25
438.943	596.25
439.165	613.25
439.386	598.25
439.608	616.25
439.829	617.25
440.05	613.25
440.272	634.25
440.493	626.25
440.715	623.25
440.936	646.25
441.158	642.25
441.379	656.25
441.6	702.25
441.822	686.25
442.043	670.25
442.264	682.25
442.486	645.25
442.707	682.25
442.928	690.25
443.149	679.25
443.371	699.25
443.592	666.25
443.813	688.25
444.034	680.25
444.255	722.25
444.476	728.25
444.698	768.25
444.919	814.25
445.14	890.25
445.361	759.25
445.582	726.25
445.803	652.25
446.024	631.25
446.245	638.25
446.466	642.25
446.687	612.25
446.908	625.25
447.129	615.25
447.35	608.25
447.571	590.25
447.792	582.25
448.013	592.25
448.234	576.25
448.455	570.25
448.675	563.25
448.896	575.25
449.117	561.25
449.338	570.25
449.559	550.25
449.779	558.25
450	586.25
450.221	578.25
450.442	565.25
450.662	587.25
450.883	598.25
451.104	596.25
451.324	578.25
451.545	576.25
451.766	565.25
451.986	560.25
452.207	554.25
452.428	615.25
452.648	555.25
452.869	553.25
453.089	543.25
453.31	553.25
453.53	562.25
453.751	574.25
453.971	554.25
454.192	573.25
454.412	518.25
454.633	539.25
454.853	519.25
455.073	566.25
455.294	549.25
455.514	540.25
455.734	551.25
455.955	553.25
456.175	521.25
456.395	535.25
456.616	520.25
456.836	540.25
457.056	506.25
457.276	520.25
457.497	534.25
457.717	528.25
457.937	545.25
458.157	555.25
458.377	542.25
458.598	552.25
458.818	576.25
459.038	579.25
459.258	598.25
459.478	622.25
459.698	615.25
459.918	646.25
460.138	676.25
460.358	718.25
460.578	711.25
460.798	735.25
461.018	719.25
461.238	699.25
461.458	735.25
461.678	718.25
461.898	699.25
462.118	740.25
462.338	754.25
462.558	768.25
462.777	797.25
462.997	879.25
463.217	972.25
463.437	950.25
463.657	903.25
463.876	849.25
464.096	850.25
464.316	824.25
464.536	829.25
464.755	822.25
464.975	753.25
465.195	741.25
465.414	702.25
465.634	644.25
465.854	652.25
466.073	643.25
466.293	605.25
466.512	616.25
466.732	600.25
466.951	576.25
467.171	574.25
467.391	601.25
467.61	586.25
467.829	593.25
468.049	619.25
468.268	578.25
468.488	565.25
468.707	563.25
468.927	580.25
469.146	572.25
469.365	566.25
469.585	588.25
469.804	595.25
470.023	614.25
470.243	597.25
470.462	595.25
470.681	610.25
470.901	619.25
471.12	606.25
471.339	592.25
471.558	565.25
471.777	558.25
471.997	559.25
472.216	577.25
472.435	561.25
472.654	554.25
472.873	577.25
473.092	561.25
473.311	556.25
473.53	562.25
473.749	537.25
473.968	569.25
474.187	562.25
474.406	546.25
474.625	570.25
474.844	587.25
475.063	578.25
475.282	574.25
475.501	581.25
475.72	560.25
475.939	587.25
476.158	560.25
476.377	570.25
476.596	588.25
476.814	596.25
477.033	589.25
477.252	587.25
477.471	602.25
477.69	626.25
477.908	638.25
478.127	672.25
478.346	644.25
478.564	666.25
478.783	670.25
479.002	681.25
479.22	694.25
479.439	700.25
479.658	695.25
479.876	673.25
480.095	707.25
480.313	712.25
480.532	738.25
480.751	737.25
480.969	707.25
481.188	668.25
481.406	642.25
481.624	654.25
481.843	619.25
482.061	626.25
482.28	631.25
482.498	638.25
482.717	643.25
482.935	637.25
483.153	626.25
483.372	635.25
483.59	650.25
483.808	642.25
484.027	612.25
484.245	624.25
484.463	640.25
484.681	650.25
484.9	651.25
485.118	658.25
485.336	648.25
485.554	657.25
485.772	675.25
485.99	663.25
486.209	660.25
486.427	652.25
486.645	689.25
486.863	655.25
487.081	664.25
487.299	677.25
487.517	656.25
487.735	662.25
487.953	659.25
488.171	656.25
488.389	666.25
488.607	675.25
488.825	660.25
489.043	653.25
489.261	673.25
489.479	666.25
489.696	676.25
489.914	658.25
490.132	661.25
490.35	661.25
490.568	676.25
490.786	674.25
491.003	674.25
491.221	695.25
491.439	658.25
491.657	686.25
491.874	720.25
492.092	675.25
492.31	673.25
492.527	705.25
492.745	710.25
492.963	713.25
493.18	694.25
493.398	709.25
493.615	695.25
493.833	694.25
494.05	714.25
494.268	748.25
494.485	704.25
494.703	726.25
494.92	698.25
495.138	704.25
495.355	711.25
495.573	716.25
495.79	721.25
496.008	714.25
496.225	740.25
496.442	738.25
496.66	752.25
496.877	739.25
497.094	773.25
497.312	776.25
497.529	785.25
497.746	793.25
497.963	842.25
498.181	838.25
498.398	873.25
498.615	912.25
498.832	971.25
499.049	1020.25
499.267	1145.25
499.484	1253.25
499.701	1370.25
499.918	1469.25
500.135	1673.25
500.352	1932.25
500.569	2049.25
500.786	1992.25
501.003	1839.25
501.22	1673.25
501.437	1472.25
