Data from NiCl2@0.25M.TitratingCurve.Agarose3%dH2O.NegLispCup.LampEnergy10.LIBS07252019_HRD10591_18-24-23-572.txt Node
Date: Thu Jul 25 18:24:23 EDT 2019
User: cochatt
Spectrometer: HR+D1059
Trigger mode: 1
Integration Time (sec): 1.000000E-1
Scans to average: 1
Electric dark correction enabled: true
Nonlinearity correction enabled: false
Boxcar width: 0
XAxis mode: Wavelengths
Number of Pixels in Spectrum: 2048
>>>>>Begin Spectral Data<<<<<
223.165	-14.69
223.4	-14.69
223.635	-14.69
223.869	-5.69
224.104	-9.69
224.338	-22.69
224.573	-15.69
224.808	-19.69
225.042	-7.69
225.277	-3.69
225.511	-10.69
225.746	-3.69
225.98	6.31
226.215	-6.69
226.449	23.31
226.683	31.31
226.918	19.31
227.152	40.31
227.387	36.31
227.621	40.31
227.856	57.31
228.09	42.31
228.324	35.31
228.559	63.31
228.793	76.31
229.027	120.31
229.262	131.31
229.496	129.31
229.73	130.31
229.964	146.31
230.199	150.31
230.433	142.31
230.667	156.31
230.901	144.31
231.136	147.31
231.37	156.31
231.604	164.31
231.838	170.31
232.072	168.31
232.306	171.31
232.541	170.31
232.775	168.31
233.009	175.31
233.243	176.31
233.477	175.31
233.711	164.31
233.945	162.31
234.179	162.31
234.413	177.31
234.647	179.31
234.881	183.31
235.115	178.31
235.349	177.31
235.583	174.31
235.817	175.31
236.051	179.31
236.285	186.31
236.519	182.31
236.753	179.31
236.987	182.31
237.221	196.31
237.455	198.31
237.689	194.31
237.922	191.31
238.156	212.31
238.39	192.31
238.624	210.31
238.858	203.31
239.091	210.31
239.325	223.31
239.559	205.31
239.793	212.31
240.027	218.31
240.26	198.31
240.494	224.31
240.728	218.31
240.961	219.31
241.195	232.31
241.429	228.31
241.662	211.31
241.896	227.31
242.13	239.31
242.363	244.31
242.597	247.31
242.83	254.31
243.064	251.31
243.298	250.31
243.531	252.31
243.765	265.31
243.998	240.31
244.232	274.31
244.465	264.31
244.699	252.31
244.932	282.31
245.166	281.31
245.399	260.31
245.633	256.31
245.866	258.31
246.099	295.31
246.333	291.31
246.566	269.31
246.8	263.31
247.033	287.31
247.266	270.31
247.5	290.31
247.733	278.31
247.966	292.31
248.2	283.31
248.433	297.31
248.666	300.31
248.899	297.31
249.133	305.31
249.366	309.31
249.599	291.31
249.832	312.31
250.066	314.31
250.299	313.31
250.532	311.31
250.765	325.31
250.998	311.31
251.231	323.31
251.465	330.31
251.698	331.31
251.931	343.31
252.164	355.31
252.397	320.31
252.63	326.31
252.863	335.31
253.096	354.31
253.329	345.31
253.562	352.31
253.795	367.31
254.028	344.31
254.261	367.31
254.494	362.31
254.727	353.31
254.96	363.31
255.193	356.31
255.426	364.31
255.659	363.31
255.892	363.31
256.124	364.31
256.357	366.31
256.59	369.31
256.823	392.31
257.056	351.31
257.289	362.31
257.521	380.31
257.754	366.31
257.987	368.31
258.22	374.31
258.452	372.31
258.685	371.31
258.918	371.31
259.151	407.31
259.383	396.31
259.616	396.31
259.849	391.31
260.081	387.31
260.314	404.31
260.547	401.31
260.779	400.31
261.012	388.31
261.244	410.31
261.477	405.31
261.71	400.31
261.942	400.31
262.175	404.31
262.407	423.31
262.64	435.31
262.872	408.31
263.105	410.31
263.337	421.31
263.57	422.31
263.802	424.31
264.035	430.31
264.267	439.31
264.499	434.31
264.732	428.31
264.964	438.31
265.197	444.31
265.429	457.31
265.661	452.31
265.894	448.31
266.126	464.31
266.358	464.31
266.591	451.31
266.823	463.31
267.055	455.31
267.287	471.31
267.52	450.31
267.752	484.31
267.984	455.31
268.216	468.31
268.448	491.31
268.681	468.31
268.913	470.31
269.145	470.31
269.377	459.31
269.609	478.31
269.841	479.31
270.073	485.31
270.306	494.31
270.538	482.31
270.77	480.31
271.002	500.31
271.234	497.31
271.466	485.31
271.698	491.31
271.93	475.31
272.162	489.31
272.394	496.31
272.626	496.31
272.858	516.31
273.09	524.31
273.322	510.31
273.553	528.31
273.785	528.31
274.017	523.31
274.249	520.31
274.481	522.31
274.713	512.31
274.945	512.31
275.176	532.31
275.408	510.31
275.64	549.31
275.872	529.31
276.104	550.31
276.335	542.31
276.567	529.31
276.799	562.31
277.031	546.31
277.262	558.31
277.494	545.31
277.726	544.31
277.957	553.31
278.189	572.31
278.421	554.31
278.652	568.31
278.884	598.31
279.115	534.31
279.347	574.31
279.579	582.31
279.81	570.31
280.042	554.31
280.273	555.31
280.505	579.31
280.736	591.31
280.968	608.31
281.199	584.31
281.431	586.31
281.662	602.31
281.894	585.31
282.125	622.31
282.356	626.31
282.588	626.31
282.819	597.31
283.051	612.31
283.282	620.31
283.513	629.31
283.745	649.31
283.976	627.31
284.207	625.31
284.439	616.31
284.67	613.31
284.901	630.31
285.132	642.31
285.364	650.31
285.595	634.31
285.826	642.31
286.057	635.31
286.288	651.31
286.52	657.31
286.751	666.31
286.982	635.31
287.213	651.31
287.444	663.31
287.675	666.31
287.906	647.31
288.138	653.31
288.369	674.31
288.6	658.31
288.831	646.31
289.062	665.31
289.293	661.31
289.524	662.31
289.755	670.31
289.986	697.31
290.217	690.31
290.448	676.31
290.679	681.31
290.91	699.31
291.141	693.31
291.371	691.31
291.602	676.31
291.833	681.31
292.064	687.31
292.295	671.31
292.526	680.31
292.757	710.31
292.987	674.31
293.218	701.31
293.449	680.31
293.68	662.31
293.91	683.31
294.141	670.31
294.372	683.31
294.603	713.31
294.833	719.31
295.064	692.31
295.295	694.31
295.525	700.31
295.756	694.31
295.987	704.31
296.217	720.31
296.448	719.31
296.679	729.31
296.909	722.31
297.14	708.31
297.37	724.31
297.601	742.31
297.831	732.31
298.062	740.31
298.292	734.31
298.523	764.31
298.753	787.31
298.984	758.31
299.214	759.31
299.445	720.31
299.675	731.31
299.905	751.31
300.136	740.31
300.366	752.31
300.597	765.31
300.827	747.31
301.057	774.31
301.288	792.31
301.518	803.31
301.748	784.31
301.979	831.31
302.209	830.31
302.439	821.31
302.669	786.31
302.9	766.31
303.13	776.31
303.36	758.31
303.59	772.31
303.82	783.31
304.051	763.31
304.281	774.31
304.511	770.31
304.741	778.31
304.971	788.31
305.201	764.31
305.431	788.31
305.661	783.31
305.891	763.31
306.121	779.31
306.352	776.31
306.582	756.31
306.812	770.31
307.042	761.31
307.272	764.31
307.502	755.31
307.731	771.31
307.961	775.31
308.191	750.31
308.421	766.31
308.651	771.31
308.881	778.31
309.111	772.31
309.341	740.31
309.571	756.31
309.8	759.31
310.03	768.31
310.26	756.31
310.49	757.31
310.72	758.31
310.949	790.31
311.179	779.31
311.409	774.31
311.639	797.31
311.868	784.31
312.098	815.31
312.328	806.31
312.557	795.31
312.787	816.31
313.017	812.31
313.246	813.31
313.476	826.31
313.706	812.31
313.935	815.31
314.165	814.31
314.394	815.31
314.624	835.31
314.853	820.31
315.083	811.31
315.312	800.31
315.542	827.31
315.771	809.31
316.001	804.31
316.23	829.31
316.46	822.31
316.689	794.31
316.919	836.31
317.148	843.31
317.377	825.31
317.607	805.31
317.836	799.31
318.065	780.31
318.295	799.31
318.524	792.31
318.753	791.31
318.983	822.31
319.212	785.31
319.441	810.31
319.67	811.31
319.9	819.31
320.129	812.31
320.358	820.31
320.587	816.31
320.816	802.31
321.046	786.31
321.275	821.31
321.504	831.31
321.733	801.31
321.962	812.31
322.191	820.31
322.42	816.31
322.649	805.31
322.878	822.31
323.108	786.31
323.337	818.31
323.566	803.31
323.795	856.31
324.024	835.31
324.253	854.31
324.482	827.31
324.71	831.31
324.939	834.31
325.168	844.31
325.397	852.31
325.626	862.31
325.855	871.31
326.084	884.31
326.313	870.31
326.542	878.31
326.77	914.31
326.999	909.31
327.228	871.31
327.457	882.31
327.686	859.31
327.914	889.31
328.143	896.31
328.372	857.31
328.6	899.31
328.829	902.31
329.058	884.31
329.287	890.31
329.515	888.31
329.744	888.31
329.972	915.31
330.201	890.31
330.43	900.31
330.658	899.31
330.887	936.31
331.115	927.31
331.344	938.31
331.572	958.31
331.801	982.31
332.03	979.31
332.258	991.31
332.486	1047.31
332.715	1081.31
332.943	1117.31
333.172	1140.31
333.4	1212.31
333.629	1233.31
333.857	1243.31
334.085	1254.31
334.314	1218.31
334.542	1223.31
334.771	1154.31
334.999	1148.31
335.227	1143.31
335.455	1137.31
335.684	1110.31
335.912	1086.31
336.14	1104.31
336.369	1065.31
336.597	1075.31
336.825	1086.31
337.053	1092.31
337.281	1027.31
337.51	1050.31
337.738	1021.31
337.966	980.31
338.194	987.31
338.422	971.31
338.65	942.31
338.878	984.31
339.106	1004.31
339.334	994.31
339.562	974.31
339.79	955.31
340.018	926.31
340.246	932.31
340.474	949.31
340.702	923.31
340.93	905.31
341.158	919.31
341.386	943.31
341.614	959.31
341.842	930.31
342.07	900.31
342.298	926.31
342.526	915.31
342.754	918.31
342.981	930.31
343.209	943.31
343.437	994.31
343.665	1067.31
343.893	1118.31
344.12	1194.31
344.348	1106.31
344.576	1062.31
344.804	1034.31
345.031	991.31
345.259	956.31
345.487	978.31
345.714	924.31
345.942	945.31
346.17	908.31
346.397	883.31
346.625	904.31
346.853	888.31
347.08	862.31
347.308	875.31
347.535	887.31
347.763	908.31
347.99	898.31
348.218	892.31
348.445	874.31
348.673	909.31
348.9	891.31
349.128	860.31
349.355	890.31
349.583	872.31
349.81	887.31
350.037	862.31
350.265	857.31
350.492	872.31
350.72	864.31
350.947	864.31
351.174	853.31
351.402	854.31
351.629	894.31
351.856	853.31
352.083	865.31
352.311	844.31
352.538	859.31
352.765	865.31
352.992	845.31
353.22	849.31
353.447	844.31
353.674	840.31
353.901	843.31
354.128	847.31
354.355	854.31
354.583	858.31
354.81	852.31
355.037	871.31
355.264	854.31
355.491	883.31
355.718	843.31
355.945	870.31
356.172	882.31
356.399	866.31
356.626	870.31
356.853	835.31
357.08	859.31
357.307	866.31
357.534	896.31
357.761	890.31
357.988	849.31
358.215	842.31
358.441	853.31
358.668	839.31
358.895	858.31
359.122	866.31
359.349	834.31
359.576	863.31
359.802	836.31
360.029	864.31
360.256	875.31
360.483	851.31
360.709	867.31
360.936	870.31
361.163	860.31
361.39	854.31
361.616	861.31
361.843	875.31
362.07	874.31
362.296	856.31
362.523	822.31
362.749	866.31
362.976	863.31
363.203	854.31
363.429	880.31
363.656	868.31
363.882	864.31
364.109	841.31
364.335	866.31
364.562	854.31
364.788	824.31
365.015	856.31
365.241	836.31
365.468	856.31
365.694	856.31
365.92	860.31
366.147	852.31
366.373	835.31
366.599	838.31
366.826	830.31
367.052	867.31
367.278	870.31
367.505	880.31
367.731	852.31
367.957	851.31
368.184	851.31
368.41	881.31
368.636	858.31
368.862	861.31
369.089	890.31
369.315	890.31
369.541	880.31
369.767	890.31
369.993	897.31
370.219	898.31
370.445	904.31
370.672	932.31
370.898	895.31
371.124	904.31
371.35	952.31
371.576	920.31
371.802	922.31
372.028	911.31
372.254	919.31
372.48	936.31
372.706	944.31
372.932	971.31
373.158	982.31
373.384	973.31
373.61	927.31
373.835	930.31
374.061	944.31
374.287	940.31
374.513	955.31
374.739	998.31
374.965	1051.31
375.191	1049.31
375.416	1013.31
375.642	995.31
375.868	968.31
376.094	978.31
376.319	987.31
376.545	950.31
376.771	930.31
376.997	935.31
377.222	910.31
377.448	932.31
377.674	935.31
377.899	931.31
378.125	928.31
378.35	943.31
378.576	902.31
378.802	938.31
379.027	912.31
379.253	920.31
379.478	950.31
379.704	947.31
379.929	939.31
380.155	940.31
380.38	947.31
380.606	962.31
380.831	932.31
381.057	928.31
381.282	922.31
381.507	907.31
381.733	904.31
381.958	942.31
382.184	968.31
382.409	950.31
382.634	987.31
382.86	972.31
383.085	996.31
383.31	966.31
383.535	1012.31
383.761	1041.31
383.986	1060.31
384.211	1063.31
384.436	1093.31
384.662	1129.31
384.887	1146.31
385.112	1149.31
385.337	1111.31
385.562	1168.31
385.787	1152.31
386.013	1163.31
386.238	1119.31
386.463	1114.31
386.688	1152.31
386.913	1145.31
387.138	1129.31
387.363	1144.31
387.588	1130.31
387.813	1119.31
388.038	1114.31
388.263	1126.31
388.488	1136.31
388.713	1167.31
388.938	1114.31
389.163	1089.31
389.387	1110.31
389.612	1058.31
389.837	1112.31
390.062	1098.31
390.287	1096.31
390.512	1125.31
390.736	1131.31
390.961	1142.31
391.186	1146.31
391.411	1207.31
391.636	1257.31
391.86	1278.31
392.085	1320.31
392.31	1291.31
392.534	1242.31
392.759	1228.31
392.984	1227.31
393.208	1202.31
393.433	1206.31
393.658	1233.31
393.882	1246.31
394.107	1248.31
394.331	1225.31
394.556	1201.31
394.78	1223.31
395.005	1229.31
395.229	1244.31
395.454	1267.31
395.678	1253.31
395.903	1280.31
396.127	1288.31
396.352	1207.31
396.576	1209.31
396.801	1195.31
397.025	1227.31
397.249	1256.31
397.474	1285.31
397.698	1286.31
397.922	1300.31
398.147	1276.31
398.371	1308.31
398.595	1376.31
398.82	1426.31
399.044	1547.31
399.268	1662.31
399.492	1918.31
399.717	2205.31
399.941	2202.31
400.165	1988.31
400.389	1790.31
400.613	1605.31
400.837	1567.31
401.062	1476.31
401.286	1482.31
401.51	1462.31
401.734	1425.31
401.958	1474.31
402.182	1506.31
402.406	1491.31
402.63	1501.31
402.854	1535.31
403.078	1580.31
403.302	1607.31
403.526	1646.31
403.75	1686.31
403.974	1751.31
404.198	1691.31
404.422	1723.31
404.645	1678.31
404.869	1643.31
405.093	1636.31
405.317	1595.31
405.541	1586.31
405.765	1598.31
405.988	1587.31
406.212	1600.31
406.436	1588.31
406.66	1646.31
406.883	1682.31
407.107	1764.31
407.331	1847.31
407.555	1894.31
407.778	1876.31
408.002	1863.31
408.226	1794.31
408.449	1700.31
408.673	1659.31
408.896	1662.31
409.12	1602.31
409.344	1618.31
409.567	1623.31
409.791	1625.31
410.014	1626.31
410.238	1621.31
410.461	1572.31
410.685	1573.31
410.908	1559.31
411.132	1527.31
411.355	1504.31
411.578	1458.31
411.802	1469.31
412.025	1484.31
412.249	1514.31
412.472	1546.31
412.695	1477.31
412.919	1463.31
413.142	1457.31
413.365	1439.31
413.589	1457.31
413.812	1420.31
414.035	1393.31
414.258	1399.31
414.482	1434.31
414.705	1413.31
414.928	1447.31
415.151	1451.31
415.374	1407.31
415.597	1416.31
415.821	1425.31
416.044	1400.31
416.267	1365.31
416.49	1384.31
416.713	1389.31
416.936	1410.31
417.159	1403.31
417.382	1403.31
417.605	1425.31
417.828	1411.31
418.051	1456.31
418.274	1410.31
418.497	1424.31
418.72	1464.31
418.943	1466.31
419.166	1575.31
419.389	1660.31
419.611	1614.31
419.834	1575.31
420.057	1463.31
420.28	1420.31
420.503	1380.31
420.726	1423.31
420.948	1392.31
421.171	1403.31
421.394	1402.31
421.617	1400.31
421.839	1405.31
422.062	1444.31
422.285	1398.31
422.507	1443.31
422.73	1449.31
422.953	1436.31
423.175	1478.31
423.398	1482.31
423.621	1481.31
423.843	1497.31
424.066	1520.31
424.288	1461.31
424.511	1493.31
424.733	1444.31
424.956	1493.31
425.178	1443.31
425.401	1427.31
425.623	1430.31
425.846	1363.31
426.068	1381.31
426.291	1334.31
426.513	1355.31
426.735	1342.31
426.958	1312.31
427.18	1273.31
427.402	1282.31
427.625	1290.31
427.847	1233.31
428.069	1262.31
428.292	1262.31
428.514	1237.31
428.736	1273.31
428.958	1240.31
429.181	1233.31
429.403	1208.31
429.625	1163.31
429.847	1203.31
430.069	1194.31
430.292	1222.31
430.514	1186.31
430.736	1234.31
430.958	1231.31
431.18	1199.31
431.402	1223.31
431.624	1229.31
431.846	1234.31
432.068	1258.31
432.29	1255.31
432.512	1217.31
432.734	1225.31
432.956	1226.31
433.178	1244.31
433.4	1221.31
433.622	1242.31
433.844	1242.31
434.066	1254.31
434.287	1262.31
434.509	1313.31
434.731	1340.31
434.953	1410.31
435.175	1406.31
435.397	1371.31
435.618	1312.31
435.84	1294.31
436.062	1244.31
436.284	1237.31
436.505	1208.31
436.727	1220.31
436.949	1211.31
437.17	1203.31
437.392	1207.31
437.614	1178.31
437.835	1194.31
438.057	1194.31
438.278	1171.31
438.5	1167.31
438.721	1192.31
438.943	1214.31
439.165	1186.31
439.386	1219.31
439.608	1221.31
439.829	1195.31
440.05	1232.31
440.272	1228.31
440.493	1246.31
440.715	1252.31
440.936	1249.31
441.158	1314.31
441.379	1330.31
441.6	1401.31
441.822	1420.31
442.043	1419.31
442.264	1378.31
442.486	1350.31
442.707	1361.31
442.928	1351.31
443.149	1353.31
443.371	1379.31
443.592	1394.31
443.813	1418.31
444.034	1415.31
444.255	1464.31
444.476	1548.31
444.698	1605.31
444.919	1666.31
445.14	1725.31
445.361	1611.31
445.582	1488.31
445.803	1356.31
446.024	1297.31
446.245	1305.31
446.466	1275.31
446.687	1224.31
446.908	1273.31
447.129	1223.31
447.35	1193.31
447.571	1181.31
447.792	1171.31
448.013	1164.31
448.234	1126.31
448.455	1120.31
448.675	1129.31
448.896	1108.31
449.117	1086.31
449.338	1126.31
449.559	1123.31
449.779	1118.31
450	1108.31
450.221	1103.31
450.442	1108.31
450.662	1112.31
450.883	1147.31
451.104	1135.31
451.324	1146.31
451.545	1150.31
451.766	1141.31
451.986	1122.31
452.207	1124.31
452.428	1106.31
452.648	1115.31
452.869	1081.31
453.089	1086.31
453.31	1102.31
453.53	1111.31
453.751	1076.31
453.971	1049.31
454.192	1091.31
454.412	1062.31
454.633	1075.31
454.853	1042.31
455.073	1034.31
455.294	1050.31
455.514	1042.31
455.734	1036.31
455.955	1014.31
456.175	1058.31
456.395	1051.31
456.616	1015.31
456.836	1040.31
457.056	1072.31
457.276	1058.31
457.497	1071.31
457.717	1074.31
457.937	1051.31
458.157	1063.31
458.377	1091.31
458.598	1102.31
458.818	1129.31
459.038	1180.31
459.258	1220.31
459.478	1267.31
459.698	1312.31
459.918	1347.31
460.138	1344.31
460.358	1462.31
460.578	1447.31
460.798	1524.31
461.018	1493.31
461.238	1469.31
461.458	1495.31
461.678	1451.31
461.898	1485.31
462.118	1480.31
462.338	1611.31
462.558	1578.31
462.777	1706.31
462.997	1811.31
463.217	1985.31
463.437	2020.31
463.657	1869.31
463.876	1756.31
464.096	1771.31
464.316	1713.31
464.536	1742.31
464.755	1657.31
464.975	1646.31
465.195	1499.31
465.414	1444.31
465.634	1355.31
465.854	1315.31
466.073	1271.31
466.293	1265.31
466.512	1222.31
466.732	1180.31
466.951	1196.31
467.171	1203.31
467.391	1185.31
467.61	1189.31
467.829	1187.31
468.049	1124.31
468.268	1120.31
468.488	1110.31
468.707	1118.31
468.927	1137.31
469.146	1137.31
469.365	1179.31
469.585	1166.31
469.804	1170.31
470.023	1221.31
470.243	1202.31
470.462	1186.31
470.681	1222.31
470.901	1213.31
471.12	1210.31
471.339	1192.31
471.558	1148.31
471.777	1169.31
471.997	1142.31
472.216	1141.31
472.435	1109.31
472.654	1112.31
472.873	1110.31
473.092	1104.31
473.311	1116.31
473.53	1091.31
473.749	1091.31
473.968	1095.31
474.187	1074.31
474.406	1084.31
474.625	1066.31
474.844	1100.31
475.063	1091.31
475.282	1087.31
475.501	1107.31
475.72	1110.31
475.939	1135.31
476.158	1146.31
476.377	1131.31
476.596	1129.31
476.814	1158.31
477.033	1175.31
477.252	1210.31
477.471	1186.31
477.69	1249.31
477.908	1280.31
478.127	1319.31
478.346	1348.31
478.564	1349.31
478.783	1386.31
479.002	1410.31
479.22	1402.31
479.439	1395.31
479.658	1383.31
479.876	1367.31
480.095	1421.31
480.313	1471.31
480.532	1505.31
480.751	1506.31
480.969	1443.31
481.188	1397.31
481.406	1327.31
481.624	1286.31
481.843	1264.31
482.061	1298.31
482.28	1290.31
482.498	1283.31
482.717	1244.31
482.935	1255.31
483.153	1264.31
483.372	1243.31
483.59	1250.31
483.808	1289.31
484.027	1258.31
484.245	1274.31
484.463	1239.31
484.681	1270.31
484.9	1311.31
485.118	1315.31
485.336	1258.31
485.554	1318.31
485.772	1314.31
485.99	1315.31
486.209	1327.31
486.427	1330.31
486.645	1332.31
486.863	1337.31
487.081	1337.31
487.299	1314.31
487.517	1281.31
487.735	1277.31
487.953	1306.31
488.171	1323.31
488.389	1295.31
488.607	1312.31
488.825	1306.31
489.043	1272.31
489.261	1316.31
489.479	1313.31
489.696	1283.31
489.914	1283.31
490.132	1330.31
490.35	1311.31
490.568	1326.31
490.786	1341.31
491.003	1335.31
491.221	1370.31
491.439	1318.31
491.657	1339.31
491.874	1338.31
492.092	1334.31
492.31	1337.31
492.527	1375.31
492.745	1350.31
492.963	1362.31
493.18	1377.31
493.398	1422.31
493.615	1359.31
493.833	1358.31
494.05	1379.31
494.268	1422.31
