Data from NiCl2@0.0625M.TitratingCurve.Agarose3%dH2O.NegLispCup.LampEnergy10.LIBS07252019_HRD10591_18-32-24-575.txt Node
Date: Thu Jul 25 18:32:24 EDT 2019
User: cochatt
Spectrometer: HR+D1059
Trigger mode: 1
Integration Time (sec): 1.000000E-1
Scans to average: 1
Electric dark correction enabled: true
Nonlinearity correction enabled: false
Boxcar width: 0
XAxis mode: Wavelengths
Number of Pixels in Spectrum: 2048
>>>>>Begin Spectral Data<<<<<
223.165	-15.19
223.4	-15.19
223.635	-15.19
223.869	-27.19
224.104	-15.19
224.338	-20.19
224.573	-17.19
224.808	-15.19
225.042	-11.19
225.277	-9.19
225.511	11.81
225.746	9.81
225.98	12.81
226.215	16.81
226.449	5.81
226.683	25.81
226.918	25.81
227.152	21.81
227.387	24.81
227.621	35.81
227.856	36.81
228.09	49.81
228.324	58.81
228.559	62.81
228.793	85.81
229.027	150.81
229.262	163.81
229.496	170.81
229.73	169.81
229.964	183.81
230.199	183.81
230.433	189.81
230.667	167.81
230.901	178.81
231.136	185.81
231.37	202.81
231.604	202.81
231.838	216.81
232.072	217.81
232.306	218.81
232.541	219.81
232.775	218.81
233.009	219.81
233.243	212.81
233.477	212.81
233.711	222.81
233.945	213.81
234.179	230.81
234.413	218.81
234.647	212.81
234.881	241.81
235.115	229.81
235.349	229.81
235.583	236.81
235.817	236.81
236.051	241.81
236.285	233.81
236.519	246.81
236.753	269.81
236.987	235.81
237.221	250.81
237.455	258.81
237.689	264.81
237.922	244.81
238.156	265.81
238.39	269.81
238.624	274.81
238.858	276.81
239.091	273.81
239.325	276.81
239.559	280.81
239.793	288.81
240.027	285.81
240.26	282.81
240.494	291.81
240.728	293.81
240.961	295.81
241.195	300.81
241.429	316.81
241.662	297.81
241.896	326.81
242.13	317.81
242.363	300.81
242.597	314.81
242.83	304.81
243.064	324.81
243.298	331.81
243.531	340.81
243.765	335.81
243.998	344.81
244.232	351.81
244.465	358.81
244.699	362.81
244.932	362.81
245.166	370.81
245.399	359.81
245.633	354.81
245.866	355.81
246.099	349.81
246.333	366.81
246.566	372.81
246.8	374.81
247.033	377.81
247.266	365.81
247.5	379.81
247.733	388.81
247.966	396.81
248.2	421.81
248.433	413.81
248.666	412.81
248.899	412.81
249.133	387.81
249.366	416.81
249.599	419.81
249.832	406.81
250.066	425.81
250.299	404.81
250.532	421.81
250.765	422.81
250.998	433.81
251.231	462.81
251.465	468.81
251.698	473.81
251.931	446.81
252.164	442.81
252.397	461.81
252.63	473.81
252.863	460.81
253.096	459.81
253.329	469.81
253.562	457.81
253.795	488.81
254.028	473.81
254.261	471.81
254.494	468.81
254.727	487.81
254.96	468.81
255.193	487.81
255.426	473.81
255.659	477.81
255.892	498.81
256.124	484.81
256.357	475.81
256.59	519.81
256.823	510.81
257.056	502.81
257.289	500.81
257.521	517.81
257.754	531.81
257.987	545.81
258.22	525.81
258.452	527.81
258.685	527.81
258.918	539.81
259.151	530.81
259.383	549.81
259.616	533.81
259.849	551.81
260.081	532.81
260.314	569.81
260.547	560.81
260.779	541.81
261.012	549.81
261.244	570.81
261.477	577.81
261.71	567.81
261.942	554.81
262.175	560.81
262.407	572.81
262.64	576.81
262.872	585.81
263.105	579.81
263.337	595.81
263.57	612.81
263.802	615.81
264.035	574.81
264.267	580.81
264.499	590.81
264.732	609.81
264.964	615.81
265.197	617.81
265.429	619.81
265.661	601.81
265.894	601.81
266.126	620.81
266.358	617.81
266.591	618.81
266.823	633.81
267.055	640.81
267.287	630.81
267.52	637.81
267.752	664.81
267.984	644.81
268.216	664.81
268.448	648.81
268.681	661.81
268.913	645.81
269.145	660.81
269.377	651.81
269.609	655.81
269.841	659.81
270.073	661.81
270.306	686.81
270.538	651.81
270.77	658.81
271.002	652.81
271.234	676.81
271.466	690.81
271.698	680.81
271.93	658.81
272.162	710.81
272.394	720.81
272.626	712.81
272.858	694.81
273.09	709.81
273.322	720.81
273.553	722.81
273.785	727.81
274.017	729.81
274.249	747.81
274.481	758.81
274.713	753.81
274.945	748.81
275.176	770.81
275.408	765.81
275.64	738.81
275.872	761.81
276.104	774.81
276.335	747.81
276.567	775.81
276.799	757.81
277.031	772.81
277.262	757.81
277.494	762.81
277.726	742.81
277.957	742.81
278.189	769.81
278.421	765.81
278.652	782.81
278.884	785.81
279.115	774.81
279.347	804.81
279.579	793.81
279.81	807.81
280.042	816.81
280.273	793.81
280.505	807.81
280.736	812.81
280.968	845.81
281.199	834.81
281.431	841.81
281.662	841.81
281.894	835.81
282.125	834.81
282.356	835.81
282.588	859.81
282.819	837.81
283.051	860.81
283.282	842.81
283.513	896.81
283.745	846.81
283.976	865.81
284.207	874.81
284.439	897.81
284.67	864.81
284.901	875.81
285.132	890.81
285.364	871.81
285.595	895.81
285.826	895.81
286.057	895.81
286.288	868.81
286.52	898.81
286.751	910.81
286.982	897.81
287.213	900.81
287.444	907.81
287.675	896.81
287.906	910.81
288.138	932.81
288.369	918.81
288.6	931.81
288.831	929.81
289.062	945.81
289.293	884.81
289.524	913.81
289.755	946.81
289.986	924.81
290.217	923.81
290.448	923.81
290.679	944.81
290.91	934.81
291.141	919.81
291.371	927.81
291.602	954.81
291.833	946.81
292.064	957.81
292.295	928.81
292.526	953.81
292.757	930.81
292.987	951.81
293.218	938.81
293.449	936.81
293.68	954.81
293.91	952.81
294.141	973.81
294.372	964.81
294.603	950.81
294.833	933.81
295.064	979.81
295.295	949.81
295.525	971.81
295.756	985.81
295.987	946.81
296.217	1010.81
296.448	966.81
296.679	985.81
296.909	972.81
297.14	1005.81
297.37	1013.81
297.601	1007.81
297.831	1034.81
298.062	981.81
298.292	1015.81
298.523	1069.81
298.753	1035.81
298.984	1047.81
299.214	1042.81
299.445	1026.81
299.675	1009.81
299.905	1036.81
300.136	1012.81
300.366	1044.81
300.597	1033.81
300.827	1065.81
301.057	1075.81
301.288	1070.81
301.518	1080.81
301.748	1096.81
301.979	1096.81
302.209	1083.81
302.439	1066.81
302.669	1084.81
302.9	1086.81
303.13	1052.81
303.36	1074.81
303.59	1052.81
303.82	1055.81
304.051	1072.81
304.281	1057.81
304.511	1084.81
304.741	1096.81
304.971	1088.81
305.201	1067.81
305.431	1068.81
305.661	1095.81
305.891	1066.81
306.121	1099.81
306.352	1088.81
306.582	1065.81
306.812	1072.81
307.042	1102.81
307.272	1053.81
307.502	1032.81
307.731	1062.81
307.961	1066.81
308.191	1047.81
308.421	1031.81
308.651	1077.81
308.881	1080.81
309.111	1047.81
309.341	1068.81
309.571	1109.81
309.8	1102.81
310.03	1069.81
310.26	1072.81
310.49	1072.81
310.72	1070.81
310.949	1090.81
311.179	1072.81
311.409	1098.81
311.639	1099.81
311.868	1096.81
312.098	1117.81
312.328	1147.81
312.557	1101.81
312.787	1102.81
313.017	1131.81
313.246	1152.81
313.476	1138.81
313.706	1121.81
313.935	1140.81
314.165	1153.81
314.394	1193.81
314.624	1184.81
314.853	1170.81
315.083	1162.81
315.312	1180.81
315.542	1150.81
315.771	1142.81
316.001	1168.81
316.23	1154.81
316.46	1133.81
316.689	1125.81
316.919	1178.81
317.148	1164.81
317.377	1142.81
317.607	1138.81
317.836	1133.81
318.065	1124.81
318.295	1134.81
318.524	1162.81
318.753	1136.81
318.983	1134.81
319.212	1133.81
319.441	1134.81
319.67	1139.81
319.9	1126.81
320.129	1136.81
320.358	1114.81
320.587	1154.81
320.816	1140.81
321.046	1158.81
321.275	1141.81
321.504	1138.81
321.733	1164.81
321.962	1148.81
322.191	1171.81
322.42	1165.81
322.649	1154.81
322.878	1170.81
323.108	1152.81
323.337	1178.81
323.566	1164.81
323.795	1193.81
324.024	1194.81
324.253	1192.81
324.482	1194.81
324.71	1217.81
324.939	1170.81
325.168	1200.81
325.397	1190.81
325.626	1234.81
325.855	1234.81
326.084	1231.81
326.313	1251.81
326.542	1284.81
326.77	1272.81
326.999	1232.81
327.228	1225.81
327.457	1240.81
327.686	1241.81
327.914	1238.81
328.143	1244.81
328.372	1225.81
328.6	1233.81
328.829	1261.81
329.058	1249.81
329.287	1225.81
329.515	1230.81
329.744	1257.81
329.972	1289.81
330.201	1299.81
330.43	1290.81
330.658	1286.81
330.887	1320.81
331.115	1319.81
331.344	1309.81
331.572	1317.81
331.801	1340.81
332.03	1382.81
332.258	1399.81
332.486	1430.81
332.715	1432.81
332.943	1476.81
333.172	1480.81
333.4	1567.81
333.629	1580.81
333.857	1625.81
334.085	1661.81
334.314	1617.81
334.542	1590.81
334.771	1582.81
334.999	1561.81
335.227	1558.81
335.455	1556.81
335.684	1521.81
335.912	1547.81
336.14	1529.81
336.369	1480.81
336.597	1480.81
336.825	1489.81
337.053	1481.81
337.281	1453.81
337.51	1405.81
337.738	1438.81
337.966	1384.81
338.194	1408.81
338.422	1362.81
338.65	1373.81
338.878	1342.81
339.106	1362.81
339.334	1401.81
339.562	1316.81
339.79	1309.81
340.018	1309.81
340.246	1308.81
340.474	1326.81
340.702	1293.81
340.93	1307.81
341.158	1326.81
341.386	1297.81
341.614	1320.81
341.842	1348.81
342.07	1323.81
342.298	1271.81
342.526	1272.81
342.754	1308.81
342.981	1273.81
343.209	1331.81
343.437	1348.81
343.665	1442.81
343.893	1541.81
344.12	1576.81
344.348	1523.81
344.576	1449.81
344.804	1425.81
345.031	1395.81
345.259	1364.81
345.487	1325.81
345.714	1310.81
345.942	1279.81
346.17	1314.81
346.397	1289.81
346.625	1255.81
346.853	1232.81
347.08	1282.81
347.308	1274.81
347.535	1272.81
347.763	1280.81
347.99	1234.81
348.218	1218.81
348.445	1235.81
348.673	1261.81
348.9	1250.81
349.128	1236.81
349.355	1224.81
349.583	1244.81
349.81	1214.81
350.037	1237.81
350.265	1238.81
350.492	1223.81
350.72	1238.81
350.947	1222.81
351.174	1227.81
351.402	1236.81
351.629	1200.81
351.856	1212.81
352.083	1194.81
352.311	1172.81
352.538	1237.81
352.765	1200.81
352.992	1196.81
353.22	1186.81
353.447	1184.81
353.674	1179.81
353.901	1220.81
354.128	1219.81
354.355	1195.81
354.583	1186.81
354.81	1195.81
355.037	1215.81
355.264	1192.81
355.491	1192.81
355.718	1202.81
355.945	1209.81
356.172	1232.81
356.399	1229.81
356.626	1240.81
356.853	1227.81
357.08	1209.81
357.307	1224.81
357.534	1217.81
357.761	1178.81
357.988	1213.81
358.215	1217.81
358.441	1200.81
358.668	1243.81
358.895	1224.81
359.122	1213.81
359.349	1210.81
359.576	1202.81
359.802	1216.81
360.029	1193.81
360.256	1229.81
360.483	1245.81
360.709	1206.81
360.936	1228.81
361.163	1229.81
361.39	1238.81
361.616	1230.81
361.843	1236.81
362.07	1192.81
362.296	1222.81
362.523	1187.81
362.749	1226.81
362.976	1200.81
363.203	1211.81
363.429	1191.81
363.656	1207.81
363.882	1219.81
364.109	1225.81
364.335	1246.81
364.562	1189.81
364.788	1203.81
365.015	1204.81
365.241	1206.81
365.468	1204.81
365.694	1177.81
365.92	1205.81
366.147	1213.81
366.373	1220.81
366.599	1220.81
366.826	1189.81
367.052	1208.81
367.278	1196.81
367.505	1215.81
367.731	1176.81
367.957	1222.81
368.184	1230.81
368.41	1246.81
368.636	1251.81
368.862	1228.81
369.089	1261.81
369.315	1264.81
369.541	1239.81
369.767	1281.81
369.993	1239.81
370.219	1220.81
370.445	1261.81
370.672	1292.81
370.898	1293.81
371.124	1298.81
371.35	1317.81
371.576	1304.81
371.802	1318.81
372.028	1334.81
372.254	1299.81
372.48	1316.81
372.706	1343.81
372.932	1386.81
373.158	1351.81
373.384	1351.81
373.61	1332.81
373.835	1363.81
374.061	1324.81
374.287	1321.81
374.513	1347.81
374.739	1416.81
374.965	1448.81
375.191	1427.81
375.416	1417.81
375.642	1382.81
375.868	1381.81
376.094	1357.81
376.319	1340.81
376.545	1319.81
376.771	1340.81
376.997	1340.81
377.222	1312.81
377.448	1334.81
377.674	1320.81
377.899	1297.81
378.125	1307.81
378.35	1266.81
378.576	1307.81
378.802	1325.81
379.027	1313.81
379.253	1331.81
379.478	1316.81
379.704	1323.81
379.929	1319.81
380.155	1278.81
380.38	1278.81
380.606	1285.81
380.831	1296.81
381.057	1317.81
381.282	1305.81
381.507	1312.81
381.733	1336.81
381.958	1339.81
382.184	1341.81
382.409	1333.81
382.634	1358.81
382.86	1396.81
383.085	1372.81
383.31	1426.81
383.535	1422.81
383.761	1419.81
383.986	1414.81
384.211	1460.81
384.436	1460.81
384.662	1526.81
384.887	1538.81
385.112	1544.81
385.337	1542.81
385.562	1566.81
385.787	1546.81
386.013	1608.81
386.238	1590.81
386.463	1572.81
386.688	1601.81
386.913	1547.81
387.138	1570.81
387.363	1575.81
387.588	1552.81
387.813	1542.81
388.038	1564.81
388.263	1559.81
388.488	1592.81
388.713	1565.81
388.938	1572.81
389.163	1573.81
389.387	1576.81
389.612	1550.81
389.837	1539.81
390.062	1572.81
390.287	1541.81
390.512	1530.81
390.736	1536.81
390.961	1594.81
391.186	1603.81
391.411	1649.81
391.636	1650.81
391.86	1704.81
392.085	1748.81
392.31	1739.81
392.534	1687.81
392.759	1718.81
392.984	1661.81
393.208	1666.81
393.433	1713.81
393.658	1718.81
393.882	1668.81
394.107	1664.81
394.331	1687.81
394.556	1674.81
394.78	1664.81
395.005	1660.81
395.229	1690.81
395.454	1720.81
395.678	1771.81
395.903	1754.81
396.127	1739.81
396.352	1716.81
396.576	1690.81
396.801	1685.81
397.025	1712.81
397.249	1740.81
397.474	1785.81
397.698	1762.81
397.922	1748.81
398.147	1760.81
398.371	1778.81
398.595	1891.81
398.82	1960.81
399.044	2048.81
399.268	2192.81
399.492	2504.81
399.717	2710.81
399.941	2698.81
400.165	2530.81
400.389	2340.81
400.613	2180.81
400.837	2116.81
401.062	2061.81
401.286	1978.81
401.51	1949.81
401.734	1990.81
401.958	1949.81
402.182	1990.81
402.406	2018.81
402.63	2014.81
402.854	2009.81
403.078	2008.81
403.302	2077.81
403.526	2124.81
403.75	2109.81
403.974	2136.81
404.198	2146.81
404.422	2155.81
404.645	2147.81
404.869	2160.81
405.093	2117.81
405.317	2131.81
405.541	2134.81
405.765	2040.81
405.988	2070.81
406.212	2098.81
406.436	2121.81
406.66	2196.81
406.883	2198.81
407.107	2332.81
407.331	2426.81
407.555	2490.81
407.778	2492.81
408.002	2460.81
408.226	2357.81
408.449	2320.81
408.673	2192.81
408.896	2181.81
409.12	2157.81
409.344	2152.81
409.567	2141.81
409.791	2139.81
410.014	2151.81
410.238	2175.81
410.461	2134.81
410.685	2098.81
410.908	2103.81
411.132	2064.81
411.355	1997.81
411.578	2054.81
411.802	2005.81
412.025	2034.81
412.249	2048.81
412.472	2031.81
412.695	1992.81
412.919	1941.81
413.142	1940.81
413.365	1923.81
413.589	1969.81
413.812	1940.81
414.035	1956.81
414.258	1944.81
414.482	1980.81
414.705	1961.81
414.928	1966.81
415.151	1937.81
415.374	1961.81
415.597	1901.81
415.821	1901.81
416.044	1865.81
416.267	1905.81
416.49	1852.81
416.713	1876.81
416.936	1882.81
417.159	1854.81
417.382	1881.81
417.605	1854.81
417.828	1862.81
418.051	1885.81
418.274	1872.81
418.497	1856.81
418.72	1922.81
418.943	1928.81
419.166	2045.81
419.389	2149.81
419.611	2093.81
419.834	2045.81
420.057	1994.81
420.28	1920.81
420.503	1853.81
420.726	1883.81
420.948	1889.81
421.171	1883.81
421.394	1906.81
421.617	1851.81
421.839	1884.81
422.062	1887.81
422.285	1856.81
422.507	1876.81
422.73	1894.81
422.953	1929.81
423.175	1912.81
423.398	1922.81
423.621	1901.81
423.843	1959.81
424.066	1955.81
424.288	1928.81
424.511	1928.81
424.733	1929.81
424.956	1897.81
425.178	1896.81
425.401	1911.81
425.623	1916.81
425.846	1850.81
426.068	1847.81
426.291	1817.81
426.513	1813.81
426.735	1793.81
426.958	1771.81
427.18	1742.81
427.402	1783.81
427.625	1784.81
427.847	1736.81
428.069	1729.81
428.292	1728.81
428.514	1740.81
428.736	1693.81
428.958	1712.81
429.181	1668.81
429.403	1673.81
429.625	1733.81
429.847	1652.81
430.069	1708.81
430.292	1679.81
430.514	1654.81
430.736	1726.81
430.958	1716.81
431.18	1691.81
431.402	1731.81
431.624	1689.81
431.846	1752.81
432.068	1721.81
432.29	1789.81
432.512	1701.81
432.734	1724.81
432.956	1725.81
433.178	1746.81
433.4	1757.81
433.622	1761.81
433.844	1771.81
434.066	1748.81
434.287	1777.81
434.509	1772.81
434.731	1856.81
434.953	1908.81
435.175	1853.81
435.397	1876.81
435.618	1826.81
435.84	1781.81
436.062	1714.81
436.284	1732.81
436.505	1736.81
436.727	1725.81
436.949	1749.81
437.17	1685.81
437.392	1704.81
437.614	1689.81
437.835	1606.81
438.057	1637.81
438.278	1629.81
438.5	1615.81
438.721	1636.81
438.943	1712.81
439.165	1650.81
439.386	1638.81
439.608	1674.81
439.829	1684.81
440.05	1699.81
440.272	1701.81
440.493	1700.81
440.715	1709.81
440.936	1728.81
441.158	1786.81
441.379	1771.81
441.6	1921.81
441.822	1885.81
442.043	1843.81
442.264	1839.81
442.486	1788.81
442.707	1857.81
442.928	1832.81
443.149	1864.81
443.371	1808.81
443.592	1795.81
443.813	1861.81
444.034	1915.81
444.255	1916.81
444.476	2008.81
444.698	2069.81
444.919	2103.81
445.14	2145.81
445.361	1999.81
445.582	1911.81
445.803	1864.81
446.024	1781.81
446.245	1733.81
446.466	1742.81
446.687	1701.81
446.908	1682.81
447.129	1675.81
447.35	1634.81
447.571	1630.81
447.792	1565.81
448.013	1577.81
448.234	1585.81
448.455	1573.81
448.675	1564.81
448.896	1591.81
449.117	1522.81
449.338	1562.81
449.559	1528.81
449.779	1505.81
450	1509.81
450.221	1520.81
450.442	1538.81
450.662	1497.81
450.883	1554.81
451.104	1557.81
451.324	1508.81
451.545	1538.81
451.766	1532.81
451.986	1534.81
452.207	1529.81
452.428	1513.81
452.648	1533.81
452.869	1498.81
453.089	1427.81
453.31	1515.81
453.53	1497.81
453.751	1490.81
453.971	1476.81
454.192	1468.81
454.412	1423.81
454.633	1457.81
454.853	1448.81
455.073	1448.81
455.294	1465.81
455.514	1434.81
455.734	1494.81
455.955	1444.81
456.175	1450.81
456.395	1404.81
456.616	1445.81
456.836	1456.81
457.056	1420.81
457.276	1424.81
457.497	1477.81
457.717	1465.81
457.937	1464.81
458.157	1481.81
458.377	1450.81
458.598	1510.81
458.818	1547.81
459.038	1565.81
459.258	1632.81
459.478	1708.81
459.698	1759.81
459.918	1827.81
460.138	1822.81
460.358	1913.81
460.578	1909.81
460.798	1935.81
461.018	1958.81
461.238	1936.81
461.458	1928.81
461.678	1911.81
461.898	1953.81
462.118	1989.81
462.338	2080.81
462.558	2101.81
462.777	2188.81
462.997	2312.81
463.217	2448.81
463.437	2477.81
463.657	2380.81
463.876	2265.81
464.096	2213.81
464.316	2185.81
464.536	2226.81
464.755	2132.81
464.975	2086.81
465.195	2005.81
465.414	1919.81
465.634	1827.81
465.854	1764.81
466.073	1708.81
466.293	1670.81
466.512	1665.81
466.732	1631.81
466.951	1623.81
467.171	1569.81
467.391	1626.81
467.61	1605.81
467.829	1617.81
468.049	1609.81
468.268	1545.81
468.488	1540.81
468.707	1572.81
468.927	1567.81
469.146	1564.81
469.365	1558.81
469.585	1580.81
469.804	1593.81
470.023	1605.81
470.243	1618.81
470.462	1616.81
470.681	1654.81
470.901	1669.81
471.12	1619.81
471.339	1645.81
471.558	1604.81
471.777	1602.81
471.997	1582.81
472.216	1575.81
472.435	1553.81
472.654	1530.81
472.873	1508.81
473.092	1540.81
473.311	1541.81
473.53	1538.81
473.749	1538.81
473.968	1556.81
474.187	1537.81
474.406	1508.81
474.625	1514.81
474.844	1536.81
475.063	1552.81
475.282	1569.81
475.501	1577.81
475.72	1579.81
475.939	1594.81
476.158	1617.81
476.377	1613.81
476.596	1632.81
476.814	1659.81
477.033	1678.81
477.252	1677.81
477.471	1694.81
477.69	1735.81
477.908	1779.81
478.127	1828.81
478.346	1863.81
478.564	1855.81
478.783	1859.81
479.002	1897.81
479.22	1925.81
479.439	1926.81
479.658	1911.81
479.876	1933.81
480.095	1960.81
480.313	2025.81
480.532	2057.81
480.751	2012.81
480.969	2009.81
481.188	2000.81
481.406	1927.81
481.624	1906.81
481.843	1867.81
482.061	1846.81
482.28	1826.81
482.498	1867.81
482.717	1884.81
482.935	1873.81
483.153	1845.81
483.372	1879.81
483.59	1888.81
483.808	1915.81
484.027	1906.81
484.245	1956.81
484.463	1912.81
484.681	1917.81
484.9	1981.81
485.118	1995.81
485.336	1976.81
485.554	2024.81
485.772	2010.81
485.99	2011.81
486.209	2010.81
486.427	2000.81
486.645	2017.81
486.863	1972.81
487.081	1991.81
487.299	1957.81
487.517	1980.81
487.735	1978.81
487.953	1988.81
488.171	1993.81
488.389	1953.81
488.607	1936.81
488.825	1952.81
489.043	1939.81
489.261	1925.81
489.479	1935.81
489.696	1957.81
