Data from NiCl2@0.0625M.TitratingCurve.Agarose3%dH2O.NegLispCup.LampEnergy10.LIBS07252019_HRD10591_18-33-57-576.txt Node
Date: Thu Jul 25 18:33:57 EDT 2019
User: cochatt
Spectrometer: HR+D1059
Trigger mode: 1
Integration Time (sec): 1.000000E-1
Scans to average: 1
Electric dark correction enabled: true
Nonlinearity correction enabled: false
Boxcar width: 0
XAxis mode: Wavelengths
Number of Pixels in Spectrum: 2048
>>>>>Begin Spectral Data<<<<<
223.165	-29.88
223.4	-29.88
223.635	-29.88
223.869	-6.88
224.104	-14.88
224.338	-16.88
224.573	-21.88
224.808	-8.88
225.042	-16.88
225.277	-2.88
225.511	-14.88
225.746	10.12
225.98	14.12
226.215	7.12
226.449	10.12
226.683	27.12
226.918	25.12
227.152	40.12
227.387	39.12
227.621	30.12
227.856	32.12
228.09	46.12
228.324	57.12
228.559	54.12
228.793	86.12
229.027	142.12
229.262	149.12
229.496	159.12
229.73	158.12
229.964	161.12
230.199	179.12
230.433	175.12
230.667	192.12
230.901	191.12
231.136	171.12
231.37	173.12
231.604	185.12
231.838	179.12
232.072	195.12
232.306	205.12
232.541	199.12
232.775	194.12
233.009	214.12
233.243	209.12
233.477	213.12
233.711	183.12
233.945	214.12
234.179	213.12
234.413	215.12
234.647	209.12
234.881	217.12
235.115	216.12
235.349	207.12
235.583	203.12
235.817	222.12
236.051	224.12
236.285	209.12
236.519	221.12
236.753	209.12
236.987	226.12
237.221	230.12
237.455	233.12
237.689	240.12
237.922	246.12
238.156	222.12
238.39	238.12
238.624	240.12
238.858	248.12
239.091	264.12
239.325	258.12
239.559	272.12
239.793	264.12
240.027	259.12
240.26	264.12
240.494	263.12
240.728	271.12
240.961	264.12
241.195	283.12
241.429	282.12
241.662	292.12
241.896	297.12
242.13	317.12
242.363	296.12
242.597	310.12
242.83	289.12
243.064	312.12
243.298	313.12
243.531	314.12
243.765	314.12
243.998	309.12
244.232	306.12
244.465	305.12
244.699	329.12
244.932	329.12
245.166	318.12
245.399	341.12
245.633	339.12
245.866	330.12
246.099	345.12
246.333	357.12
246.566	343.12
246.8	329.12
247.033	348.12
247.266	342.12
247.5	349.12
247.733	364.12
247.966	349.12
248.2	373.12
248.433	371.12
248.666	385.12
248.899	388.12
249.133	378.12
249.366	368.12
249.599	385.12
249.832	385.12
250.066	396.12
250.299	394.12
250.532	409.12
250.765	405.12
250.998	415.12
251.231	425.12
251.465	445.12
251.698	410.12
251.931	423.12
252.164	431.12
252.397	437.12
252.63	425.12
252.863	423.12
253.096	435.12
253.329	471.12
253.562	417.12
253.795	458.12
254.028	452.12
254.261	450.12
254.494	459.12
254.727	459.12
254.96	400.12
255.193	457.12
255.426	458.12
255.659	457.12
255.892	459.12
256.124	469.12
256.357	459.12
256.59	488.12
256.823	464.12
257.056	469.12
257.289	480.12
257.521	495.12
257.754	488.12
257.987	483.12
258.22	471.12
258.452	493.12
258.685	500.12
258.918	516.12
259.151	502.12
259.383	490.12
259.616	492.12
259.849	503.12
260.081	512.12
260.314	508.12
260.547	521.12
260.779	523.12
261.012	527.12
261.244	521.12
261.477	524.12
261.71	534.12
261.942	550.12
262.175	539.12
262.407	536.12
262.64	519.12
262.872	522.12
263.105	566.12
263.337	554.12
263.57	553.12
263.802	543.12
264.035	554.12
264.267	542.12
264.499	574.12
264.732	586.12
264.964	563.12
265.197	555.12
265.429	561.12
265.661	593.12
265.894	586.12
266.126	591.12
266.358	615.12
266.591	586.12
266.823	585.12
267.055	605.12
267.287	623.12
267.52	585.12
267.752	616.12
267.984	613.12
268.216	611.12
268.448	611.12
268.681	594.12
268.913	599.12
269.145	607.12
269.377	615.12
269.609	627.12
269.841	632.12
270.073	618.12
270.306	625.12
270.538	633.12
270.77	632.12
271.002	633.12
271.234	650.12
271.466	649.12
271.698	659.12
271.93	670.12
272.162	659.12
272.394	651.12
272.626	657.12
272.858	639.12
273.09	669.12
273.322	692.12
273.553	686.12
273.785	673.12
274.017	663.12
274.249	693.12
274.481	692.12
274.713	688.12
274.945	681.12
275.176	698.12
275.408	706.12
275.64	709.12
275.872	682.12
276.104	689.12
276.335	714.12
276.567	688.12
276.799	706.12
277.031	734.12
277.262	724.12
277.494	725.12
277.726	708.12
277.957	722.12
278.189	714.12
278.421	727.12
278.652	731.12
278.884	714.12
279.115	734.12
279.347	731.12
279.579	739.12
279.81	742.12
280.042	761.12
280.273	784.12
280.505	767.12
280.736	767.12
280.968	768.12
281.199	781.12
281.431	789.12
281.662	786.12
281.894	784.12
282.125	766.12
282.356	803.12
282.588	805.12
282.819	782.12
283.051	805.12
283.282	816.12
283.513	797.12
283.745	789.12
283.976	793.12
284.207	795.12
284.439	831.12
284.67	856.12
284.901	840.12
285.132	846.12
285.364	813.12
285.595	840.12
285.826	854.12
286.057	837.12
286.288	838.12
286.52	847.12
286.751	840.12
286.982	838.12
287.213	854.12
287.444	853.12
287.675	853.12
287.906	845.12
288.138	870.12
288.369	871.12
288.6	870.12
288.831	883.12
289.062	859.12
289.293	882.12
289.524	861.12
289.755	857.12
289.986	874.12
290.217	876.12
290.448	875.12
290.679	871.12
290.91	876.12
291.141	862.12
291.371	901.12
291.602	861.12
291.833	897.12
292.064	909.12
292.295	887.12
292.526	889.12
292.757	877.12
292.987	898.12
293.218	904.12
293.449	900.12
293.68	917.12
293.91	895.12
294.141	901.12
294.372	910.12
294.603	886.12
294.833	935.12
295.064	888.12
295.295	912.12
295.525	898.12
295.756	910.12
295.987	897.12
296.217	915.12
296.448	929.12
296.679	945.12
296.909	958.12
297.14	950.12
297.37	935.12
297.601	924.12
297.831	961.12
298.062	975.12
298.292	948.12
298.523	990.12
298.753	988.12
298.984	971.12
299.214	925.12
299.445	949.12
299.675	968.12
299.905	991.12
300.136	958.12
300.366	967.12
300.597	974.12
300.827	1000.12
301.057	985.12
301.288	1018.12
301.518	1006.12
301.748	987.12
301.979	1045.12
302.209	1041.12
302.439	1040.12
302.669	1024.12
302.9	996.12
303.13	1002.12
303.36	1024.12
303.59	1007.12
303.82	1005.12
304.051	1027.12
304.281	1041.12
304.511	1005.12
304.741	1004.12
304.971	1055.12
305.201	1021.12
305.431	1026.12
305.661	1024.12
305.891	1000.12
306.121	1009.12
306.352	1007.12
306.582	999.12
306.812	989.12
307.042	992.12
307.272	1008.12
307.502	1000.12
307.731	994.12
307.961	1027.12
308.191	978.12
308.421	1042.12
308.651	998.12
308.881	975.12
309.111	978.12
309.341	986.12
309.571	1013.12
309.8	1017.12
310.03	1021.12
310.26	997.12
310.49	1042.12
310.72	1023.12
310.949	1000.12
311.179	1027.12
311.409	1028.12
311.639	1029.12
311.868	999.12
312.098	1058.12
312.328	1051.12
312.557	1051.12
312.787	1013.12
313.017	1073.12
313.246	1065.12
313.476	1069.12
313.706	1095.12
313.935	1096.12
314.165	1079.12
314.394	1101.12
314.624	1093.12
314.853	1073.12
315.083	1106.12
315.312	1104.12
315.542	1095.12
315.771	1093.12
316.001	1100.12
316.23	1064.12
316.46	1054.12
316.689	1087.12
316.919	1076.12
317.148	1073.12
317.377	1093.12
317.607	1065.12
317.836	1091.12
318.065	1072.12
318.295	1055.12
318.524	1051.12
318.753	1059.12
318.983	1094.12
319.212	1057.12
319.441	1093.12
319.67	1072.12
319.9	1061.12
320.129	1097.12
320.358	1093.12
320.587	1081.12
320.816	1069.12
321.046	1108.12
321.275	1065.12
321.504	1089.12
321.733	1075.12
321.962	1068.12
322.191	1086.12
322.42	1090.12
322.649	1109.12
322.878	1069.12
323.108	1111.12
323.337	1106.12
323.566	1107.12
323.795	1121.12
324.024	1121.12
324.253	1110.12
324.482	1115.12
324.71	1123.12
324.939	1128.12
325.168	1144.12
325.397	1115.12
325.626	1138.12
325.855	1138.12
326.084	1194.12
326.313	1169.12
326.542	1205.12
326.77	1176.12
326.999	1183.12
327.228	1180.12
327.457	1179.12
327.686	1191.12
327.914	1193.12
328.143	1169.12
328.372	1175.12
328.6	1161.12
328.829	1173.12
329.058	1191.12
329.287	1185.12
329.515	1192.12
329.744	1170.12
329.972	1201.12
330.201	1200.12
330.43	1224.12
330.658	1246.12
330.887	1249.12
331.115	1206.12
331.344	1223.12
331.572	1217.12
331.801	1292.12
332.03	1301.12
332.258	1255.12
332.486	1320.12
332.715	1359.12
332.943	1389.12
333.172	1399.12
333.4	1466.12
333.629	1492.12
333.857	1551.12
334.085	1510.12
334.314	1497.12
334.542	1502.12
334.771	1477.12
334.999	1444.12
335.227	1487.12
335.455	1471.12
335.684	1455.12
335.912	1441.12
336.14	1464.12
336.369	1385.12
336.597	1448.12
336.825	1405.12
337.053	1408.12
337.281	1372.12
337.51	1353.12
337.738	1394.12
337.966	1339.12
338.194	1295.12
338.422	1301.12
338.65	1302.12
338.878	1301.12
339.106	1281.12
339.334	1294.12
339.562	1297.12
339.79	1245.12
340.018	1255.12
340.246	1224.12
340.474	1252.12
340.702	1230.12
340.93	1241.12
341.158	1235.12
341.386	1221.12
341.614	1262.12
341.842	1229.12
342.07	1218.12
342.298	1248.12
342.526	1254.12
342.754	1217.12
342.981	1241.12
343.209	1258.12
343.437	1307.12
343.665	1365.12
343.893	1410.12
344.12	1491.12
344.348	1420.12
344.576	1409.12
344.804	1330.12
345.031	1278.12
345.259	1277.12
345.487	1278.12
345.714	1235.12
345.942	1232.12
346.17	1188.12
346.397	1204.12
346.625	1202.12
346.853	1173.12
347.08	1154.12
347.308	1189.12
347.535	1182.12
347.763	1203.12
347.99	1215.12
348.218	1216.12
348.445	1201.12
348.673	1157.12
348.9	1190.12
349.128	1156.12
349.355	1181.12
349.583	1155.12
349.81	1162.12
350.037	1162.12
350.265	1149.12
350.492	1123.12
350.72	1162.12
350.947	1143.12
351.174	1147.12
351.402	1114.12
351.629	1141.12
351.856	1143.12
352.083	1146.12
352.311	1130.12
352.538	1133.12
352.765	1153.12
352.992	1112.12
353.22	1116.12
353.447	1125.12
353.674	1149.12
353.901	1135.12
354.128	1135.12
354.355	1120.12
354.583	1135.12
354.81	1128.12
355.037	1145.12
355.264	1156.12
355.491	1167.12
355.718	1136.12
355.945	1157.12
356.172	1151.12
356.399	1138.12
356.626	1155.12
356.853	1145.12
357.08	1165.12
357.307	1146.12
357.534	1158.12
357.761	1162.12
357.988	1153.12
358.215	1169.12
358.441	1151.12
358.668	1127.12
358.895	1138.12
359.122	1139.12
359.349	1130.12
359.576	1167.12
359.802	1122.12
360.029	1153.12
360.256	1153.12
360.483	1164.12
360.709	1131.12
360.936	1149.12
361.163	1156.12
361.39	1175.12
361.616	1169.12
361.843	1139.12
362.07	1145.12
362.296	1143.12
362.523	1129.12
362.749	1167.12
362.976	1159.12
363.203	1131.12
363.429	1144.12
363.656	1163.12
363.882	1159.12
364.109	1179.12
364.335	1138.12
364.562	1112.12
364.788	1153.12
365.015	1155.12
365.241	1135.12
365.468	1135.12
365.694	1151.12
365.92	1144.12
366.147	1145.12
366.373	1130.12
366.599	1164.12
366.826	1171.12
367.052	1142.12
367.278	1169.12
367.505	1146.12
367.731	1161.12
367.957	1152.12
368.184	1176.12
368.41	1167.12
368.636	1143.12
368.862	1184.12
369.089	1199.12
369.315	1169.12
369.541	1197.12
369.767	1195.12
369.993	1185.12
370.219	1210.12
370.445	1215.12
370.672	1212.12
370.898	1206.12
371.124	1261.12
371.35	1277.12
371.576	1234.12
371.802	1279.12
372.028	1239.12
372.254	1239.12
372.48	1244.12
372.706	1280.12
372.932	1282.12
373.158	1288.12
373.384	1280.12
373.61	1288.12
373.835	1246.12
374.061	1229.12
374.287	1270.12
374.513	1295.12
374.739	1341.12
374.965	1347.12
375.191	1353.12
375.416	1360.12
375.642	1327.12
375.868	1301.12
376.094	1309.12
376.319	1282.12
376.545	1236.12
376.771	1251.12
376.997	1266.12
377.222	1280.12
377.448	1246.12
377.674	1252.12
377.899	1240.12
378.125	1243.12
378.35	1199.12
378.576	1221.12
378.802	1213.12
379.027	1233.12
379.253	1226.12
379.478	1232.12
379.704	1255.12
379.929	1246.12
380.155	1240.12
380.38	1234.12
380.606	1251.12
380.831	1224.12
381.057	1245.12
381.282	1215.12
381.507	1234.12
381.733	1251.12
381.958	1274.12
382.184	1265.12
382.409	1279.12
382.634	1287.12
382.86	1300.12
383.085	1347.12
383.31	1349.12
383.535	1340.12
383.761	1347.12
383.986	1376.12
384.211	1411.12
384.436	1397.12
384.662	1402.12
384.887	1435.12
385.112	1449.12
385.337	1479.12
385.562	1497.12
385.787	1465.12
386.013	1489.12
386.238	1494.12
386.463	1502.12
386.688	1533.12
386.913	1441.12
387.138	1489.12
387.363	1505.12
387.588	1441.12
387.813	1498.12
388.038	1470.12
388.263	1479.12
388.488	1500.12
388.713	1465.12
388.938	1477.12
389.163	1470.12
389.387	1476.12
389.612	1431.12
389.837	1470.12
390.062	1437.12
390.287	1492.12
390.512	1469.12
390.736	1495.12
390.961	1466.12
391.186	1514.12
391.411	1557.12
391.636	1573.12
391.86	1653.12
392.085	1661.12
392.31	1596.12
392.534	1632.12
392.759	1627.12
392.984	1563.12
393.208	1571.12
393.433	1568.12
393.658	1573.12
393.882	1565.12
394.107	1564.12
394.331	1544.12
394.556	1587.12
394.78	1597.12
395.005	1590.12
395.229	1584.12
395.454	1624.12
395.678	1671.12
395.903	1682.12
396.127	1659.12
396.352	1630.12
396.576	1563.12
396.801	1562.12
397.025	1594.12
397.249	1682.12
397.474	1689.12
397.698	1686.12
397.922	1701.12
398.147	1657.12
398.371	1691.12
398.595	1755.12
398.82	1829.12
399.044	1925.12
399.268	2075.12
399.492	2340.12
399.717	2541.12
399.941	2584.12
400.165	2411.12
400.389	2235.12
400.613	2094.12
400.837	1961.12
401.062	1909.12
401.286	1858.12
401.51	1839.12
401.734	1886.12
401.958	1869.12
402.182	1892.12
402.406	1876.12
402.63	1887.12
402.854	1907.12
403.078	1926.12
403.302	1959.12
403.526	1967.12
403.75	1993.12
403.974	1991.12
404.198	2001.12
404.422	2031.12
404.645	2048.12
404.869	2014.12
405.093	1973.12
405.317	1967.12
405.541	1976.12
405.765	1949.12
405.988	1969.12
406.212	2013.12
406.436	1970.12
406.66	2056.12
406.883	2074.12
407.107	2210.12
407.331	2273.12
407.555	2331.12
407.778	2256.12
408.002	2283.12
408.226	2237.12
408.449	2196.12
408.673	2148.12
408.896	2076.12
409.12	2058.12
409.344	2100.12
409.567	2063.12
409.791	2049.12
410.014	2026.12
410.238	2047.12
410.461	2014.12
410.685	2037.12
410.908	2006.12
411.132	1989.12
411.355	1899.12
411.578	1937.12
411.802	1907.12
412.025	1895.12
412.249	1915.12
412.472	1955.12
412.695	1910.12
412.919	1839.12
413.142	1889.12
413.365	1819.12
413.589	1914.12
413.812	1863.12
414.035	1809.12
414.258	1872.12
414.482	1840.12
414.705	1846.12
414.928	1912.12
415.151	1854.12
415.374	1828.12
415.597	1874.12
415.821	1803.12
416.044	1760.12
416.267	1777.12
416.49	1764.12
416.713	1781.12
416.936	1767.12
417.159	1776.12
417.382	1787.12
417.605	1727.12
417.828	1766.12
418.051	1766.12
418.274	1733.12
418.497	1764.12
418.72	1824.12
418.943	1809.12
419.166	1923.12
419.389	2063.12
419.611	1983.12
419.834	1876.12
420.057	1894.12
420.28	1827.12
420.503	1789.12
420.726	1737.12
420.948	1709.12
421.171	1745.12
421.394	1793.12
421.617	1760.12
421.839	1791.12
422.062	1792.12
422.285	1762.12
422.507	1823.12
422.73	1815.12
422.953	1808.12
423.175	1821.12
423.398	1833.12
423.621	1790.12
423.843	1816.12
424.066	1861.12
424.288	1825.12
424.511	1817.12
424.733	1805.12
424.956	1754.12
425.178	1778.12
425.401	1749.12
425.623	1789.12
425.846	1705.12
426.068	1732.12
426.291	1717.12
426.513	1726.12
426.735	1688.12
426.958	1705.12
427.18	1631.12
427.402	1672.12
427.625	1655.12
427.847	1634.12
428.069	1629.12
428.292	1647.12
428.514	1602.12
428.736	1611.12
428.958	1616.12
429.181	1580.12
429.403	1561.12
429.625	1592.12
429.847	1615.12
430.069	1570.12
430.292	1574.12
430.514	1566.12
430.736	1631.12
430.958	1599.12
431.18	1597.12
431.402	1611.12
431.624	1616.12
431.846	1625.12
432.068	1647.12
432.29	1643.12
432.512	1613.12
432.734	1642.12
432.956	1617.12
433.178	1626.12
433.4	1648.12
433.622	1640.12
433.844	1694.12
434.066	1703.12
434.287	1687.12
434.509	1748.12
434.731	1786.12
434.953	1827.12
435.175	1763.12
435.397	1777.12
435.618	1709.12
435.84	1703.12
436.062	1640.12
436.284	1647.12
436.505	1617.12
436.727	1588.12
436.949	1671.12
437.17	1628.12
437.392	1597.12
437.614	1583.12
437.835	1560.12
438.057	1566.12
438.278	1535.12
438.5	1518.12
438.721	1545.12
438.943	1539.12
439.165	1515.12
439.386	1544.12
439.608	1591.12
439.829	1600.12
440.05	1603.12
440.272	1599.12
440.493	1601.12
440.715	1628.12
440.936	1655.12
441.158	1675.12
441.379	1704.12
441.6	1769.12
441.822	1746.12
442.043	1757.12
442.264	1713.12
442.486	1734.12
442.707	1726.12
442.928	1713.12
443.149	1725.12
443.371	1701.12
443.592	1742.12
443.813	1747.12
444.034	1760.12
444.255	1789.12
444.476	1865.12
444.698	1949.12
444.919	2027.12
445.14	2117.12
445.361	1918.12
445.582	1809.12
445.803	1723.12
446.024	1693.12
446.245	1713.12
446.466	1661.12
446.687	1616.12
446.908	1610.12
447.129	1569.12
447.35	1548.12
447.571	1519.12
447.792	1510.12
448.013	1506.12
448.234	1499.12
448.455	1464.12
448.675	1455.12
448.896	1442.12
449.117	1438.12
449.338	1449.12
449.559	1395.12
449.779	1449.12
450	1429.12
450.221	1415.12
450.442	1441.12
450.662	1436.12
450.883	1427.12
451.104	1436.12
451.324	1483.12
451.545	1453.12
451.766	1426.12
451.986	1438.12
452.207	1409.12
452.428	1394.12
452.648	1433.12
452.869	1368.12
453.089	1399.12
453.31	1401.12
453.53	1414.12
453.751	1386.12
453.971	1384.12
454.192	1386.12
454.412	1366.12
454.633	1384.12
454.853	1396.12
455.073	1335.12
455.294	1379.12
455.514	1272.12
455.734	1370.12
455.955	1320.12
456.175	1353.12
456.395	1359.12
456.616	1325.12
456.836	1343.12
457.056	1343.12
457.276	1319.12
457.497	1373.12
457.717	1376.12
457.937	1367.12
458.157	1427.12
458.377	1420.12
458.598	1427.12
458.818	1479.12
459.038	1476.12
459.258	1540.12
459.478	1600.12
459.698	1648.12
459.918	1631.12
460.138	1699.12
460.358	1767.12
460.578	1775.12
460.798	1816.12
461.018	1844.12
461.238	1784.12
461.458	1828.12
461.678	1814.12
461.898	1843.12
462.118	1871.12
462.338	1970.12
462.558	1973.12
462.777	2035.12
462.997	2134.12
463.217	2257.12
463.437	2284.12
463.657	2201.12
463.876	2109.12
464.096	2116.12
464.316	2067.12
464.536	2082.12
464.755	2006.12
464.975	1968.12
465.195	1891.12
465.414	1818.12
465.634	1682.12
465.854	1682.12
466.073	1616.12
466.293	1577.12
466.512	1556.12
466.732	1534.12
466.951	1570.12
467.171	1512.12
467.391	1517.12
467.61	1497.12
467.829	1495.12
468.049	1512.12
468.268	1494.12
468.488	1475.12
468.707	1427.12
468.927	1466.12
469.146	1439.12
469.365	1485.12
469.585	1475.12
469.804	1559.12
470.023	1537.12
470.243	1543.12
470.462	1548.12
470.681	1560.12
470.901	1543.12
471.12	1508.12
471.339	1489.12
471.558	1502.12
471.777	1467.12
471.997	1485.12
472.216	1454.12
472.435	1478.12
472.654	1479.12
472.873	1450.12
473.092	1460.12
473.311	1435.12
473.53	1462.12
473.749	1440.12
473.968	1454.12
474.187	1461.12
474.406	1434.12
474.625	1398.12
474.844	1462.12
475.063	1480.12
475.282	1478.12
475.501	1456.12
475.72	1482.12
475.939	1500.12
476.158	1513.12
476.377	1512.12
476.596	1530.12
476.814	1533.12
477.033	1515.12
477.252	1549.12
477.471	1601.12
477.69	1677.12
477.908	1613.12
478.127	1683.12
478.346	1674.12
478.564	1756.12
478.783	1757.12
479.002	1803.12
479.22	1828.12
479.439	1808.12
479.658	1798.12
479.876	1836.12
480.095	1825.12
480.313	1921.12
480.532	1918.12
480.751	1907.12
480.969	1896.12
481.188	1849.12
481.406	1810.12
481.624	1801.12
481.843	1801.12
482.061	1733.12
482.28	1749.12
482.498	1775.12
482.717	1761.12
482.935	1763.12
483.153	1781.12
483.372	1774.12
483.59	1817.12
483.808	1793.12
484.027	1818.12
484.245	1870.12
484.463	1853.12
484.681	1886.12
484.9	1943.12
485.118	1905.12
485.336	1947.12
485.554	1908.12
485.772	1967.12
485.99	1954.12
486.209	1961.12
486.427	1927.12
486.645	1907.12
486.863	1975.12
487.081	1922.12
487.299	1900.12
487.517	1905.12
487.735	1871.12
487.953	1896.12
488.171	1907.12
488.389	1895.12
488.607	1879.12
488.825	1915.12
489.043	1835.12
489.261	1857.12
489.479	1837.12
489.696	1819.12
489.914	1845.12
490.132	1872.12
