Data from NiCl2@0.0625M.TitratingCurve.Agarose3%dH2O.NegLispCup.LampEnergy10.LIBS07252019_HRD10591_18-33-09-577.txt Node
Date: Thu Jul 25 18:33:09 EDT 2019
User: cochatt
Spectrometer: HR+D1059
Trigger mode: 1
Integration Time (sec): 1.000000E-1
Scans to average: 1
Electric dark correction enabled: true
Nonlinearity correction enabled: false
Boxcar width: 0
XAxis mode: Wavelengths
Number of Pixels in Spectrum: 2048
>>>>>Begin Spectral Data<<<<<
223.165	-9.44
223.4	-9.44
223.635	-9.44
223.869	-18.44
224.104	-17.44
224.338	-19.44
224.573	-17.44
224.808	-7.44
225.042	-2.44
225.277	-1.44
225.511	4.56
225.746	8.56
225.98	6.56
226.215	-6.44
226.449	8.56
226.683	20.56
226.918	24.56
227.152	26.56
227.387	27.56
227.621	39.56
227.856	28.56
228.09	40.56
228.324	47.56
228.559	62.56
228.793	68.56
229.027	119.56
229.262	126.56
229.496	145.56
229.73	131.56
229.964	151.56
230.199	145.56
230.433	151.56
230.667	156.56
230.901	159.56
231.136	140.56
231.37	147.56
231.604	156.56
231.838	167.56
232.072	174.56
232.306	177.56
232.541	178.56
232.775	174.56
233.009	168.56
233.243	175.56
233.477	170.56
233.711	182.56
233.945	155.56
234.179	182.56
234.413	190.56
234.647	195.56
234.881	178.56
235.115	191.56
235.349	189.56
235.583	187.56
235.817	202.56
236.051	175.56
236.285	186.56
236.519	174.56
236.753	204.56
236.987	196.56
237.221	194.56
237.455	202.56
237.689	214.56
237.922	194.56
238.156	193.56
238.39	207.56
238.624	203.56
238.858	198.56
239.091	214.56
239.325	220.56
239.559	219.56
239.793	222.56
240.027	224.56
240.26	221.56
240.494	206.56
240.728	234.56
240.961	234.56
241.195	224.56
241.429	227.56
241.662	236.56
241.896	231.56
242.13	242.56
242.363	234.56
242.597	235.56
242.83	238.56
243.064	252.56
243.298	238.56
243.531	230.56
243.765	272.56
243.998	268.56
244.232	281.56
244.465	258.56
244.699	285.56
244.932	288.56
245.166	276.56
245.399	277.56
245.633	268.56
245.866	277.56
246.099	264.56
246.333	268.56
246.566	278.56
246.8	270.56
247.033	295.56
247.266	274.56
247.5	276.56
247.733	300.56
247.966	302.56
248.2	308.56
248.433	318.56
248.666	307.56
248.899	319.56
249.133	318.56
249.366	304.56
249.599	308.56
249.832	318.56
250.066	321.56
250.299	320.56
250.532	320.56
250.765	320.56
250.998	335.56
251.231	332.56
251.465	350.56
251.698	331.56
251.931	352.56
252.164	334.56
252.397	362.56
252.63	337.56
252.863	354.56
253.096	340.56
253.329	357.56
253.562	347.56
253.795	334.56
254.028	355.56
254.261	363.56
254.494	378.56
254.727	375.56
254.96	359.56
255.193	376.56
255.426	377.56
255.659	374.56
255.892	359.56
256.124	367.56
256.357	384.56
256.59	388.56
256.823	373.56
257.056	368.56
257.289	392.56
257.521	390.56
257.754	384.56
257.987	389.56
258.22	414.56
258.452	384.56
258.685	392.56
258.918	410.56
259.151	395.56
259.383	412.56
259.616	408.56
259.849	411.56
260.081	423.56
260.314	416.56
260.547	414.56
260.779	423.56
261.012	413.56
261.244	418.56
261.477	448.56
261.71	438.56
261.942	417.56
262.175	426.56
262.407	438.56
262.64	430.56
262.872	429.56
263.105	417.56
263.337	439.56
263.57	442.56
263.802	453.56
264.035	427.56
264.267	454.56
264.499	436.56
264.732	436.56
264.964	448.56
265.197	462.56
265.429	454.56
265.661	466.56
265.894	467.56
266.126	461.56
266.358	458.56
266.591	450.56
266.823	494.56
267.055	457.56
267.287	456.56
267.52	458.56
267.752	471.56
267.984	479.56
268.216	463.56
268.448	458.56
268.681	467.56
268.913	490.56
269.145	477.56
269.377	506.56
269.609	491.56
269.841	487.56
270.073	499.56
270.306	498.56
270.538	491.56
270.77	490.56
271.002	486.56
271.234	488.56
271.466	498.56
271.698	518.56
271.93	521.56
272.162	530.56
272.394	505.56
272.626	509.56
272.858	518.56
273.09	535.56
273.322	518.56
273.553	548.56
273.785	533.56
274.017	514.56
274.249	535.56
274.481	532.56
274.713	535.56
274.945	562.56
275.176	542.56
275.408	514.56
275.64	549.56
275.872	571.56
276.104	570.56
276.335	545.56
276.567	569.56
276.799	547.56
277.031	578.56
277.262	558.56
277.494	525.56
277.726	563.56
277.957	578.56
278.189	585.56
278.421	572.56
278.652	578.56
278.884	580.56
279.115	588.56
279.347	572.56
279.579	573.56
279.81	572.56
280.042	596.56
280.273	592.56
280.505	576.56
280.736	580.56
280.968	592.56
281.199	615.56
281.431	610.56
281.662	576.56
281.894	614.56
282.125	613.56
282.356	638.56
282.588	610.56
282.819	616.56
283.051	629.56
283.282	621.56
283.513	622.56
283.745	623.56
283.976	621.56
284.207	631.56
284.439	631.56
284.67	641.56
284.901	664.56
285.132	658.56
285.364	637.56
285.595	640.56
285.826	626.56
286.057	655.56
286.288	637.56
286.52	638.56
286.751	667.56
286.982	660.56
287.213	643.56
287.444	655.56
287.675	671.56
287.906	661.56
288.138	668.56
288.369	683.56
288.6	686.56
288.831	667.56
289.062	682.56
289.293	670.56
289.524	675.56
289.755	690.56
289.986	682.56
290.217	678.56
290.448	686.56
290.679	680.56
290.91	692.56
291.141	696.56
291.371	704.56
291.602	695.56
291.833	713.56
292.064	694.56
292.295	690.56
292.526	679.56
292.757	692.56
292.987	681.56
293.218	688.56
293.449	704.56
293.68	710.56
293.91	710.56
294.141	693.56
294.372	709.56
294.603	719.56
294.833	709.56
295.064	718.56
295.295	703.56
295.525	726.56
295.756	707.56
295.987	706.56
296.217	719.56
296.448	712.56
296.679	714.56
296.909	723.56
297.14	711.56
297.37	755.56
297.601	712.56
297.831	723.56
298.062	758.56
298.292	754.56
298.523	757.56
298.753	773.56
298.984	733.56
299.214	734.56
299.445	739.56
299.675	743.56
299.905	741.56
300.136	760.56
300.366	764.56
300.597	759.56
300.827	781.56
301.057	800.56
301.288	798.56
301.518	781.56
301.748	788.56
301.979	798.56
302.209	793.56
302.439	807.56
302.669	788.56
302.9	804.56
303.13	791.56
303.36	804.56
303.59	793.56
303.82	763.56
304.051	803.56
304.281	807.56
304.511	806.56
304.741	796.56
304.971	795.56
305.201	803.56
305.431	811.56
305.661	803.56
305.891	777.56
306.121	773.56
306.352	782.56
306.582	775.56
306.812	784.56
307.042	796.56
307.272	768.56
307.502	766.56
307.731	775.56
307.961	791.56
308.191	772.56
308.421	770.56
308.651	804.56
308.881	771.56
309.111	754.56
309.341	754.56
309.571	771.56
309.8	781.56
310.03	800.56
310.26	792.56
310.49	784.56
310.72	790.56
310.949	794.56
311.179	788.56
311.409	784.56
311.639	776.56
311.868	816.56
312.098	815.56
312.328	807.56
312.557	839.56
312.787	826.56
313.017	824.56
313.246	824.56
313.476	826.56
313.706	815.56
313.935	864.56
314.165	854.56
314.394	860.56
314.624	840.56
314.853	816.56
315.083	850.56
315.312	844.56
315.542	837.56
315.771	841.56
316.001	839.56
316.23	828.56
316.46	839.56
316.689	838.56
316.919	822.56
317.148	807.56
317.377	834.56
317.607	811.56
317.836	816.56
318.065	827.56
318.295	832.56
318.524	848.56
318.753	800.56
318.983	812.56
319.212	812.56
319.441	828.56
319.67	840.56
319.9	832.56
320.129	807.56
320.358	825.56
320.587	825.56
320.816	824.56
321.046	845.56
321.275	847.56
321.504	830.56
321.733	826.56
321.962	828.56
322.191	849.56
322.42	853.56
322.649	849.56
322.878	841.56
323.108	828.56
323.337	843.56
323.566	877.56
323.795	844.56
324.024	895.56
324.253	836.56
324.482	863.56
324.71	869.56
324.939	877.56
325.168	867.56
325.397	884.56
325.626	886.56
325.855	894.56
326.084	933.56
326.313	905.56
326.542	912.56
326.77	956.56
326.999	910.56
327.228	906.56
327.457	932.56
327.686	867.56
327.914	916.56
328.143	886.56
328.372	930.56
328.6	904.56
328.829	926.56
329.058	925.56
329.287	927.56
329.515	923.56
329.744	930.56
329.972	930.56
330.201	953.56
330.43	912.56
330.658	914.56
330.887	965.56
331.115	944.56
331.344	941.56
331.572	943.56
331.801	955.56
332.03	976.56
332.258	966.56
332.486	1010.56
332.715	1079.56
332.943	1084.56
333.172	1111.56
333.4	1140.56
333.629	1167.56
333.857	1182.56
334.085	1180.56
334.314	1176.56
334.542	1156.56
334.771	1134.56
334.999	1156.56
335.227	1156.56
335.455	1127.56
335.684	1137.56
335.912	1119.56
336.14	1101.56
336.369	1078.56
336.597	1124.56
336.825	1103.56
337.053	1072.56
337.281	1039.56
337.51	1049.56
337.738	1050.56
337.966	1045.56
338.194	1017.56
338.422	977.56
338.65	971.56
338.878	966.56
339.106	993.56
339.334	1007.56
339.562	970.56
339.79	950.56
340.018	966.56
340.246	932.56
340.474	957.56
340.702	940.56
340.93	954.56
341.158	953.56
341.386	929.56
341.614	958.56
341.842	912.56
342.07	953.56
342.298	934.56
342.526	946.56
342.754	967.56
342.981	972.56
343.209	950.56
343.437	1015.56
343.665	1063.56
343.893	1108.56
344.12	1106.56
344.348	1130.56
344.576	1060.56
344.804	1031.56
345.031	982.56
345.259	991.56
345.487	961.56
345.714	963.56
345.942	935.56
346.17	950.56
346.397	922.56
346.625	915.56
346.853	912.56
347.08	922.56
347.308	936.56
347.535	911.56
347.763	928.56
347.99	927.56
348.218	929.56
348.445	891.56
348.673	886.56
348.9	926.56
349.128	886.56
349.355	895.56
349.583	906.56
349.81	900.56
350.037	921.56
350.265	869.56
350.492	916.56
350.72	855.56
350.947	848.56
351.174	878.56
351.402	897.56
351.629	880.56
351.856	894.56
352.083	888.56
352.311	889.56
352.538	870.56
352.765	895.56
352.992	865.56
353.22	879.56
353.447	911.56
353.674	896.56
353.901	882.56
354.128	872.56
354.355	896.56
354.583	892.56
354.81	895.56
355.037	896.56
355.264	890.56
355.491	890.56
355.718	925.56
355.945	906.56
356.172	866.56
356.399	891.56
356.626	900.56
356.853	884.56
357.08	886.56
357.307	901.56
357.534	876.56
357.761	900.56
357.988	888.56
358.215	881.56
358.441	899.56
358.668	863.56
358.895	888.56
359.122	882.56
359.349	896.56
359.576	893.56
359.802	897.56
360.029	888.56
360.256	902.56
360.483	874.56
360.709	895.56
360.936	888.56
361.163	894.56
361.39	910.56
361.616	890.56
361.843	877.56
362.07	900.56
362.296	913.56
362.523	898.56
362.749	898.56
362.976	902.56
363.203	898.56
363.429	875.56
363.656	876.56
363.882	891.56
364.109	866.56
364.335	886.56
364.562	878.56
364.788	885.56
365.015	900.56
365.241	859.56
365.468	908.56
365.694	894.56
365.92	890.56
366.147	898.56
366.373	909.56
366.599	884.56
366.826	892.56
367.052	885.56
367.278	894.56
367.505	901.56
367.731	900.56
367.957	894.56
368.184	895.56
368.41	920.56
368.636	907.56
368.862	934.56
369.089	898.56
369.315	903.56
369.541	925.56
369.767	937.56
369.993	920.56
370.219	925.56
370.445	940.56
370.672	966.56
370.898	948.56
371.124	932.56
371.35	975.56
371.576	930.56
371.802	950.56
372.028	973.56
372.254	961.56
372.48	976.56
372.706	983.56
372.932	1007.56
373.158	988.56
373.384	982.56
373.61	982.56
373.835	989.56
374.061	964.56
374.287	994.56
374.513	1016.56
374.739	1012.56
374.965	1070.56
375.191	1036.56
375.416	1053.56
375.642	1024.56
375.868	1034.56
376.094	992.56
376.319	1004.56
376.545	1024.56
376.771	996.56
376.997	975.56
377.222	962.56
377.448	964.56
377.674	952.56
377.899	951.56
378.125	956.56
378.35	958.56
378.576	968.56
378.802	950.56
379.027	953.56
379.253	944.56
379.478	944.56
379.704	935.56
379.929	1003.56
380.155	936.56
380.38	971.56
380.606	959.56
380.831	958.56
381.057	950.56
381.282	965.56
381.507	955.56
381.733	997.56
381.958	991.56
382.184	981.56
382.409	990.56
382.634	996.56
382.86	994.56
383.085	1004.56
383.31	1043.56
383.535	1056.56
383.761	1035.56
383.986	1080.56
384.211	1084.56
384.436	1071.56
384.662	1099.56
384.887	1144.56
385.112	1111.56
385.337	1154.56
385.562	1148.56
385.787	1157.56
386.013	1147.56
386.238	1166.56
386.463	1147.56
386.688	1181.56
386.913	1140.56
387.138	1132.56
387.363	1148.56
387.588	1140.56
387.813	1111.56
388.038	1131.56
388.263	1151.56
388.488	1162.56
388.713	1164.56
388.938	1156.56
389.163	1148.56
389.387	1125.56
389.612	1100.56
389.837	1117.56
390.062	1122.56
390.287	1150.56
390.512	1109.56
390.736	1114.56
390.961	1131.56
391.186	1174.56
391.411	1210.56
391.636	1215.56
391.86	1255.56
392.085	1273.56
392.31	1238.56
392.534	1256.56
392.759	1247.56
392.984	1220.56
393.208	1236.56
393.433	1230.56
393.658	1254.56
393.882	1213.56
394.107	1215.56
394.331	1212.56
394.556	1190.56
394.78	1215.56
395.005	1237.56
395.229	1222.56
395.454	1286.56
395.678	1264.56
395.903	1290.56
396.127	1280.56
396.352	1252.56
396.576	1271.56
396.801	1229.56
397.025	1225.56
397.249	1260.56
397.474	1285.56
397.698	1304.56
397.922	1343.56
398.147	1305.56
398.371	1325.56
398.595	1348.56
398.82	1389.56
399.044	1496.56
399.268	1600.56
399.492	1779.56
399.717	1988.56
399.941	2015.56
400.165	1820.56
400.389	1696.56
400.613	1594.56
400.837	1502.56
401.062	1471.56
401.286	1414.56
401.51	1418.56
401.734	1374.56
401.958	1432.56
402.182	1443.56
402.406	1458.56
402.63	1445.56
402.854	1502.56
403.078	1511.56
403.302	1530.56
403.526	1538.56
403.75	1541.56
403.974	1579.56
404.198	1561.56
404.422	1589.56
404.645	1569.56
404.869	1577.56
405.093	1547.56
405.317	1525.56
405.541	1542.56
405.765	1526.56
405.988	1546.56
406.212	1535.56
406.436	1561.56
406.66	1584.56
406.883	1624.56
407.107	1684.56
407.331	1776.56
407.555	1802.56
407.778	1796.56
408.002	1731.56
408.226	1674.56
408.449	1686.56
408.673	1641.56
408.896	1607.56
409.12	1597.56
409.344	1615.56
409.567	1552.56
409.791	1607.56
410.014	1597.56
410.238	1567.56
410.461	1553.56
410.685	1556.56
410.908	1527.56
411.132	1487.56
411.355	1479.56
411.578	1486.56
411.802	1508.56
412.025	1519.56
412.249	1534.56
412.472	1481.56
412.695	1465.56
412.919	1445.56
413.142	1451.56
413.365	1423.56
413.589	1422.56
413.812	1402.56
414.035	1407.56
414.258	1416.56
414.482	1388.56
414.705	1421.56
414.928	1434.56
415.151	1410.56
415.374	1404.56
415.597	1400.56
415.821	1388.56
416.044	1356.56
416.267	1367.56
416.49	1384.56
416.713	1394.56
416.936	1370.56
417.159	1387.56
417.382	1367.56
417.605	1373.56
417.828	1383.56
418.051	1406.56
418.274	1391.56
418.497	1360.56
418.72	1445.56
418.943	1407.56
419.166	1455.56
419.389	1587.56
419.611	1553.56
419.834	1517.56
420.057	1469.56
420.28	1395.56
420.503	1372.56
420.726	1386.56
420.948	1369.56
421.171	1373.56
421.394	1386.56
421.617	1386.56
421.839	1401.56
422.062	1384.56
422.285	1364.56
422.507	1370.56
422.73	1395.56
422.953	1365.56
423.175	1434.56
423.398	1451.56
423.621	1431.56
423.843	1454.56
424.066	1446.56
424.288	1406.56
424.511	1430.56
424.733	1417.56
424.956	1361.56
425.178	1378.56
425.401	1370.56
425.623	1372.56
425.846	1354.56
426.068	1347.56
426.291	1352.56
426.513	1281.56
426.735	1311.56
426.958	1326.56
427.18	1271.56
427.402	1282.56
427.625	1284.56
427.847	1271.56
428.069	1305.56
428.292	1255.56
428.514	1241.56
428.736	1218.56
428.958	1253.56
429.181	1246.56
429.403	1236.56
429.625	1206.56
429.847	1229.56
430.069	1197.56
430.292	1213.56
430.514	1232.56
430.736	1227.56
430.958	1262.56
431.18	1256.56
431.402	1231.56
431.624	1250.56
431.846	1240.56
432.068	1236.56
432.29	1289.56
432.512	1256.56
432.734	1258.56
432.956	1237.56
433.178	1253.56
433.4	1271.56
433.622	1296.56
433.844	1279.56
434.066	1304.56
434.287	1303.56
434.509	1309.56
434.731	1367.56
434.953	1398.56
435.175	1414.56
435.397	1366.56
435.618	1310.56
435.84	1323.56
436.062	1260.56
436.284	1251.56
436.505	1243.56
436.727	1258.56
436.949	1312.56
437.17	1245.56
437.392	1240.56
437.614	1207.56
437.835	1222.56
438.057	1202.56
438.278	1183.56
438.5	1218.56
438.721	1226.56
438.943	1222.56
439.165	1197.56
439.386	1227.56
439.608	1228.56
439.829	1261.56
440.05	1223.56
440.272	1247.56
440.493	1202.56
440.715	1243.56
440.936	1276.56
441.158	1322.56
441.379	1365.56
441.6	1399.56
441.822	1389.56
442.043	1364.56
442.264	1352.56
442.486	1326.56
442.707	1330.56
442.928	1347.56
443.149	1344.56
443.371	1324.56
443.592	1327.56
443.813	1384.56
444.034	1386.56
444.255	1418.56
444.476	1486.56
444.698	1522.56
444.919	1554.56
445.14	1660.56
445.361	1509.56
445.582	1373.56
445.803	1338.56
446.024	1293.56
446.245	1296.56
446.466	1316.56
446.687	1262.56
446.908	1245.56
447.129	1228.56
447.35	1212.56
447.571	1196.56
447.792	1173.56
448.013	1182.56
448.234	1171.56
448.455	1154.56
448.675	1131.56
448.896	1126.56
449.117	1129.56
449.338	1130.56
449.559	1119.56
449.779	1127.56
450	1101.56
450.221	1143.56
450.442	1128.56
450.662	1106.56
450.883	1125.56
451.104	1143.56
451.324	1125.56
451.545	1174.56
451.766	1167.56
451.986	1134.56
452.207	1140.56
452.428	1104.56
452.648	1127.56
452.869	1104.56
453.089	1094.56
453.31	1112.56
453.53	1103.56
453.751	1080.56
453.971	1079.56
454.192	1078.56
454.412	1097.56
454.633	1090.56
454.853	1103.56
455.073	1083.56
455.294	1112.56
455.514	1078.56
455.734	1080.56
455.955	1041.56
456.175	1056.56
456.395	1062.56
456.616	1066.56
456.836	1048.56
457.056	1061.56
457.276	1035.56
457.497	1063.56
457.717	1077.56
457.937	1083.56
458.157	1096.56
458.377	1090.56
458.598	1128.56
458.818	1151.56
459.038	1192.56
459.258	1183.56
459.478	1238.56
459.698	1270.56
459.918	1288.56
460.138	1335.56
460.358	1379.56
460.578	1412.56
460.798	1419.56
461.018	1422.56
461.238	1420.56
461.458	1447.56
461.678	1430.56
461.898	1432.56
462.118	1435.56
462.338	1507.56
462.558	1528.56
462.777	1589.56
462.997	1690.56
463.217	1816.56
463.437	1822.56
463.657	1694.56
463.876	1623.56
464.096	1658.56
464.316	1630.56
464.536	1631.56
464.755	1580.56
464.975	1524.56
465.195	1462.56
465.414	1401.56
465.634	1336.56
465.854	1297.56
466.073	1277.56
466.293	1254.56
466.512	1242.56
466.732	1208.56
466.951	1198.56
467.171	1212.56
467.391	1180.56
467.61	1167.56
467.829	1172.56
468.049	1172.56
468.268	1136.56
468.488	1151.56
468.707	1147.56
468.927	1126.56
469.146	1133.56
469.365	1187.56
469.585	1164.56
469.804	1177.56
470.023	1184.56
470.243	1166.56
470.462	1230.56
470.681	1209.56
470.901	1238.56
471.12	1199.56
471.339	1186.56
471.558	1183.56
471.777	1182.56
471.997	1141.56
472.216	1156.56
472.435	1151.56
472.654	1107.56
472.873	1131.56
473.092	1126.56
473.311	1118.56
473.53	1125.56
473.749	1138.56
473.968	1128.56
474.187	1108.56
474.406	1127.56
474.625	1119.56
474.844	1108.56
475.063	1140.56
475.282	1164.56
475.501	1142.56
475.72	1160.56
475.939	1148.56
476.158	1182.56
476.377	1184.56
476.596	1167.56
476.814	1176.56
477.033	1255.56
477.252	1229.56
477.471	1255.56
477.69	1275.56
477.908	1270.56
478.127	1334.56
478.346	1339.56
478.564	1357.56
478.783	1345.56
479.002	1417.56
479.22	1399.56
479.439	1402.56
479.658	1425.56
479.876	1407.56
480.095	1421.56
480.313	1452.56
480.532	1500.56
480.751	1466.56
480.969	1473.56
481.188	1429.56
481.406	1384.56
481.624	1351.56
481.843	1357.56
482.061	1323.56
482.28	1330.56
482.498	1327.56
482.717	1306.56
482.935	1311.56
483.153	1351.56
483.372	1375.56
483.59	1359.56
483.808	1322.56
484.027	1340.56
484.245	1371.56
484.463	1367.56
484.681	1423.56
484.9	1375.56
485.118	1442.56
485.336	1430.56
485.554	1431.56
485.772	1453.56
485.99	1458.56
486.209	1426.56
486.427	1416.56
486.645	1476.56
486.863	1432.56
487.081	1418.56
487.299	1406.56
487.517	1407.56
487.735	1439.56
487.953	1413.56
488.171	1380.56
488.389	1419.56
488.607	1398.56
488.825	1399.56
489.043	1386.56
489.261	1382.56
489.479	1422.56
489.696	1362.56
489.914	1372.56
490.132	1400.56
490.35	1403.56
490.568	1395.56
490.786	1362.56
491.003	1402.56
491.221	1405.56
491.439	1397.56
491.657	1391.56
491.874	1386.56
492.092	1397.56
492.31	1404.56
492.527	1392.56
492.745	1422.56
492.963	1394.56
493.18	1408.56
493.398	1431.56
493.615	1420.56
493.833	1432.56
494.05	1430.56
494.268	1427.56
