Data from NiCl2@0.25M.TitratingCurve.Agarose3%dH2O.NegLispCup.LampEnergy10.LIBS07252019_HRD10591_18-23-26-572.txt Node
Date: Thu Jul 25 18:23:26 EDT 2019
User: cochatt
Spectrometer: HR+D1059
Trigger mode: 1
Integration Time (sec): 1.000000E-1
Scans to average: 1
Electric dark correction enabled: true
Nonlinearity correction enabled: false
Boxcar width: 0
XAxis mode: Wavelengths
Number of Pixels in Spectrum: 2048
>>>>>Begin Spectral Data<<<<<
223.165	-16.31
223.4	-16.31
223.635	-16.31
223.869	-16.31
224.104	-24.31
224.338	-14.31
224.573	-27.31
224.808	-18.31
225.042	-8.31
225.277	-9.31
225.511	-1.31
225.746	11.69
225.98	-1.31
226.215	19.69
226.449	15.69
226.683	29.69
226.918	32.69
227.152	27.69
227.387	40.69
227.621	46.69
227.856	42.69
228.09	43.69
228.324	51.69
228.559	63.69
228.793	51.69
229.027	94.69
229.262	100.69
229.496	106.69
229.73	90.69
229.964	107.69
230.199	112.69
230.433	121.69
230.667	116.69
230.901	132.69
231.136	110.69
231.37	128.69
231.604	123.69
231.838	143.69
232.072	132.69
232.306	137.69
232.541	143.69
232.775	139.69
233.009	125.69
233.243	124.69
233.477	125.69
233.711	126.69
233.945	126.69
234.179	134.69
234.413	133.69
234.647	122.69
234.881	145.69
235.115	138.69
235.349	132.69
235.583	131.69
235.817	132.69
236.051	124.69
236.285	128.69
236.519	139.69
236.753	144.69
236.987	138.69
237.221	122.69
237.455	127.69
237.689	138.69
237.922	132.69
238.156	146.69
238.39	134.69
238.624	150.69
238.858	140.69
239.091	148.69
239.325	135.69
239.559	151.69
239.793	158.69
240.027	155.69
240.26	144.69
240.494	151.69
240.728	148.69
240.961	132.69
241.195	173.69
241.429	150.69
241.662	150.69
241.896	154.69
242.13	162.69
242.363	172.69
242.597	166.69
242.83	145.69
243.064	151.69
243.298	151.69
243.531	161.69
243.765	160.69
243.998	172.69
244.232	163.69
244.465	183.69
244.699	174.69
244.932	168.69
245.166	175.69
245.399	195.69
245.633	173.69
245.866	174.69
246.099	177.69
246.333	175.69
246.566	162.69
246.8	190.69
247.033	191.69
247.266	196.69
247.5	198.69
247.733	189.69
247.966	174.69
248.2	204.69
248.433	198.69
248.666	170.69
248.899	194.69
249.133	197.69
249.366	203.69
249.599	206.69
249.832	182.69
250.066	180.69
250.299	198.69
250.532	203.69
250.765	214.69
250.998	198.69
251.231	208.69
251.465	206.69
251.698	210.69
251.931	206.69
252.164	217.69
252.397	205.69
252.63	218.69
252.863	203.69
253.096	201.69
253.329	212.69
253.562	218.69
253.795	220.69
254.028	214.69
254.261	211.69
254.494	213.69
254.727	229.69
254.96	229.69
255.193	223.69
255.426	220.69
255.659	212.69
255.892	212.69
256.124	231.69
256.357	220.69
256.59	228.69
256.823	240.69
257.056	238.69
257.289	239.69
257.521	237.69
257.754	236.69
257.987	224.69
258.22	222.69
258.452	242.69
258.685	247.69
258.918	242.69
259.151	222.69
259.383	228.69
259.616	247.69
259.849	246.69
260.081	252.69
260.314	247.69
260.547	251.69
260.779	250.69
261.012	244.69
261.244	239.69
261.477	254.69
261.71	249.69
261.942	270.69
262.175	255.69
262.407	264.69
262.64	260.69
262.872	272.69
263.105	262.69
263.337	278.69
263.57	268.69
263.802	256.69
264.035	248.69
264.267	260.69
264.499	270.69
264.732	267.69
264.964	251.69
265.197	281.69
265.429	273.69
265.661	268.69
265.894	260.69
266.126	279.69
266.358	275.69
266.591	291.69
266.823	274.69
267.055	281.69
267.287	282.69
267.52	255.69
267.752	286.69
267.984	288.69
268.216	300.69
268.448	264.69
268.681	292.69
268.913	266.69
269.145	286.69
269.377	272.69
269.609	290.69
269.841	282.69
270.073	272.69
270.306	285.69
270.538	288.69
270.77	285.69
271.002	295.69
271.234	289.69
271.466	296.69
271.698	309.69
271.93	315.69
272.162	304.69
272.394	304.69
272.626	298.69
272.858	293.69
273.09	287.69
273.322	298.69
273.553	284.69
273.785	312.69
274.017	314.69
274.249	296.69
274.481	314.69
274.713	314.69
274.945	322.69
275.176	324.69
275.408	327.69
275.64	333.69
275.872	315.69
276.104	344.69
276.335	336.69
276.567	331.69
276.799	310.69
277.031	335.69
277.262	308.69
277.494	341.69
277.726	346.69
277.957	325.69
278.189	314.69
278.421	326.69
278.652	342.69
278.884	349.69
279.115	348.69
279.347	336.69
279.579	340.69
279.81	336.69
280.042	338.69
280.273	334.69
280.505	330.69
280.736	342.69
280.968	343.69
281.199	339.69
281.431	347.69
281.662	348.69
281.894	346.69
282.125	346.69
282.356	349.69
282.588	348.69
282.819	359.69
283.051	377.69
283.282	371.69
283.513	358.69
283.745	368.69
283.976	352.69
284.207	386.69
284.439	368.69
284.67	372.69
284.901	366.69
285.132	377.69
285.364	360.69
285.595	384.69
285.826	367.69
286.057	388.69
286.288	359.69
286.52	392.69
286.751	383.69
286.982	374.69
287.213	381.69
287.444	393.69
287.675	391.69
287.906	397.69
288.138	386.69
288.369	402.69
288.6	398.69
288.831	391.69
289.062	373.69
289.293	381.69
289.524	392.69
289.755	410.69
289.986	385.69
290.217	392.69
290.448	379.69
290.679	395.69
290.91	407.69
291.141	411.69
291.371	411.69
291.602	406.69
291.833	401.69
292.064	386.69
292.295	395.69
292.526	415.69
292.757	399.69
292.987	394.69
293.218	390.69
293.449	406.69
293.68	404.69
293.91	398.69
294.141	382.69
294.372	405.69
294.603	398.69
294.833	424.69
295.064	408.69
295.295	408.69
295.525	406.69
295.756	403.69
295.987	396.69
296.217	432.69
296.448	413.69
296.679	423.69
296.909	414.69
297.14	407.69
297.37	419.69
297.601	430.69
297.831	408.69
298.062	435.69
298.292	440.69
298.523	438.69
298.753	445.69
298.984	426.69
299.214	434.69
299.445	409.69
299.675	406.69
299.905	440.69
300.136	440.69
300.366	456.69
300.597	445.69
300.827	458.69
301.057	458.69
301.288	456.69
301.518	474.69
301.748	474.69
301.979	471.69
302.209	473.69
302.439	449.69
302.669	436.69
302.9	444.69
303.13	461.69
303.36	458.69
303.59	442.69
303.82	454.69
304.051	448.69
304.281	486.69
304.511	479.69
304.741	459.69
304.971	469.69
305.201	461.69
305.431	452.69
305.661	469.69
305.891	440.69
306.121	448.69
306.352	452.69
306.582	447.69
306.812	444.69
307.042	461.69
307.272	452.69
307.502	421.69
307.731	430.69
307.961	451.69
308.191	454.69
308.421	428.69
308.651	436.69
308.881	441.69
309.111	446.69
309.341	458.69
309.571	447.69
309.8	479.69
310.03	444.69
310.26	438.69
310.49	466.69
310.72	453.69
310.949	437.69
311.179	455.69
311.409	446.69
311.639	450.69
311.868	451.69
312.098	463.69
312.328	461.69
312.557	447.69
312.787	485.69
313.017	463.69
313.246	490.69
313.476	482.69
313.706	487.69
313.935	500.69
314.165	468.69
314.394	499.69
314.624	482.69
314.853	490.69
315.083	473.69
315.312	483.69
315.542	499.69
315.771	458.69
316.001	475.69
316.23	490.69
316.46	469.69
316.689	471.69
316.919	477.69
317.148	470.69
317.377	477.69
317.607	475.69
317.836	484.69
318.065	469.69
318.295	462.69
318.524	470.69
318.753	473.69
318.983	477.69
319.212	468.69
319.441	444.69
319.67	475.69
319.9	455.69
320.129	474.69
320.358	467.69
320.587	453.69
320.816	492.69
321.046	474.69
321.275	480.69
321.504	469.69
321.733	474.69
321.962	487.69
322.191	482.69
322.42	468.69
322.649	482.69
322.878	491.69
323.108	479.69
323.337	488.69
323.566	483.69
323.795	503.69
324.024	486.69
324.253	479.69
324.482	485.69
324.71	491.69
324.939	515.69
325.168	517.69
325.397	464.69
325.626	491.69
325.855	496.69
326.084	538.69
326.313	526.69
326.542	512.69
326.77	526.69
326.999	518.69
327.228	510.69
327.457	512.69
327.686	512.69
327.914	518.69
328.143	542.69
328.372	534.69
328.6	521.69
328.829	527.69
329.058	516.69
329.287	512.69
329.515	530.69
329.744	534.69
329.972	521.69
330.201	528.69
330.43	556.69
330.658	526.69
330.887	547.69
331.115	534.69
331.344	526.69
331.572	535.69
331.801	546.69
332.03	568.69
332.258	579.69
332.486	617.69
332.715	596.69
332.943	638.69
333.172	676.69
333.4	685.69
333.629	681.69
333.857	717.69
334.085	672.69
334.314	673.69
334.542	650.69
334.771	653.69
334.999	628.69
335.227	659.69
335.455	636.69
335.684	643.69
335.912	628.69
336.14	631.69
336.369	635.69
336.597	639.69
336.825	630.69
337.053	619.69
337.281	626.69
337.51	587.69
337.738	570.69
337.966	541.69
338.194	589.69
338.422	572.69
338.65	580.69
338.878	556.69
339.106	580.69
339.334	593.69
339.562	582.69
339.79	550.69
340.018	548.69
340.246	547.69
340.474	542.69
340.702	548.69
340.93	545.69
341.158	551.69
341.386	555.69
341.614	567.69
341.842	549.69
342.07	550.69
342.298	556.69
342.526	557.69
342.754	568.69
342.981	547.69
343.209	579.69
343.437	606.69
343.665	617.69
343.893	647.69
344.12	664.69
344.348	633.69
344.576	605.69
344.804	596.69
345.031	576.69
345.259	558.69
345.487	554.69
345.714	542.69
345.942	538.69
346.17	525.69
346.397	549.69
346.625	540.69
346.853	520.69
347.08	520.69
347.308	521.69
347.535	532.69
347.763	538.69
347.99	523.69
348.218	546.69
348.445	523.69
348.673	508.69
348.9	515.69
349.128	547.69
349.355	525.69
349.583	532.69
349.81	523.69
350.037	524.69
350.265	505.69
350.492	498.69
350.72	517.69
350.947	524.69
351.174	518.69
351.402	522.69
351.629	534.69
351.856	543.69
352.083	510.69
352.311	495.69
352.538	525.69
352.765	512.69
352.992	516.69
353.22	509.69
353.447	518.69
353.674	499.69
353.901	500.69
354.128	491.69
354.355	498.69
354.583	474.69
354.81	506.69
355.037	520.69
355.264	530.69
355.491	499.69
355.718	500.69
355.945	527.69
356.172	533.69
356.399	522.69
356.626	505.69
356.853	521.69
357.08	546.69
357.307	522.69
357.534	486.69
357.761	520.69
357.988	519.69
358.215	529.69
358.441	508.69
358.668	507.69
358.895	517.69
359.122	507.69
359.349	516.69
359.576	532.69
359.802	510.69
360.029	498.69
360.256	512.69
360.483	517.69
360.709	504.69
360.936	510.69
361.163	522.69
361.39	529.69
361.616	508.69
361.843	527.69
362.07	517.69
362.296	516.69
362.523	526.69
362.749	525.69
362.976	512.69
363.203	520.69
363.429	518.69
363.656	509.69
363.882	481.69
364.109	522.69
364.335	503.69
364.562	515.69
364.788	504.69
365.015	511.69
365.241	513.69
365.468	514.69
365.694	495.69
365.92	507.69
366.147	503.69
366.373	502.69
366.599	524.69
366.826	498.69
367.052	508.69
367.278	526.69
367.505	508.69
367.731	499.69
367.957	499.69
368.184	503.69
368.41	513.69
368.636	510.69
368.862	518.69
369.089	525.69
369.315	520.69
369.541	528.69
369.767	514.69
369.993	527.69
370.219	532.69
370.445	537.69
370.672	508.69
370.898	560.69
371.124	556.69
371.35	572.69
371.576	572.69
371.802	571.69
372.028	534.69
372.254	548.69
372.48	574.69
372.706	587.69
372.932	586.69
373.158	580.69
373.384	551.69
373.61	555.69
373.835	560.69
374.061	566.69
374.287	565.69
374.513	568.69
374.739	591.69
374.965	606.69
375.191	626.69
375.416	611.69
375.642	589.69
375.868	590.69
376.094	572.69
376.319	572.69
376.545	577.69
376.771	578.69
376.997	574.69
377.222	546.69
377.448	546.69
377.674	543.69
377.899	564.69
378.125	558.69
378.35	551.69
378.576	547.69
378.802	568.69
379.027	552.69
379.253	558.69
379.478	529.69
379.704	553.69
379.929	535.69
380.155	536.69
380.38	550.69
380.606	553.69
380.831	529.69
381.057	565.69
381.282	566.69
381.507	567.69
381.733	553.69
381.958	545.69
382.184	571.69
382.409	590.69
382.634	591.69
382.86	566.69
383.085	590.69
383.31	595.69
383.535	608.69
383.761	637.69
383.986	613.69
384.211	618.69
384.436	617.69
384.662	650.69
384.887	665.69
385.112	661.69
385.337	654.69
385.562	684.69
385.787	656.69
386.013	664.69
386.238	664.69
386.463	655.69
386.688	673.69
386.913	654.69
387.138	649.69
387.363	639.69
387.588	649.69
387.813	643.69
388.038	648.69
388.263	660.69
388.488	660.69
388.713	661.69
388.938	666.69
389.163	632.69
389.387	638.69
389.612	668.69
389.837	639.69
390.062	637.69
390.287	664.69
390.512	645.69
390.736	648.69
390.961	677.69
391.186	676.69
391.411	678.69
391.636	705.69
391.86	712.69
392.085	740.69
392.31	743.69
392.534	680.69
392.759	721.69
392.984	700.69
393.208	719.69
393.433	699.69
393.658	736.69
393.882	719.69
394.107	696.69
394.331	704.69
394.556	702.69
394.78	709.69
395.005	702.69
395.229	710.69
395.454	743.69
395.678	743.69
395.903	773.69
396.127	740.69
396.352	714.69
396.576	686.69
396.801	694.69
397.025	699.69
397.249	718.69
397.474	756.69
397.698	739.69
397.922	742.69
398.147	744.69
398.371	756.69
398.595	791.69
398.82	826.69
399.044	862.69
399.268	980.69
399.492	1096.69
399.717	1204.69
399.941	1201.69
400.165	1064.69
400.389	982.69
400.613	931.69
400.837	886.69
401.062	845.69
401.286	847.69
401.51	811.69
401.734	826.69
401.958	846.69
402.182	835.69
402.406	854.69
402.63	864.69
402.854	879.69
403.078	886.69
403.302	898.69
403.526	904.69
403.75	947.69
403.974	930.69
404.198	939.69
404.422	940.69
404.645	932.69
404.869	924.69
405.093	946.69
405.317	889.69
405.541	905.69
405.765	921.69
405.988	893.69
406.212	878.69
406.436	897.69
406.66	912.69
406.883	933.69
407.107	978.69
407.331	1049.69
407.555	1039.69
407.778	1071.69
408.002	1031.69
408.226	981.69
408.449	966.69
408.673	922.69
408.896	931.69
409.12	954.69
409.344	929.69
409.567	914.69
409.791	902.69
410.014	920.69
410.238	887.69
410.461	919.69
410.685	898.69
410.908	863.69
411.132	870.69
411.355	826.69
411.578	855.69
411.802	875.69
412.025	886.69
412.249	854.69
412.472	863.69
412.695	834.69
412.919	823.69
413.142	810.69
413.365	820.69
413.589	844.69
413.812	803.69
414.035	808.69
414.258	805.69
414.482	800.69
414.705	822.69
414.928	848.69
415.151	830.69
415.374	839.69
415.597	818.69
415.821	811.69
416.044	794.69
416.267	775.69
416.49	798.69
416.713	810.69
416.936	801.69
417.159	811.69
417.382	791.69
417.605	782.69
417.828	789.69
418.051	801.69
418.274	815.69
418.497	821.69
418.72	837.69
418.943	826.69
419.166	874.69
419.389	925.69
419.611	902.69
419.834	873.69
420.057	842.69
420.28	840.69
420.503	809.69
420.726	816.69
420.948	804.69
421.171	802.69
421.394	793.69
421.617	812.69
421.839	822.69
422.062	835.69
422.285	778.69
422.507	806.69
422.73	830.69
422.953	832.69
423.175	829.69
423.398	856.69
423.621	837.69
423.843	860.69
424.066	869.69
424.288	845.69
424.511	845.69
424.733	852.69
424.956	828.69
425.178	799.69
425.401	805.69
425.623	818.69
425.846	786.69
426.068	794.69
426.291	780.69
426.513	775.69
426.735	785.69
426.958	790.69
427.18	747.69
427.402	734.69
427.625	738.69
427.847	693.69
428.069	716.69
428.292	740.69
428.514	734.69
428.736	740.69
428.958	724.69
429.181	743.69
429.403	719.69
429.625	690.69
429.847	685.69
430.069	717.69
430.292	691.69
430.514	698.69
430.736	697.69
430.958	712.69
431.18	724.69
431.402	736.69
431.624	723.69
431.846	738.69
432.068	719.69
432.29	720.69
432.512	701.69
432.734	712.69
432.956	724.69
433.178	726.69
433.4	739.69
433.622	731.69
433.844	733.69
434.066	766.69
434.287	766.69
434.509	774.69
434.731	813.69
434.953	815.69
435.175	815.69
435.397	789.69
435.618	749.69
435.84	730.69
436.062	755.69
436.284	739.69
436.505	719.69
436.727	760.69
436.949	725.69
437.17	721.69
437.392	702.69
437.614	706.69
437.835	694.69
438.057	700.69
438.278	698.69
438.5	684.69
438.721	684.69
438.943	710.69
439.165	703.69
439.386	722.69
439.608	705.69
439.829	719.69
440.05	711.69
440.272	736.69
440.493	726.69
440.715	743.69
440.936	744.69
441.158	762.69
441.379	756.69
441.6	823.69
441.822	837.69
442.043	825.69
442.264	822.69
442.486	808.69
442.707	807.69
442.928	813.69
443.149	802.69
443.371	811.69
443.592	795.69
443.813	803.69
444.034	810.69
444.255	846.69
444.476	892.69
444.698	922.69
444.919	940.69
445.14	1047.69
445.361	922.69
445.582	842.69
445.803	777.69
446.024	766.69
446.245	746.69
446.466	757.69
446.687	762.69
446.908	739.69
447.129	703.69
447.35	715.69
447.571	711.69
447.792	683.69
448.013	690.69
448.234	683.69
448.455	702.69
448.675	666.69
448.896	680.69
449.117	669.69
449.338	646.69
449.559	634.69
449.779	661.69
450	676.69
450.221	675.69
450.442	655.69
450.662	673.69
450.883	656.69
451.104	706.69
451.324	660.69
451.545	668.69
451.766	650.69
451.986	637.69
452.207	656.69
452.428	668.69
452.648	661.69
452.869	675.69
453.089	654.69
453.31	668.69
453.53	680.69
453.751	645.69
453.971	651.69
454.192	646.69
454.412	637.69
454.633	633.69
454.853	652.69
455.073	628.69
455.294	611.69
455.514	615.69
455.734	628.69
455.955	616.69
456.175	622.69
456.395	626.69
456.616	610.69
456.836	614.69
457.056	626.69
457.276	620.69
457.497	616.69
457.717	637.69
457.937	636.69
458.157	627.69
458.377	630.69
458.598	634.69
458.818	668.69
459.038	683.69
459.258	700.69
459.478	738.69
459.698	757.69
459.918	780.69
460.138	811.69
460.358	829.69
460.578	819.69
460.798	864.69
461.018	843.69
461.238	832.69
461.458	851.69
461.678	851.69
461.898	853.69
462.118	887.69
462.338	914.69
462.558	950.69
462.777	981.69
462.997	1040.69
463.217	1142.69
463.437	1125.69
463.657	1030.69
463.876	992.69
464.096	992.69
464.316	968.69
464.536	993.69
464.755	943.69
464.975	918.69
465.195	900.69
465.414	829.69
465.634	752.69
465.854	760.69
466.073	742.69
466.293	695.69
466.512	716.69
466.732	698.69
466.951	703.69
467.171	701.69
467.391	713.69
467.61	686.69
467.829	680.69
468.049	680.69
468.268	717.69
468.488	652.69
468.707	672.69
468.927	663.69
469.146	682.69
469.365	688.69
469.585	687.69
469.804	672.69
470.023	728.69
470.243	716.69
470.462	716.69
470.681	730.69
470.901	739.69
471.12	730.69
471.339	721.69
471.558	714.69
471.777	700.69
471.997	688.69
472.216	693.69
472.435	660.69
472.654	648.69
472.873	669.69
473.092	654.69
473.311	663.69
473.53	684.69
473.749	650.69
473.968	657.69
474.187	658.69
474.406	672.69
474.625	671.69
474.844	646.69
475.063	664.69
475.282	666.69
475.501	644.69
475.72	662.69
475.939	678.69
476.158	698.69
476.377	694.69
476.596	663.69
476.814	697.69
477.033	688.69
477.252	720.69
477.471	730.69
477.69	747.69
477.908	746.69
478.127	771.69
478.346	792.69
478.564	786.69
478.783	805.69
479.002	822.69
479.22	848.69
479.439	802.69
479.658	838.69
479.876	806.69
480.095	840.69
480.313	862.69
480.532	902.69
480.751	894.69
480.969	813.69
481.188	807.69
481.406	758.69
481.624	766.69
481.843	771.69
482.061	766.69
482.28	773.69
482.498	738.69
482.717	728.69
482.935	740.69
483.153	735.69
483.372	761.69
483.59	748.69
483.808	766.69
484.027	750.69
484.245	780.69
484.463	758.69
484.681	748.69
484.9	768.69
485.118	783.69
485.336	777.69
485.554	788.69
485.772	799.69
485.99	775.69
486.209	801.69
486.427	778.69
486.645	794.69
486.863	801.69
487.081	784.69
487.299	792.69
487.517	764.69
487.735	780.69
487.953	822.69
488.171	795.69
488.389	772.69
488.607	778.69
488.825	768.69
489.043	772.69
489.261	765.69
489.479	774.69
489.696	803.69
489.914	780.69
490.132	768.69
490.35	786.69
490.568	802.69
490.786	795.69
491.003	804.69
491.221	787.69
491.439	790.69
491.657	831.69
491.874	826.69
492.092	823.69
492.31	807.69
492.527	840.69
492.745	823.69
492.963	825.69
493.18	826.69
493.398	824.69
493.615	831.69
493.833	848.69
494.05	857.69
494.268	850.69
494.485	829.69
494.703	828.69
494.92	835.69
495.138	823.69
495.355	822.69
495.573	846.69
495.79	854.69
496.008	871.69
496.225	847.69
496.442	876.69
496.66	889.69
496.877	875.69
497.094	898.69
497.312	913.69
497.529	925.69
497.746	935.69
497.963	970.69
498.181	1019.69
498.398	1046.69
498.615	1127.69
498.832	1192.69
499.049	1283.69
499.267	1388.69
499.484	1446.69
499.701	1642.69
499.918	1825.69
500.135	2086.69
500.352	2275.69
500.569	2434.69
500.786	2397.69
501.003	2261.69
501.22	2047.69
