Data from NiCl2@0.0625M.TitratingCurve.Agarose3%dH2O.NegLispCup.LampEnergy10.LIBS07252019_HRD10591_18-34-12-576.txt Node
Date: Thu Jul 25 18:34:12 EDT 2019
User: cochatt
Spectrometer: HR+D1059
Trigger mode: 1
Integration Time (sec): 1.000000E-1
Scans to average: 1
Electric dark correction enabled: true
Nonlinearity correction enabled: false
Boxcar width: 0
XAxis mode: Wavelengths
Number of Pixels in Spectrum: 2048
>>>>>Begin Spectral Data<<<<<
223.165	3.81
223.4	3.81
223.635	3.81
223.869	-21.19
224.104	-19.19
224.338	-21.19
224.573	-17.19
224.808	-16.19
225.042	-2.19
225.277	-15.19
225.511	-2.19
225.746	-3.19
225.98	5.81
226.215	14.81
226.449	21.81
226.683	19.81
226.918	15.81
227.152	35.81
227.387	24.81
227.621	27.81
227.856	41.81
228.09	45.81
228.324	55.81
228.559	63.81
228.793	76.81
229.027	133.81
229.262	145.81
229.496	154.81
229.73	165.81
229.964	168.81
230.199	165.81
230.433	166.81
230.667	175.81
230.901	187.81
231.136	180.81
231.37	186.81
231.604	199.81
231.838	189.81
232.072	186.81
232.306	201.81
232.541	181.81
232.775	191.81
233.009	200.81
233.243	189.81
233.477	195.81
233.711	194.81
233.945	189.81
234.179	202.81
234.413	212.81
234.647	216.81
234.881	212.81
235.115	210.81
235.349	201.81
235.583	192.81
235.817	212.81
236.051	221.81
236.285	214.81
236.519	219.81
236.753	219.81
236.987	230.81
237.221	216.81
237.455	229.81
237.689	222.81
237.922	230.81
238.156	227.81
238.39	227.81
238.624	234.81
238.858	223.81
239.091	245.81
239.325	248.81
239.559	248.81
239.793	245.81
240.027	243.81
240.26	248.81
240.494	259.81
240.728	259.81
240.961	275.81
241.195	282.81
241.429	263.81
241.662	280.81
241.896	284.81
242.13	291.81
242.363	271.81
242.597	275.81
242.83	276.81
243.064	279.81
243.298	307.81
243.531	298.81
243.765	320.81
243.998	308.81
244.232	303.81
244.465	309.81
244.699	319.81
244.932	307.81
245.166	308.81
245.399	311.81
245.633	326.81
245.866	320.81
246.099	340.81
246.333	350.81
246.566	327.81
246.8	313.81
247.033	355.81
247.266	351.81
247.5	336.81
247.733	331.81
247.966	341.81
248.2	359.81
248.433	340.81
248.666	352.81
248.899	382.81
249.133	361.81
249.366	351.81
249.599	369.81
249.832	363.81
250.066	389.81
250.299	405.81
250.532	363.81
250.765	386.81
250.998	375.81
251.231	386.81
251.465	399.81
251.698	409.81
251.931	395.81
252.164	392.81
252.397	394.81
252.63	401.81
252.863	411.81
253.096	416.81
253.329	405.81
253.562	420.81
253.795	407.81
254.028	418.81
254.261	435.81
254.494	427.81
254.727	420.81
254.96	423.81
255.193	448.81
255.426	423.81
255.659	422.81
255.892	443.81
256.124	451.81
256.357	454.81
256.59	449.81
256.823	474.81
257.056	455.81
257.289	456.81
257.521	466.81
257.754	457.81
257.987	454.81
258.22	464.81
258.452	459.81
258.685	479.81
258.918	449.81
259.151	472.81
259.383	477.81
259.616	487.81
259.849	484.81
260.081	477.81
260.314	485.81
260.547	497.81
260.779	495.81
261.012	501.81
261.244	498.81
261.477	502.81
261.71	515.81
261.942	511.81
262.175	504.81
262.407	513.81
262.64	523.81
262.872	512.81
263.105	533.81
263.337	523.81
263.57	515.81
263.802	526.81
264.035	522.81
264.267	522.81
264.499	534.81
264.732	545.81
264.964	544.81
265.197	550.81
265.429	565.81
265.661	549.81
265.894	563.81
266.126	557.81
266.358	547.81
266.591	562.81
266.823	561.81
267.055	589.81
267.287	559.81
267.52	596.81
267.752	591.81
267.984	589.81
268.216	599.81
268.448	573.81
268.681	601.81
268.913	574.81
269.145	594.81
269.377	584.81
269.609	588.81
269.841	593.81
270.073	618.81
270.306	606.81
270.538	607.81
270.77	624.81
271.002	603.81
271.234	593.81
271.466	625.81
271.698	627.81
271.93	621.81
272.162	632.81
272.394	629.81
272.626	647.81
272.858	637.81
273.09	645.81
273.322	626.81
273.553	614.81
273.785	643.81
274.017	661.81
274.249	641.81
274.481	637.81
274.713	662.81
274.945	663.81
275.176	682.81
275.408	659.81
275.64	680.81
275.872	678.81
276.104	675.81
276.335	678.81
276.567	691.81
276.799	680.81
277.031	673.81
277.262	680.81
277.494	671.81
277.726	661.81
277.957	701.81
278.189	682.81
278.421	698.81
278.652	697.81
278.884	679.81
279.115	713.81
279.347	714.81
279.579	716.81
279.81	725.81
280.042	719.81
280.273	723.81
280.505	732.81
280.736	705.81
280.968	720.81
281.199	713.81
281.431	744.81
281.662	742.81
281.894	768.81
282.125	748.81
282.356	743.81
282.588	765.81
282.819	736.81
283.051	737.81
283.282	753.81
283.513	752.81
283.745	761.81
283.976	774.81
284.207	775.81
284.439	781.81
284.67	775.81
284.901	811.81
285.132	794.81
285.364	769.81
285.595	811.81
285.826	784.81
286.057	796.81
286.288	775.81
286.52	777.81
286.751	817.81
286.982	795.81
287.213	794.81
287.444	800.81
287.675	825.81
287.906	811.81
288.138	819.81
288.369	804.81
288.6	811.81
288.831	819.81
289.062	803.81
289.293	849.81
289.524	829.81
289.755	820.81
289.986	809.81
290.217	825.81
290.448	828.81
290.679	803.81
290.91	825.81
291.141	824.81
291.371	813.81
291.602	848.81
291.833	831.81
292.064	832.81
292.295	851.81
292.526	874.81
292.757	840.81
292.987	835.81
293.218	835.81
293.449	838.81
293.68	871.81
293.91	839.81
294.141	830.81
294.372	841.81
294.603	849.81
294.833	841.81
295.064	838.81
295.295	851.81
295.525	831.81
295.756	861.81
295.987	856.81
296.217	885.81
296.448	855.81
296.679	856.81
296.909	872.81
297.14	857.81
297.37	900.81
297.601	890.81
297.831	882.81
298.062	902.81
298.292	912.81
298.523	903.81
298.753	921.81
298.984	913.81
299.214	896.81
299.445	902.81
299.675	897.81
299.905	897.81
300.136	909.81
300.366	903.81
300.597	903.81
300.827	944.81
301.057	948.81
301.288	925.81
301.518	927.81
301.748	940.81
301.979	955.81
302.209	969.81
302.439	943.81
302.669	957.81
302.9	949.81
303.13	952.81
303.36	953.81
303.59	967.81
303.82	951.81
304.051	974.81
304.281	948.81
304.511	968.81
304.741	966.81
304.971	977.81
305.201	961.81
305.431	965.81
305.661	972.81
305.891	962.81
306.121	932.81
306.352	976.81
306.582	953.81
306.812	935.81
307.042	959.81
307.272	953.81
307.502	937.81
307.731	933.81
307.961	945.81
308.191	958.81
308.421	951.81
308.651	980.81
308.881	925.81
309.111	943.81
309.341	945.81
309.571	952.81
309.8	957.81
310.03	940.81
310.26	952.81
310.49	946.81
310.72	956.81
310.949	945.81
311.179	951.81
311.409	991.81
311.639	976.81
311.868	979.81
312.098	970.81
312.328	985.81
312.557	985.81
312.787	1011.81
313.017	992.81
313.246	1000.81
313.476	1010.81
313.706	999.81
313.935	1013.81
314.165	1011.81
314.394	1015.81
314.624	1017.81
314.853	1019.81
315.083	1029.81
315.312	1004.81
315.542	1044.81
315.771	1021.81
316.001	995.81
316.23	1005.81
316.46	1000.81
316.689	1018.81
316.919	1046.81
317.148	1023.81
317.377	1032.81
317.607	1015.81
317.836	1020.81
318.065	992.81
318.295	1025.81
318.524	1004.81
318.753	1033.81
318.983	1028.81
319.212	1008.81
319.441	994.81
319.67	1019.81
319.9	1004.81
320.129	1017.81
320.358	1040.81
320.587	1050.81
320.816	1025.81
321.046	1030.81
321.275	1028.81
321.504	1027.81
321.733	1018.81
321.962	1005.81
322.191	1050.81
322.42	1036.81
322.649	1024.81
322.878	1035.81
323.108	1040.81
323.337	1066.81
323.566	1060.81
323.795	1060.81
324.024	1065.81
324.253	1051.81
324.482	1063.81
324.71	1061.81
324.939	1065.81
325.168	1063.81
325.397	1048.81
325.626	1064.81
325.855	1092.81
326.084	1122.81
326.313	1125.81
326.542	1095.81
326.77	1130.81
326.999	1106.81
327.228	1110.81
327.457	1128.81
327.686	1130.81
327.914	1097.81
328.143	1105.81
328.372	1091.81
328.6	1099.81
328.829	1097.81
329.058	1124.81
329.287	1111.81
329.515	1117.81
329.744	1131.81
329.972	1147.81
330.201	1125.81
330.43	1127.81
330.658	1141.81
330.887	1161.81
331.115	1183.81
331.344	1175.81
331.572	1141.81
331.801	1201.81
332.03	1160.81
332.258	1187.81
332.486	1250.81
332.715	1240.81
332.943	1279.81
333.172	1317.81
333.4	1361.81
333.629	1365.81
333.857	1413.81
334.085	1417.81
334.314	1396.81
334.542	1381.81
334.771	1395.81
334.999	1368.81
335.227	1373.81
335.455	1352.81
335.684	1327.81
335.912	1364.81
336.14	1344.81
336.369	1360.81
336.597	1353.81
336.825	1305.81
337.053	1313.81
337.281	1303.81
337.51	1292.81
337.738	1291.81
337.966	1254.81
338.194	1256.81
338.422	1230.81
338.65	1226.81
338.878	1213.81
339.106	1248.81
339.334	1218.81
339.562	1204.81
339.79	1212.81
340.018	1157.81
340.246	1172.81
340.474	1168.81
340.702	1203.81
340.93	1166.81
341.158	1154.81
341.386	1149.81
341.614	1155.81
341.842	1207.81
342.07	1175.81
342.298	1163.81
342.526	1178.81
342.754	1172.81
342.981	1169.81
343.209	1202.81
343.437	1219.81
343.665	1281.81
343.893	1323.81
344.12	1367.81
344.348	1359.81
344.576	1256.81
344.804	1271.81
345.031	1199.81
345.259	1205.81
345.487	1179.81
345.714	1157.81
345.942	1148.81
346.17	1155.81
346.397	1162.81
346.625	1131.81
346.853	1125.81
347.08	1138.81
347.308	1153.81
347.535	1092.81
347.763	1123.81
347.99	1119.81
348.218	1121.81
348.445	1153.81
348.673	1115.81
348.9	1095.81
349.128	1111.81
349.355	1088.81
349.583	1103.81
349.81	1096.81
350.037	1097.81
350.265	1079.81
350.492	1085.81
350.72	1077.81
350.947	1075.81
351.174	1088.81
351.402	1058.81
351.629	1113.81
351.856	1105.81
352.083	1065.81
352.311	1061.81
352.538	1060.81
352.765	1076.81
352.992	1030.81
353.22	1051.81
353.447	1067.81
353.674	1093.81
353.901	1065.81
354.128	1049.81
354.355	1054.81
354.583	1092.81
354.81	1084.81
355.037	1042.81
355.264	1066.81
355.491	1073.81
355.718	1045.81
355.945	1119.81
356.172	1075.81
356.399	1089.81
356.626	1102.81
356.853	1083.81
357.08	1050.81
357.307	1092.81
357.534	1071.81
357.761	1084.81
357.988	1047.81
358.215	1067.81
358.441	1072.81
358.668	1038.81
358.895	1056.81
359.122	1060.81
359.349	1065.81
359.576	1053.81
359.802	1087.81
360.029	1088.81
360.256	1111.81
360.483	1088.81
360.709	1079.81
360.936	1113.81
361.163	1085.81
361.39	1093.81
361.616	1085.81
361.843	1086.81
362.07	1097.81
362.296	1088.81
362.523	1066.81
362.749	1070.81
362.976	1077.81
363.203	1087.81
363.429	1079.81
363.656	1074.81
363.882	1092.81
364.109	1099.81
364.335	1093.81
364.562	1101.81
364.788	1068.81
365.015	1097.81
365.241	1107.81
365.468	1074.81
365.694	1098.81
365.92	1099.81
366.147	1087.81
366.373	1077.81
366.599	1096.81
366.826	1101.81
367.052	1110.81
367.278	1113.81
367.505	1099.81
367.731	1143.81
367.957	1068.81
368.184	1117.81
368.41	1104.81
368.636	1108.81
368.862	1105.81
369.089	1125.81
369.315	1153.81
369.541	1127.81
369.767	1143.81
369.993	1126.81
370.219	1151.81
370.445	1153.81
370.672	1174.81
370.898	1171.81
371.124	1165.81
371.35	1171.81
371.576	1173.81
371.802	1167.81
372.028	1174.81
372.254	1189.81
372.48	1187.81
372.706	1187.81
372.932	1215.81
373.158	1207.81
373.384	1203.81
373.61	1171.81
373.835	1173.81
374.061	1171.81
374.287	1180.81
374.513	1213.81
374.739	1222.81
374.965	1244.81
375.191	1256.81
375.416	1257.81
375.642	1254.81
375.868	1241.81
376.094	1212.81
376.319	1183.81
376.545	1167.81
376.771	1189.81
376.997	1176.81
377.222	1173.81
377.448	1159.81
377.674	1147.81
377.899	1168.81
378.125	1157.81
378.35	1131.81
378.576	1155.81
378.802	1165.81
379.027	1185.81
379.253	1144.81
379.478	1140.81
379.704	1159.81
379.929	1161.81
380.155	1146.81
380.38	1157.81
380.606	1178.81
380.831	1157.81
381.057	1187.81
381.282	1128.81
381.507	1189.81
381.733	1189.81
381.958	1174.81
382.184	1189.81
382.409	1205.81
382.634	1195.81
382.86	1209.81
383.085	1219.81
383.31	1219.81
383.535	1251.81
383.761	1232.81
383.986	1266.81
384.211	1319.81
384.436	1341.81
384.662	1329.81
384.887	1354.81
385.112	1335.81
385.337	1378.81
385.562	1369.81
385.787	1317.81
386.013	1403.81
386.238	1387.81
386.463	1397.81
386.688	1395.81
386.913	1382.81
387.138	1357.81
387.363	1388.81
387.588	1354.81
387.813	1376.81
388.038	1395.81
388.263	1405.81
388.488	1416.81
388.713	1397.81
388.938	1393.81
389.163	1344.81
389.387	1352.81
389.612	1374.81
389.837	1367.81
390.062	1346.81
390.287	1361.81
390.512	1356.81
390.736	1367.81
390.961	1414.81
391.186	1414.81
391.411	1466.81
391.636	1484.81
391.86	1505.81
392.085	1507.81
392.31	1529.81
392.534	1496.81
392.759	1501.81
392.984	1471.81
393.208	1467.81
393.433	1459.81
393.658	1436.81
393.882	1433.81
394.107	1455.81
394.331	1458.81
394.556	1457.81
394.78	1464.81
395.005	1486.81
395.229	1468.81
395.454	1523.81
395.678	1558.81
395.903	1548.81
396.127	1553.81
396.352	1504.81
396.576	1427.81
396.801	1472.81
397.025	1521.81
397.249	1555.81
397.474	1580.81
397.698	1589.81
397.922	1550.81
398.147	1589.81
398.371	1603.81
398.595	1662.81
398.82	1700.81
399.044	1788.81
399.268	1927.81
399.492	2114.81
399.717	2278.81
399.941	2311.81
400.165	2214.81
400.389	2016.81
400.613	1861.81
400.837	1783.81
401.062	1764.81
401.286	1731.81
401.51	1705.81
401.734	1716.81
401.958	1717.81
402.182	1730.81
402.406	1722.81
402.63	1729.81
402.854	1747.81
403.078	1804.81
403.302	1762.81
403.526	1781.81
403.75	1818.81
403.974	1836.81
404.198	1819.81
404.422	1863.81
404.645	1867.81
404.869	1845.81
405.093	1869.81
405.317	1852.81
405.541	1851.81
405.765	1836.81
405.988	1827.81
406.212	1826.81
406.436	1819.81
406.66	1892.81
406.883	1871.81
407.107	1991.81
407.331	2031.81
407.555	2172.81
407.778	2129.81
408.002	2055.81
408.226	2041.81
408.449	2016.81
408.673	1957.81
408.896	1935.81
409.12	1925.81
409.344	1910.81
409.567	1877.81
409.791	1928.81
410.014	1911.81
410.238	1862.81
410.461	1870.81
410.685	1864.81
410.908	1846.81
411.132	1823.81
411.355	1812.81
411.578	1788.81
411.802	1845.81
412.025	1766.81
412.249	1785.81
412.472	1818.81
412.695	1725.81
412.919	1722.81
413.142	1706.81
413.365	1713.81
413.589	1703.81
413.812	1684.81
414.035	1699.81
414.258	1679.81
414.482	1729.81
414.705	1736.81
414.928	1711.81
415.151	1697.81
415.374	1716.81
415.597	1682.81
415.821	1667.81
416.044	1615.81
416.267	1624.81
416.49	1617.81
416.713	1629.81
416.936	1692.81
417.159	1638.81
417.382	1638.81
417.605	1629.81
417.828	1644.81
418.051	1602.81
418.274	1654.81
418.497	1651.81
418.72	1684.81
418.943	1665.81
419.166	1761.81
419.389	1896.81
419.611	1808.81
419.834	1781.81
420.057	1721.81
420.28	1635.81
420.503	1617.81
420.726	1655.81
420.948	1570.81
421.171	1612.81
421.394	1625.81
421.617	1636.81
421.839	1615.81
422.062	1639.81
422.285	1630.81
422.507	1624.81
422.73	1617.81
422.953	1617.81
423.175	1675.81
423.398	1697.81
423.621	1664.81
423.843	1702.81
424.066	1679.81
424.288	1661.81
424.511	1657.81
424.733	1669.81
424.956	1667.81
425.178	1649.81
425.401	1612.81
425.623	1688.81
425.846	1611.81
426.068	1595.81
426.291	1586.81
426.513	1558.81
426.735	1553.81
426.958	1587.81
427.18	1541.81
427.402	1539.81
427.625	1555.81
427.847	1482.81
428.069	1496.81
428.292	1548.81
428.514	1480.81
428.736	1488.81
428.958	1512.81
429.181	1460.81
429.403	1475.81
429.625	1527.81
429.847	1474.81
430.069	1494.81
430.292	1500.81
430.514	1478.81
430.736	1498.81
430.958	1494.81
431.18	1496.81
431.402	1557.81
431.624	1487.81
431.846	1522.81
432.068	1539.81
432.29	1576.81
432.512	1516.81
432.734	1523.81
432.956	1518.81
433.178	1525.81
433.4	1538.81
433.622	1528.81
433.844	1530.81
434.066	1543.81
434.287	1577.81
434.509	1623.81
434.731	1620.81
434.953	1688.81
435.175	1639.81
435.397	1677.81
435.618	1642.81
435.84	1576.81
436.062	1540.81
436.284	1551.81
436.505	1526.81
436.727	1513.81
436.949	1553.81
437.17	1536.81
437.392	1488.81
437.614	1461.81
437.835	1417.81
438.057	1450.81
438.278	1421.81
438.5	1466.81
438.721	1429.81
438.943	1413.81
439.165	1432.81
439.386	1445.81
439.608	1482.81
439.829	1503.81
440.05	1442.81
440.272	1471.81
440.493	1498.81
440.715	1489.81
440.936	1539.81
441.158	1548.81
441.379	1567.81
441.6	1603.81
441.822	1606.81
442.043	1619.81
442.264	1569.81
442.486	1570.81
442.707	1595.81
442.928	1567.81
443.149	1548.81
443.371	1588.81
443.592	1628.81
443.813	1642.81
444.034	1628.81
444.255	1657.81
444.476	1668.81
444.698	1760.81
444.919	1799.81
445.14	1917.81
445.361	1776.81
445.582	1673.81
445.803	1584.81
446.024	1547.81
446.245	1541.81
446.466	1509.81
446.687	1484.81
446.908	1491.81
447.129	1433.81
447.35	1427.81
447.571	1425.81
447.792	1382.81
448.013	1384.81
448.234	1379.81
448.455	1351.81
448.675	1364.81
448.896	1345.81
449.117	1312.81
449.338	1376.81
449.559	1324.81
449.779	1324.81
450	1330.81
450.221	1348.81
450.442	1379.81
450.662	1363.81
450.883	1339.81
451.104	1367.81
451.324	1372.81
451.545	1336.81
451.766	1333.81
451.986	1329.81
452.207	1337.81
452.428	1304.81
452.648	1301.81
452.869	1311.81
453.089	1296.81
453.31	1322.81
453.53	1292.81
453.751	1275.81
453.971	1286.81
454.192	1289.81
454.412	1255.81
454.633	1255.81
454.853	1277.81
455.073	1256.81
455.294	1270.81
455.514	1235.81
455.734	1275.81
455.955	1224.81
456.175	1260.81
456.395	1265.81
456.616	1260.81
456.836	1260.81
457.056	1260.81
457.276	1231.81
457.497	1282.81
457.717	1319.81
457.937	1308.81
458.157	1307.81
458.377	1303.81
458.598	1356.81
458.818	1378.81
459.038	1383.81
459.258	1431.81
459.478	1463.81
459.698	1489.81
459.918	1519.81
460.138	1595.81
460.358	1618.81
460.578	1637.81
460.798	1634.81
461.018	1662.81
461.238	1671.81
461.458	1667.81
461.678	1674.81
461.898	1707.81
462.118	1682.81
462.338	1779.81
462.558	1814.81
462.777	1877.81
462.997	1939.81
463.217	2063.81
463.437	2067.81
463.657	1967.81
463.876	1924.81
464.096	1951.81
464.316	1891.81
464.536	1863.81
464.755	1842.81
464.975	1801.81
465.195	1740.81
465.414	1640.81
465.634	1590.81
465.854	1538.81
466.073	1531.81
466.293	1468.81
466.512	1447.81
466.732	1427.81
466.951	1431.81
467.171	1417.81
467.391	1424.81
467.61	1388.81
467.829	1401.81
468.049	1401.81
468.268	1369.81
468.488	1366.81
468.707	1333.81
468.927	1386.81
469.146	1344.81
469.365	1387.81
469.585	1376.81
469.804	1396.81
470.023	1464.81
470.243	1414.81
470.462	1452.81
470.681	1431.81
470.901	1467.81
471.12	1434.81
471.339	1383.81
471.558	1397.81
471.777	1388.81
471.997	1370.81
472.216	1363.81
472.435	1365.81
472.654	1345.81
472.873	1356.81
473.092	1338.81
473.311	1370.81
473.53	1364.81
473.749	1341.81
473.968	1318.81
474.187	1354.81
474.406	1348.81
474.625	1324.81
474.844	1371.81
475.063	1390.81
475.282	1371.81
475.501	1380.81
475.72	1388.81
475.939	1379.81
476.158	1403.81
476.377	1425.81
476.596	1425.81
476.814	1453.81
477.033	1453.81
477.252	1480.81
477.471	1500.81
477.69	1540.81
477.908	1566.81
478.127	1591.81
478.346	1609.81
478.564	1642.81
478.783	1657.81
479.002	1685.81
479.22	1674.81
479.439	1713.81
479.658	1695.81
479.876	1733.81
480.095	1735.81
480.313	1745.81
480.532	1761.81
480.751	1760.81
480.969	1734.81
481.188	1728.81
481.406	1677.81
481.624	1699.81
481.843	1669.81
482.061	1680.81
482.28	1644.81
482.498	1635.81
482.717	1662.81
482.935	1657.81
483.153	1675.81
483.372	1702.81
483.59	1699.81
483.808	1669.81
484.027	1686.81
484.245	1728.81
484.463	1757.81
484.681	1735.81
484.9	1767.81
485.118	1797.81
485.336	1802.81
485.554	1869.81
485.772	1835.81
485.99	1823.81
486.209	1843.81
486.427	1837.81
486.645	1818.81
486.863	1760.81
487.081	1809.81
487.299	1785.81
487.517	1803.81
487.735	1787.81
487.953	1785.81
488.171	1733.81
488.389	1766.81
488.607	1753.81
488.825	1747.81
489.043	1727.81
489.261	1728.81
489.479	1785.81
489.696	1744.81
489.914	1701.81
490.132	1754.81
490.35	1755.81
490.568	1714.81
490.786	1712.81
