Data from NiCl2@0.125M.TitratingCurve.Agarose3%dH2O.NegLispCup.LampEnergy10.LIBS07252019_HRD10591_18-30-28-576.txt Node
Date: Thu Jul 25 18:30:28 EDT 2019
User: cochatt
Spectrometer: HR+D1059
Trigger mode: 1
Integration Time (sec): 1.000000E-1
Scans to average: 1
Electric dark correction enabled: true
Nonlinearity correction enabled: false
Boxcar width: 0
XAxis mode: Wavelengths
Number of Pixels in Spectrum: 2048
>>>>>Begin Spectral Data<<<<<
223.165	-7.5
223.4	-7.5
223.635	-7.5
223.869	-26.5
224.104	-16.5
224.338	-31.5
224.573	-15.5
224.808	-21.5
225.042	-22.5
225.277	6.5
225.511	2.5
225.746	-5.5
225.98	21.5
226.215	3.5
226.449	16.5
226.683	23.5
226.918	43.5
227.152	29.5
227.387	31.5
227.621	48.5
227.856	49.5
228.09	53.5
228.324	54.5
228.559	54.5
228.793	60.5
229.027	101.5
229.262	112.5
229.496	123.5
229.73	121.5
229.964	112.5
230.199	117.5
230.433	116.5
230.667	144.5
230.901	126.5
231.136	126.5
231.37	142.5
231.604	146.5
231.838	140.5
232.072	132.5
232.306	133.5
232.541	145.5
232.775	138.5
233.009	144.5
233.243	142.5
233.477	152.5
233.711	150.5
233.945	145.5
234.179	145.5
234.413	146.5
234.647	158.5
234.881	148.5
235.115	151.5
235.349	142.5
235.583	140.5
235.817	143.5
236.051	153.5
236.285	146.5
236.519	154.5
236.753	147.5
236.987	150.5
237.221	157.5
237.455	152.5
237.689	161.5
237.922	154.5
238.156	167.5
238.39	168.5
238.624	152.5
238.858	151.5
239.091	160.5
239.325	158.5
239.559	162.5
239.793	162.5
240.027	178.5
240.26	177.5
240.494	168.5
240.728	173.5
240.961	166.5
241.195	158.5
241.429	177.5
241.662	180.5
241.896	178.5
242.13	189.5
242.363	180.5
242.597	187.5
242.83	195.5
243.064	208.5
243.298	191.5
243.531	190.5
243.765	201.5
243.998	184.5
244.232	211.5
244.465	194.5
244.699	205.5
244.932	192.5
245.166	208.5
245.399	197.5
245.633	205.5
245.866	223.5
246.099	209.5
246.333	219.5
246.566	221.5
246.8	216.5
247.033	215.5
247.266	221.5
247.5	220.5
247.733	217.5
247.966	238.5
248.2	224.5
248.433	206.5
248.666	209.5
248.899	225.5
249.133	228.5
249.366	232.5
249.599	246.5
249.832	230.5
250.066	264.5
250.299	242.5
250.532	251.5
250.765	244.5
250.998	230.5
251.231	246.5
251.465	230.5
251.698	237.5
251.931	244.5
252.164	254.5
252.397	241.5
252.63	248.5
252.863	265.5
253.096	264.5
253.329	252.5
253.562	257.5
253.795	278.5
254.028	274.5
254.261	277.5
254.494	263.5
254.727	276.5
254.96	256.5
255.193	256.5
255.426	266.5
255.659	260.5
255.892	278.5
256.124	249.5
256.357	271.5
256.59	288.5
256.823	268.5
257.056	268.5
257.289	280.5
257.521	268.5
257.754	289.5
257.987	272.5
258.22	289.5
258.452	298.5
258.685	293.5
258.918	290.5
259.151	291.5
259.383	301.5
259.616	289.5
259.849	284.5
260.081	315.5
260.314	310.5
260.547	308.5
260.779	310.5
261.012	305.5
261.244	303.5
261.477	306.5
261.71	299.5
261.942	312.5
262.175	303.5
262.407	299.5
262.64	301.5
262.872	310.5
263.105	328.5
263.337	326.5
263.57	312.5
263.802	294.5
264.035	311.5
264.267	318.5
264.499	302.5
264.732	327.5
264.964	318.5
265.197	326.5
265.429	312.5
265.661	314.5
265.894	342.5
266.126	336.5
266.358	342.5
266.591	339.5
266.823	330.5
267.055	339.5
267.287	338.5
267.52	338.5
267.752	342.5
267.984	328.5
268.216	344.5
268.448	355.5
268.681	345.5
268.913	340.5
269.145	339.5
269.377	340.5
269.609	338.5
269.841	329.5
270.073	351.5
270.306	341.5
270.538	355.5
270.77	342.5
271.002	348.5
271.234	361.5
271.466	356.5
271.698	353.5
271.93	347.5
272.162	340.5
272.394	352.5
272.626	365.5
272.858	374.5
273.09	368.5
273.322	377.5
273.553	349.5
273.785	373.5
274.017	366.5
274.249	361.5
274.481	373.5
274.713	397.5
274.945	392.5
275.176	394.5
275.408	357.5
275.64	373.5
275.872	374.5
276.104	396.5
276.335	376.5
276.567	397.5
276.799	361.5
277.031	388.5
277.262	410.5
277.494	403.5
277.726	406.5
277.957	402.5
278.189	390.5
278.421	392.5
278.652	409.5
278.884	413.5
279.115	405.5
279.347	417.5
279.579	405.5
279.81	402.5
280.042	405.5
280.273	420.5
280.505	414.5
280.736	424.5
280.968	424.5
281.199	413.5
281.431	449.5
281.662	435.5
281.894	422.5
282.125	428.5
282.356	432.5
282.588	450.5
282.819	453.5
283.051	437.5
283.282	440.5
283.513	429.5
283.745	423.5
283.976	411.5
284.207	446.5
284.439	442.5
284.67	444.5
284.901	438.5
285.132	436.5
285.364	441.5
285.595	443.5
285.826	455.5
286.057	456.5
286.288	445.5
286.52	445.5
286.751	460.5
286.982	479.5
287.213	452.5
287.444	480.5
287.675	476.5
287.906	456.5
288.138	458.5
288.369	466.5
288.6	470.5
288.831	471.5
289.062	457.5
289.293	476.5
289.524	472.5
289.755	467.5
289.986	481.5
290.217	493.5
290.448	460.5
290.679	480.5
290.91	483.5
291.141	489.5
291.371	496.5
291.602	489.5
291.833	488.5
292.064	480.5
292.295	462.5
292.526	480.5
292.757	484.5
292.987	477.5
293.218	482.5
293.449	500.5
293.68	522.5
293.91	498.5
294.141	497.5
294.372	476.5
294.603	504.5
294.833	522.5
295.064	506.5
295.295	493.5
295.525	510.5
295.756	511.5
295.987	530.5
296.217	518.5
296.448	496.5
296.679	513.5
296.909	513.5
297.14	517.5
297.37	546.5
297.601	555.5
297.831	543.5
298.062	529.5
298.292	528.5
298.523	533.5
298.753	530.5
298.984	544.5
299.214	533.5
299.445	562.5
299.675	542.5
299.905	568.5
300.136	536.5
300.366	531.5
300.597	549.5
300.827	530.5
301.057	559.5
301.288	572.5
301.518	555.5
301.748	581.5
301.979	584.5
302.209	550.5
302.439	575.5
302.669	564.5
302.9	560.5
303.13	532.5
303.36	532.5
303.59	529.5
303.82	533.5
304.051	528.5
304.281	531.5
304.511	541.5
304.741	544.5
304.971	539.5
305.201	541.5
305.431	535.5
305.661	548.5
305.891	564.5
306.121	549.5
306.352	534.5
306.582	543.5
306.812	518.5
307.042	548.5
307.272	539.5
307.502	533.5
307.731	547.5
307.961	550.5
308.191	537.5
308.421	536.5
308.651	521.5
308.881	536.5
309.111	549.5
309.341	541.5
309.571	550.5
309.8	516.5
310.03	522.5
310.26	555.5
310.49	527.5
310.72	564.5
310.949	530.5
311.179	532.5
311.409	552.5
311.639	547.5
311.868	542.5
312.098	541.5
312.328	554.5
312.557	570.5
312.787	581.5
313.017	564.5
313.246	556.5
313.476	564.5
313.706	560.5
313.935	585.5
314.165	596.5
314.394	578.5
314.624	578.5
314.853	581.5
315.083	561.5
315.312	562.5
315.542	570.5
315.771	570.5
316.001	562.5
316.23	555.5
316.46	572.5
316.689	536.5
316.919	541.5
317.148	562.5
317.377	537.5
317.607	548.5
317.836	546.5
318.065	569.5
318.295	552.5
318.524	555.5
318.753	572.5
318.983	560.5
319.212	544.5
319.441	544.5
319.67	548.5
319.9	567.5
320.129	556.5
320.358	563.5
320.587	552.5
320.816	554.5
321.046	536.5
321.275	552.5
321.504	551.5
321.733	562.5
321.962	579.5
322.191	561.5
322.42	566.5
322.649	567.5
322.878	580.5
323.108	556.5
323.337	580.5
323.566	609.5
323.795	582.5
324.024	586.5
324.253	560.5
324.482	584.5
324.71	564.5
324.939	581.5
325.168	601.5
325.397	598.5
325.626	604.5
325.855	599.5
326.084	633.5
326.313	618.5
326.542	643.5
326.77	612.5
326.999	613.5
327.228	594.5
327.457	598.5
327.686	596.5
327.914	629.5
328.143	634.5
328.372	624.5
328.6	619.5
328.829	628.5
329.058	608.5
329.287	631.5
329.515	594.5
329.744	613.5
329.972	617.5
330.201	622.5
330.43	611.5
330.658	634.5
330.887	622.5
331.115	642.5
331.344	656.5
331.572	649.5
331.801	637.5
332.03	682.5
332.258	698.5
332.486	724.5
332.715	718.5
332.943	722.5
333.172	775.5
333.4	814.5
333.629	816.5
333.857	844.5
334.085	832.5
334.314	787.5
334.542	776.5
334.771	783.5
334.999	755.5
335.227	767.5
335.455	753.5
335.684	758.5
335.912	762.5
336.14	763.5
336.369	723.5
336.597	738.5
336.825	747.5
337.053	733.5
337.281	729.5
337.51	716.5
337.738	681.5
337.966	674.5
338.194	682.5
338.422	680.5
338.65	672.5
338.878	657.5
339.106	668.5
339.334	675.5
339.562	644.5
339.79	622.5
340.018	620.5
340.246	633.5
340.474	617.5
340.702	629.5
340.93	642.5
341.158	641.5
341.386	651.5
341.614	632.5
341.842	629.5
342.07	606.5
342.298	616.5
342.526	636.5
342.754	644.5
342.981	656.5
343.209	640.5
343.437	692.5
343.665	720.5
343.893	781.5
344.12	801.5
344.348	762.5
344.576	698.5
344.804	707.5
345.031	649.5
345.259	648.5
345.487	667.5
345.714	652.5
345.942	645.5
346.17	638.5
346.397	632.5
346.625	624.5
346.853	643.5
347.08	592.5
347.308	646.5
347.535	644.5
347.763	646.5
347.99	642.5
348.218	637.5
348.445	664.5
348.673	624.5
348.9	608.5
349.128	636.5
349.355	634.5
349.583	612.5
349.81	625.5
350.037	594.5
350.265	593.5
350.492	613.5
350.72	604.5
350.947	593.5
351.174	608.5
351.402	597.5
351.629	618.5
351.856	602.5
352.083	589.5
352.311	584.5
352.538	584.5
352.765	583.5
352.992	595.5
353.22	595.5
353.447	597.5
353.674	605.5
353.901	612.5
354.128	589.5
354.355	585.5
354.583	601.5
354.81	590.5
355.037	616.5
355.264	616.5
355.491	589.5
355.718	591.5
355.945	610.5
356.172	596.5
356.399	601.5
356.626	605.5
356.853	612.5
357.08	601.5
357.307	605.5
357.534	573.5
357.761	588.5
357.988	615.5
358.215	619.5
358.441	613.5
358.668	614.5
358.895	600.5
359.122	603.5
359.349	613.5
359.576	605.5
359.802	584.5
360.029	592.5
360.256	617.5
360.483	614.5
360.709	628.5
360.936	615.5
361.163	582.5
361.39	606.5
361.616	628.5
361.843	615.5
362.07	594.5
362.296	599.5
362.523	605.5
362.749	598.5
362.976	586.5
363.203	595.5
363.429	588.5
363.656	596.5
363.882	612.5
364.109	612.5
364.335	601.5
364.562	598.5
364.788	610.5
365.015	594.5
365.241	581.5
365.468	602.5
365.694	592.5
365.92	595.5
366.147	590.5
366.373	593.5
366.599	597.5
366.826	595.5
367.052	597.5
367.278	596.5
367.505	586.5
367.731	608.5
367.957	605.5
368.184	594.5
368.41	609.5
368.636	631.5
368.862	627.5
369.089	613.5
369.315	606.5
369.541	616.5
369.767	636.5
369.993	604.5
370.219	665.5
370.445	648.5
370.672	644.5
370.898	638.5
371.124	655.5
371.35	676.5
371.576	683.5
371.802	651.5
372.028	630.5
372.254	650.5
372.48	635.5
372.706	666.5
372.932	692.5
373.158	669.5
373.384	636.5
373.61	654.5
373.835	653.5
374.061	645.5
374.287	654.5
374.513	663.5
374.739	684.5
374.965	707.5
375.191	754.5
375.416	747.5
375.642	720.5
375.868	718.5
376.094	691.5
376.319	667.5
376.545	679.5
376.771	683.5
376.997	661.5
377.222	657.5
377.448	645.5
377.674	649.5
377.899	659.5
378.125	655.5
378.35	668.5
378.576	652.5
378.802	617.5
379.027	619.5
379.253	653.5
379.478	643.5
379.704	672.5
379.929	660.5
380.155	649.5
380.38	666.5
380.606	662.5
380.831	625.5
381.057	624.5
381.282	632.5
381.507	636.5
381.733	666.5
381.958	665.5
382.184	649.5
382.409	694.5
382.634	664.5
382.86	690.5
383.085	685.5
383.31	715.5
383.535	710.5
383.761	743.5
383.986	737.5
384.211	767.5
384.436	773.5
384.662	797.5
384.887	812.5
385.112	786.5
385.337	811.5
385.562	769.5
385.787	780.5
386.013	784.5
386.238	801.5
386.463	796.5
386.688	798.5
386.913	785.5
387.138	781.5
387.363	808.5
387.588	779.5
387.813	771.5
388.038	782.5
388.263	760.5
388.488	761.5
388.713	770.5
388.938	779.5
389.163	762.5
389.387	746.5
389.612	734.5
389.837	768.5
390.062	754.5
390.287	766.5
390.512	756.5
390.736	780.5
390.961	780.5
391.186	812.5
391.411	836.5
391.636	856.5
391.86	873.5
392.085	890.5
392.31	895.5
392.534	858.5
392.759	844.5
392.984	834.5
393.208	821.5
393.433	841.5
393.658	838.5
393.882	836.5
394.107	837.5
394.331	843.5
394.556	845.5
394.78	853.5
395.005	839.5
395.229	840.5
395.454	851.5
395.678	919.5
395.903	892.5
396.127	851.5
396.352	849.5
396.576	827.5
396.801	830.5
397.025	853.5
397.249	866.5
397.474	880.5
397.698	866.5
397.922	883.5
398.147	890.5
398.371	909.5
398.595	916.5
398.82	971.5
399.044	1037.5
399.268	1123.5
399.492	1289.5
399.717	1508.5
399.941	1499.5
400.165	1335.5
400.389	1191.5
400.613	1093.5
400.837	1017.5
401.062	996.5
401.286	965.5
401.51	986.5
401.734	969.5
401.958	1004.5
402.182	996.5
402.406	1029.5
402.63	1049.5
402.854	1066.5
403.078	1060.5
403.302	1106.5
403.526	1137.5
403.75	1123.5
403.974	1184.5
404.198	1160.5
404.422	1136.5
404.645	1150.5
404.869	1114.5
405.093	1140.5
405.317	1072.5
405.541	1091.5
405.765	1067.5
405.988	1093.5
406.212	1095.5
406.436	1052.5
406.66	1107.5
406.883	1098.5
407.107	1184.5
407.331	1212.5
407.555	1270.5
407.778	1275.5
408.002	1243.5
408.226	1232.5
408.449	1172.5
408.673	1139.5
408.896	1140.5
409.12	1125.5
409.344	1140.5
409.567	1125.5
409.791	1129.5
410.014	1129.5
410.238	1139.5
410.461	1112.5
410.685	1112.5
410.908	1074.5
411.132	1055.5
411.355	997.5
411.578	1019.5
411.802	1034.5
412.025	1070.5
412.249	1054.5
412.472	1026.5
412.695	1004.5
412.919	991.5
413.142	976.5
413.365	979.5
413.589	1011.5
413.812	982.5
414.035	977.5
414.258	955.5
414.482	980.5
414.705	989.5
414.928	1036.5
415.151	1001.5
415.374	990.5
415.597	983.5
415.821	966.5
416.044	960.5
416.267	960.5
416.49	981.5
416.713	968.5
416.936	992.5
417.159	951.5
417.382	961.5
417.605	977.5
417.828	993.5
418.051	956.5
418.274	986.5
418.497	990.5
418.72	1016.5
418.943	1008.5
419.166	1079.5
419.389	1138.5
419.611	1100.5
419.834	1095.5
420.057	1020.5
420.28	1012.5
420.503	972.5
420.726	983.5
420.948	985.5
421.171	968.5
421.394	961.5
421.617	980.5
421.839	979.5
422.062	991.5
422.285	959.5
422.507	1018.5
422.73	992.5
422.953	991.5
423.175	1020.5
423.398	1055.5
423.621	1037.5
423.843	1057.5
424.066	1046.5
424.288	1036.5
424.511	1041.5
424.733	1047.5
424.956	996.5
425.178	1004.5
425.401	1004.5
425.623	982.5
425.846	974.5
426.068	935.5
426.291	931.5
426.513	930.5
426.735	933.5
426.958	919.5
427.18	906.5
427.402	887.5
427.625	869.5
427.847	884.5
428.069	903.5
428.292	867.5
428.514	891.5
428.736	856.5
428.958	885.5
429.181	834.5
429.403	833.5
429.625	843.5
429.847	815.5
430.069	866.5
430.292	890.5
430.514	842.5
430.736	864.5
430.958	890.5
431.18	870.5
431.402	881.5
431.624	859.5
431.846	904.5
432.068	911.5
432.29	913.5
432.512	906.5
432.734	893.5
432.956	873.5
433.178	873.5
433.4	886.5
433.622	865.5
433.844	898.5
434.066	926.5
434.287	905.5
434.509	933.5
434.731	962.5
434.953	1009.5
435.175	984.5
435.397	1001.5
435.618	938.5
435.84	918.5
436.062	887.5
436.284	901.5
436.505	894.5
436.727	890.5
436.949	910.5
437.17	906.5
437.392	875.5
437.614	857.5
437.835	872.5
438.057	853.5
438.278	842.5
438.5	843.5
438.721	865.5
438.943	877.5
439.165	838.5
439.386	842.5
439.608	906.5
439.829	868.5
440.05	883.5
440.272	890.5
440.493	904.5
440.715	885.5
440.936	896.5
441.158	928.5
441.379	942.5
441.6	995.5
441.822	1011.5
442.043	1044.5
442.264	997.5
442.486	960.5
442.707	978.5
442.928	995.5
443.149	1011.5
443.371	957.5
443.592	1027.5
443.813	1012.5
444.034	1010.5
444.255	1060.5
444.476	1105.5
444.698	1174.5
444.919	1210.5
445.14	1293.5
445.361	1128.5
445.582	1042.5
445.803	990.5
446.024	926.5
446.245	913.5
446.466	912.5
446.687	889.5
446.908	914.5
447.129	837.5
447.35	864.5
447.571	869.5
447.792	852.5
448.013	864.5
448.234	837.5
448.455	836.5
448.675	820.5
448.896	844.5
449.117	820.5
449.338	811.5
449.559	841.5
449.779	791.5
450	834.5
450.221	780.5
450.442	845.5
450.662	822.5
450.883	849.5
451.104	853.5
451.324	841.5
451.545	853.5
451.766	852.5
451.986	818.5
452.207	859.5
452.428	821.5
452.648	822.5
452.869	782.5
453.089	826.5
453.31	801.5
453.53	808.5
453.751	811.5
453.971	803.5
454.192	796.5
454.412	775.5
454.633	770.5
454.853	795.5
455.073	761.5
455.294	808.5
455.514	774.5
455.734	769.5
455.955	763.5
456.175	739.5
456.395	780.5
456.616	782.5
456.836	769.5
457.056	768.5
457.276	757.5
457.497	756.5
457.717	761.5
457.937	790.5
458.157	770.5
458.377	789.5
458.598	781.5
458.818	811.5
459.038	862.5
459.258	871.5
459.478	888.5
459.698	930.5
459.918	909.5
460.138	985.5
460.358	1031.5
460.578	1062.5
460.798	1060.5
461.018	1085.5
461.238	1061.5
461.458	1056.5
461.678	1024.5
461.898	1068.5
462.118	1038.5
462.338	1103.5
462.558	1164.5
462.777	1200.5
462.997	1297.5
463.217	1428.5
463.437	1458.5
463.657	1336.5
463.876	1241.5
464.096	1219.5
464.316	1244.5
464.536	1264.5
464.755	1206.5
464.975	1143.5
465.195	1116.5
465.414	1016.5
465.634	970.5
465.854	937.5
466.073	935.5
466.293	918.5
466.512	874.5
466.732	884.5
466.951	862.5
467.171	852.5
467.391	853.5
467.61	859.5
467.829	857.5
468.049	847.5
468.268	818.5
468.488	813.5
468.707	796.5
468.927	807.5
469.146	839.5
469.365	828.5
469.585	846.5
469.804	867.5
470.023	868.5
470.243	874.5
470.462	896.5
470.681	884.5
470.901	888.5
471.12	874.5
471.339	892.5
471.558	842.5
471.777	843.5
471.997	845.5
472.216	825.5
472.435	811.5
472.654	814.5
472.873	797.5
473.092	825.5
473.311	783.5
473.53	792.5
473.749	792.5
473.968	805.5
474.187	781.5
474.406	786.5
474.625	807.5
474.844	805.5
475.063	805.5
475.282	826.5
475.501	818.5
475.72	823.5
475.939	832.5
476.158	833.5
476.377	832.5
476.596	846.5
476.814	842.5
477.033	834.5
477.252	870.5
477.471	867.5
477.69	885.5
477.908	938.5
478.127	966.5
478.346	953.5
478.564	971.5
478.783	988.5
479.002	1015.5
479.22	1005.5
479.439	1018.5
479.658	996.5
479.876	998.5
480.095	1026.5
480.313	1100.5
480.532	1107.5
480.751	1120.5
480.969	1057.5
481.188	1018.5
481.406	990.5
481.624	954.5
481.843	950.5
482.061	931.5
482.28	935.5
482.498	944.5
482.717	939.5
482.935	929.5
483.153	914.5
483.372	904.5
483.59	919.5
483.808	931.5
484.027	939.5
484.245	937.5
484.463	962.5
484.681	955.5
484.9	973.5
485.118	962.5
485.336	987.5
485.554	991.5
485.772	964.5
485.99	963.5
486.209	982.5
486.427	987.5
486.645	995.5
486.863	1003.5
487.081	987.5
487.299	950.5
487.517	929.5
487.735	970.5
487.953	964.5
488.171	978.5
488.389	939.5
488.607	966.5
488.825	948.5
489.043	962.5
489.261	928.5
489.479	953.5
489.696	947.5
489.914	956.5
490.132	995.5
490.35	965.5
490.568	969.5
490.786	961.5
491.003	973.5
491.221	971.5
491.439	977.5
491.657	985.5
491.874	980.5
492.092	979.5
492.31	957.5
492.527	1004.5
492.745	1026.5
492.963	1016.5
493.18	996.5
493.398	963.5
493.615	1010.5
493.833	1018.5
494.05	1005.5
494.268	1050.5
494.485	1031.5
494.703	1028.5
494.92	1055.5
495.138	1030.5
495.355	1002.5
495.573	1004.5
495.79	1044.5
496.008	1065.5
496.225	1054.5
496.442	1054.5
496.66	1033.5
496.877	1058.5
497.094	1064.5
497.312	1091.5
497.529	1124.5
497.746	1138.5
497.963	1165.5
498.181	1212.5
498.398	1280.5
498.615	1336.5
498.832	1409.5
499.049	1517.5
499.267	1625.5
499.484	1787.5
499.701	1963.5
499.918	2238.5
500.135	2577.5
500.352	2976.5
500.569	3153.5
500.786	3114.5
501.003	2946.5
501.22	2513.5
501.437	2257.5
501.654	1975.5
501.871	1735.5
502.088	1620.5
502.305	1539.5
502.522	1466.5
502.739	1412.5
502.956	1347.5
503.172	1231.5
503.389	1210.5
503.606	1183.5
503.823	1156.5
504.04	1181.5
504.256	1182.5
504.473	1191.5
504.69	1234.5
504.907	1239.5
505.123	1134.5
505.34	1038.5
505.557	997.5
505.773	970.5
505.99	969.5
506.207	951.5
506.423	963.5
506.64	907.5
506.856	906.5
507.073	900.5
507.289	894.5
507.506	904.5
507.722	878.5
507.939	898.5
508.155	879.5
508.372	850.5
508.588	863.5
508.805	840.5
509.021	846.5
509.238	867.5
509.454	857.5
509.67	838.5
509.887	809.5
510.103	802.5
510.319	816.5
510.536	813.5
510.752	823.5
510.968	811.5
511.184	821.5
511.401	826.5
511.617	833.5
511.833	839.5
512.049	810.5
512.265	829.5
512.481	826.5
512.698	840.5
512.914	818.5
513.13	843.5
513.346	838.5
513.562	825.5
513.778	812.5
513.994	842.5
514.21	839.5
514.426	834.5
514.642	816.5
514.858	845.5
515.074	849.5
515.29	847.5
515.506	864.5
515.721	882.5
515.937	865.5
516.153	877.5
516.369	890.5
516.585	941.5
516.801	970.5
