Data from NiCl2@0.125M.TitratingCurve.Agarose3%dH2O.NegLispCup.LampEnergy10.LIBS07252019_HRD10591_18-30-42-575.txt Node
Date: Thu Jul 25 18:30:42 EDT 2019
User: cochatt
Spectrometer: HR+D1059
Trigger mode: 1
Integration Time (sec): 1.000000E-1
Scans to average: 1
Electric dark correction enabled: true
Nonlinearity correction enabled: false
Boxcar width: 0
XAxis mode: Wavelengths
Number of Pixels in Spectrum: 2048
>>>>>Begin Spectral Data<<<<<
223.165	-19.69
223.4	-19.69
223.635	-19.69
223.869	-22.69
224.104	-19.69
224.338	-11.69
224.573	-9.69
224.808	-30.69
225.042	-10.69
225.277	-0.69
225.511	12.31
225.746	5.31
225.98	13.31
226.215	2.31
226.449	7.31
226.683	20.31
226.918	33.31
227.152	31.31
227.387	37.31
227.621	44.31
227.856	45.31
228.09	55.31
228.324	51.31
228.559	50.31
228.793	62.31
229.027	55.31
229.262	59.31
229.496	61.31
229.73	78.31
229.964	79.31
230.199	70.31
230.433	76.31
230.667	73.31
230.901	86.31
231.136	79.31
231.37	75.31
231.604	68.31
231.838	90.31
232.072	89.31
232.306	87.31
232.541	87.31
232.775	84.31
233.009	79.31
233.243	83.31
233.477	71.31
233.711	79.31
233.945	89.31
234.179	83.31
234.413	77.31
234.647	84.31
234.881	77.31
235.115	82.31
235.349	85.31
235.583	85.31
235.817	79.31
236.051	89.31
236.285	80.31
236.519	82.31
236.753	92.31
236.987	65.31
237.221	69.31
237.455	77.31
237.689	88.31
237.922	69.31
238.156	69.31
238.39	79.31
238.624	70.31
238.858	75.31
239.091	76.31
239.325	77.31
239.559	75.31
239.793	69.31
240.027	79.31
240.26	76.31
240.494	83.31
240.728	85.31
240.961	69.31
241.195	89.31
241.429	78.31
241.662	64.31
241.896	84.31
242.13	77.31
242.363	72.31
242.597	68.31
242.83	75.31
243.064	72.31
243.298	67.31
243.531	62.31
243.765	78.31
243.998	92.31
244.232	83.31
244.465	62.31
244.699	85.31
244.932	67.31
245.166	67.31
245.399	76.31
245.633	99.31
245.866	88.31
246.099	79.31
246.333	93.31
246.566	77.31
246.8	79.31
247.033	78.31
247.266	78.31
247.5	72.31
247.733	67.31
247.966	78.31
248.2	74.31
248.433	79.31
248.666	66.31
248.899	75.31
249.133	81.31
249.366	73.31
249.599	65.31
249.832	80.31
250.066	74.31
250.299	86.31
250.532	87.31
250.765	86.31
250.998	85.31
251.231	87.31
251.465	64.31
251.698	84.31
251.931	78.31
252.164	92.31
252.397	92.31
252.63	90.31
252.863	85.31
253.096	89.31
253.329	79.31
253.562	62.31
253.795	78.31
254.028	77.31
254.261	79.31
254.494	85.31
254.727	87.31
254.96	75.31
255.193	78.31
255.426	82.31
255.659	77.31
255.892	76.31
256.124	70.31
256.357	88.31
256.59	77.31
256.823	88.31
257.056	91.31
257.289	73.31
257.521	84.31
257.754	88.31
257.987	73.31
258.22	85.31
258.452	88.31
258.685	74.31
258.918	79.31
259.151	89.31
259.383	92.31
259.616	82.31
259.849	75.31
260.081	86.31
260.314	83.31
260.547	81.31
260.779	87.31
261.012	92.31
261.244	70.31
261.477	90.31
261.71	71.31
261.942	80.31
262.175	80.31
262.407	77.31
262.64	71.31
262.872	79.31
263.105	80.31
263.337	85.31
263.57	72.31
263.802	76.31
264.035	90.31
264.267	85.31
264.499	77.31
264.732	89.31
264.964	85.31
265.197	84.31
265.429	95.31
265.661	78.31
265.894	82.31
266.126	94.31
266.358	76.31
266.591	86.31
266.823	90.31
267.055	81.31
267.287	89.31
267.52	89.31
267.752	92.31
267.984	89.31
268.216	80.31
268.448	85.31
268.681	82.31
268.913	84.31
269.145	72.31
269.377	87.31
269.609	88.31
269.841	93.31
270.073	75.31
270.306	85.31
270.538	80.31
270.77	90.31
271.002	97.31
271.234	85.31
271.466	87.31
271.698	88.31
271.93	78.31
272.162	76.31
272.394	96.31
272.626	96.31
272.858	75.31
273.09	94.31
273.322	76.31
273.553	87.31
273.785	78.31
274.017	85.31
274.249	81.31
274.481	69.31
274.713	87.31
274.945	91.31
275.176	79.31
275.408	74.31
275.64	83.31
275.872	91.31
276.104	70.31
276.335	78.31
276.567	79.31
276.799	91.31
277.031	77.31
277.262	86.31
277.494	83.31
277.726	89.31
277.957	90.31
278.189	75.31
278.421	87.31
278.652	86.31
278.884	70.31
279.115	92.31
279.347	84.31
279.579	84.31
279.81	90.31
280.042	77.31
280.273	91.31
280.505	88.31
280.736	84.31
280.968	83.31
281.199	86.31
281.431	77.31
281.662	89.31
281.894	71.31
282.125	84.31
282.356	67.31
282.588	84.31
282.819	78.31
283.051	92.31
283.282	85.31
283.513	83.31
283.745	103.31
283.976	86.31
284.207	84.31
284.439	86.31
284.67	80.31
284.901	87.31
285.132	88.31
285.364	83.31
285.595	90.31
285.826	97.31
286.057	87.31
286.288	81.31
286.52	81.31
286.751	85.31
286.982	84.31
287.213	88.31
287.444	82.31
287.675	96.31
287.906	82.31
288.138	94.31
288.369	87.31
288.6	80.31
288.831	83.31
289.062	86.31
289.293	86.31
289.524	79.31
289.755	91.31
289.986	95.31
290.217	81.31
290.448	61.31
290.679	93.31
290.91	84.31
291.141	85.31
291.371	79.31
291.602	77.31
291.833	82.31
292.064	93.31
292.295	85.31
292.526	90.31
292.757	83.31
292.987	90.31
293.218	94.31
293.449	79.31
293.68	88.31
293.91	77.31
294.141	91.31
294.372	75.31
294.603	85.31
294.833	89.31
295.064	94.31
295.295	79.31
295.525	91.31
295.756	81.31
295.987	94.31
296.217	78.31
296.448	85.31
296.679	71.31
296.909	90.31
297.14	85.31
297.37	91.31
297.601	89.31
297.831	92.31
298.062	93.31
298.292	94.31
298.523	91.31
298.753	89.31
298.984	92.31
299.214	70.31
299.445	95.31
299.675	89.31
299.905	90.31
300.136	90.31
300.366	97.31
300.597	86.31
300.827	88.31
301.057	79.31
301.288	83.31
301.518	83.31
301.748	86.31
301.979	86.31
302.209	77.31
302.439	92.31
302.669	91.31
302.9	77.31
303.13	86.31
303.36	85.31
303.59	84.31
303.82	95.31
304.051	85.31
304.281	85.31
304.511	95.31
304.741	91.31
304.971	86.31
305.201	94.31
305.431	71.31
305.661	90.31
305.891	91.31
306.121	96.31
306.352	80.31
306.582	78.31
306.812	74.31
307.042	87.31
307.272	99.31
307.502	102.31
307.731	99.31
307.961	76.31
308.191	87.31
308.421	88.31
308.651	79.31
308.881	94.31
309.111	84.31
309.341	84.31
309.571	79.31
309.8	92.31
310.03	75.31
310.26	86.31
310.49	88.31
310.72	91.31
310.949	79.31
311.179	80.31
311.409	99.31
311.639	81.31
311.868	89.31
312.098	85.31
312.328	83.31
312.557	108.31
312.787	82.31
313.017	77.31
313.246	86.31
313.476	70.31
313.706	96.31
313.935	91.31
314.165	92.31
314.394	83.31
314.624	98.31
314.853	83.31
315.083	84.31
315.312	86.31
315.542	77.31
315.771	89.31
316.001	73.31
316.23	87.31
316.46	80.31
316.689	88.31
316.919	92.31
317.148	73.31
317.377	81.31
317.607	83.31
317.836	79.31
318.065	71.31
318.295	86.31
318.524	78.31
318.753	103.31
318.983	92.31
319.212	83.31
319.441	82.31
319.67	93.31
319.9	75.31
320.129	78.31
320.358	89.31
320.587	85.31
320.816	86.31
321.046	92.31
321.275	84.31
321.504	65.31
321.733	83.31
321.962	84.31
322.191	88.31
322.42	77.31
322.649	100.31
322.878	87.31
323.108	89.31
323.337	85.31
323.566	92.31
323.795	94.31
324.024	99.31
324.253	90.31
324.482	93.31
324.71	89.31
324.939	101.31
325.168	89.31
325.397	82.31
325.626	97.31
325.855	81.31
326.084	81.31
326.313	68.31
326.542	106.31
326.77	89.31
326.999	72.31
327.228	94.31
327.457	90.31
327.686	84.31
327.914	87.31
328.143	84.31
328.372	76.31
328.6	77.31
328.829	77.31
329.058	78.31
329.287	85.31
329.515	78.31
329.744	80.31
329.972	79.31
330.201	88.31
330.43	94.31
330.658	80.31
330.887	85.31
331.115	75.31
331.344	87.31
331.572	67.31
331.801	76.31
332.03	80.31
332.258	80.31
332.486	91.31
332.715	81.31
332.943	94.31
333.172	87.31
333.4	71.31
333.629	82.31
333.857	91.31
334.085	74.31
334.314	91.31
334.542	74.31
334.771	73.31
334.999	93.31
335.227	101.31
335.455	87.31
335.684	77.31
335.912	102.31
336.14	84.31
336.369	84.31
336.597	74.31
336.825	93.31
337.053	78.31
337.281	84.31
337.51	102.31
337.738	76.31
337.966	84.31
338.194	83.31
338.422	84.31
338.65	83.31
338.878	76.31
339.106	70.31
339.334	82.31
339.562	79.31
339.79	72.31
340.018	88.31
340.246	83.31
340.474	86.31
340.702	87.31
340.93	93.31
341.158	76.31
341.386	79.31
341.614	92.31
341.842	88.31
342.07	88.31
342.298	86.31
342.526	84.31
342.754	93.31
342.981	82.31
343.209	87.31
343.437	88.31
343.665	75.31
343.893	84.31
344.12	73.31
344.348	69.31
344.576	81.31
344.804	87.31
345.031	71.31
345.259	83.31
345.487	88.31
345.714	107.31
345.942	93.31
346.17	82.31
346.397	91.31
346.625	90.31
346.853	86.31
347.08	80.31
347.308	88.31
347.535	70.31
347.763	81.31
347.99	88.31
348.218	84.31
348.445	90.31
348.673	85.31
348.9	80.31
349.128	91.31
349.355	81.31
349.583	77.31
349.81	93.31
350.037	82.31
350.265	88.31
350.492	77.31
350.72	82.31
350.947	77.31
351.174	82.31
351.402	80.31
351.629	81.31
351.856	87.31
352.083	82.31
352.311	74.31
352.538	79.31
352.765	93.31
352.992	80.31
353.22	81.31
353.447	79.31
353.674	78.31
353.901	85.31
354.128	89.31
354.355	84.31
354.583	82.31
354.81	98.31
355.037	76.31
355.264	96.31
355.491	85.31
355.718	80.31
355.945	84.31
356.172	90.31
356.399	93.31
356.626	72.31
356.853	99.31
357.08	78.31
357.307	95.31
357.534	84.31
357.761	79.31
357.988	89.31
358.215	90.31
358.441	85.31
358.668	65.31
358.895	69.31
359.122	84.31
359.349	90.31
359.576	82.31
359.802	74.31
360.029	77.31
360.256	71.31
360.483	92.31
360.709	74.31
360.936	90.31
361.163	75.31
361.39	94.31
361.616	99.31
361.843	83.31
362.07	84.31
362.296	88.31
362.523	66.31
362.749	78.31
362.976	100.31
363.203	83.31
363.429	74.31
363.656	92.31
363.882	85.31
364.109	83.31
364.335	78.31
364.562	81.31
364.788	82.31
365.015	94.31
365.241	85.31
365.468	74.31
365.694	75.31
365.92	81.31
366.147	78.31
366.373	90.31
366.599	78.31
366.826	84.31
367.052	78.31
367.278	94.31
367.505	75.31
367.731	88.31
367.957	79.31
368.184	68.31
368.41	78.31
368.636	95.31
368.862	90.31
369.089	91.31
369.315	68.31
369.541	79.31
369.767	88.31
369.993	72.31
370.219	79.31
370.445	79.31
370.672	89.31
370.898	80.31
371.124	87.31
371.35	84.31
371.576	84.31
371.802	77.31
372.028	81.31
372.254	79.31
372.48	83.31
372.706	83.31
372.932	93.31
373.158	80.31
373.384	87.31
373.61	93.31
373.835	73.31
374.061	81.31
374.287	88.31
374.513	94.31
374.739	91.31
374.965	80.31
375.191	83.31
375.416	92.31
375.642	82.31
375.868	87.31
376.094	91.31
376.319	97.31
376.545	102.31
376.771	79.31
376.997	74.31
377.222	83.31
377.448	99.31
377.674	67.31
377.899	81.31
378.125	82.31
378.35	80.31
378.576	82.31
378.802	71.31
379.027	97.31
379.253	77.31
379.478	93.31
379.704	66.31
379.929	85.31
380.155	89.31
380.38	71.31
380.606	83.31
380.831	79.31
381.057	100.31
381.282	84.31
381.507	81.31
381.733	75.31
381.958	81.31
382.184	82.31
382.409	77.31
382.634	80.31
382.86	75.31
383.085	73.31
383.31	89.31
383.535	91.31
383.761	82.31
383.986	91.31
384.211	85.31
384.436	78.31
384.662	83.31
384.887	94.31
385.112	71.31
385.337	87.31
385.562	85.31
385.787	67.31
386.013	103.31
386.238	85.31
386.463	82.31
386.688	72.31
386.913	79.31
387.138	86.31
387.363	87.31
387.588	78.31
387.813	82.31
388.038	104.31
388.263	92.31
388.488	87.31
388.713	83.31
388.938	86.31
389.163	78.31
389.387	72.31
389.612	92.31
389.837	80.31
390.062	80.31
390.287	77.31
390.512	79.31
390.736	98.31
390.961	95.31
391.186	88.31
391.411	75.31
391.636	94.31
391.86	82.31
392.085	86.31
392.31	103.31
392.534	90.31
392.759	91.31
392.984	86.31
393.208	83.31
393.433	85.31
393.658	92.31
393.882	78.31
394.107	90.31
394.331	78.31
394.556	83.31
394.78	91.31
395.005	77.31
395.229	83.31
395.454	79.31
395.678	84.31
395.903	85.31
396.127	77.31
396.352	75.31
396.576	72.31
396.801	97.31
397.025	78.31
397.249	80.31
397.474	76.31
397.698	95.31
397.922	76.31
398.147	75.31
398.371	87.31
398.595	97.31
398.82	83.31
399.044	85.31
399.268	73.31
399.492	94.31
399.717	86.31
399.941	81.31
400.165	86.31
400.389	91.31
400.613	82.31
400.837	68.31
401.062	83.31
401.286	84.31
401.51	87.31
401.734	90.31
401.958	81.31
402.182	82.31
402.406	97.31
402.63	69.31
402.854	89.31
403.078	81.31
403.302	73.31
403.526	87.31
403.75	91.31
403.974	83.31
404.198	88.31
404.422	91.31
404.645	90.31
404.869	85.31
405.093	95.31
405.317	91.31
405.541	76.31
405.765	96.31
405.988	97.31
406.212	83.31
406.436	85.31
406.66	96.31
406.883	93.31
407.107	79.31
407.331	93.31
407.555	81.31
407.778	87.31
408.002	79.31
408.226	107.31
408.449	88.31
408.673	78.31
408.896	86.31
409.12	94.31
409.344	87.31
409.567	94.31
409.791	90.31
410.014	82.31
410.238	88.31
410.461	104.31
410.685	99.31
410.908	102.31
411.132	89.31
411.355	104.31
411.578	74.31
411.802	94.31
412.025	77.31
412.249	88.31
412.472	91.31
412.695	87.31
412.919	86.31
413.142	87.31
413.365	81.31
413.589	79.31
413.812	83.31
414.035	76.31
414.258	81.31
414.482	94.31
414.705	85.31
414.928	91.31
415.151	82.31
415.374	96.31
415.597	91.31
415.821	89.31
416.044	93.31
416.267	82.31
416.49	85.31
416.713	86.31
416.936	77.31
417.159	95.31
417.382	91.31
417.605	90.31
417.828	84.31
418.051	92.31
418.274	94.31
418.497	91.31
418.72	78.31
418.943	87.31
419.166	95.31
419.389	101.31
419.611	79.31
419.834	95.31
420.057	97.31
420.28	101.31
420.503	97.31
420.726	88.31
420.948	81.31
421.171	89.31
421.394	98.31
421.617	107.31
421.839	92.31
422.062	85.31
422.285	85.31
422.507	97.31
422.73	94.31
422.953	89.31
423.175	108.31
423.398	92.31
423.621	88.31
423.843	83.31
424.066	93.31
424.288	95.31
424.511	98.31
424.733	106.31
424.956	95.31
425.178	93.31
425.401	86.31
425.623	95.31
425.846	103.31
426.068	89.31
426.291	97.31
426.513	110.31
426.735	101.31
426.958	100.31
427.18	89.31
427.402	84.31
427.625	94.31
427.847	97.31
428.069	103.31
428.292	83.31
428.514	100.31
428.736	91.31
428.958	96.31
429.181	83.31
429.403	97.31
429.625	88.31
429.847	90.31
430.069	86.31
430.292	97.31
430.514	105.31
430.736	91.31
430.958	96.31
431.18	89.31
431.402	101.31
431.624	103.31
431.846	90.31
432.068	82.31
432.29	90.31
432.512	99.31
432.734	98.31
432.956	95.31
433.178	102.31
433.4	106.31
433.622	102.31
433.844	95.31
434.066	96.31
434.287	82.31
434.509	83.31
434.731	94.31
434.953	94.31
435.175	91.31
435.397	107.31
435.618	89.31
435.84	89.31
436.062	93.31
436.284	86.31
436.505	92.31
436.727	94.31
436.949	96.31
437.17	93.31
437.392	87.31
437.614	89.31
437.835	86.31
438.057	81.31
438.278	94.31
438.5	81.31
438.721	103.31
438.943	83.31
439.165	90.31
439.386	99.31
439.608	94.31
439.829	95.31
440.05	101.31
440.272	94.31
440.493	100.31
440.715	99.31
440.936	107.31
441.158	89.31
441.379	97.31
441.6	85.31
441.822	97.31
442.043	113.31
442.264	113.31
442.486	107.31
442.707	88.31
442.928	100.31
443.149	90.31
443.371	97.31
443.592	93.31
443.813	96.31
444.034	109.31
444.255	106.31
444.476	80.31
444.698	99.31
444.919	96.31
445.14	203.31
445.361	153.31
445.582	91.31
445.803	83.31
446.024	89.31
446.245	87.31
446.466	99.31
446.687	102.31
446.908	109.31
447.129	99.31
447.35	99.31
447.571	101.31
447.792	101.31
448.013	111.31
448.234	107.31
448.455	98.31
448.675	108.31
448.896	94.31
449.117	94.31
449.338	88.31
449.559	102.31
449.779	87.31
450	106.31
450.221	100.31
450.442	103.31
450.662	98.31
450.883	97.31
451.104	105.31
451.324	86.31
451.545	88.31
451.766	84.31
451.986	97.31
452.207	93.31
452.428	89.31
452.648	72.31
452.869	92.31
453.089	91.31
453.31	93.31
453.53	97.31
453.751	107.31
453.971	98.31
454.192	99.31
454.412	97.31
454.633	89.31
454.853	95.31
455.073	101.31
455.294	90.31
455.514	89.31
455.734	97.31
455.955	91.31
456.175	87.31
456.395	97.31
456.616	102.31
456.836	84.31
457.056	69.31
457.276	86.31
457.497	82.31
457.717	81.31
457.937	82.31
458.157	99.31
458.377	93.31
458.598	96.31
458.818	90.31
459.038	89.31
459.258	82.31
459.478	89.31
459.698	87.31
459.918	71.31
460.138	92.31
460.358	83.31
460.578	97.31
460.798	93.31
461.018	81.31
461.238	108.31
461.458	88.31
461.678	96.31
461.898	103.31
462.118	101.31
462.338	94.31
462.558	107.31
462.777	105.31
462.997	78.31
463.217	92.31
463.437	101.31
463.657	98.31
463.876	99.31
464.096	94.31
464.316	92.31
464.536	89.31
464.755	91.31
464.975	92.31
465.195	94.31
465.414	103.31
465.634	87.31
465.854	95.31
466.073	78.31
466.293	85.31
466.512	83.31
466.732	101.31
466.951	96.31
467.171	99.31
467.391	117.31
467.61	100.31
467.829	99.31
468.049	102.31
468.268	105.31
468.488	100.31
468.707	90.31
468.927	93.31
469.146	98.31
469.365	94.31
469.585	94.31
469.804	114.31
470.023	99.31
470.243	95.31
470.462	99.31
470.681	99.31
470.901	100.31
471.12	106.31
471.339	104.31
471.558	80.31
471.777	92.31
471.997	113.31
472.216	100.31
472.435	98.31
472.654	84.31
472.873	93.31
473.092	83.31
473.311	97.31
473.53	83.31
473.749	99.31
473.968	101.31
474.187	99.31
474.406	83.31
474.625	86.31
474.844	101.31
475.063	86.31
475.282	96.31
475.501	99.31
475.72	93.31
475.939	76.31
476.158	89.31
476.377	95.31
476.596	90.31
476.814	102.31
477.033	71.31
477.252	91.31
477.471	92.31
477.69	99.31
477.908	104.31
478.127	103.31
478.346	78.31
478.564	93.31
478.783	92.31
479.002	94.31
479.22	96.31
479.439	104.31
479.658	87.31
479.876	95.31
480.095	73.31
480.313	96.31
480.532	79.31
480.751	111.31
480.969	87.31
481.188	80.31
481.406	86.31
481.624	90.31
481.843	94.31
482.061	91.31
482.28	83.31
482.498	83.31
482.717	98.31
482.935	97.31
483.153	94.31
483.372	97.31
483.59	103.31
483.808	93.31
484.027	101.31
484.245	95.31
484.463	100.31
484.681	105.31
484.9	99.31
485.118	89.31
485.336	98.31
485.554	84.31
485.772	94.31
485.99	73.31
486.209	81.31
486.427	78.31
486.645	99.31
486.863	82.31
487.081	92.31
487.299	88.31
487.517	113.31
487.735	101.31
487.953	109.31
488.171	105.31
488.389	104.31
488.607	95.31
488.825	98.31
489.043	100.31
489.261	85.31
489.479	116.31
489.696	115.31
489.914	97.31
490.132	85.31
490.35	85.31
490.568	91.31
490.786	101.31
491.003	111.31
491.221	95.31
491.439	111.31
491.657	108.31
491.874	104.31
492.092	108.31
492.31	129.31
492.527	116.31
492.745	120.31
492.963	110.31
493.18	105.31
493.398	94.31
493.615	105.31
493.833	117.31
494.05	117.31
494.268	119.31
494.485	120.31
494.703	120.31
494.92	92.31
495.138	104.31
495.355	94.31
495.573	110.31
495.79	119.31
496.008	97.31
496.225	97.31
496.442	99.31
496.66	116.31
496.877	101.31
497.094	99.31
497.312	101.31
497.529	99.31
497.746	99.31
497.963	79.31
498.181	90.31
498.398	89.31
498.615	87.31
498.832	89.31
499.049	95.31
499.267	102.31
499.484	104.31
499.701	94.31
499.918	89.31
500.135	99.31
500.352	103.31
500.569	103.31
500.786	103.31
501.003	95.31
501.22	89.31
501.437	84.31
501.654	91.31
501.871	102.31
502.088	94.31
502.305	97.31
502.522	107.31
502.739	99.31
502.956	94.31
503.172	113.31
503.389	99.31
503.606	98.31
503.823	102.31
504.04	95.31
504.256	103.31
504.473	98.31
504.69	94.31
504.907	96.31
505.123	92.31
505.34	87.31
505.557	74.31
505.773	90.31
505.99	88.31
506.207	84.31
506.423	90.31
506.64	90.31
506.856	98.31
507.073	105.31
507.289	109.31
507.506	104.31
507.722	91.31
507.939	86.31
508.155	94.31
508.372	90.31
508.588	90.31
508.805	84.31
509.021	79.31
509.238	91.31
509.454	88.31
509.67	87.31
509.887	94.31
510.103	87.31
510.319	90.31
510.536	80.31
510.752	102.31
510.968	86.31
511.184	96.31
511.401	103.31
511.617	96.31
511.833	84.31
512.049	81.31
512.265	92.31
512.481	73.31
512.698	79.31
512.914	98.31
513.13	94.31
513.346	93.31
513.562	87.31
513.778	93.31
513.994	89.31
514.21	101.31
514.426	85.31
514.642	83.31
514.858	87.31
515.074	78.31
515.29	88.31
515.506	95.31
515.721	95.31
515.937	98.31
516.153	102.31
516.369	91.31
516.585	96.31
516.801	85.31
517.016	89.31
