Data from NiCl2@0.5M.TitratingCurve.Agarose3%dH2O.NegLispCup.LampEnergy10.LIBS07252019_HRD10591_18-19-48-571.txt Node
Date: Thu Jul 25 18:19:48 EDT 2019
User: cochatt
Spectrometer: HR+D1059
Trigger mode: 1
Integration Time (sec): 1.000000E-1
Scans to average: 1
Electric dark correction enabled: true
Nonlinearity correction enabled: false
Boxcar width: 0
XAxis mode: Wavelengths
Number of Pixels in Spectrum: 2048
>>>>>Begin Spectral Data<<<<<
223.165	-18.06
223.4	-18.06
223.635	-18.06
223.869	-12.06
224.104	-10.06
224.338	-8.06
224.573	-21.06
224.808	-14.06
225.042	-9.06
225.277	-7.06
225.511	-4.06
225.746	-3.06
225.98	3.94
226.215	-4.06
226.449	3.94
226.683	28.94
226.918	30.94
227.152	42.94
227.387	29.94
227.621	36.94
227.856	34.94
228.09	41.94
228.324	56.94
228.559	60.94
228.793	81.94
229.027	80.94
229.262	103.94
229.496	96.94
229.73	110.94
229.964	135.94
230.199	128.94
230.433	128.94
230.667	145.94
230.901	125.94
231.136	131.94
231.37	123.94
231.604	136.94
231.838	125.94
232.072	135.94
232.306	143.94
232.541	136.94
232.775	138.94
233.009	139.94
233.243	134.94
233.477	154.94
233.711	145.94
233.945	150.94
234.179	139.94
234.413	140.94
234.647	134.94
234.881	154.94
235.115	163.94
235.349	153.94
235.583	133.94
235.817	139.94
236.051	125.94
236.285	141.94
236.519	157.94
236.753	158.94
236.987	143.94
237.221	148.94
237.455	160.94
237.689	163.94
237.922	130.94
238.156	156.94
238.39	146.94
238.624	152.94
238.858	146.94
239.091	153.94
239.325	169.94
239.559	170.94
239.793	170.94
240.027	176.94
240.26	164.94
240.494	164.94
240.728	162.94
240.961	171.94
241.195	166.94
241.429	185.94
241.662	171.94
241.896	185.94
242.13	191.94
242.363	180.94
242.597	168.94
242.83	163.94
243.064	183.94
243.298	187.94
243.531	183.94
243.765	176.94
243.998	189.94
244.232	188.94
244.465	191.94
244.699	182.94
244.932	195.94
245.166	203.94
245.399	220.94
245.633	186.94
245.866	202.94
246.099	217.94
246.333	188.94
246.566	192.94
246.8	214.94
247.033	200.94
247.266	195.94
247.5	209.94
247.733	219.94
247.966	201.94
248.2	221.94
248.433	206.94
248.666	208.94
248.899	206.94
249.133	217.94
249.366	230.94
249.599	225.94
249.832	228.94
250.066	221.94
250.299	218.94
250.532	216.94
250.765	218.94
250.998	224.94
251.231	256.94
251.465	214.94
251.698	235.94
251.931	263.94
252.164	244.94
252.397	233.94
252.63	252.94
252.863	243.94
253.096	235.94
253.329	237.94
253.562	234.94
253.795	247.94
254.028	247.94
254.261	230.94
254.494	255.94
254.727	251.94
254.96	253.94
255.193	255.94
255.426	261.94
255.659	254.94
255.892	258.94
256.124	266.94
256.357	266.94
256.59	270.94
256.823	274.94
257.056	263.94
257.289	266.94
257.521	274.94
257.754	286.94
257.987	285.94
258.22	260.94
258.452	267.94
258.685	268.94
258.918	284.94
259.151	274.94
259.383	272.94
259.616	284.94
259.849	269.94
260.081	280.94
260.314	276.94
260.547	283.94
260.779	282.94
261.012	292.94
261.244	291.94
261.477	292.94
261.71	269.94
261.942	299.94
262.175	295.94
262.407	299.94
262.64	298.94
262.872	295.94
263.105	297.94
263.337	314.94
263.57	305.94
263.802	316.94
264.035	308.94
264.267	321.94
264.499	292.94
264.732	322.94
264.964	307.94
265.197	312.94
265.429	306.94
265.661	326.94
265.894	329.94
266.126	317.94
266.358	311.94
266.591	314.94
266.823	300.94
267.055	314.94
267.287	317.94
267.52	340.94
267.752	343.94
267.984	344.94
268.216	333.94
268.448	335.94
268.681	336.94
268.913	337.94
269.145	344.94
269.377	347.94
269.609	329.94
269.841	324.94
270.073	345.94
270.306	324.94
270.538	338.94
270.77	348.94
271.002	347.94
271.234	347.94
271.466	372.94
271.698	361.94
271.93	345.94
272.162	338.94
272.394	347.94
272.626	351.94
272.858	357.94
273.09	380.94
273.322	363.94
273.553	373.94
273.785	368.94
274.017	347.94
274.249	362.94
274.481	360.94
274.713	378.94
274.945	368.94
275.176	356.94
275.408	369.94
275.64	352.94
275.872	384.94
276.104	404.94
276.335	412.94
276.567	376.94
276.799	361.94
277.031	393.94
277.262	394.94
277.494	405.94
277.726	407.94
277.957	408.94
278.189	407.94
278.421	389.94
278.652	410.94
278.884	398.94
279.115	408.94
279.347	404.94
279.579	409.94
279.81	395.94
280.042	397.94
280.273	403.94
280.505	404.94
280.736	401.94
280.968	419.94
281.199	420.94
281.431	413.94
281.662	434.94
281.894	436.94
282.125	418.94
282.356	435.94
282.588	416.94
282.819	415.94
283.051	442.94
283.282	428.94
283.513	434.94
283.745	423.94
283.976	426.94
284.207	451.94
284.439	421.94
284.67	438.94
284.901	447.94
285.132	455.94
285.364	437.94
285.595	448.94
285.826	450.94
286.057	438.94
286.288	453.94
286.52	457.94
286.751	442.94
286.982	458.94
287.213	465.94
287.444	459.94
287.675	462.94
287.906	474.94
288.138	467.94
288.369	450.94
288.6	462.94
288.831	469.94
289.062	468.94
289.293	477.94
289.524	453.94
289.755	482.94
289.986	482.94
290.217	480.94
290.448	479.94
290.679	462.94
290.91	469.94
291.141	452.94
291.371	483.94
291.602	488.94
291.833	493.94
292.064	472.94
292.295	486.94
292.526	487.94
292.757	476.94
292.987	478.94
293.218	474.94
293.449	479.94
293.68	505.94
293.91	490.94
294.141	485.94
294.372	479.94
294.603	477.94
294.833	499.94
295.064	480.94
295.295	471.94
295.525	488.94
295.756	497.94
295.987	510.94
296.217	500.94
296.448	510.94
296.679	494.94
296.909	506.94
297.14	492.94
297.37	509.94
297.601	532.94
297.831	522.94
298.062	536.94
298.292	532.94
298.523	529.94
298.753	544.94
298.984	514.94
299.214	514.94
299.445	529.94
299.675	518.94
299.905	550.94
300.136	533.94
300.366	542.94
300.597	540.94
300.827	542.94
301.057	526.94
301.288	543.94
301.518	555.94
301.748	562.94
301.979	562.94
302.209	555.94
302.439	572.94
302.669	531.94
302.9	567.94
303.13	557.94
303.36	561.94
303.59	554.94
303.82	557.94
304.051	570.94
304.281	568.94
304.511	572.94
304.741	570.94
304.971	556.94
305.201	549.94
305.431	567.94
305.661	572.94
305.891	540.94
306.121	550.94
306.352	573.94
306.582	544.94
306.812	546.94
307.042	526.94
307.272	549.94
307.502	523.94
307.731	547.94
307.961	554.94
308.191	557.94
308.421	555.94
308.651	564.94
308.881	552.94
309.111	538.94
309.341	541.94
309.571	548.94
309.8	566.94
310.03	564.94
310.26	598.94
310.49	581.94
310.72	568.94
310.949	555.94
311.179	560.94
311.409	566.94
311.639	576.94
311.868	579.94
312.098	574.94
312.328	601.94
312.557	593.94
312.787	566.94
313.017	569.94
313.246	599.94
313.476	619.94
313.706	595.94
313.935	611.94
314.165	595.94
314.394	595.94
314.624	597.94
314.853	587.94
315.083	590.94
315.312	584.94
315.542	576.94
315.771	610.94
316.001	563.94
316.23	617.94
316.46	592.94
316.689	603.94
316.919	568.94
317.148	574.94
317.377	603.94
317.607	583.94
317.836	600.94
318.065	577.94
318.295	580.94
318.524	600.94
318.753	592.94
318.983	579.94
319.212	581.94
319.441	582.94
319.67	599.94
319.9	607.94
320.129	576.94
320.358	579.94
320.587	597.94
320.816	596.94
321.046	597.94
321.275	594.94
321.504	610.94
321.733	577.94
321.962	596.94
322.191	597.94
322.42	578.94
322.649	613.94
322.878	602.94
323.108	595.94
323.337	604.94
323.566	593.94
323.795	621.94
324.024	616.94
324.253	595.94
324.482	603.94
324.71	629.94
324.939	628.94
325.168	638.94
325.397	624.94
325.626	626.94
325.855	628.94
326.084	646.94
326.313	657.94
326.542	644.94
326.77	653.94
326.999	633.94
327.228	635.94
327.457	641.94
327.686	644.94
327.914	633.94
328.143	658.94
328.372	648.94
328.6	638.94
328.829	632.94
329.058	640.94
329.287	660.94
329.515	652.94
329.744	639.94
329.972	636.94
330.201	668.94
330.43	672.94
330.658	650.94
330.887	656.94
331.115	663.94
331.344	672.94
331.572	696.94
331.801	718.94
332.03	704.94
332.258	715.94
332.486	710.94
332.715	766.94
332.943	770.94
333.172	799.94
333.4	812.94
333.629	817.94
333.857	854.94
334.085	841.94
334.314	818.94
334.542	819.94
334.771	816.94
334.999	804.94
335.227	782.94
335.455	808.94
335.684	779.94
335.912	786.94
336.14	761.94
336.369	779.94
336.597	798.94
336.825	797.94
337.053	787.94
337.281	757.94
337.51	763.94
337.738	747.94
337.966	718.94
338.194	735.94
338.422	738.94
338.65	701.94
338.878	735.94
339.106	730.94
339.334	744.94
339.562	731.94
339.79	686.94
340.018	661.94
340.246	681.94
340.474	683.94
340.702	684.94
340.93	690.94
341.158	676.94
341.386	706.94
341.614	705.94
341.842	706.94
342.07	680.94
342.298	674.94
342.526	683.94
342.754	692.94
342.981	669.94
343.209	682.94
343.437	725.94
343.665	767.94
343.893	797.94
344.12	787.94
344.348	782.94
344.576	762.94
344.804	742.94
345.031	710.94
345.259	703.94
345.487	700.94
345.714	709.94
345.942	687.94
346.17	695.94
346.397	685.94
346.625	674.94
346.853	652.94
347.08	665.94
347.308	676.94
347.535	663.94
347.763	644.94
347.99	642.94
348.218	647.94
348.445	638.94
348.673	661.94
348.9	648.94
349.128	636.94
349.355	660.94
349.583	664.94
349.81	642.94
350.037	638.94
350.265	627.94
350.492	628.94
350.72	609.94
350.947	636.94
351.174	629.94
351.402	650.94
351.629	677.94
351.856	658.94
352.083	639.94
352.311	652.94
352.538	658.94
352.765	665.94
352.992	631.94
353.22	620.94
353.447	613.94
353.674	625.94
353.901	584.94
354.128	613.94
354.355	615.94
354.583	608.94
354.81	612.94
355.037	618.94
355.264	608.94
355.491	618.94
355.718	614.94
355.945	604.94
356.172	642.94
356.399	642.94
356.626	630.94
356.853	673.94
357.08	636.94
357.307	638.94
357.534	612.94
357.761	630.94
357.988	633.94
358.215	612.94
358.441	620.94
358.668	601.94
358.895	596.94
359.122	608.94
359.349	614.94
359.576	619.94
359.802	608.94
360.029	638.94
360.256	636.94
360.483	626.94
360.709	616.94
360.936	632.94
361.163	618.94
361.39	630.94
361.616	617.94
361.843	631.94
362.07	648.94
362.296	650.94
362.523	635.94
362.749	633.94
362.976	615.94
363.203	609.94
363.429	614.94
363.656	598.94
363.882	602.94
364.109	634.94
364.335	608.94
364.562	613.94
364.788	617.94
365.015	600.94
365.241	595.94
365.468	610.94
365.694	603.94
365.92	598.94
366.147	598.94
366.373	622.94
366.599	594.94
366.826	602.94
367.052	624.94
367.278	636.94
367.505	609.94
367.731	602.94
367.957	605.94
368.184	608.94
368.41	598.94
368.636	634.94
368.862	613.94
369.089	620.94
369.315	622.94
369.541	634.94
369.767	644.94
369.993	606.94
370.219	640.94
370.445	655.94
370.672	652.94
370.898	640.94
371.124	657.94
371.35	643.94
371.576	664.94
371.802	664.94
372.028	638.94
372.254	658.94
372.48	662.94
372.706	656.94
372.932	669.94
373.158	673.94
373.384	663.94
373.61	659.94
373.835	649.94
374.061	654.94
374.287	632.94
374.513	678.94
374.739	685.94
374.965	685.94
375.191	715.94
375.416	702.94
375.642	675.94
375.868	694.94
376.094	676.94
376.319	661.94
376.545	633.94
376.771	673.94
376.997	636.94
377.222	656.94
377.448	643.94
377.674	660.94
377.899	634.94
378.125	633.94
378.35	639.94
378.576	641.94
378.802	637.94
379.027	644.94
379.253	626.94
379.478	635.94
379.704	640.94
379.929	626.94
380.155	655.94
380.38	627.94
380.606	634.94
380.831	643.94
381.057	652.94
381.282	633.94
381.507	629.94
381.733	642.94
381.958	635.94
382.184	651.94
382.409	656.94
382.634	654.94
382.86	658.94
383.085	686.94
383.31	682.94
383.535	690.94
383.761	694.94
383.986	691.94
384.211	699.94
384.436	718.94
384.662	712.94
384.887	760.94
385.112	734.94
385.337	741.94
385.562	747.94
385.787	769.94
386.013	775.94
386.238	764.94
386.463	765.94
386.688	743.94
386.913	752.94
387.138	722.94
387.363	731.94
387.588	743.94
387.813	716.94
388.038	743.94
388.263	721.94
388.488	754.94
388.713	732.94
388.938	725.94
389.163	743.94
389.387	737.94
389.612	741.94
389.837	722.94
390.062	722.94
390.287	722.94
390.512	738.94
390.736	750.94
390.961	745.94
391.186	770.94
391.411	780.94
391.636	797.94
391.86	822.94
392.085	836.94
392.31	810.94
392.534	846.94
392.759	838.94
392.984	797.94
393.208	794.94
393.433	787.94
393.658	790.94
393.882	806.94
394.107	778.94
394.331	810.94
394.556	833.94
394.78	792.94
395.005	804.94
395.229	798.94
395.454	836.94
395.678	852.94
395.903	837.94
396.127	792.94
396.352	819.94
396.576	788.94
396.801	800.94
397.025	826.94
397.249	836.94
397.474	883.94
397.698	832.94
397.922	856.94
398.147	843.94
398.371	877.94
398.595	907.94
398.82	908.94
399.044	1010.94
399.268	1078.94
399.492	1259.94
399.717	1334.94
399.941	1302.94
400.165	1209.94
400.389	1131.94
400.613	1040.94
400.837	981.94
401.062	954.94
401.286	936.94
401.51	942.94
401.734	947.94
401.958	930.94
402.182	968.94
402.406	951.94
402.63	1003.94
402.854	966.94
403.078	988.94
403.302	1006.94
403.526	1015.94
403.75	1038.94
403.974	1065.94
404.198	1084.94
404.422	1045.94
404.645	1069.94
404.869	1025.94
405.093	1054.94
405.317	1019.94
405.541	1024.94
405.765	978.94
405.988	1029.94
406.212	1036.94
406.436	1052.94
406.66	1056.94
406.883	1074.94
407.107	1117.94
407.331	1152.94
407.555	1200.94
407.778	1206.94
408.002	1168.94
408.226	1153.94
408.449	1128.94
408.673	1067.94
408.896	1106.94
409.12	1055.94
409.344	1064.94
409.567	1083.94
409.791	1070.94
410.014	1058.94
410.238	1035.94
410.461	1028.94
410.685	1014.94
410.908	1035.94
411.132	1014.94
411.355	978.94
411.578	1003.94
411.802	992.94
412.025	972.94
412.249	1006.94
412.472	987.94
412.695	964.94
412.919	977.94
413.142	967.94
413.365	957.94
413.589	969.94
413.812	928.94
414.035	921.94
414.258	951.94
414.482	957.94
414.705	966.94
414.928	979.94
415.151	951.94
415.374	949.94
415.597	946.94
415.821	937.94
416.044	928.94
416.267	952.94
416.49	927.94
416.713	936.94
416.936	938.94
417.159	940.94
417.382	935.94
417.605	921.94
417.828	924.94
418.051	959.94
418.274	946.94
418.497	941.94
418.72	983.94
418.943	971.94
419.166	1010.94
419.389	1089.94
419.611	1070.94
419.834	1042.94
420.057	979.94
420.28	960.94
420.503	948.94
420.726	969.94
420.948	928.94
421.171	916.94
421.394	916.94
421.617	929.94
421.839	978.94
422.062	947.94
422.285	958.94
422.507	972.94
422.73	978.94
422.953	982.94
423.175	979.94
423.398	996.94
423.621	968.94
423.843	994.94
424.066	1009.94
424.288	989.94
424.511	985.94
424.733	973.94
424.956	981.94
425.178	966.94
425.401	965.94
425.623	990.94
425.846	920.94
426.068	908.94
426.291	923.94
426.513	903.94
426.735	920.94
426.958	927.94
427.18	889.94
427.402	885.94
427.625	921.94
427.847	889.94
428.069	885.94
428.292	871.94
428.514	865.94
428.736	880.94
428.958	893.94
429.181	880.94
429.403	865.94
429.625	870.94
429.847	835.94
430.069	874.94
430.292	868.94
430.514	842.94
430.736	879.94
430.958	878.94
431.18	842.94
431.402	882.94
431.624	876.94
431.846	882.94
432.068	886.94
432.29	883.94
432.512	889.94
432.734	886.94
432.956	874.94
433.178	896.94
433.4	900.94
433.622	909.94
433.844	910.94
434.066	885.94
434.287	901.94
434.509	940.94
434.731	957.94
434.953	950.94
435.175	966.94
435.397	997.94
435.618	961.94
435.84	930.94
436.062	920.94
436.284	900.94
436.505	892.94
436.727	921.94
436.949	910.94
437.17	880.94
437.392	851.94
437.614	875.94
437.835	853.94
438.057	842.94
438.278	849.94
438.5	864.94
438.721	868.94
438.943	836.94
439.165	868.94
439.386	896.94
439.608	899.94
439.829	843.94
440.05	891.94
440.272	888.94
440.493	864.94
440.715	912.94
440.936	924.94
441.158	955.94
441.379	946.94
441.6	986.94
441.822	997.94
442.043	1001.94
442.264	977.94
442.486	961.94
442.707	967.94
442.928	994.94
443.149	956.94
443.371	967.94
443.592	998.94
443.813	998.94
444.034	1011.94
444.255	1019.94
444.476	1062.94
444.698	1088.94
444.919	1162.94
445.14	1259.94
445.361	1115.94
445.582	1044.94
445.803	983.94
446.024	955.94
446.245	945.94
446.466	930.94
446.687	901.94
446.908	937.94
447.129	881.94
447.35	867.94
447.571	891.94
447.792	841.94
448.013	839.94
448.234	842.94
448.455	866.94
448.675	836.94
448.896	843.94
449.117	824.94
449.338	819.94
449.559	813.94
449.779	840.94
450	820.94
450.221	837.94
450.442	837.94
450.662	817.94
450.883	838.94
451.104	829.94
451.324	830.94
451.545	845.94
451.766	856.94
451.986	849.94
452.207	827.94
452.428	827.94
452.648	802.94
452.869	776.94
453.089	828.94
453.31	821.94
453.53	797.94
453.751	778.94
453.971	792.94
454.192	786.94
454.412	797.94
454.633	781.94
454.853	793.94
455.073	793.94
455.294	792.94
455.514	768.94
455.734	805.94
455.955	752.94
456.175	738.94
456.395	776.94
456.616	746.94
456.836	768.94
457.056	776.94
457.276	757.94
457.497	808.94
457.717	788.94
457.937	830.94
458.157	774.94
458.377	791.94
458.598	810.94
458.818	836.94
459.038	816.94
459.258	856.94
459.478	902.94
459.698	936.94
459.918	914.94
460.138	978.94
460.358	1029.94
460.578	1050.94
460.798	1045.94
461.018	1051.94
461.238	1062.94
461.458	1036.94
461.678	1059.94
461.898	1051.94
462.118	1080.94
462.338	1112.94
462.558	1149.94
462.777	1184.94
462.997	1248.94
463.217	1339.94
463.437	1355.94
463.657	1273.94
463.876	1215.94
464.096	1210.94
464.316	1169.94
464.536	1173.94
464.755	1164.94
464.975	1123.94
465.195	1092.94
465.414	1025.94
465.634	956.94
465.854	944.94
466.073	960.94
466.293	908.94
466.512	914.94
466.732	902.94
466.951	874.94
467.171	864.94
467.391	861.94
467.61	878.94
467.829	895.94
468.049	862.94
468.268	843.94
468.488	847.94
468.707	841.94
468.927	867.94
469.146	863.94
469.365	848.94
469.585	840.94
469.804	877.94
470.023	904.94
470.243	908.94
470.462	933.94
470.681	911.94
470.901	906.94
471.12	908.94
471.339	888.94
471.558	876.94
471.777	874.94
471.997	860.94
472.216	840.94
472.435	851.94
472.654	816.94
472.873	824.94
473.092	830.94
473.311	810.94
473.53	841.94
473.749	851.94
473.968	846.94
474.187	820.94
474.406	821.94
474.625	835.94
474.844	869.94
475.063	839.94
475.282	852.94
475.501	834.94
475.72	837.94
475.939	859.94
476.158	877.94
476.377	886.94
476.596	883.94
476.814	869.94
477.033	882.94
477.252	906.94
477.471	925.94
477.69	940.94
477.908	977.94
478.127	990.94
478.346	982.94
478.564	994.94
478.783	1015.94
479.002	1030.94
479.22	1044.94
479.439	1051.94
479.658	1025.94
479.876	1042.94
480.095	1026.94
480.313	1075.94
480.532	1089.94
480.751	1069.94
480.969	1046.94
481.188	1033.94
481.406	1009.94
481.624	968.94
481.843	958.94
482.061	961.94
482.28	998.94
482.498	982.94
482.717	967.94
482.935	964.94
483.153	995.94
483.372	995.94
483.59	970.94
483.808	988.94
484.027	979.94
484.245	973.94
484.463	982.94
484.681	986.94
484.9	1007.94
485.118	1024.94
485.336	993.94
485.554	1027.94
485.772	1015.94
485.99	1047.94
486.209	1035.94
486.427	1030.94
486.645	997.94
486.863	1032.94
487.081	1029.94
487.299	1004.94
487.517	1014.94
487.735	1031.94
487.953	1044.94
488.171	1031.94
488.389	991.94
488.607	1025.94
488.825	1009.94
489.043	972.94
489.261	994.94
489.479	1006.94
489.696	1059.94
489.914	1003.94
490.132	1019.94
490.35	1042.94
490.568	1018.94
490.786	1024.94
491.003	1032.94
491.221	1056.94
491.439	1053.94
491.657	1061.94
491.874	1056.94
492.092	1063.94
492.31	1076.94
492.527	1062.94
492.745	1050.94
492.963	1061.94
493.18	1048.94
493.398	1068.94
493.615	1080.94
493.833	1079.94
494.05	1072.94
494.268	1066.94
494.485	1074.94
494.703	1087.94
494.92	1100.94
495.138	1077.94
495.355	1089.94
495.573	1065.94
495.79	1084.94
496.008	1086.94
496.225	1138.94
496.442	1095.94
496.66	1140.94
496.877	1143.94
497.094	1145.94
497.312	1157.94
497.529	1201.94
497.746	1216.94
497.963	1266.94
498.181	1304.94
498.398	1366.94
498.615	1392.94
498.832	1466.94
499.049	1597.94
499.267	1708.94
499.484	1842.94
