Data from NiCl2@0.5M.TitratingCurve.Agarose3%dH2O.NegLispCup.LampEnergy10.LIBS07252019_HRD10591_18-21-07-571.txt Node
Date: Thu Jul 25 18:21:07 EDT 2019
User: cochatt
Spectrometer: HR+D1059
Trigger mode: 1
Integration Time (sec): 1.000000E-1
Scans to average: 1
Electric dark correction enabled: true
Nonlinearity correction enabled: false
Boxcar width: 0
XAxis mode: Wavelengths
Number of Pixels in Spectrum: 2048
>>>>>Begin Spectral Data<<<<<
223.165	-20.81
223.4	-20.81
223.635	-20.81
223.869	-25.81
224.104	-19.81
224.338	-15.81
224.573	-21.81
224.808	-13.81
225.042	6.19
225.277	-3.81
225.511	2.19
225.746	0.19
225.98	15.19
226.215	21.19
226.449	9.19
226.683	10.19
226.918	32.19
227.152	25.19
227.387	39.19
227.621	31.19
227.856	41.19
228.09	34.19
228.324	43.19
228.559	66.19
228.793	73.19
229.027	77.19
229.262	102.19
229.496	101.19
229.73	122.19
229.964	117.19
230.199	132.19
230.433	118.19
230.667	110.19
230.901	132.19
231.136	114.19
231.37	103.19
231.604	130.19
231.838	133.19
232.072	127.19
232.306	130.19
232.541	146.19
232.775	132.19
233.009	134.19
233.243	131.19
233.477	128.19
233.711	160.19
233.945	120.19
234.179	146.19
234.413	119.19
234.647	155.19
234.881	140.19
235.115	143.19
235.349	140.19
235.583	137.19
235.817	124.19
236.051	130.19
236.285	140.19
236.519	126.19
236.753	148.19
236.987	148.19
237.221	151.19
237.455	139.19
237.689	144.19
237.922	142.19
238.156	128.19
238.39	152.19
238.624	146.19
238.858	139.19
239.091	142.19
239.325	138.19
239.559	142.19
239.793	152.19
240.027	147.19
240.26	158.19
240.494	164.19
240.728	138.19
240.961	171.19
241.195	160.19
241.429	159.19
241.662	163.19
241.896	165.19
242.13	183.19
242.363	163.19
242.597	163.19
242.83	163.19
243.064	165.19
243.298	176.19
243.531	159.19
243.765	194.19
243.998	195.19
244.232	169.19
244.465	163.19
244.699	187.19
244.932	185.19
245.166	178.19
245.399	184.19
245.633	191.19
245.866	196.19
246.099	183.19
246.333	188.19
246.566	185.19
246.8	191.19
247.033	179.19
247.266	218.19
247.5	193.19
247.733	196.19
247.966	191.19
248.2	198.19
248.433	208.19
248.666	202.19
248.899	211.19
249.133	209.19
249.366	216.19
249.599	217.19
249.832	205.19
250.066	211.19
250.299	206.19
250.532	227.19
250.765	227.19
250.998	227.19
251.231	226.19
251.465	237.19
251.698	231.19
251.931	230.19
252.164	232.19
252.397	228.19
252.63	238.19
252.863	238.19
253.096	243.19
253.329	222.19
253.562	245.19
253.795	256.19
254.028	234.19
254.261	247.19
254.494	227.19
254.727	228.19
254.96	256.19
255.193	258.19
255.426	231.19
255.659	247.19
255.892	246.19
256.124	249.19
256.357	249.19
256.59	237.19
256.823	248.19
257.056	258.19
257.289	249.19
257.521	268.19
257.754	267.19
257.987	265.19
258.22	256.19
258.452	251.19
258.685	267.19
258.918	263.19
259.151	258.19
259.383	271.19
259.616	268.19
259.849	269.19
260.081	268.19
260.314	281.19
260.547	288.19
260.779	264.19
261.012	282.19
261.244	274.19
261.477	286.19
261.71	282.19
261.942	280.19
262.175	264.19
262.407	276.19
262.64	285.19
262.872	278.19
263.105	276.19
263.337	290.19
263.57	274.19
263.802	294.19
264.035	305.19
264.267	290.19
264.499	292.19
264.732	304.19
264.964	306.19
265.197	286.19
265.429	298.19
265.661	302.19
265.894	298.19
266.126	308.19
266.358	285.19
266.591	297.19
266.823	319.19
267.055	310.19
267.287	298.19
267.52	309.19
267.752	293.19
267.984	324.19
268.216	292.19
268.448	312.19
268.681	335.19
268.913	323.19
269.145	312.19
269.377	329.19
269.609	319.19
269.841	307.19
270.073	318.19
270.306	305.19
270.538	338.19
270.77	326.19
271.002	321.19
271.234	310.19
271.466	351.19
271.698	331.19
271.93	344.19
272.162	333.19
272.394	329.19
272.626	332.19
272.858	329.19
273.09	339.19
273.322	337.19
273.553	342.19
273.785	342.19
274.017	361.19
274.249	351.19
274.481	355.19
274.713	348.19
274.945	339.19
275.176	357.19
275.408	341.19
275.64	360.19
275.872	355.19
276.104	358.19
276.335	364.19
276.567	355.19
276.799	358.19
277.031	369.19
277.262	357.19
277.494	358.19
277.726	354.19
277.957	361.19
278.189	375.19
278.421	393.19
278.652	370.19
278.884	399.19
279.115	392.19
279.347	384.19
279.579	383.19
279.81	371.19
280.042	368.19
280.273	393.19
280.505	384.19
280.736	353.19
280.968	385.19
281.199	371.19
281.431	409.19
281.662	398.19
281.894	406.19
282.125	402.19
282.356	399.19
282.588	379.19
282.819	392.19
283.051	415.19
283.282	401.19
283.513	409.19
283.745	403.19
283.976	397.19
284.207	417.19
284.439	425.19
284.67	413.19
284.901	402.19
285.132	403.19
285.364	412.19
285.595	422.19
285.826	422.19
286.057	429.19
286.288	426.19
286.52	440.19
286.751	415.19
286.982	430.19
287.213	442.19
287.444	440.19
287.675	439.19
287.906	439.19
288.138	432.19
288.369	453.19
288.6	430.19
288.831	419.19
289.062	435.19
289.293	456.19
289.524	418.19
289.755	433.19
289.986	420.19
290.217	437.19
290.448	438.19
290.679	445.19
290.91	446.19
291.141	442.19
291.371	440.19
291.602	449.19
291.833	454.19
292.064	454.19
292.295	439.19
292.526	450.19
292.757	441.19
292.987	459.19
293.218	457.19
293.449	462.19
293.68	462.19
293.91	457.19
294.141	452.19
294.372	448.19
294.603	456.19
294.833	465.19
295.064	465.19
295.295	468.19
295.525	451.19
295.756	459.19
295.987	457.19
296.217	444.19
296.448	456.19
296.679	471.19
296.909	482.19
297.14	470.19
297.37	465.19
297.601	486.19
297.831	477.19
298.062	501.19
298.292	490.19
298.523	510.19
298.753	512.19
298.984	480.19
299.214	506.19
299.445	502.19
299.675	500.19
299.905	494.19
300.136	508.19
300.366	500.19
300.597	501.19
300.827	521.19
301.057	522.19
301.288	528.19
301.518	542.19
301.748	519.19
301.979	542.19
302.209	516.19
302.439	532.19
302.669	499.19
302.9	522.19
303.13	480.19
303.36	515.19
303.59	512.19
303.82	518.19
304.051	540.19
304.281	525.19
304.511	518.19
304.741	501.19
304.971	520.19
305.201	527.19
305.431	514.19
305.661	518.19
305.891	534.19
306.121	552.19
306.352	515.19
306.582	531.19
306.812	519.19
307.042	514.19
307.272	516.19
307.502	509.19
307.731	547.19
307.961	522.19
308.191	507.19
308.421	503.19
308.651	496.19
308.881	503.19
309.111	506.19
309.341	496.19
309.571	514.19
309.8	521.19
310.03	524.19
310.26	552.19
310.49	539.19
310.72	517.19
310.949	513.19
311.179	544.19
311.409	491.19
311.639	544.19
311.868	534.19
312.098	541.19
312.328	550.19
312.557	544.19
312.787	518.19
313.017	523.19
313.246	547.19
313.476	538.19
313.706	578.19
313.935	545.19
314.165	534.19
314.394	552.19
314.624	532.19
314.853	560.19
315.083	552.19
315.312	563.19
315.542	536.19
315.771	534.19
316.001	557.19
316.23	530.19
316.46	530.19
316.689	537.19
316.919	546.19
317.148	543.19
317.377	530.19
317.607	546.19
317.836	546.19
318.065	548.19
318.295	518.19
318.524	562.19
318.753	554.19
318.983	540.19
319.212	554.19
319.441	539.19
319.67	543.19
319.9	546.19
320.129	542.19
320.358	544.19
320.587	575.19
320.816	525.19
321.046	524.19
321.275	559.19
321.504	549.19
321.733	556.19
321.962	561.19
322.191	571.19
322.42	551.19
322.649	562.19
322.878	549.19
323.108	555.19
323.337	547.19
323.566	568.19
323.795	548.19
324.024	568.19
324.253	560.19
324.482	571.19
324.71	580.19
324.939	580.19
325.168	578.19
325.397	567.19
325.626	574.19
325.855	573.19
326.084	582.19
326.313	582.19
326.542	599.19
326.77	610.19
326.999	594.19
327.228	591.19
327.457	591.19
327.686	610.19
327.914	593.19
328.143	592.19
328.372	564.19
328.6	595.19
328.829	574.19
329.058	587.19
329.287	584.19
329.515	605.19
329.744	599.19
329.972	610.19
330.201	631.19
330.43	606.19
330.658	624.19
330.887	593.19
331.115	618.19
331.344	648.19
331.572	626.19
331.801	625.19
332.03	650.19
332.258	683.19
332.486	683.19
332.715	704.19
332.943	698.19
333.172	709.19
333.4	745.19
333.629	758.19
333.857	783.19
334.085	765.19
334.314	770.19
334.542	741.19
334.771	755.19
334.999	734.19
335.227	742.19
335.455	732.19
335.684	732.19
335.912	729.19
336.14	723.19
336.369	695.19
336.597	720.19
336.825	723.19
337.053	702.19
337.281	700.19
337.51	684.19
337.738	659.19
337.966	691.19
338.194	663.19
338.422	688.19
338.65	672.19
338.878	653.19
339.106	674.19
339.334	681.19
339.562	649.19
339.79	621.19
340.018	626.19
340.246	625.19
340.474	629.19
340.702	620.19
340.93	611.19
341.158	633.19
341.386	640.19
341.614	664.19
341.842	628.19
342.07	621.19
342.298	623.19
342.526	623.19
342.754	628.19
342.981	620.19
343.209	638.19
343.437	664.19
343.665	711.19
343.893	734.19
344.12	752.19
344.348	707.19
344.576	683.19
344.804	694.19
345.031	660.19
345.259	645.19
345.487	608.19
345.714	632.19
345.942	634.19
346.17	632.19
346.397	631.19
346.625	631.19
346.853	592.19
347.08	599.19
347.308	589.19
347.535	627.19
347.763	612.19
347.99	594.19
348.218	596.19
348.445	624.19
348.673	595.19
348.9	598.19
349.128	618.19
349.355	619.19
349.583	607.19
349.81	609.19
350.037	567.19
350.265	591.19
350.492	562.19
350.72	588.19
350.947	578.19
351.174	585.19
351.402	592.19
351.629	611.19
351.856	611.19
352.083	594.19
352.311	555.19
352.538	600.19
352.765	605.19
352.992	571.19
353.22	580.19
353.447	567.19
353.674	574.19
353.901	572.19
354.128	552.19
354.355	578.19
354.583	580.19
354.81	573.19
355.037	591.19
355.264	560.19
355.491	585.19
355.718	552.19
355.945	566.19
356.172	577.19
356.399	574.19
356.626	587.19
356.853	583.19
357.08	578.19
357.307	575.19
357.534	579.19
357.761	569.19
357.988	585.19
358.215	569.19
358.441	561.19
358.668	562.19
358.895	580.19
359.122	567.19
359.349	552.19
359.576	549.19
359.802	579.19
360.029	580.19
360.256	593.19
360.483	532.19
360.709	563.19
360.936	571.19
361.163	562.19
361.39	576.19
361.616	578.19
361.843	568.19
362.07	615.19
362.296	588.19
362.523	570.19
362.749	558.19
362.976	562.19
363.203	563.19
363.429	556.19
363.656	565.19
363.882	547.19
364.109	562.19
364.335	544.19
364.562	562.19
364.788	558.19
365.015	560.19
365.241	571.19
365.468	580.19
365.694	550.19
365.92	547.19
366.147	568.19
366.373	554.19
366.599	559.19
366.826	572.19
367.052	564.19
367.278	561.19
367.505	580.19
367.731	576.19
367.957	551.19
368.184	554.19
368.41	548.19
368.636	542.19
368.862	558.19
369.089	581.19
369.315	605.19
369.541	566.19
369.767	584.19
369.993	578.19
370.219	578.19
370.445	581.19
370.672	598.19
370.898	593.19
371.124	608.19
371.35	593.19
371.576	601.19
371.802	597.19
372.028	594.19
372.254	610.19
372.48	600.19
372.706	627.19
372.932	626.19
373.158	630.19
373.384	599.19
373.61	572.19
373.835	600.19
374.061	609.19
374.287	609.19
374.513	613.19
374.739	616.19
374.965	641.19
375.191	666.19
375.416	638.19
375.642	634.19
375.868	611.19
376.094	594.19
376.319	601.19
376.545	590.19
376.771	581.19
376.997	595.19
377.222	605.19
377.448	615.19
377.674	590.19
377.899	612.19
378.125	577.19
378.35	574.19
378.576	591.19
378.802	586.19
379.027	600.19
379.253	605.19
379.478	584.19
379.704	586.19
379.929	593.19
380.155	575.19
380.38	578.19
380.606	586.19
380.831	592.19
381.057	586.19
381.282	599.19
381.507	590.19
381.733	591.19
381.958	587.19
382.184	598.19
382.409	619.19
382.634	607.19
382.86	618.19
383.085	619.19
383.31	638.19
383.535	632.19
383.761	634.19
383.986	634.19
384.211	679.19
384.436	647.19
384.662	687.19
384.887	686.19
385.112	689.19
385.337	694.19
385.562	687.19
385.787	671.19
386.013	700.19
386.238	699.19
386.463	722.19
386.688	706.19
386.913	690.19
387.138	692.19
387.363	678.19
387.588	690.19
387.813	704.19
388.038	706.19
388.263	691.19
388.488	691.19
388.713	665.19
388.938	676.19
389.163	683.19
389.387	684.19
389.612	670.19
389.837	672.19
390.062	660.19
390.287	706.19
390.512	710.19
390.736	697.19
390.961	715.19
391.186	726.19
391.411	762.19
391.636	730.19
391.86	761.19
392.085	762.19
392.31	776.19
392.534	753.19
392.759	757.19
392.984	753.19
393.208	758.19
393.433	717.19
393.658	723.19
393.882	732.19
394.107	747.19
394.331	755.19
394.556	751.19
394.78	735.19
395.005	776.19
395.229	723.19
395.454	752.19
395.678	766.19
395.903	776.19
396.127	759.19
396.352	759.19
396.576	724.19
396.801	728.19
397.025	739.19
397.249	775.19
397.474	768.19
397.698	782.19
397.922	793.19
398.147	793.19
398.371	818.19
398.595	815.19
398.82	838.19
399.044	933.19
399.268	978.19
399.492	1087.19
399.717	1266.19
399.941	1214.19
400.165	1147.19
400.389	1019.19
400.613	964.19
400.837	911.19
401.062	900.19
401.286	875.19
401.51	880.19
401.734	854.19
401.958	888.19
402.182	860.19
402.406	876.19
402.63	905.19
402.854	907.19
403.078	914.19
403.302	924.19
403.526	950.19
403.75	977.19
403.974	946.19
404.198	979.19
404.422	962.19
404.645	966.19
404.869	925.19
405.093	950.19
405.317	914.19
405.541	963.19
405.765	946.19
405.988	932.19
406.212	942.19
406.436	962.19
406.66	961.19
406.883	961.19
407.107	998.19
407.331	1082.19
407.555	1115.19
407.778	1074.19
408.002	1057.19
408.226	1060.19
408.449	995.19
408.673	971.19
408.896	1003.19
409.12	972.19
409.344	1001.19
409.567	1003.19
409.791	995.19
410.014	994.19
410.238	970.19
410.461	980.19
410.685	953.19
410.908	946.19
411.132	929.19
411.355	919.19
411.578	918.19
411.802	912.19
412.025	914.19
412.249	920.19
412.472	898.19
412.695	894.19
412.919	886.19
413.142	863.19
413.365	848.19
413.589	885.19
413.812	874.19
414.035	872.19
414.258	866.19
414.482	896.19
414.705	905.19
414.928	891.19
415.151	875.19
415.374	886.19
415.597	876.19
415.821	848.19
416.044	855.19
416.267	867.19
416.49	876.19
416.713	852.19
416.936	874.19
417.159	880.19
417.382	836.19
417.605	847.19
417.828	842.19
418.051	867.19
418.274	885.19
418.497	860.19
418.72	898.19
418.943	896.19
419.166	925.19
419.389	990.19
419.611	950.19
419.834	951.19
420.057	951.19
420.28	887.19
420.503	859.19
420.726	869.19
420.948	890.19
421.171	870.19
421.394	888.19
421.617	836.19
421.839	874.19
422.062	855.19
422.285	848.19
422.507	880.19
422.73	884.19
422.953	868.19
423.175	897.19
423.398	894.19
423.621	897.19
423.843	904.19
424.066	911.19
424.288	916.19
424.511	912.19
424.733	878.19
424.956	893.19
425.178	888.19
425.401	872.19
425.623	865.19
425.846	858.19
426.068	861.19
426.291	838.19
426.513	847.19
426.735	845.19
426.958	837.19
427.18	811.19
427.402	826.19
427.625	823.19
427.847	794.19
428.069	794.19
428.292	785.19
428.514	808.19
428.736	798.19
428.958	753.19
429.181	788.19
429.403	770.19
429.625	785.19
429.847	790.19
430.069	817.19
430.292	796.19
430.514	786.19
430.736	795.19
430.958	803.19
431.18	812.19
431.402	795.19
431.624	819.19
431.846	824.19
432.068	823.19
432.29	819.19
432.512	820.19
432.734	830.19
432.956	801.19
433.178	822.19
433.4	824.19
433.622	792.19
433.844	823.19
434.066	800.19
434.287	827.19
434.509	845.19
434.731	842.19
434.953	882.19
435.175	906.19
435.397	890.19
435.618	854.19
435.84	823.19
436.062	821.19
436.284	819.19
436.505	816.19
436.727	835.19
436.949	804.19
437.17	800.19
437.392	769.19
437.614	796.19
437.835	788.19
438.057	762.19
438.278	753.19
438.5	759.19
438.721	769.19
438.943	819.19
439.165	788.19
439.386	794.19
439.608	842.19
439.829	822.19
440.05	826.19
440.272	837.19
440.493	814.19
440.715	826.19
440.936	836.19
441.158	834.19
441.379	869.19
441.6	920.19
441.822	912.19
442.043	903.19
442.264	888.19
442.486	896.19
442.707	895.19
442.928	875.19
443.149	881.19
443.371	906.19
443.592	916.19
443.813	904.19
444.034	914.19
444.255	957.19
444.476	969.19
444.698	992.19
444.919	1064.19
445.14	1081.19
445.361	1040.19
445.582	948.19
445.803	872.19
446.024	867.19
446.245	859.19
446.466	842.19
446.687	844.19
446.908	824.19
447.129	818.19
447.35	803.19
447.571	810.19
447.792	741.19
448.013	773.19
448.234	780.19
448.455	729.19
448.675	780.19
448.896	785.19
449.117	762.19
449.338	761.19
449.559	732.19
449.779	762.19
450	766.19
450.221	744.19
450.442	760.19
450.662	762.19
450.883	763.19
451.104	786.19
451.324	769.19
451.545	796.19
451.766	795.19
451.986	769.19
452.207	770.19
452.428	744.19
452.648	745.19
452.869	724.19
453.089	720.19
453.31	759.19
453.53	744.19
453.751	742.19
453.971	715.19
454.192	713.19
454.412	741.19
454.633	713.19
454.853	745.19
455.073	713.19
455.294	716.19
455.514	718.19
455.734	741.19
455.955	711.19
456.175	711.19
456.395	709.19
456.616	704.19
456.836	702.19
457.056	722.19
457.276	686.19
457.497	726.19
457.717	709.19
457.937	704.19
458.157	748.19
458.377	732.19
458.598	753.19
458.818	788.19
459.038	791.19
459.258	816.19
459.478	836.19
459.698	863.19
459.918	884.19
460.138	873.19
460.358	946.19
460.578	940.19
460.798	948.19
461.018	963.19
461.238	976.19
461.458	951.19
461.678	944.19
461.898	1001.19
462.118	1013.19
462.338	1026.19
462.558	1032.19
462.777	1077.19
462.997	1142.19
463.217	1235.19
463.437	1222.19
463.657	1147.19
463.876	1126.19
464.096	1114.19
464.316	1098.19
464.536	1100.19
464.755	1080.19
464.975	1025.19
465.195	980.19
465.414	939.19
465.634	875.19
465.854	848.19
466.073	842.19
466.293	796.19
466.512	822.19
466.732	825.19
466.951	836.19
467.171	790.19
467.391	775.19
467.61	802.19
467.829	801.19
468.049	806.19
468.268	784.19
468.488	774.19
468.707	778.19
468.927	784.19
469.146	788.19
469.365	802.19
469.585	799.19
469.804	820.19
470.023	800.19
470.243	818.19
470.462	830.19
470.681	823.19
470.901	814.19
471.12	808.19
471.339	782.19
471.558	800.19
471.777	786.19
471.997	786.19
472.216	780.19
472.435	758.19
472.654	751.19
472.873	756.19
473.092	752.19
473.311	740.19
473.53	763.19
473.749	731.19
473.968	772.19
474.187	762.19
474.406	762.19
474.625	772.19
474.844	770.19
475.063	770.19
475.282	771.19
475.501	777.19
475.72	757.19
475.939	776.19
476.158	778.19
476.377	790.19
476.596	770.19
476.814	826.19
477.033	780.19
477.252	827.19
477.471	827.19
477.69	831.19
477.908	847.19
478.127	894.19
478.346	908.19
478.564	920.19
478.783	926.19
479.002	938.19
479.22	947.19
479.439	922.19
479.658	916.19
479.876	942.19
480.095	939.19
480.313	972.19
480.532	995.19
480.751	979.19
480.969	959.19
481.188	904.19
481.406	895.19
481.624	896.19
481.843	882.19
482.061	877.19
482.28	847.19
482.498	835.19
482.717	878.19
482.935	855.19
483.153	887.19
483.372	894.19
483.59	874.19
483.808	838.19
484.027	860.19
484.245	872.19
484.463	881.19
484.681	893.19
484.9	888.19
485.118	916.19
485.336	891.19
485.554	908.19
485.772	922.19
485.99	890.19
486.209	919.19
486.427	910.19
486.645	891.19
486.863	932.19
487.081	895.19
487.299	926.19
487.517	916.19
487.735	902.19
487.953	925.19
488.171	937.19
488.389	923.19
488.607	870.19
488.825	891.19
489.043	894.19
489.261	922.19
489.479	894.19
489.696	903.19
489.914	914.19
490.132	926.19
490.35	908.19
490.568	915.19
490.786	916.19
491.003	937.19
491.221	916.19
491.439	925.19
491.657	909.19
491.874	898.19
492.092	930.19
492.31	950.19
492.527	939.19
492.745	947.19
492.963	932.19
493.18	938.19
493.398	952.19
493.615	971.19
493.833	968.19
494.05	967.19
494.268	951.19
494.485	970.19
494.703	968.19
494.92	963.19
495.138	960.19
495.355	994.19
495.573	982.19
495.79	952.19
496.008	980.19
496.225	1001.19
496.442	1028.19
496.66	1022.19
496.877	1033.19
497.094	1029.19
497.312	1049.19
497.529	1093.19
497.746	1093.19
497.963	1117.19
498.181	1154.19
498.398	1218.19
498.615	1298.19
498.832	1328.19
499.049	1437.19
499.267	1568.19
499.484	1685.19
499.701	1838.19
499.918	2000.19
500.135	2233.19
500.352	2450.19
500.569	2597.19
500.786	2507.19
501.003	2400.19
