Data from NiCl2@0.25M.TitratingCurve.Agarose3%dH2O.NegLispCup.LampEnergy10.LIBS07252019_HRD10591_18-25-44-573.txt Node
Date: Thu Jul 25 18:25:44 EDT 2019
User: cochatt
Spectrometer: HR+D1059
Trigger mode: 1
Integration Time (sec): 1.000000E-1
Scans to average: 1
Electric dark correction enabled: true
Nonlinearity correction enabled: false
Boxcar width: 0
XAxis mode: Wavelengths
Number of Pixels in Spectrum: 2048
>>>>>Begin Spectral Data<<<<<
223.165	0.12
223.4	0.12
223.635	0.12
223.869	-21.88
224.104	-14.88
224.338	-20.88
224.573	-19.88
224.808	-8.88
225.042	-10.88
225.277	-12.88
225.511	7.12
225.746	-1.88
225.98	13.12
226.215	6.12
226.449	18.12
226.683	20.12
226.918	24.12
227.152	23.12
227.387	22.12
227.621	59.12
227.856	51.12
228.09	46.12
228.324	46.12
228.559	64.12
228.793	66.12
229.027	111.12
229.262	136.12
229.496	122.12
229.73	129.12
229.964	139.12
230.199	139.12
230.433	142.12
230.667	153.12
230.901	147.12
231.136	138.12
231.37	155.12
231.604	159.12
231.838	158.12
232.072	170.12
232.306	163.12
232.541	171.12
232.775	185.12
233.009	163.12
233.243	159.12
233.477	169.12
233.711	166.12
233.945	171.12
234.179	177.12
234.413	170.12
234.647	172.12
234.881	172.12
235.115	165.12
235.349	175.12
235.583	178.12
235.817	171.12
236.051	169.12
236.285	178.12
236.519	189.12
236.753	179.12
236.987	189.12
237.221	204.12
237.455	193.12
237.689	190.12
237.922	191.12
238.156	190.12
238.39	176.12
238.624	193.12
238.858	204.12
239.091	200.12
239.325	194.12
239.559	205.12
239.793	192.12
240.027	207.12
240.26	209.12
240.494	210.12
240.728	215.12
240.961	215.12
241.195	225.12
241.429	205.12
241.662	214.12
241.896	236.12
242.13	220.12
242.363	231.12
242.597	243.12
242.83	224.12
243.064	259.12
243.298	219.12
243.531	251.12
243.765	231.12
243.998	251.12
244.232	225.12
244.465	257.12
244.699	249.12
244.932	239.12
245.166	267.12
245.399	268.12
245.633	248.12
245.866	262.12
246.099	264.12
246.333	255.12
246.566	275.12
246.8	269.12
247.033	273.12
247.266	263.12
247.5	282.12
247.733	261.12
247.966	267.12
248.2	297.12
248.433	269.12
248.666	283.12
248.899	300.12
249.133	275.12
249.366	291.12
249.599	279.12
249.832	286.12
250.066	300.12
250.299	297.12
250.532	307.12
250.765	301.12
250.998	298.12
251.231	309.12
251.465	311.12
251.698	316.12
251.931	325.12
252.164	325.12
252.397	313.12
252.63	325.12
252.863	322.12
253.096	321.12
253.329	332.12
253.562	336.12
253.795	328.12
254.028	329.12
254.261	319.12
254.494	313.12
254.727	335.12
254.96	326.12
255.193	331.12
255.426	332.12
255.659	332.12
255.892	355.12
256.124	362.12
256.357	335.12
256.59	347.12
256.823	341.12
257.056	350.12
257.289	374.12
257.521	351.12
257.754	360.12
257.987	364.12
258.22	364.12
258.452	349.12
258.685	364.12
258.918	379.12
259.151	376.12
259.383	373.12
259.616	367.12
259.849	360.12
260.081	374.12
260.314	397.12
260.547	397.12
260.779	367.12
261.012	388.12
261.244	383.12
261.477	401.12
261.71	390.12
261.942	385.12
262.175	383.12
262.407	394.12
262.64	401.12
262.872	385.12
263.105	421.12
263.337	415.12
263.57	399.12
263.802	419.12
264.035	401.12
264.267	418.12
264.499	417.12
264.732	443.12
264.964	428.12
265.197	418.12
265.429	424.12
265.661	406.12
265.894	433.12
266.126	427.12
266.358	412.12
266.591	429.12
266.823	429.12
267.055	437.12
267.287	429.12
267.52	467.12
267.752	437.12
267.984	484.12
268.216	459.12
268.448	455.12
268.681	440.12
268.913	455.12
269.145	441.12
269.377	451.12
269.609	478.12
269.841	442.12
270.073	452.12
270.306	472.12
270.538	471.12
270.77	465.12
271.002	469.12
271.234	465.12
271.466	477.12
271.698	475.12
271.93	466.12
272.162	484.12
272.394	492.12
272.626	478.12
272.858	484.12
273.09	489.12
273.322	499.12
273.553	491.12
273.785	478.12
274.017	460.12
274.249	491.12
274.481	488.12
274.713	510.12
274.945	517.12
275.176	520.12
275.408	501.12
275.64	518.12
275.872	509.12
276.104	503.12
276.335	499.12
276.567	526.12
276.799	515.12
277.031	549.12
277.262	491.12
277.494	520.12
277.726	529.12
277.957	539.12
278.189	543.12
278.421	495.12
278.652	573.12
278.884	523.12
279.115	549.12
279.347	553.12
279.579	525.12
279.81	552.12
280.042	541.12
280.273	566.12
280.505	546.12
280.736	569.12
280.968	541.12
281.199	570.12
281.431	556.12
281.662	560.12
281.894	572.12
282.125	567.12
282.356	573.12
282.588	585.12
282.819	560.12
283.051	583.12
283.282	575.12
283.513	593.12
283.745	585.12
283.976	562.12
284.207	579.12
284.439	593.12
284.67	592.12
284.901	603.12
285.132	585.12
285.364	620.12
285.595	590.12
285.826	597.12
286.057	609.12
286.288	597.12
286.52	595.12
286.751	624.12
286.982	627.12
287.213	597.12
287.444	607.12
287.675	623.12
287.906	635.12
288.138	635.12
288.369	606.12
288.6	622.12
288.831	618.12
289.062	636.12
289.293	629.12
289.524	635.12
289.755	643.12
289.986	639.12
290.217	629.12
290.448	625.12
290.679	625.12
290.91	640.12
291.141	632.12
291.371	663.12
291.602	647.12
291.833	632.12
292.064	638.12
292.295	667.12
292.526	649.12
292.757	632.12
292.987	632.12
293.218	650.12
293.449	655.12
293.68	631.12
293.91	660.12
294.141	660.12
294.372	651.12
294.603	649.12
294.833	645.12
295.064	663.12
295.295	649.12
295.525	660.12
295.756	663.12
295.987	645.12
296.217	662.12
296.448	641.12
296.679	658.12
296.909	678.12
297.14	695.12
297.37	707.12
297.601	677.12
297.831	692.12
298.062	674.12
298.292	676.12
298.523	729.12
298.753	711.12
298.984	709.12
299.214	718.12
299.445	693.12
299.675	688.12
299.905	697.12
300.136	684.12
300.366	687.12
300.597	729.12
300.827	719.12
301.057	734.12
301.288	755.12
301.518	728.12
301.748	723.12
301.979	742.12
302.209	751.12
302.439	746.12
302.669	726.12
302.9	715.12
303.13	727.12
303.36	731.12
303.59	743.12
303.82	723.12
304.051	733.12
304.281	739.12
304.511	743.12
304.741	755.12
304.971	745.12
305.201	732.12
305.431	733.12
305.661	740.12
305.891	739.12
306.121	711.12
306.352	732.12
306.582	719.12
306.812	729.12
307.042	706.12
307.272	716.12
307.502	683.12
307.731	713.12
307.961	744.12
308.191	707.12
308.421	731.12
308.651	719.12
308.881	698.12
309.111	712.12
309.341	724.12
309.571	721.12
309.8	719.12
310.03	710.12
310.26	724.12
310.49	737.12
310.72	737.12
310.949	711.12
311.179	743.12
311.409	720.12
311.639	740.12
311.868	731.12
312.098	743.12
312.328	742.12
312.557	760.12
312.787	766.12
313.017	759.12
313.246	759.12
313.476	769.12
313.706	771.12
313.935	769.12
314.165	777.12
314.394	785.12
314.624	777.12
314.853	768.12
315.083	779.12
315.312	770.12
315.542	783.12
315.771	749.12
316.001	748.12
316.23	769.12
316.46	760.12
316.689	757.12
316.919	792.12
317.148	742.12
317.377	762.12
317.607	750.12
317.836	752.12
318.065	743.12
318.295	766.12
318.524	741.12
318.753	732.12
318.983	753.12
319.212	750.12
319.441	769.12
319.67	747.12
319.9	747.12
320.129	743.12
320.358	734.12
320.587	763.12
320.816	759.12
321.046	768.12
321.275	750.12
321.504	750.12
321.733	753.12
321.962	764.12
322.191	773.12
322.42	775.12
322.649	767.12
322.878	776.12
323.108	719.12
323.337	769.12
323.566	784.12
323.795	767.12
324.024	784.12
324.253	780.12
324.482	765.12
324.71	773.12
324.939	807.12
325.168	789.12
325.397	764.12
325.626	781.12
325.855	793.12
326.084	812.12
326.313	811.12
326.542	809.12
326.77	820.12
326.999	827.12
327.228	812.12
327.457	816.12
327.686	829.12
327.914	806.12
328.143	827.12
328.372	832.12
328.6	808.12
328.829	797.12
329.058	816.12
329.287	827.12
329.515	871.12
329.744	819.12
329.972	843.12
330.201	833.12
330.43	829.12
330.658	842.12
330.887	872.12
331.115	856.12
331.344	867.12
331.572	876.12
331.801	903.12
332.03	905.12
332.258	938.12
332.486	960.12
332.715	977.12
332.943	996.12
333.172	1047.12
333.4	1032.12
333.629	1063.12
333.857	1081.12
334.085	1118.12
334.314	1077.12
334.542	1082.12
334.771	1067.12
334.999	1012.12
335.227	1037.12
335.455	1041.12
335.684	1028.12
335.912	1059.12
336.14	1035.12
336.369	1001.12
336.597	983.12
336.825	1000.12
337.053	1012.12
337.281	993.12
337.51	981.12
337.738	952.12
337.966	920.12
338.194	949.12
338.422	903.12
338.65	932.12
338.878	911.12
339.106	880.12
339.334	929.12
339.562	882.12
339.79	908.12
340.018	881.12
340.246	844.12
340.474	877.12
340.702	886.12
340.93	859.12
341.158	876.12
341.386	864.12
341.614	877.12
341.842	878.12
342.07	858.12
342.298	845.12
342.526	867.12
342.754	855.12
342.981	854.12
343.209	883.12
343.437	939.12
343.665	956.12
343.893	987.12
344.12	1066.12
344.348	1036.12
344.576	1004.12
344.804	960.12
345.031	910.12
345.259	891.12
345.487	881.12
345.714	867.12
345.942	881.12
346.17	885.12
346.397	857.12
346.625	849.12
346.853	842.12
347.08	841.12
347.308	830.12
347.535	848.12
347.763	847.12
347.99	846.12
348.218	864.12
348.445	847.12
348.673	826.12
348.9	835.12
349.128	846.12
349.355	827.12
349.583	859.12
349.81	830.12
350.037	838.12
350.265	824.12
350.492	810.12
350.72	806.12
350.947	798.12
351.174	815.12
351.402	809.12
351.629	782.12
351.856	830.12
352.083	812.12
352.311	797.12
352.538	815.12
352.765	799.12
352.992	796.12
353.22	834.12
353.447	796.12
353.674	809.12
353.901	795.12
354.128	832.12
354.355	789.12
354.583	783.12
354.81	791.12
355.037	800.12
355.264	811.12
355.491	777.12
355.718	825.12
355.945	813.12
356.172	803.12
356.399	840.12
356.626	817.12
356.853	824.12
357.08	821.12
357.307	804.12
357.534	783.12
357.761	812.12
357.988	848.12
358.215	829.12
358.441	821.12
358.668	793.12
358.895	823.12
359.122	792.12
359.349	809.12
359.576	814.12
359.802	816.12
360.029	791.12
360.256	807.12
360.483	796.12
360.709	792.12
360.936	819.12
361.163	809.12
361.39	799.12
361.616	782.12
361.843	800.12
362.07	796.12
362.296	820.12
362.523	788.12
362.749	821.12
362.976	823.12
363.203	809.12
363.429	798.12
363.656	805.12
363.882	819.12
364.109	795.12
364.335	804.12
364.562	796.12
364.788	800.12
365.015	799.12
365.241	781.12
365.468	821.12
365.694	823.12
365.92	824.12
366.147	799.12
366.373	811.12
366.599	815.12
366.826	817.12
367.052	803.12
367.278	816.12
367.505	831.12
367.731	809.12
367.957	798.12
368.184	803.12
368.41	803.12
368.636	811.12
368.862	805.12
369.089	829.12
369.315	817.12
369.541	829.12
369.767	837.12
369.993	839.12
370.219	853.12
370.445	863.12
370.672	848.12
370.898	872.12
371.124	867.12
371.35	866.12
371.576	893.12
371.802	894.12
372.028	873.12
372.254	872.12
372.48	908.12
372.706	915.12
372.932	924.12
373.158	911.12
373.384	904.12
373.61	876.12
373.835	892.12
374.061	883.12
374.287	890.12
374.513	914.12
374.739	940.12
374.965	949.12
375.191	998.12
375.416	976.12
375.642	933.12
375.868	931.12
376.094	909.12
376.319	895.12
376.545	905.12
376.771	905.12
376.997	883.12
377.222	889.12
377.448	892.12
377.674	897.12
377.899	895.12
378.125	878.12
378.35	881.12
378.576	904.12
378.802	881.12
379.027	884.12
379.253	880.12
379.478	862.12
379.704	853.12
379.929	859.12
380.155	882.12
380.38	883.12
380.606	887.12
380.831	886.12
381.057	883.12
381.282	901.12
381.507	897.12
381.733	906.12
381.958	888.12
382.184	915.12
382.409	911.12
382.634	921.12
382.86	904.12
383.085	912.12
383.31	940.12
383.535	960.12
383.761	935.12
383.986	955.12
384.211	963.12
384.436	998.12
384.662	1016.12
384.887	1028.12
385.112	1037.12
385.337	1039.12
385.562	1052.12
385.787	1065.12
386.013	1086.12
386.238	1070.12
386.463	1078.12
386.688	1095.12
386.913	1092.12
387.138	1076.12
387.363	1061.12
387.588	1065.12
387.813	1077.12
388.038	1079.12
388.263	1064.12
388.488	1068.12
388.713	1045.12
388.938	1063.12
389.163	1040.12
389.387	1040.12
389.612	1049.12
389.837	1067.12
390.062	1027.12
390.287	1040.12
390.512	1069.12
390.736	1062.12
390.961	1080.12
391.186	1103.12
391.411	1107.12
391.636	1152.12
391.86	1203.12
392.085	1187.12
392.31	1215.12
392.534	1199.12
392.759	1169.12
392.984	1152.12
393.208	1127.12
393.433	1148.12
393.658	1143.12
393.882	1099.12
394.107	1129.12
394.331	1130.12
394.556	1133.12
394.78	1152.12
395.005	1169.12
395.229	1133.12
395.454	1193.12
395.678	1220.12
395.903	1212.12
396.127	1230.12
396.352	1148.12
396.576	1116.12
396.801	1143.12
397.025	1174.12
397.249	1173.12
397.474	1220.12
397.698	1223.12
397.922	1223.12
398.147	1212.12
398.371	1250.12
398.595	1303.12
398.82	1325.12
399.044	1428.12
399.268	1547.12
399.492	1689.12
399.717	1887.12
399.941	1936.12
400.165	1810.12
400.389	1692.12
400.613	1551.12
400.837	1476.12
401.062	1435.12
401.286	1365.12
401.51	1402.12
401.734	1347.12
401.958	1340.12
402.182	1335.12
402.406	1376.12
402.63	1353.12
402.854	1419.12
403.078	1424.12
403.302	1491.12
403.526	1473.12
403.75	1501.12
403.974	1499.12
404.198	1509.12
404.422	1508.12
404.645	1465.12
404.869	1513.12
405.093	1510.12
405.317	1464.12
405.541	1498.12
405.765	1515.12
405.988	1432.12
406.212	1482.12
406.436	1504.12
406.66	1521.12
406.883	1545.12
407.107	1635.12
407.331	1678.12
407.555	1744.12
407.778	1712.12
408.002	1707.12
408.226	1671.12
408.449	1624.12
408.673	1575.12
408.896	1548.12
409.12	1538.12
409.344	1515.12
409.567	1544.12
409.791	1551.12
410.014	1510.12
410.238	1510.12
410.461	1490.12
410.685	1459.12
410.908	1440.12
411.132	1439.12
411.355	1416.12
411.578	1429.12
411.802	1400.12
412.025	1399.12
412.249	1425.12
412.472	1403.12
412.695	1360.12
412.919	1371.12
413.142	1379.12
413.365	1360.12
413.589	1360.12
413.812	1342.12
414.035	1318.12
414.258	1373.12
414.482	1356.12
414.705	1387.12
414.928	1364.12
415.151	1337.12
415.374	1338.12
415.597	1331.12
415.821	1303.12
416.044	1308.12
416.267	1276.12
416.49	1294.12
416.713	1307.12
416.936	1334.12
417.159	1287.12
417.382	1294.12
417.605	1301.12
417.828	1280.12
418.051	1307.12
418.274	1331.12
418.497	1306.12
418.72	1307.12
418.943	1322.12
419.166	1438.12
419.389	1561.12
419.611	1489.12
419.834	1438.12
420.057	1388.12
420.28	1365.12
420.503	1332.12
420.726	1301.12
420.948	1324.12
421.171	1296.12
421.394	1308.12
421.617	1327.12
421.839	1324.12
422.062	1353.12
422.285	1319.12
422.507	1327.12
422.73	1342.12
422.953	1358.12
423.175	1349.12
423.398	1347.12
423.621	1355.12
423.843	1386.12
424.066	1341.12
424.288	1340.12
424.511	1371.12
424.733	1339.12
424.956	1325.12
425.178	1321.12
425.401	1304.12
425.623	1324.12
425.846	1287.12
426.068	1289.12
426.291	1303.12
426.513	1269.12
426.735	1250.12
426.958	1251.12
427.18	1217.12
427.402	1243.12
427.625	1198.12
427.847	1170.12
428.069	1201.12
428.292	1187.12
428.514	1163.12
428.736	1207.12
428.958	1175.12
429.181	1132.12
429.403	1149.12
429.625	1136.12
429.847	1165.12
430.069	1148.12
430.292	1136.12
430.514	1135.12
430.736	1158.12
430.958	1158.12
431.18	1167.12
431.402	1172.12
431.624	1133.12
431.846	1161.12
432.068	1187.12
432.29	1217.12
432.512	1201.12
432.734	1215.12
432.956	1156.12
433.178	1189.12
433.4	1158.12
433.622	1214.12
433.844	1181.12
434.066	1170.12
434.287	1209.12
434.509	1232.12
434.731	1277.12
434.953	1296.12
435.175	1343.12
435.397	1287.12
435.618	1234.12
435.84	1198.12
436.062	1199.12
436.284	1204.12
436.505	1192.12
436.727	1198.12
436.949	1197.12
437.17	1191.12
437.392	1131.12
437.614	1157.12
437.835	1118.12
438.057	1106.12
438.278	1152.12
438.5	1110.12
438.721	1088.12
438.943	1103.12
439.165	1117.12
439.386	1125.12
439.608	1124.12
439.829	1155.12
440.05	1167.12
440.272	1177.12
440.493	1195.12
440.715	1222.12
440.936	1191.12
441.158	1228.12
441.379	1260.12
441.6	1305.12
441.822	1299.12
442.043	1312.12
442.264	1283.12
442.486	1278.12
442.707	1265.12
442.928	1259.12
443.149	1297.12
443.371	1276.12
443.592	1262.12
443.813	1296.12
444.034	1299.12
444.255	1375.12
444.476	1430.12
444.698	1505.12
444.919	1507.12
445.14	1563.12
445.361	1462.12
445.582	1347.12
445.803	1310.12
446.024	1279.12
446.245	1207.12
446.466	1244.12
446.687	1180.12
446.908	1173.12
447.129	1146.12
447.35	1123.12
447.571	1135.12
447.792	1120.12
448.013	1097.12
448.234	1104.12
448.455	1100.12
448.675	1081.12
448.896	1068.12
449.117	1079.12
449.338	1067.12
449.559	1051.12
449.779	1063.12
450	1080.12
450.221	1068.12
450.442	1065.12
450.662	1107.12
450.883	1092.12
451.104	1119.12
451.324	1068.12
451.545	1077.12
451.766	1056.12
451.986	1066.12
452.207	1079.12
452.428	1054.12
452.648	1070.12
452.869	1018.12
453.089	1048.12
453.31	1050.12
453.53	1039.12
453.751	1053.12
453.971	1037.12
454.192	1051.12
454.412	1015.12
454.633	1009.12
454.853	1031.12
455.073	995.12
455.294	1024.12
455.514	1007.12
455.734	1019.12
455.955	981.12
456.175	999.12
456.395	983.12
456.616	985.12
456.836	1022.12
457.056	1000.12
457.276	999.12
457.497	999.12
457.717	1032.12
457.937	1011.12
458.157	1024.12
458.377	1041.12
458.598	1075.12
458.818	1085.12
459.038	1121.12
459.258	1153.12
459.478	1179.12
459.698	1206.12
459.918	1265.12
460.138	1276.12
460.358	1374.12
460.578	1353.12
460.798	1361.12
461.018	1372.12
461.238	1393.12
461.458	1403.12
461.678	1386.12
461.898	1416.12
462.118	1397.12
462.338	1497.12
462.558	1520.12
462.777	1579.12
462.997	1683.12
463.217	1782.12
463.437	1827.12
463.657	1696.12
463.876	1635.12
464.096	1649.12
464.316	1610.12
464.536	1610.12
464.755	1561.12
464.975	1508.12
465.195	1427.12
465.414	1403.12
465.634	1284.12
465.854	1242.12
466.073	1214.12
466.293	1177.12
466.512	1161.12
466.732	1158.12
466.951	1136.12
467.171	1118.12
467.391	1130.12
467.61	1126.12
467.829	1151.12
468.049	1120.12
468.268	1053.12
468.488	1064.12
468.707	1061.12
468.927	1091.12
469.146	1068.12
469.365	1097.12
469.585	1090.12
469.804	1129.12
470.023	1169.12
470.243	1127.12
470.462	1153.12
470.681	1179.12
470.901	1182.12
471.12	1145.12
471.339	1121.12
471.558	1122.12
471.777	1119.12
471.997	1114.12
472.216	1072.12
472.435	1079.12
472.654	1055.12
472.873	1079.12
473.092	1059.12
473.311	1060.12
473.53	1040.12
473.749	1051.12
473.968	1023.12
474.187	1042.12
474.406	1059.12
474.625	1049.12
474.844	1051.12
475.063	1070.12
475.282	1057.12
475.501	1086.12
475.72	1101.12
475.939	1097.12
476.158	1097.12
476.377	1121.12
476.596	1084.12
476.814	1132.12
477.033	1157.12
477.252	1142.12
477.471	1158.12
477.69	1214.12
477.908	1206.12
478.127	1217.12
478.346	1302.12
478.564	1301.12
478.783	1302.12
479.002	1350.12
479.22	1329.12
479.439	1319.12
479.658	1306.12
479.876	1319.12
480.095	1349.12
480.313	1361.12
480.532	1417.12
480.751	1396.12
480.969	1375.12
481.188	1318.12
481.406	1310.12
481.624	1253.12
481.843	1247.12
482.061	1217.12
482.28	1220.12
482.498	1211.12
482.717	1214.12
482.935	1211.12
483.153	1223.12
483.372	1231.12
483.59	1226.12
483.808	1232.12
484.027	1214.12
484.245	1251.12
484.463	1274.12
484.681	1246.12
484.9	1243.12
485.118	1263.12
485.336	1270.12
485.554	1272.12
485.772	1273.12
485.99	1304.12
486.209	1292.12
486.427	1289.12
486.645	1294.12
486.863	1312.12
487.081	1298.12
487.299	1258.12
487.517	1256.12
487.735	1254.12
487.953	1273.12
488.171	1274.12
488.389	1279.12
488.607	1274.12
488.825	1254.12
489.043	1265.12
489.261	1285.12
489.479	1264.12
489.696	1263.12
489.914	1271.12
490.132	1260.12
490.35	1289.12
490.568	1297.12
490.786	1287.12
491.003	1297.12
491.221	1273.12
491.439	1336.12
491.657	1333.12
491.874	1323.12
492.092	1324.12
492.31	1332.12
492.527	1312.12
492.745	1322.12
492.963	1315.12
493.18	1357.12
493.398	1344.12
493.615	1364.12
493.833	1361.12
494.05	1350.12
494.268	1375.12
494.485	1367.12
494.703	1381.12
