Data from NiCl2@0.0625M.TitratingCurve.Agarose3%dH2O.NegLispCup.LampEnergy10.LIBS07252019_HRD10591_18-35-37-577.txt Node
Date: Thu Jul 25 18:35:37 EDT 2019
User: cochatt
Spectrometer: HR+D1059
Trigger mode: 1
Integration Time (sec): 1.000000E-1
Scans to average: 1
Electric dark correction enabled: true
Nonlinearity correction enabled: false
Boxcar width: 0
XAxis mode: Wavelengths
Number of Pixels in Spectrum: 2048
>>>>>Begin Spectral Data<<<<<
223.165	-10.88
223.4	-10.88
223.635	-10.88
223.869	-13.88
224.104	-24.88
224.338	-19.88
224.573	-10.88
224.808	-3.88
225.042	-18.88
225.277	1.12
225.511	-1.88
225.746	0.12
225.98	18.12
226.215	-0.88
226.449	12.12
226.683	12.12
226.918	23.12
227.152	39.12
227.387	33.12
227.621	46.12
227.856	39.12
228.09	50.12
228.324	53.12
228.559	49.12
228.793	84.12
229.027	129.12
229.262	141.12
229.496	140.12
229.73	158.12
229.964	170.12
230.199	170.12
230.433	150.12
230.667	198.12
230.901	171.12
231.136	169.12
231.37	181.12
231.604	181.12
231.838	199.12
232.072	210.12
232.306	204.12
232.541	205.12
232.775	197.12
233.009	201.12
233.243	202.12
233.477	208.12
233.711	230.12
233.945	206.12
234.179	204.12
234.413	210.12
234.647	211.12
234.881	211.12
235.115	214.12
235.349	220.12
235.583	210.12
235.817	212.12
236.051	201.12
236.285	211.12
236.519	212.12
236.753	215.12
236.987	224.12
237.221	221.12
237.455	229.12
237.689	234.12
237.922	233.12
238.156	219.12
238.39	237.12
238.624	232.12
238.858	253.12
239.091	262.12
239.325	236.12
239.559	259.12
239.793	261.12
240.027	253.12
240.26	271.12
240.494	262.12
240.728	249.12
240.961	253.12
241.195	265.12
241.429	278.12
241.662	281.12
241.896	280.12
242.13	301.12
242.363	291.12
242.597	311.12
242.83	292.12
243.064	298.12
243.298	293.12
243.531	328.12
243.765	311.12
243.998	332.12
244.232	317.12
244.465	310.12
244.699	316.12
244.932	323.12
245.166	329.12
245.399	341.12
245.633	313.12
245.866	320.12
246.099	330.12
246.333	333.12
246.566	338.12
246.8	331.12
247.033	331.12
247.266	335.12
247.5	346.12
247.733	346.12
247.966	348.12
248.2	343.12
248.433	368.12
248.666	375.12
248.899	358.12
249.133	367.12
249.366	382.12
249.599	375.12
249.832	384.12
250.066	387.12
250.299	362.12
250.532	383.12
250.765	383.12
250.998	385.12
251.231	410.12
251.465	400.12
251.698	410.12
251.931	379.12
252.164	426.12
252.397	413.12
252.63	415.12
252.863	413.12
253.096	415.12
253.329	420.12
253.562	417.12
253.795	449.12
254.028	435.12
254.261	428.12
254.494	437.12
254.727	445.12
254.96	421.12
255.193	453.12
255.426	444.12
255.659	448.12
255.892	454.12
256.124	446.12
256.357	453.12
256.59	481.12
256.823	461.12
257.056	433.12
257.289	477.12
257.521	493.12
257.754	482.12
257.987	458.12
258.22	477.12
258.452	487.12
258.685	469.12
258.918	472.12
259.151	486.12
259.383	486.12
259.616	478.12
259.849	491.12
260.081	476.12
260.314	505.12
260.547	478.12
260.779	489.12
261.012	509.12
261.244	515.12
261.477	545.12
261.71	514.12
261.942	535.12
262.175	491.12
262.407	519.12
262.64	507.12
262.872	504.12
263.105	519.12
263.337	541.12
263.57	541.12
263.802	530.12
264.035	547.12
264.267	564.12
264.499	536.12
264.732	551.12
264.964	554.12
265.197	553.12
265.429	572.12
265.661	565.12
265.894	582.12
266.126	570.12
266.358	573.12
266.591	573.12
266.823	557.12
267.055	567.12
267.287	564.12
267.52	589.12
267.752	596.12
267.984	581.12
268.216	574.12
268.448	597.12
268.681	587.12
268.913	590.12
269.145	588.12
269.377	609.12
269.609	597.12
269.841	611.12
270.073	633.12
270.306	621.12
270.538	580.12
270.77	609.12
271.002	647.12
271.234	605.12
271.466	622.12
271.698	630.12
271.93	643.12
272.162	603.12
272.394	639.12
272.626	660.12
272.858	628.12
273.09	637.12
273.322	660.12
273.553	635.12
273.785	658.12
274.017	664.12
274.249	655.12
274.481	669.12
274.713	652.12
274.945	675.12
275.176	674.12
275.408	673.12
275.64	694.12
275.872	687.12
276.104	681.12
276.335	687.12
276.567	666.12
276.799	703.12
277.031	683.12
277.262	709.12
277.494	713.12
277.726	690.12
277.957	698.12
278.189	700.12
278.421	700.12
278.652	719.12
278.884	734.12
279.115	730.12
279.347	734.12
279.579	728.12
279.81	721.12
280.042	708.12
280.273	729.12
280.505	721.12
280.736	725.12
280.968	733.12
281.199	775.12
281.431	772.12
281.662	755.12
281.894	760.12
282.125	767.12
282.356	776.12
282.588	774.12
282.819	740.12
283.051	761.12
283.282	790.12
283.513	786.12
283.745	780.12
283.976	778.12
284.207	777.12
284.439	781.12
284.67	811.12
284.901	802.12
285.132	787.12
285.364	805.12
285.595	803.12
285.826	807.12
286.057	811.12
286.288	822.12
286.52	821.12
286.751	836.12
286.982	826.12
287.213	834.12
287.444	828.12
287.675	827.12
287.906	818.12
288.138	832.12
288.369	842.12
288.6	845.12
288.831	869.12
289.062	873.12
289.293	822.12
289.524	840.12
289.755	860.12
289.986	825.12
290.217	854.12
290.448	860.12
290.679	847.12
290.91	855.12
291.141	823.12
291.371	867.12
291.602	875.12
291.833	846.12
292.064	863.12
292.295	847.12
292.526	864.12
292.757	823.12
292.987	844.12
293.218	848.12
293.449	877.12
293.68	870.12
293.91	887.12
294.141	861.12
294.372	887.12
294.603	865.12
294.833	863.12
295.064	887.12
295.295	863.12
295.525	873.12
295.756	885.12
295.987	865.12
296.217	897.12
296.448	881.12
296.679	901.12
296.909	902.12
297.14	910.12
297.37	908.12
297.601	917.12
297.831	915.12
298.062	940.12
298.292	924.12
298.523	944.12
298.753	960.12
298.984	940.12
299.214	927.12
299.445	918.12
299.675	950.12
299.905	924.12
300.136	907.12
300.366	921.12
300.597	961.12
300.827	979.12
301.057	968.12
301.288	975.12
301.518	978.12
301.748	958.12
301.979	976.12
302.209	1005.12
302.439	974.12
302.669	986.12
302.9	970.12
303.13	983.12
303.36	989.12
303.59	979.12
303.82	990.12
304.051	963.12
304.281	983.12
304.511	959.12
304.741	972.12
304.971	1027.12
305.201	1011.12
305.431	975.12
305.661	991.12
305.891	983.12
306.121	964.12
306.352	971.12
306.582	983.12
306.812	977.12
307.042	979.12
307.272	950.12
307.502	940.12
307.731	962.12
307.961	957.12
308.191	985.12
308.421	972.12
308.651	964.12
308.881	970.12
309.111	957.12
309.341	964.12
309.571	965.12
309.8	945.12
310.03	990.12
310.26	966.12
310.49	986.12
310.72	991.12
310.949	945.12
311.179	990.12
311.409	986.12
311.639	985.12
311.868	997.12
312.098	1011.12
312.328	1007.12
312.557	1001.12
312.787	1005.12
313.017	1054.12
313.246	1030.12
313.476	1038.12
313.706	1048.12
313.935	1074.12
314.165	1069.12
314.394	1051.12
314.624	1080.12
314.853	1057.12
315.083	1023.12
315.312	1044.12
315.542	1047.12
315.771	1036.12
316.001	1041.12
316.23	1064.12
316.46	1059.12
316.689	1042.12
316.919	1033.12
317.148	1052.12
317.377	1029.12
317.607	1033.12
317.836	1015.12
318.065	1026.12
318.295	1005.12
318.524	1042.12
318.753	1031.12
318.983	1043.12
319.212	1026.12
319.441	985.12
319.67	1033.12
319.9	1063.12
320.129	1027.12
320.358	1050.12
320.587	1018.12
320.816	1037.12
321.046	1055.12
321.275	1049.12
321.504	1042.12
321.733	1037.12
321.962	1061.12
322.191	1050.12
322.42	1055.12
322.649	1032.12
322.878	1067.12
323.108	1044.12
323.337	1058.12
323.566	1067.12
323.795	1069.12
324.024	1089.12
324.253	1087.12
324.482	1076.12
324.71	1093.12
324.939	1094.12
325.168	1103.12
325.397	1068.12
325.626	1093.12
325.855	1116.12
326.084	1121.12
326.313	1128.12
326.542	1108.12
326.77	1139.12
326.999	1111.12
327.228	1119.12
327.457	1121.12
327.686	1101.12
327.914	1118.12
328.143	1143.12
328.372	1135.12
328.6	1126.12
328.829	1093.12
329.058	1127.12
329.287	1149.12
329.515	1137.12
329.744	1170.12
329.972	1167.12
330.201	1169.12
330.43	1145.12
330.658	1188.12
330.887	1169.12
331.115	1171.12
331.344	1190.12
331.572	1197.12
331.801	1223.12
332.03	1216.12
332.258	1236.12
332.486	1273.12
332.715	1323.12
332.943	1335.12
333.172	1359.12
333.4	1398.12
333.629	1454.12
333.857	1445.12
334.085	1458.12
334.314	1448.12
334.542	1447.12
334.771	1400.12
334.999	1431.12
335.227	1414.12
335.455	1384.12
335.684	1393.12
335.912	1389.12
336.14	1437.12
336.369	1400.12
336.597	1405.12
336.825	1324.12
337.053	1374.12
337.281	1321.12
337.51	1311.12
337.738	1310.12
337.966	1285.12
338.194	1277.12
338.422	1239.12
338.65	1262.12
338.878	1265.12
339.106	1239.12
339.334	1249.12
339.562	1232.12
339.79	1226.12
340.018	1194.12
340.246	1223.12
340.474	1178.12
340.702	1183.12
340.93	1183.12
341.158	1203.12
341.386	1179.12
341.614	1230.12
341.842	1191.12
342.07	1202.12
342.298	1159.12
342.526	1175.12
342.754	1218.12
342.981	1185.12
343.209	1218.12
343.437	1266.12
343.665	1298.12
343.893	1385.12
344.12	1423.12
344.348	1405.12
344.576	1331.12
344.804	1297.12
345.031	1233.12
345.259	1222.12
345.487	1191.12
345.714	1185.12
345.942	1187.12
346.17	1153.12
346.397	1155.12
346.625	1159.12
346.853	1137.12
347.08	1117.12
347.308	1149.12
347.535	1112.12
347.763	1166.12
347.99	1132.12
348.218	1114.12
348.445	1113.12
348.673	1137.12
348.9	1147.12
349.128	1138.12
349.355	1128.12
349.583	1129.12
349.81	1138.12
350.037	1108.12
350.265	1105.12
350.492	1089.12
350.72	1084.12
350.947	1115.12
351.174	1105.12
351.402	1096.12
351.629	1095.12
351.856	1089.12
352.083	1099.12
352.311	1101.12
352.538	1116.12
352.765	1085.12
352.992	1074.12
353.22	1082.12
353.447	1071.12
353.674	1080.12
353.901	1100.12
354.128	1098.12
354.355	1091.12
354.583	1059.12
354.81	1082.12
355.037	1125.12
355.264	1081.12
355.491	1104.12
355.718	1066.12
355.945	1104.12
356.172	1130.12
356.399	1105.12
356.626	1107.12
356.853	1104.12
357.08	1117.12
357.307	1065.12
357.534	1117.12
357.761	1090.12
357.988	1111.12
358.215	1096.12
358.441	1086.12
358.668	1056.12
358.895	1088.12
359.122	1104.12
359.349	1098.12
359.576	1098.12
359.802	1104.12
360.029	1083.12
360.256	1102.12
360.483	1106.12
360.709	1097.12
360.936	1096.12
361.163	1097.12
361.39	1106.12
361.616	1116.12
361.843	1115.12
362.07	1103.12
362.296	1095.12
362.523	1106.12
362.749	1115.12
362.976	1116.12
363.203	1089.12
363.429	1081.12
363.656	1098.12
363.882	1117.12
364.109	1092.12
364.335	1081.12
364.562	1106.12
364.788	1068.12
365.015	1095.12
365.241	1100.12
365.468	1077.12
365.694	1089.12
365.92	1093.12
366.147	1107.12
366.373	1091.12
366.599	1118.12
366.826	1102.12
367.052	1086.12
367.278	1107.12
367.505	1107.12
367.731	1108.12
367.957	1109.12
368.184	1079.12
368.41	1138.12
368.636	1127.12
368.862	1143.12
369.089	1168.12
369.315	1138.12
369.541	1150.12
369.767	1120.12
369.993	1155.12
370.219	1174.12
370.445	1167.12
370.672	1155.12
370.898	1166.12
371.124	1192.12
371.35	1191.12
371.576	1192.12
371.802	1185.12
372.028	1173.12
372.254	1213.12
372.48	1194.12
372.706	1239.12
372.932	1226.12
373.158	1237.12
373.384	1232.12
373.61	1201.12
373.835	1183.12
374.061	1172.12
374.287	1214.12
374.513	1219.12
374.739	1260.12
374.965	1319.12
375.191	1290.12
375.416	1306.12
375.642	1279.12
375.868	1253.12
376.094	1238.12
376.319	1247.12
376.545	1199.12
376.771	1214.12
376.997	1243.12
377.222	1205.12
377.448	1205.12
377.674	1194.12
377.899	1163.12
378.125	1209.12
378.35	1166.12
378.576	1202.12
378.802	1173.12
379.027	1184.12
379.253	1229.12
379.478	1196.12
379.704	1190.12
379.929	1157.12
380.155	1168.12
380.38	1178.12
380.606	1168.12
380.831	1191.12
381.057	1167.12
381.282	1169.12
381.507	1181.12
381.733	1245.12
381.958	1189.12
382.184	1190.12
382.409	1242.12
382.634	1207.12
382.86	1256.12
383.085	1226.12
383.31	1233.12
383.535	1281.12
383.761	1306.12
383.986	1289.12
384.211	1313.12
384.436	1354.12
384.662	1372.12
384.887	1413.12
385.112	1389.12
385.337	1409.12
385.562	1435.12
385.787	1401.12
386.013	1436.12
386.238	1405.12
386.463	1429.12
386.688	1426.12
386.913	1414.12
387.138	1425.12
387.363	1421.12
387.588	1387.12
387.813	1363.12
388.038	1420.12
388.263	1443.12
388.488	1419.12
388.713	1413.12
388.938	1410.12
389.163	1423.12
389.387	1417.12
389.612	1410.12
389.837	1416.12
390.062	1418.12
390.287	1408.12
390.512	1405.12
390.736	1401.12
390.961	1405.12
391.186	1474.12
391.411	1475.12
391.636	1523.12
391.86	1546.12
392.085	1587.12
392.31	1573.12
392.534	1547.12
392.759	1543.12
392.984	1538.12
393.208	1487.12
393.433	1473.12
393.658	1494.12
393.882	1488.12
394.107	1537.12
394.331	1507.12
394.556	1502.12
394.78	1537.12
395.005	1543.12
395.229	1569.12
395.454	1566.12
395.678	1597.12
395.903	1594.12
396.127	1607.12
396.352	1564.12
396.576	1525.12
396.801	1511.12
397.025	1539.12
397.249	1596.12
397.474	1607.12
397.698	1631.12
397.922	1595.12
398.147	1605.12
398.371	1638.12
398.595	1708.12
398.82	1765.12
399.044	1849.12
399.268	1977.12
399.492	2236.12
399.717	2458.12
399.941	2463.12
400.165	2323.12
400.389	2173.12
400.613	1959.12
400.837	1883.12
401.062	1831.12
401.286	1832.12
401.51	1814.12
401.734	1773.12
401.958	1803.12
402.182	1798.12
402.406	1818.12
402.63	1787.12
402.854	1864.12
403.078	1846.12
403.302	1888.12
403.526	1903.12
403.75	1929.12
403.974	1944.12
404.198	1969.12
404.422	1915.12
404.645	1956.12
404.869	1918.12
405.093	1971.12
405.317	1939.12
405.541	1884.12
405.765	1914.12
405.988	1913.12
406.212	1925.12
406.436	1924.12
406.66	2033.12
406.883	1986.12
407.107	2074.12
407.331	2190.12
407.555	2251.12
407.778	2247.12
408.002	2180.12
408.226	2175.12
408.449	2097.12
408.673	2029.12
408.896	1998.12
409.12	2001.12
409.344	1995.12
409.567	1979.12
409.791	1992.12
410.014	1945.12
410.238	1942.12
410.461	1926.12
410.685	1938.12
410.908	1925.12
411.132	1916.12
411.355	1829.12
411.578	1862.12
411.802	1859.12
412.025	1868.12
412.249	1866.12
412.472	1841.12
412.695	1849.12
412.919	1820.12
413.142	1752.12
413.365	1771.12
413.589	1813.12
413.812	1770.12
414.035	1776.12
414.258	1773.12
414.482	1775.12
414.705	1779.12
414.928	1805.12
415.151	1775.12
415.374	1790.12
415.597	1761.12
415.821	1763.12
416.044	1725.12
416.267	1713.12
416.49	1695.12
416.713	1694.12
416.936	1697.12
417.159	1700.12
417.382	1687.12
417.605	1699.12
417.828	1699.12
418.051	1722.12
418.274	1719.12
418.497	1700.12
418.72	1756.12
418.943	1734.12
419.166	1835.12
419.389	1975.12
419.611	1928.12
419.834	1845.12
420.057	1793.12
420.28	1753.12
420.503	1699.12
420.726	1697.12
420.948	1672.12
421.171	1706.12
421.394	1678.12
421.617	1717.12
421.839	1666.12
422.062	1685.12
422.285	1658.12
422.507	1771.12
422.73	1689.12
422.953	1706.12
423.175	1765.12
423.398	1765.12
423.621	1764.12
423.843	1748.12
424.066	1794.12
424.288	1745.12
424.511	1719.12
424.733	1715.12
424.956	1707.12
425.178	1689.12
425.401	1712.12
425.623	1696.12
425.846	1652.12
426.068	1670.12
426.291	1636.12
426.513	1619.12
426.735	1665.12
426.958	1604.12
427.18	1575.12
427.402	1608.12
427.625	1618.12
427.847	1593.12
428.069	1589.12
428.292	1602.12
428.514	1510.12
428.736	1549.12
428.958	1566.12
429.181	1545.12
429.403	1531.12
429.625	1489.12
429.847	1497.12
430.069	1538.12
430.292	1549.12
430.514	1498.12
430.736	1558.12
430.958	1577.12
431.18	1568.12
431.402	1550.12
431.624	1550.12
431.846	1523.12
432.068	1573.12
432.29	1596.12
432.512	1553.12
432.734	1589.12
432.956	1553.12
433.178	1570.12
433.4	1570.12
433.622	1611.12
433.844	1607.12
434.066	1637.12
434.287	1587.12
434.509	1656.12
434.731	1732.12
434.953	1727.12
435.175	1722.12
435.397	1724.12
435.618	1661.12
435.84	1646.12
436.062	1607.12
436.284	1605.12
436.505	1565.12
436.727	1581.12
436.949	1548.12
437.17	1537.12
437.392	1539.12
437.614	1530.12
437.835	1491.12
438.057	1487.12
438.278	1481.12
438.5	1476.12
438.721	1462.12
438.943	1516.12
439.165	1479.12
439.386	1469.12
439.608	1566.12
439.829	1507.12
440.05	1530.12
440.272	1541.12
440.493	1516.12
440.715	1582.12
440.936	1586.12
441.158	1580.12
441.379	1635.12
441.6	1708.12
441.822	1686.12
442.043	1698.12
442.264	1691.12
442.486	1618.12
442.707	1683.12
442.928	1655.12
443.149	1661.12
443.371	1653.12
443.592	1684.12
443.813	1679.12
444.034	1673.12
444.255	1750.12
444.476	1806.12
444.698	1870.12
444.919	1929.12
445.14	2014.12
445.361	1857.12
445.582	1799.12
445.803	1660.12
446.024	1642.12
446.245	1627.12
446.466	1596.12
446.687	1541.12
446.908	1557.12
447.129	1500.12
447.35	1457.12
447.571	1467.12
447.792	1447.12
448.013	1479.12
448.234	1385.12
448.455	1411.12
448.675	1419.12
448.896	1411.12
449.117	1370.12
449.338	1369.12
449.559	1370.12
449.779	1378.12
450	1398.12
450.221	1393.12
450.442	1407.12
450.662	1374.12
450.883	1388.12
451.104	1423.12
451.324	1401.12
451.545	1410.12
451.766	1447.12
451.986	1367.12
452.207	1349.12
452.428	1378.12
452.648	1353.12
452.869	1372.12
453.089	1357.12
453.31	1365.12
453.53	1351.12
453.751	1345.12
453.971	1347.12
454.192	1358.12
454.412	1324.12
454.633	1328.12
454.853	1347.12
455.073	1332.12
455.294	1297.12
455.514	1256.12
455.734	1308.12
455.955	1284.12
456.175	1304.12
456.395	1281.12
456.616	1271.12
456.836	1326.12
457.056	1307.12
457.276	1305.12
457.497	1298.12
457.717	1287.12
457.937	1363.12
458.157	1363.12
458.377	1379.12
458.598	1387.12
458.818	1424.12
459.038	1417.12
459.258	1473.12
459.478	1523.12
459.698	1579.12
459.918	1599.12
460.138	1641.12
460.358	1691.12
460.578	1717.12
460.798	1769.12
461.018	1785.12
461.238	1733.12
461.458	1765.12
461.678	1723.12
461.898	1791.12
462.118	1815.12
462.338	1885.12
462.558	1898.12
462.777	1982.12
462.997	2127.12
463.217	2142.12
463.437	2189.12
463.657	2134.12
463.876	2067.12
464.096	2075.12
464.316	2049.12
464.536	2021.12
464.755	1960.12
464.975	1916.12
465.195	1814.12
465.414	1741.12
465.634	1647.12
465.854	1614.12
466.073	1547.12
466.293	1537.12
466.512	1499.12
466.732	1462.12
466.951	1469.12
467.171	1458.12
467.391	1498.12
467.61	1426.12
467.829	1447.12
468.049	1436.12
468.268	1414.12
468.488	1425.12
468.707	1428.12
468.927	1413.12
469.146	1415.12
469.365	1408.12
469.585	1398.12
469.804	1453.12
470.023	1475.12
470.243	1511.12
470.462	1482.12
470.681	1514.12
470.901	1540.12
471.12	1498.12
471.339	1466.12
471.558	1457.12
471.777	1429.12
471.997	1423.12
472.216	1417.12
472.435	1406.12
472.654	1410.12
472.873	1415.12
473.092	1420.12
473.311	1395.12
473.53	1414.12
473.749	1429.12
473.968	1380.12
474.187	1395.12
474.406	1404.12
474.625	1400.12
474.844	1370.12
475.063	1437.12
475.282	1423.12
475.501	1389.12
475.72	1433.12
475.939	1419.12
476.158	1434.12
476.377	1484.12
476.596	1464.12
476.814	1468.12
477.033	1488.12
477.252	1529.12
477.471	1541.12
477.69	1566.12
477.908	1585.12
478.127	1630.12
478.346	1645.12
478.564	1662.12
478.783	1706.12
479.002	1737.12
479.22	1751.12
479.439	1742.12
479.658	1773.12
479.876	1745.12
480.095	1753.12
480.313	1844.12
480.532	1827.12
480.751	1853.12
480.969	1807.12
481.188	1749.12
481.406	1707.12
481.624	1722.12
481.843	1725.12
482.061	1708.12
482.28	1717.12
482.498	1713.12
482.717	1649.12
482.935	1709.12
483.153	1679.12
483.372	1687.12
483.59	1762.12
483.808	1693.12
484.027	1717.12
484.245	1717.12
484.463	1774.12
484.681	1785.12
484.9	1822.12
485.118	1820.12
485.336	1836.12
485.554	1842.12
485.772	1890.12
485.99	1881.12
486.209	1901.12
486.427	1854.12
486.645	1853.12
486.863	1896.12
487.081	1862.12
487.299	1810.12
487.517	1851.12
487.735	1832.12
487.953	1849.12
488.171	1807.12
488.389	1806.12
488.607	1755.12
488.825	1756.12
489.043	1727.12
489.261	1729.12
489.479	1748.12
489.696	1780.12
489.914	1743.12
490.132	1762.12
490.35	1768.12
490.568	1736.12
