Data from NiCl2@0.5M.TitratingCurve.Agarose3%dH2O.NegLispCup.LampEnergy10.LIBS07252019_HRD10591_18-20-16-572.txt Node
Date: Thu Jul 25 18:20:16 EDT 2019
User: cochatt
Spectrometer: HR+D1059
Trigger mode: 1
Integration Time (sec): 1.000000E-1
Scans to average: 1
Electric dark correction enabled: true
Nonlinearity correction enabled: false
Boxcar width: 0
XAxis mode: Wavelengths
Number of Pixels in Spectrum: 2048
>>>>>Begin Spectral Data<<<<<
223.165	-12.94
223.4	-12.94
223.635	-12.94
223.869	-15.94
224.104	-8.94
224.338	-10.94
224.573	-9.94
224.808	-17.94
225.042	-5.94
225.277	-8.94
225.511	1.06
225.746	-5.94
225.98	6.06
226.215	5.06
226.449	11.06
226.683	6.06
226.918	36.06
227.152	32.06
227.387	34.06
227.621	23.06
227.856	53.06
228.09	54.06
228.324	39.06
228.559	69.06
228.793	71.06
229.027	96.06
229.262	106.06
229.496	97.06
229.73	121.06
229.964	108.06
230.199	99.06
230.433	119.06
230.667	126.06
230.901	116.06
231.136	122.06
231.37	116.06
231.604	124.06
231.838	118.06
232.072	118.06
232.306	115.06
232.541	120.06
232.775	124.06
233.009	125.06
233.243	123.06
233.477	143.06
233.711	120.06
233.945	122.06
234.179	114.06
234.413	135.06
234.647	124.06
234.881	115.06
235.115	128.06
235.349	128.06
235.583	120.06
235.817	131.06
236.051	122.06
236.285	131.06
236.519	126.06
236.753	133.06
236.987	124.06
237.221	124.06
237.455	139.06
237.689	126.06
237.922	135.06
238.156	145.06
238.39	128.06
238.624	128.06
238.858	132.06
239.091	136.06
239.325	147.06
239.559	143.06
239.793	134.06
240.027	147.06
240.26	147.06
240.494	145.06
240.728	134.06
240.961	145.06
241.195	138.06
241.429	156.06
241.662	149.06
241.896	142.06
242.13	138.06
242.363	136.06
242.597	151.06
242.83	167.06
243.064	170.06
243.298	153.06
243.531	169.06
243.765	166.06
243.998	182.06
244.232	155.06
244.465	167.06
244.699	152.06
244.932	157.06
245.166	178.06
245.399	162.06
245.633	176.06
245.866	171.06
246.099	166.06
246.333	166.06
246.566	175.06
246.8	164.06
247.033	175.06
247.266	180.06
247.5	177.06
247.733	172.06
247.966	185.06
248.2	192.06
248.433	176.06
248.666	172.06
248.899	173.06
249.133	177.06
249.366	203.06
249.599	197.06
249.832	192.06
250.066	184.06
250.299	179.06
250.532	195.06
250.765	189.06
250.998	192.06
251.231	198.06
251.465	189.06
251.698	199.06
251.931	200.06
252.164	208.06
252.397	204.06
252.63	209.06
252.863	214.06
253.096	205.06
253.329	196.06
253.562	212.06
253.795	200.06
254.028	208.06
254.261	209.06
254.494	215.06
254.727	213.06
254.96	209.06
255.193	191.06
255.426	214.06
255.659	207.06
255.892	224.06
256.124	222.06
256.357	242.06
256.59	224.06
256.823	232.06
257.056	231.06
257.289	211.06
257.521	223.06
257.754	233.06
257.987	232.06
258.22	226.06
258.452	226.06
258.685	232.06
258.918	231.06
259.151	217.06
259.383	236.06
259.616	222.06
259.849	234.06
260.081	234.06
260.314	243.06
260.547	235.06
260.779	230.06
261.012	255.06
261.244	252.06
261.477	239.06
261.71	250.06
261.942	233.06
262.175	267.06
262.407	255.06
262.64	252.06
262.872	252.06
263.105	249.06
263.337	256.06
263.57	242.06
263.802	258.06
264.035	248.06
264.267	270.06
264.499	251.06
264.732	259.06
264.964	263.06
265.197	261.06
265.429	259.06
265.661	272.06
265.894	263.06
266.126	261.06
266.358	273.06
266.591	269.06
266.823	280.06
267.055	264.06
267.287	274.06
267.52	286.06
267.752	266.06
267.984	289.06
268.216	278.06
268.448	287.06
268.681	280.06
268.913	298.06
269.145	282.06
269.377	288.06
269.609	304.06
269.841	284.06
270.073	273.06
270.306	290.06
270.538	291.06
270.77	292.06
271.002	283.06
271.234	299.06
271.466	272.06
271.698	292.06
271.93	287.06
272.162	277.06
272.394	288.06
272.626	281.06
272.858	272.06
273.09	309.06
273.322	310.06
273.553	316.06
273.785	310.06
274.017	312.06
274.249	310.06
274.481	315.06
274.713	314.06
274.945	320.06
275.176	302.06
275.408	321.06
275.64	325.06
275.872	310.06
276.104	328.06
276.335	310.06
276.567	306.06
276.799	313.06
277.031	329.06
277.262	318.06
277.494	325.06
277.726	326.06
277.957	336.06
278.189	314.06
278.421	316.06
278.652	328.06
278.884	332.06
279.115	330.06
279.347	319.06
279.579	338.06
279.81	328.06
280.042	339.06
280.273	340.06
280.505	352.06
280.736	338.06
280.968	352.06
281.199	340.06
281.431	354.06
281.662	344.06
281.894	344.06
282.125	354.06
282.356	344.06
282.588	363.06
282.819	343.06
283.051	365.06
283.282	355.06
283.513	355.06
283.745	349.06
283.976	352.06
284.207	345.06
284.439	384.06
284.67	366.06
284.901	376.06
285.132	380.06
285.364	351.06
285.595	372.06
285.826	354.06
286.057	363.06
286.288	362.06
286.52	374.06
286.751	370.06
286.982	368.06
287.213	364.06
287.444	375.06
287.675	377.06
287.906	364.06
288.138	382.06
288.369	393.06
288.6	387.06
288.831	392.06
289.062	379.06
289.293	371.06
289.524	372.06
289.755	376.06
289.986	380.06
290.217	399.06
290.448	386.06
290.679	410.06
290.91	382.06
291.141	386.06
291.371	389.06
291.602	407.06
291.833	392.06
292.064	396.06
292.295	414.06
292.526	394.06
292.757	406.06
292.987	388.06
293.218	390.06
293.449	404.06
293.68	396.06
293.91	425.06
294.141	397.06
294.372	375.06
294.603	394.06
294.833	407.06
295.064	400.06
295.295	392.06
295.525	412.06
295.756	416.06
295.987	408.06
296.217	407.06
296.448	411.06
296.679	419.06
296.909	419.06
297.14	418.06
297.37	428.06
297.601	415.06
297.831	431.06
298.062	431.06
298.292	427.06
298.523	425.06
298.753	452.06
298.984	442.06
299.214	435.06
299.445	446.06
299.675	438.06
299.905	436.06
300.136	442.06
300.366	450.06
300.597	457.06
300.827	463.06
301.057	451.06
301.288	460.06
301.518	432.06
301.748	438.06
301.979	458.06
302.209	468.06
302.439	469.06
302.669	461.06
302.9	446.06
303.13	441.06
303.36	446.06
303.59	426.06
303.82	448.06
304.051	465.06
304.281	469.06
304.511	471.06
304.741	482.06
304.971	470.06
305.201	480.06
305.431	454.06
305.661	442.06
305.891	467.06
306.121	462.06
306.352	451.06
306.582	446.06
306.812	453.06
307.042	443.06
307.272	448.06
307.502	452.06
307.731	437.06
307.961	440.06
308.191	434.06
308.421	455.06
308.651	437.06
308.881	451.06
309.111	475.06
309.341	454.06
309.571	466.06
309.8	470.06
310.03	478.06
310.26	475.06
310.49	474.06
310.72	440.06
310.949	468.06
311.179	457.06
311.409	467.06
311.639	456.06
311.868	462.06
312.098	469.06
312.328	476.06
312.557	495.06
312.787	487.06
313.017	500.06
313.246	487.06
313.476	491.06
313.706	487.06
313.935	491.06
314.165	496.06
314.394	500.06
314.624	489.06
314.853	501.06
315.083	496.06
315.312	481.06
315.542	472.06
315.771	483.06
316.001	503.06
316.23	506.06
316.46	478.06
316.689	510.06
316.919	473.06
317.148	492.06
317.377	478.06
317.607	483.06
317.836	499.06
318.065	471.06
318.295	468.06
318.524	476.06
318.753	482.06
318.983	478.06
319.212	480.06
319.441	504.06
319.67	488.06
319.9	500.06
320.129	487.06
320.358	507.06
320.587	508.06
320.816	495.06
321.046	501.06
321.275	508.06
321.504	481.06
321.733	509.06
321.962	485.06
322.191	495.06
322.42	496.06
322.649	501.06
322.878	518.06
323.108	521.06
323.337	513.06
323.566	489.06
323.795	500.06
324.024	504.06
324.253	488.06
324.482	489.06
324.71	516.06
324.939	518.06
325.168	515.06
325.397	528.06
325.626	510.06
325.855	553.06
326.084	563.06
326.313	535.06
326.542	523.06
326.77	520.06
326.999	548.06
327.228	501.06
327.457	518.06
327.686	523.06
327.914	525.06
328.143	542.06
328.372	524.06
328.6	528.06
328.829	538.06
329.058	525.06
329.287	506.06
329.515	544.06
329.744	564.06
329.972	520.06
330.201	558.06
330.43	539.06
330.658	548.06
330.887	545.06
331.115	578.06
331.344	564.06
331.572	563.06
331.801	577.06
332.03	584.06
332.258	598.06
332.486	631.06
332.715	610.06
332.943	644.06
333.172	672.06
333.4	681.06
333.629	693.06
333.857	694.06
334.085	694.06
334.314	682.06
334.542	651.06
334.771	650.06
334.999	665.06
335.227	639.06
335.455	628.06
335.684	648.06
335.912	615.06
336.14	643.06
336.369	631.06
336.597	638.06
336.825	639.06
337.053	638.06
337.281	632.06
337.51	625.06
337.738	610.06
337.966	585.06
338.194	593.06
338.422	607.06
338.65	593.06
338.878	575.06
339.106	592.06
339.334	596.06
339.562	578.06
339.79	562.06
340.018	561.06
340.246	559.06
340.474	563.06
340.702	558.06
340.93	567.06
341.158	578.06
341.386	575.06
341.614	560.06
341.842	571.06
342.07	546.06
342.298	556.06
342.526	547.06
342.754	548.06
342.981	573.06
343.209	574.06
343.437	599.06
343.665	637.06
343.893	633.06
344.12	674.06
344.348	648.06
344.576	617.06
344.804	622.06
345.031	591.06
345.259	576.06
345.487	581.06
345.714	573.06
345.942	577.06
346.17	580.06
346.397	565.06
346.625	561.06
346.853	531.06
347.08	546.06
347.308	543.06
347.535	536.06
347.763	555.06
347.99	522.06
348.218	530.06
348.445	534.06
348.673	535.06
348.9	532.06
349.128	543.06
349.355	531.06
349.583	534.06
349.81	531.06
350.037	513.06
350.265	517.06
350.492	508.06
350.72	526.06
350.947	528.06
351.174	556.06
351.402	532.06
351.629	549.06
351.856	532.06
352.083	514.06
352.311	534.06
352.538	545.06
352.765	542.06
352.992	524.06
353.22	504.06
353.447	513.06
353.674	517.06
353.901	529.06
354.128	519.06
354.355	490.06
354.583	507.06
354.81	519.06
355.037	532.06
355.264	529.06
355.491	511.06
355.718	510.06
355.945	524.06
356.172	530.06
356.399	519.06
356.626	551.06
356.853	527.06
357.08	519.06
357.307	515.06
357.534	514.06
357.761	502.06
357.988	499.06
358.215	509.06
358.441	507.06
358.668	492.06
358.895	510.06
359.122	508.06
359.349	533.06
359.576	512.06
359.802	495.06
360.029	489.06
360.256	504.06
360.483	510.06
360.709	510.06
360.936	520.06
361.163	512.06
361.39	523.06
361.616	489.06
361.843	518.06
362.07	519.06
362.296	528.06
362.523	519.06
362.749	508.06
362.976	510.06
363.203	506.06
363.429	497.06
363.656	514.06
363.882	510.06
364.109	523.06
364.335	510.06
364.562	508.06
364.788	499.06
365.015	500.06
365.241	502.06
365.468	513.06
365.694	504.06
365.92	497.06
366.147	513.06
366.373	478.06
366.599	486.06
366.826	507.06
367.052	485.06
367.278	517.06
367.505	506.06
367.731	521.06
367.957	515.06
368.184	503.06
368.41	518.06
368.636	539.06
368.862	513.06
369.089	521.06
369.315	525.06
369.541	523.06
369.767	534.06
369.993	523.06
370.219	498.06
370.445	520.06
370.672	531.06
370.898	528.06
371.124	532.06
371.35	546.06
371.576	525.06
371.802	540.06
372.028	538.06
372.254	538.06
372.48	535.06
372.706	530.06
372.932	556.06
373.158	553.06
373.384	550.06
373.61	528.06
373.835	543.06
374.061	511.06
374.287	536.06
374.513	534.06
374.739	560.06
374.965	574.06
375.191	573.06
375.416	581.06
375.642	560.06
375.868	546.06
376.094	534.06
376.319	515.06
376.545	523.06
376.771	523.06
376.997	533.06
377.222	524.06
377.448	540.06
377.674	519.06
377.899	533.06
378.125	534.06
378.35	523.06
378.576	529.06
378.802	515.06
379.027	527.06
379.253	515.06
379.478	518.06
379.704	530.06
379.929	520.06
380.155	529.06
380.38	502.06
380.606	518.06
380.831	526.06
381.057	539.06
381.282	496.06
381.507	513.06
381.733	526.06
381.958	544.06
382.184	555.06
382.409	517.06
382.634	530.06
382.86	521.06
383.085	559.06
383.31	573.06
383.535	540.06
383.761	574.06
383.986	585.06
384.211	588.06
384.436	626.06
384.662	604.06
384.887	606.06
385.112	620.06
385.337	610.06
385.562	612.06
385.787	634.06
386.013	644.06
386.238	640.06
386.463	600.06
386.688	626.06
386.913	614.06
387.138	615.06
387.363	614.06
387.588	611.06
387.813	623.06
388.038	611.06
388.263	626.06
388.488	619.06
388.713	630.06
388.938	620.06
389.163	584.06
389.387	623.06
389.612	610.06
389.837	635.06
390.062	587.06
390.287	617.06
390.512	622.06
390.736	633.06
390.961	626.06
391.186	635.06
391.411	656.06
391.636	656.06
391.86	683.06
392.085	710.06
392.31	710.06
392.534	674.06
392.759	670.06
392.984	644.06
393.208	667.06
393.433	649.06
393.658	663.06
393.882	660.06
394.107	652.06
394.331	688.06
394.556	633.06
394.78	658.06
395.005	679.06
395.229	659.06
395.454	685.06
395.678	681.06
395.903	682.06
396.127	706.06
396.352	689.06
396.576	644.06
396.801	669.06
397.025	678.06
397.249	662.06
397.474	695.06
397.698	700.06
397.922	726.06
398.147	704.06
398.371	735.06
398.595	762.06
398.82	768.06
399.044	798.06
399.268	936.06
399.492	1001.06
399.717	1101.06
399.941	1072.06
400.165	988.06
400.389	908.06
400.613	846.06
400.837	804.06
401.062	771.06
401.286	802.06
401.51	744.06
401.734	769.06
401.958	774.06
402.182	819.06
402.406	791.06
402.63	768.06
402.854	818.06
403.078	821.06
403.302	824.06
403.526	841.06
403.75	893.06
403.974	878.06
404.198	856.06
404.422	858.06
404.645	863.06
404.869	868.06
405.093	862.06
405.317	831.06
405.541	837.06
405.765	850.06
405.988	812.06
406.212	831.06
406.436	838.06
406.66	872.06
406.883	891.06
407.107	902.06
407.331	964.06
407.555	997.06
407.778	983.06
408.002	934.06
408.226	901.06
408.449	887.06
408.673	889.06
408.896	894.06
409.12	859.06
409.344	889.06
409.567	864.06
409.791	876.06
410.014	868.06
410.238	856.06
410.461	859.06
410.685	829.06
410.908	836.06
411.132	848.06
411.355	815.06
411.578	827.06
411.802	803.06
412.025	800.06
412.249	826.06
412.472	841.06
412.695	783.06
412.919	798.06
413.142	767.06
413.365	802.06
413.589	786.06
413.812	804.06
414.035	779.06
414.258	770.06
414.482	812.06
414.705	803.06
414.928	783.06
415.151	797.06
415.374	794.06
415.597	772.06
415.821	779.06
416.044	769.06
416.267	744.06
416.49	750.06
416.713	784.06
416.936	751.06
417.159	760.06
417.382	771.06
417.605	786.06
417.828	782.06
418.051	780.06
418.274	808.06
418.497	771.06
418.72	800.06
418.943	800.06
419.166	852.06
419.389	889.06
419.611	865.06
419.834	820.06
420.057	832.06
420.28	786.06
420.503	780.06
420.726	750.06
420.948	790.06
421.171	756.06
421.394	780.06
421.617	792.06
421.839	786.06
422.062	777.06
422.285	786.06
422.507	786.06
422.73	815.06
422.953	776.06
423.175	817.06
423.398	817.06
423.621	819.06
423.843	835.06
424.066	803.06
424.288	843.06
424.511	807.06
424.733	809.06
424.956	823.06
425.178	821.06
425.401	805.06
425.623	774.06
425.846	755.06
426.068	755.06
426.291	763.06
426.513	734.06
426.735	728.06
426.958	746.06
427.18	746.06
427.402	715.06
427.625	735.06
427.847	731.06
428.069	726.06
428.292	738.06
428.514	727.06
428.736	694.06
428.958	710.06
429.181	701.06
429.403	706.06
429.625	724.06
429.847	684.06
430.069	697.06
430.292	722.06
430.514	686.06
430.736	697.06
430.958	717.06
431.18	738.06
431.402	740.06
431.624	721.06
431.846	727.06
432.068	717.06
432.29	732.06
432.512	737.06
432.734	746.06
432.956	722.06
433.178	741.06
433.4	738.06
433.622	735.06
433.844	744.06
434.066	737.06
434.287	775.06
434.509	778.06
434.731	806.06
434.953	783.06
435.175	816.06
435.397	774.06
435.618	778.06
435.84	738.06
436.062	726.06
436.284	762.06
436.505	728.06
436.727	754.06
436.949	701.06
437.17	721.06
437.392	727.06
437.614	697.06
437.835	687.06
438.057	700.06
438.278	714.06
438.5	717.06
438.721	695.06
438.943	727.06
439.165	723.06
439.386	714.06
439.608	722.06
439.829	734.06
440.05	735.06
440.272	751.06
440.493	743.06
440.715	770.06
440.936	746.06
441.158	771.06
441.379	771.06
441.6	784.06
441.822	818.06
442.043	806.06
442.264	790.06
442.486	787.06
442.707	806.06
442.928	808.06
443.149	812.06
443.371	801.06
443.592	830.06
443.813	830.06
444.034	844.06
444.255	845.06
444.476	875.06
444.698	911.06
444.919	943.06
445.14	1001.06
445.361	907.06
445.582	851.06
445.803	824.06
446.024	784.06
446.245	789.06
446.466	793.06
446.687	744.06
446.908	771.06
447.129	741.06
447.35	743.06
447.571	730.06
447.792	705.06
448.013	716.06
448.234	734.06
448.455	683.06
448.675	698.06
448.896	711.06
449.117	686.06
449.338	658.06
449.559	678.06
449.779	653.06
450	691.06
450.221	689.06
450.442	696.06
450.662	698.06
450.883	700.06
451.104	686.06
451.324	716.06
451.545	694.06
451.766	703.06
451.986	668.06
452.207	693.06
452.428	667.06
452.648	679.06
452.869	682.06
453.089	673.06
453.31	633.06
453.53	647.06
453.751	669.06
453.971	675.06
454.192	667.06
454.412	650.06
454.633	643.06
454.853	637.06
455.073	672.06
455.294	662.06
455.514	638.06
455.734	642.06
455.955	648.06
456.175	656.06
456.395	640.06
456.616	636.06
456.836	649.06
457.056	659.06
457.276	646.06
457.497	672.06
457.717	653.06
457.937	648.06
458.157	668.06
458.377	632.06
458.598	677.06
458.818	693.06
459.038	726.06
459.258	721.06
459.478	766.06
459.698	762.06
459.918	778.06
460.138	837.06
460.358	855.06
460.578	844.06
460.798	854.06
461.018	902.06
461.238	870.06
461.458	861.06
461.678	874.06
461.898	851.06
462.118	890.06
462.338	911.06
462.558	950.06
462.777	997.06
462.997	1030.06
463.217	1104.06
463.437	1103.06
463.657	1036.06
463.876	1015.06
464.096	994.06
464.316	1003.06
464.536	979.06
464.755	960.06
464.975	935.06
465.195	875.06
465.414	852.06
465.634	814.06
465.854	798.06
466.073	753.06
466.293	760.06
466.512	760.06
466.732	738.06
466.951	746.06
467.171	707.06
467.391	742.06
467.61	731.06
467.829	722.06
468.049	750.06
468.268	701.06
468.488	710.06
468.707	702.06
468.927	728.06
469.146	710.06
469.365	727.06
469.585	699.06
469.804	762.06
470.023	724.06
470.243	750.06
470.462	766.06
470.681	762.06
470.901	757.06
471.12	748.06
471.339	738.06
471.558	732.06
471.777	766.06
471.997	689.06
472.216	718.06
472.435	687.06
472.654	714.06
472.873	679.06
473.092	674.06
473.311	672.06
473.53	708.06
473.749	684.06
473.968	695.06
474.187	700.06
474.406	678.06
474.625	699.06
474.844	708.06
475.063	717.06
475.282	686.06
475.501	715.06
475.72	714.06
475.939	719.06
476.158	696.06
476.377	715.06
476.596	690.06
476.814	734.06
477.033	743.06
477.252	735.06
477.471	780.06
477.69	775.06
477.908	786.06
478.127	811.06
478.346	810.06
478.564	839.06
478.783	840.06
479.002	836.06
479.22	872.06
479.439	855.06
479.658	861.06
479.876	851.06
480.095	841.06
480.313	864.06
480.532	903.06
480.751	882.06
480.969	883.06
481.188	844.06
481.406	847.06
481.624	833.06
481.843	806.06
482.061	802.06
482.28	806.06
482.498	763.06
482.717	790.06
482.935	817.06
483.153	796.06
483.372	809.06
483.59	812.06
483.808	794.06
484.027	832.06
484.245	796.06
484.463	770.06
484.681	819.06
484.9	802.06
485.118	840.06
485.336	811.06
485.554	811.06
485.772	815.06
485.99	835.06
486.209	841.06
486.427	844.06
486.645	829.06
486.863	831.06
487.081	813.06
487.299	823.06
487.517	849.06
487.735	863.06
487.953	833.06
488.171	842.06
488.389	807.06
488.607	824.06
488.825	823.06
489.043	832.06
489.261	831.06
489.479	857.06
489.696	816.06
489.914	857.06
490.132	848.06
490.35	844.06
490.568	826.06
490.786	847.06
491.003	837.06
491.221	860.06
491.439	834.06
491.657	847.06
491.874	888.06
492.092	874.06
492.31	889.06
492.527	900.06
492.745	876.06
492.963	884.06
493.18	875.06
493.398	868.06
493.615	871.06
493.833	888.06
494.05	884.06
494.268	888.06
494.485	893.06
494.703	913.06
494.92	902.06
495.138	915.06
495.355	923.06
495.573	890.06
495.79	906.06
496.008	910.06
496.225	913.06
496.442	935.06
496.66	960.06
496.877	930.06
497.094	969.06
497.312	1010.06
497.529	997.06
497.746	1008.06
497.963	1074.06
498.181	1046.06
498.398	1115.06
498.615	1178.06
498.832	1221.06
499.049	1336.06
499.267	1380.06
499.484	1534.06
499.701	1670.06
499.918	1809.06
500.135	2043.06
500.352	2265.06
500.569	2327.06
500.786	2276.06
501.003	2194.06
501.22	1981.06
