Data from NiCl2@0.5M.TitratingCurve.Agarose3%dH2O.NegLispCup.LampEnergy10.LIBS07252019_HRD10591_18-19-30-571.txt Node
Date: Thu Jul 25 18:19:30 EDT 2019
User: cochatt
Spectrometer: HR+D1059
Trigger mode: 1
Integration Time (sec): 1.000000E-1
Scans to average: 1
Electric dark correction enabled: true
Nonlinearity correction enabled: false
Boxcar width: 0
XAxis mode: Wavelengths
Number of Pixels in Spectrum: 2048
>>>>>Begin Spectral Data<<<<<
223.165	-23.94
223.4	-23.94
223.635	-23.94
223.869	-13.94
224.104	-11.94
224.338	-18.94
224.573	-5.94
224.808	-18.94
225.042	-6.94
225.277	-6.94
225.511	-15.94
225.746	8.06
225.98	3.06
226.215	10.06
226.449	14.06
226.683	27.06
226.918	34.06
227.152	27.06
227.387	28.06
227.621	30.06
227.856	48.06
228.09	39.06
228.324	52.06
228.559	70.06
228.793	69.06
229.027	110.06
229.262	110.06
229.496	125.06
229.73	118.06
229.964	135.06
230.199	143.06
230.433	155.06
230.667	140.06
230.901	134.06
231.136	131.06
231.37	135.06
231.604	130.06
231.838	149.06
232.072	145.06
232.306	162.06
232.541	144.06
232.775	143.06
233.009	135.06
233.243	144.06
233.477	141.06
233.711	130.06
233.945	149.06
234.179	131.06
234.413	144.06
234.647	146.06
234.881	135.06
235.115	132.06
235.349	156.06
235.583	141.06
235.817	147.06
236.051	134.06
236.285	134.06
236.519	140.06
236.753	150.06
236.987	143.06
237.221	136.06
237.455	148.06
237.689	142.06
237.922	138.06
238.156	158.06
238.39	154.06
238.624	165.06
238.858	150.06
239.091	140.06
239.325	150.06
239.559	169.06
239.793	152.06
240.027	164.06
240.26	161.06
240.494	155.06
240.728	153.06
240.961	158.06
241.195	183.06
241.429	167.06
241.662	179.06
241.896	171.06
242.13	186.06
242.363	167.06
242.597	180.06
242.83	178.06
243.064	169.06
243.298	174.06
243.531	168.06
243.765	169.06
243.998	173.06
244.232	160.06
244.465	170.06
244.699	186.06
244.932	185.06
245.166	192.06
245.399	192.06
245.633	171.06
245.866	175.06
246.099	197.06
246.333	205.06
246.566	210.06
246.8	186.06
247.033	200.06
247.266	202.06
247.5	195.06
247.733	203.06
247.966	202.06
248.2	198.06
248.433	199.06
248.666	200.06
248.899	213.06
249.133	214.06
249.366	217.06
249.599	221.06
249.832	229.06
250.066	214.06
250.299	215.06
250.532	211.06
250.765	217.06
250.998	231.06
251.231	250.06
251.465	245.06
251.698	225.06
251.931	234.06
252.164	226.06
252.397	231.06
252.63	222.06
252.863	243.06
253.096	229.06
253.329	242.06
253.562	220.06
253.795	230.06
254.028	229.06
254.261	231.06
254.494	226.06
254.727	235.06
254.96	239.06
255.193	257.06
255.426	247.06
255.659	246.06
255.892	258.06
256.124	266.06
256.357	258.06
256.59	265.06
256.823	262.06
257.056	251.06
257.289	258.06
257.521	267.06
257.754	275.06
257.987	243.06
258.22	280.06
258.452	264.06
258.685	268.06
258.918	255.06
259.151	283.06
259.383	277.06
259.616	257.06
259.849	276.06
260.081	264.06
260.314	280.06
260.547	257.06
260.779	284.06
261.012	282.06
261.244	280.06
261.477	280.06
261.71	302.06
261.942	291.06
262.175	287.06
262.407	276.06
262.64	288.06
262.872	286.06
263.105	279.06
263.337	300.06
263.57	309.06
263.802	282.06
264.035	300.06
264.267	286.06
264.499	302.06
264.732	308.06
264.964	299.06
265.197	308.06
265.429	294.06
265.661	295.06
265.894	306.06
266.126	304.06
266.358	310.06
266.591	304.06
266.823	307.06
267.055	306.06
267.287	317.06
267.52	322.06
267.752	319.06
267.984	328.06
268.216	315.06
268.448	325.06
268.681	340.06
268.913	339.06
269.145	332.06
269.377	345.06
269.609	335.06
269.841	314.06
270.073	352.06
270.306	345.06
270.538	342.06
270.77	325.06
271.002	308.06
271.234	343.06
271.466	344.06
271.698	350.06
271.93	359.06
272.162	351.06
272.394	359.06
272.626	343.06
272.858	353.06
273.09	349.06
273.322	360.06
273.553	372.06
273.785	359.06
274.017	382.06
274.249	356.06
274.481	364.06
274.713	363.06
274.945	364.06
275.176	366.06
275.408	368.06
275.64	356.06
275.872	387.06
276.104	378.06
276.335	368.06
276.567	370.06
276.799	388.06
277.031	385.06
277.262	377.06
277.494	383.06
277.726	383.06
277.957	392.06
278.189	375.06
278.421	382.06
278.652	377.06
278.884	388.06
279.115	387.06
279.347	376.06
279.579	394.06
279.81	378.06
280.042	403.06
280.273	383.06
280.505	393.06
280.736	407.06
280.968	382.06
281.199	366.06
281.431	403.06
281.662	408.06
281.894	403.06
282.125	421.06
282.356	421.06
282.588	426.06
282.819	410.06
283.051	412.06
283.282	417.06
283.513	442.06
283.745	422.06
283.976	412.06
284.207	426.06
284.439	436.06
284.67	446.06
284.901	437.06
285.132	435.06
285.364	453.06
285.595	428.06
285.826	438.06
286.057	419.06
286.288	447.06
286.52	442.06
286.751	442.06
286.982	455.06
287.213	459.06
287.444	451.06
287.675	457.06
287.906	463.06
288.138	452.06
288.369	436.06
288.6	448.06
288.831	442.06
289.062	457.06
289.293	459.06
289.524	452.06
289.755	462.06
289.986	442.06
290.217	470.06
290.448	455.06
290.679	460.06
290.91	467.06
291.141	451.06
291.371	463.06
291.602	469.06
291.833	453.06
292.064	454.06
292.295	461.06
292.526	454.06
292.757	458.06
292.987	457.06
293.218	445.06
293.449	457.06
293.68	458.06
293.91	465.06
294.141	484.06
294.372	474.06
294.603	495.06
294.833	472.06
295.064	486.06
295.295	486.06
295.525	444.06
295.756	477.06
295.987	473.06
296.217	479.06
296.448	471.06
296.679	509.06
296.909	500.06
297.14	479.06
297.37	491.06
297.601	475.06
297.831	520.06
298.062	488.06
298.292	499.06
298.523	512.06
298.753	516.06
298.984	514.06
299.214	491.06
299.445	508.06
299.675	482.06
299.905	506.06
300.136	501.06
300.366	537.06
300.597	538.06
300.827	528.06
301.057	539.06
301.288	544.06
301.518	559.06
301.748	525.06
301.979	524.06
302.209	534.06
302.439	547.06
302.669	542.06
302.9	546.06
303.13	482.06
303.36	554.06
303.59	531.06
303.82	548.06
304.051	533.06
304.281	550.06
304.511	551.06
304.741	560.06
304.971	533.06
305.201	546.06
305.431	578.06
305.661	553.06
305.891	560.06
306.121	545.06
306.352	534.06
306.582	538.06
306.812	525.06
307.042	535.06
307.272	566.06
307.502	524.06
307.731	537.06
307.961	546.06
308.191	541.06
308.421	549.06
308.651	553.06
308.881	552.06
309.111	552.06
309.341	535.06
309.571	545.06
309.8	544.06
310.03	546.06
310.26	570.06
310.49	568.06
310.72	537.06
310.949	545.06
311.179	534.06
311.409	555.06
311.639	551.06
311.868	572.06
312.098	550.06
312.328	563.06
312.557	576.06
312.787	557.06
313.017	565.06
313.246	552.06
313.476	590.06
313.706	594.06
313.935	582.06
314.165	581.06
314.394	572.06
314.624	560.06
314.853	560.06
315.083	578.06
315.312	589.06
315.542	596.06
315.771	587.06
316.001	586.06
316.23	571.06
316.46	583.06
316.689	613.06
316.919	572.06
317.148	593.06
317.377	584.06
317.607	595.06
317.836	579.06
318.065	576.06
318.295	589.06
318.524	586.06
318.753	606.06
318.983	594.06
319.212	573.06
319.441	598.06
319.67	594.06
319.9	603.06
320.129	589.06
320.358	598.06
320.587	616.06
320.816	595.06
321.046	609.06
321.275	573.06
321.504	592.06
321.733	624.06
321.962	590.06
322.191	617.06
322.42	616.06
322.649	611.06
322.878	600.06
323.108	611.06
323.337	625.06
323.566	617.06
323.795	613.06
324.024	628.06
324.253	628.06
324.482	617.06
324.71	598.06
324.939	613.06
325.168	598.06
325.397	607.06
325.626	617.06
325.855	622.06
326.084	639.06
326.313	606.06
326.542	624.06
326.77	661.06
326.999	644.06
327.228	620.06
327.457	635.06
327.686	653.06
327.914	616.06
328.143	623.06
328.372	650.06
328.6	630.06
328.829	630.06
329.058	647.06
329.287	636.06
329.515	642.06
329.744	651.06
329.972	652.06
330.201	658.06
330.43	642.06
330.658	609.06
330.887	672.06
331.115	668.06
331.344	675.06
331.572	665.06
331.801	671.06
332.03	700.06
332.258	660.06
332.486	686.06
332.715	700.06
332.943	705.06
333.172	747.06
333.4	764.06
333.629	775.06
333.857	751.06
334.085	793.06
334.314	761.06
334.542	763.06
334.771	744.06
334.999	743.06
335.227	751.06
335.455	749.06
335.684	779.06
335.912	733.06
336.14	732.06
336.369	736.06
336.597	758.06
336.825	741.06
337.053	755.06
337.281	759.06
337.51	737.06
337.738	720.06
337.966	722.06
338.194	727.06
338.422	723.06
338.65	701.06
338.878	692.06
339.106	678.06
339.334	678.06
339.562	717.06
339.79	701.06
340.018	695.06
340.246	651.06
340.474	677.06
340.702	661.06
340.93	653.06
341.158	683.06
341.386	680.06
341.614	712.06
341.842	707.06
342.07	653.06
342.298	678.06
342.526	653.06
342.754	688.06
342.981	682.06
343.209	671.06
343.437	696.06
343.665	724.06
343.893	743.06
344.12	741.06
344.348	748.06
344.576	724.06
344.804	721.06
345.031	716.06
345.259	662.06
345.487	687.06
345.714	669.06
345.942	696.06
346.17	712.06
346.397	669.06
346.625	652.06
346.853	648.06
347.08	659.06
347.308	635.06
347.535	663.06
347.763	647.06
347.99	632.06
348.218	639.06
348.445	656.06
348.673	624.06
348.9	641.06
349.128	642.06
349.355	671.06
349.583	687.06
349.81	628.06
350.037	632.06
350.265	640.06
350.492	640.06
350.72	603.06
350.947	610.06
351.174	653.06
351.402	627.06
351.629	676.06
351.856	654.06
352.083	626.06
352.311	617.06
352.538	654.06
352.765	661.06
352.992	631.06
353.22	623.06
353.447	596.06
353.674	612.06
353.901	620.06
354.128	629.06
354.355	610.06
354.583	626.06
354.81	618.06
355.037	620.06
355.264	618.06
355.491	602.06
355.718	605.06
355.945	605.06
356.172	630.06
356.399	613.06
356.626	644.06
356.853	672.06
357.08	646.06
357.307	624.06
357.534	628.06
357.761	627.06
357.988	607.06
358.215	606.06
358.441	614.06
358.668	609.06
358.895	607.06
359.122	614.06
359.349	625.06
359.576	583.06
359.802	607.06
360.029	617.06
360.256	606.06
360.483	598.06
360.709	583.06
360.936	629.06
361.163	626.06
361.39	607.06
361.616	613.06
361.843	644.06
362.07	652.06
362.296	644.06
362.523	610.06
362.749	600.06
362.976	596.06
363.203	599.06
363.429	595.06
363.656	612.06
363.882	591.06
364.109	623.06
364.335	580.06
364.562	601.06
364.788	582.06
365.015	581.06
365.241	591.06
365.468	602.06
365.694	588.06
365.92	603.06
366.147	570.06
366.373	611.06
366.599	594.06
366.826	603.06
367.052	596.06
367.278	589.06
367.505	620.06
367.731	597.06
367.957	588.06
368.184	598.06
368.41	597.06
368.636	589.06
368.862	593.06
369.089	601.06
369.315	599.06
369.541	607.06
369.767	611.06
369.993	622.06
370.219	619.06
370.445	604.06
370.672	587.06
370.898	617.06
371.124	609.06
371.35	619.06
371.576	643.06
371.802	614.06
372.028	600.06
372.254	619.06
372.48	648.06
372.706	638.06
372.932	647.06
373.158	642.06
373.384	622.06
373.61	617.06
373.835	635.06
374.061	641.06
374.287	619.06
374.513	636.06
374.739	616.06
374.965	650.06
375.191	616.06
375.416	614.06
375.642	645.06
375.868	636.06
376.094	621.06
376.319	613.06
376.545	612.06
376.771	632.06
376.997	600.06
377.222	611.06
377.448	605.06
377.674	604.06
377.899	602.06
378.125	622.06
378.35	602.06
378.576	606.06
378.802	594.06
379.027	615.06
379.253	587.06
379.478	569.06
379.704	604.06
379.929	611.06
380.155	596.06
380.38	604.06
380.606	591.06
380.831	584.06
381.057	611.06
381.282	611.06
381.507	618.06
381.733	611.06
381.958	613.06
382.184	597.06
382.409	606.06
382.634	607.06
382.86	607.06
383.085	608.06
383.31	630.06
383.535	634.06
383.761	630.06
383.986	648.06
384.211	651.06
384.436	654.06
384.662	660.06
384.887	667.06
385.112	677.06
385.337	688.06
385.562	705.06
385.787	672.06
386.013	706.06
386.238	669.06
386.463	678.06
386.688	692.06
386.913	662.06
387.138	676.06
387.363	685.06
387.588	672.06
387.813	684.06
388.038	666.06
388.263	675.06
388.488	691.06
388.713	680.06
388.938	656.06
389.163	658.06
389.387	665.06
389.612	646.06
389.837	680.06
390.062	672.06
390.287	665.06
390.512	685.06
390.736	679.06
390.961	671.06
391.186	677.06
391.411	708.06
391.636	726.06
391.86	719.06
392.085	707.06
392.31	743.06
392.534	716.06
392.759	709.06
392.984	708.06
393.208	734.06
393.433	712.06
393.658	712.06
393.882	696.06
394.107	703.06
394.331	701.06
394.556	695.06
394.78	734.06
395.005	709.06
395.229	722.06
395.454	727.06
395.678	746.06
395.903	746.06
396.127	734.06
396.352	732.06
396.576	722.06
396.801	704.06
397.025	760.06
397.249	741.06
397.474	792.06
397.698	755.06
397.922	778.06
398.147	798.06
398.371	792.06
398.595	794.06
398.82	810.06
399.044	868.06
399.268	930.06
399.492	976.06
399.717	1021.06
399.941	1038.06
400.165	1000.06
400.389	904.06
400.613	891.06
400.837	843.06
401.062	837.06
401.286	809.06
401.51	834.06
401.734	812.06
401.958	838.06
402.182	814.06
402.406	829.06
402.63	805.06
402.854	864.06
403.078	846.06
403.302	878.06
403.526	879.06
403.75	901.06
403.974	884.06
404.198	884.06
404.422	911.06
404.645	899.06
404.869	885.06
405.093	885.06
405.317	885.06
405.541	892.06
405.765	894.06
405.988	878.06
406.212	862.06
406.436	882.06
406.66	920.06
406.883	921.06
407.107	950.06
407.331	1005.06
407.555	995.06
407.778	1011.06
408.002	973.06
408.226	956.06
408.449	1002.06
408.673	948.06
408.896	919.06
409.12	921.06
409.344	936.06
409.567	925.06
409.791	928.06
410.014	936.06
410.238	880.06
410.461	911.06
410.685	902.06
410.908	917.06
411.132	918.06
411.355	874.06
411.578	886.06
411.802	854.06
412.025	868.06
412.249	898.06
412.472	880.06
412.695	845.06
412.919	882.06
413.142	845.06
413.365	858.06
413.589	864.06
413.812	863.06
414.035	839.06
414.258	861.06
414.482	835.06
414.705	867.06
414.928	843.06
415.151	855.06
415.374	867.06
415.597	882.06
415.821	847.06
416.044	860.06
416.267	841.06
416.49	847.06
416.713	831.06
416.936	831.06
417.159	836.06
417.382	811.06
417.605	842.06
417.828	854.06
418.051	838.06
418.274	868.06
418.497	835.06
418.72	869.06
418.943	854.06
419.166	903.06
419.389	932.06
419.611	912.06
419.834	900.06
420.057	880.06
420.28	869.06
420.503	838.06
420.726	850.06
420.948	843.06
421.171	854.06
421.394	847.06
421.617	841.06
421.839	858.06
422.062	842.06
422.285	830.06
422.507	872.06
422.73	869.06
422.953	861.06
423.175	896.06
423.398	896.06
423.621	875.06
423.843	882.06
424.066	888.06
424.288	853.06
424.511	843.06
424.733	866.06
424.956	860.06
425.178	879.06
425.401	839.06
425.623	860.06
425.846	851.06
426.068	827.06
426.291	868.06
426.513	825.06
426.735	822.06
426.958	851.06
427.18	820.06
427.402	832.06
427.625	814.06
427.847	837.06
428.069	860.06
428.292	847.06
428.514	836.06
428.736	822.06
428.958	830.06
429.181	812.06
429.403	800.06
429.625	822.06
429.847	782.06
430.069	801.06
430.292	819.06
430.514	810.06
430.736	831.06
430.958	824.06
431.18	805.06
431.402	822.06
431.624	819.06
431.846	846.06
432.068	812.06
432.29	827.06
432.512	853.06
432.734	857.06
432.956	861.06
433.178	846.06
433.4	840.06
433.622	848.06
433.844	854.06
434.066	855.06
434.287	847.06
434.509	863.06
434.731	875.06
434.953	910.06
435.175	914.06
435.397	914.06
435.618	844.06
435.84	862.06
436.062	835.06
436.284	841.06
436.505	843.06
436.727	838.06
436.949	861.06
437.17	824.06
437.392	858.06
437.614	823.06
437.835	795.06
438.057	824.06
438.278	794.06
438.5	790.06
438.721	810.06
438.943	815.06
439.165	818.06
439.386	820.06
439.608	839.06
439.829	828.06
440.05	851.06
440.272	839.06
440.493	847.06
440.715	872.06
440.936	891.06
441.158	877.06
441.379	878.06
441.6	903.06
441.822	930.06
442.043	940.06
442.264	902.06
442.486	877.06
442.707	930.06
442.928	921.06
443.149	919.06
443.371	923.06
443.592	926.06
443.813	931.06
444.034	915.06
444.255	942.06
444.476	948.06
444.698	974.06
444.919	1026.06
445.14	1126.06
445.361	1009.06
445.582	938.06
445.803	902.06
446.024	916.06
446.245	877.06
446.466	873.06
446.687	879.06
446.908	860.06
447.129	840.06
447.35	847.06
447.571	843.06
447.792	831.06
448.013	826.06
448.234	806.06
448.455	819.06
448.675	819.06
448.896	803.06
449.117	796.06
449.338	802.06
449.559	783.06
449.779	761.06
450	792.06
450.221	806.06
450.442	806.06
450.662	799.06
450.883	828.06
451.104	840.06
451.324	797.06
451.545	801.06
451.766	796.06
451.986	796.06
452.207	779.06
452.428	784.06
452.648	784.06
452.869	784.06
453.089	790.06
453.31	825.06
453.53	781.06
453.751	746.06
453.971	748.06
454.192	791.06
454.412	784.06
454.633	780.06
454.853	773.06
455.073	778.06
455.294	780.06
455.514	790.06
455.734	760.06
455.955	758.06
456.175	784.06
456.395	735.06
456.616	771.06
456.836	784.06
457.056	750.06
457.276	759.06
457.497	774.06
457.717	787.06
457.937	777.06
458.157	784.06
458.377	774.06
458.598	771.06
458.818	793.06
459.038	825.06
459.258	849.06
459.478	861.06
459.698	895.06
459.918	902.06
460.138	929.06
460.358	962.06
460.578	972.06
460.798	964.06
461.018	962.06
461.238	968.06
461.458	944.06
461.678	958.06
461.898	966.06
462.118	1012.06
462.338	1012.06
462.558	1003.06
462.777	1096.06
462.997	1126.06
463.217	1176.06
463.437	1187.06
463.657	1144.06
463.876	1078.06
464.096	1076.06
464.316	1095.06
464.536	1089.06
464.755	1056.06
464.975	986.06
465.195	990.06
465.414	940.06
465.634	908.06
465.854	885.06
466.073	882.06
466.293	891.06
466.512	842.06
466.732	877.06
466.951	867.06
467.171	837.06
467.391	861.06
467.61	845.06
467.829	823.06
468.049	834.06
468.268	830.06
468.488	852.06
468.707	834.06
468.927	852.06
469.146	843.06
469.365	841.06
469.585	843.06
469.804	840.06
470.023	856.06
470.243	845.06
470.462	873.06
470.681	852.06
470.901	887.06
471.12	857.06
471.339	864.06
471.558	860.06
471.777	867.06
471.997	856.06
472.216	829.06
472.435	822.06
472.654	822.06
472.873	846.06
473.092	837.06
473.311	850.06
473.53	828.06
473.749	844.06
473.968	854.06
474.187	811.06
474.406	812.06
474.625	812.06
474.844	842.06
475.063	821.06
475.282	837.06
475.501	843.06
475.72	846.06
475.939	868.06
476.158	865.06
476.377	889.06
476.596	846.06
476.814	889.06
477.033	892.06
477.252	911.06
477.471	914.06
477.69	922.06
477.908	935.06
478.127	919.06
478.346	926.06
478.564	961.06
478.783	1005.06
479.002	1013.06
479.22	1030.06
479.439	1012.06
479.658	987.06
479.876	997.06
480.095	1006.06
480.313	1020.06
480.532	1047.06
480.751	1043.06
480.969	1033.06
481.188	975.06
481.406	964.06
481.624	962.06
481.843	980.06
482.061	941.06
482.28	951.06
482.498	963.06
482.717	970.06
482.935	989.06
483.153	979.06
483.372	998.06
483.59	1000.06
483.808	981.06
484.027	1002.06
484.245	968.06
484.463	956.06
484.681	998.06
484.9	999.06
485.118	995.06
485.336	1008.06
485.554	1024.06
485.772	1006.06
485.99	999.06
486.209	1019.06
486.427	993.06
486.645	994.06
486.863	1048.06
487.081	1015.06
487.299	1013.06
487.517	1034.06
487.735	1034.06
487.953	1046.06
488.171	1030.06
488.389	1014.06
488.607	1028.06
488.825	992.06
489.043	974.06
489.261	960.06
489.479	1004.06
489.696	1035.06
489.914	1031.06
490.132	1012.06
490.35	1044.06
490.568	1038.06
490.786	1028.06
491.003	1053.06
491.221	1046.06
491.439	1044.06
491.657	1046.06
491.874	1081.06
492.092	1117.06
492.31	1060.06
492.527	1069.06
492.745	1061.06
492.963	1065.06
493.18	1054.06
493.398	1074.06
493.615	1084.06
493.833	1058.06
494.05	1074.06
494.268	1097.06
494.485	1081.06
494.703	1094.06
494.92	1092.06
495.138	1076.06
495.355	1061.06
495.573	1090.06
495.79	1089.06
496.008	1081.06
496.225	1122.06
496.442	1130.06
496.66	1134.06
496.877	1121.06
497.094	1149.06
497.312	1162.06
497.529	1188.06
497.746	1209.06
497.963	1210.06
498.181	1248.06
498.398	1326.06
498.615	1334.06
498.832	1378.06
499.049	1440.06
499.267	1544.06
499.484	1661.06
499.701	1762.06
499.918	1858.06
500.135	2010.06
500.352	2154.06
