Data from NiCl2@0.0625M.TitratingCurve.Agarose3%dH2O.NegLispCup.LampEnergy10.LIBS07252019_HRD10591_18-34-01-577.txt Node
Date: Thu Jul 25 18:34:01 EDT 2019
User: cochatt
Spectrometer: HR+D1059
Trigger mode: 1
Integration Time (sec): 1.000000E-1
Scans to average: 1
Electric dark correction enabled: true
Nonlinearity correction enabled: false
Boxcar width: 0
XAxis mode: Wavelengths
Number of Pixels in Spectrum: 2048
>>>>>Begin Spectral Data<<<<<
223.165	-18.94
223.4	-18.94
223.635	-18.94
223.869	-19.94
224.104	-13.94
224.338	-14.94
224.573	-21.94
224.808	-6.94
225.042	-12.94
225.277	-15.94
225.511	-10.94
225.746	9.06
225.98	6.06
226.215	11.06
226.449	13.06
226.683	25.06
226.918	33.06
227.152	39.06
227.387	28.06
227.621	37.06
227.856	41.06
228.09	30.06
228.324	41.06
228.559	47.06
228.793	82.06
229.027	147.06
229.262	180.06
229.496	154.06
229.73	175.06
229.964	179.06
230.199	157.06
230.433	161.06
230.667	192.06
230.901	202.06
231.136	185.06
231.37	176.06
231.604	192.06
231.838	209.06
232.072	209.06
232.306	216.06
232.541	215.06
232.775	200.06
233.009	206.06
233.243	196.06
233.477	203.06
233.711	213.06
233.945	215.06
234.179	204.06
234.413	209.06
234.647	198.06
234.881	220.06
235.115	220.06
235.349	215.06
235.583	240.06
235.817	228.06
236.051	217.06
236.285	234.06
236.519	212.06
236.753	239.06
236.987	244.06
237.221	246.06
237.455	230.06
237.689	248.06
237.922	232.06
238.156	267.06
238.39	259.06
238.624	261.06
238.858	253.06
239.091	264.06
239.325	266.06
239.559	266.06
239.793	286.06
240.027	267.06
240.26	285.06
240.494	283.06
240.728	275.06
240.961	295.06
241.195	286.06
241.429	296.06
241.662	281.06
241.896	294.06
242.13	310.06
242.363	318.06
242.597	309.06
242.83	335.06
243.064	313.06
243.298	313.06
243.531	343.06
243.765	342.06
243.998	336.06
244.232	351.06
244.465	319.06
244.699	349.06
244.932	354.06
245.166	350.06
245.399	369.06
245.633	357.06
245.866	354.06
246.099	347.06
246.333	354.06
246.566	365.06
246.8	377.06
247.033	376.06
247.266	375.06
247.5	390.06
247.733	380.06
247.966	370.06
248.2	391.06
248.433	397.06
248.666	396.06
248.899	398.06
249.133	389.06
249.366	408.06
249.599	400.06
249.832	403.06
250.066	425.06
250.299	422.06
250.532	432.06
250.765	426.06
250.998	423.06
251.231	438.06
251.465	446.06
251.698	446.06
251.931	437.06
252.164	451.06
252.397	451.06
252.63	471.06
252.863	431.06
253.096	449.06
253.329	488.06
253.562	464.06
253.795	455.06
254.028	485.06
254.261	482.06
254.494	465.06
254.727	464.06
254.96	488.06
255.193	477.06
255.426	488.06
255.659	476.06
255.892	504.06
256.124	500.06
256.357	494.06
256.59	512.06
256.823	493.06
257.056	512.06
257.289	478.06
257.521	503.06
257.754	519.06
257.987	532.06
258.22	526.06
258.452	516.06
258.685	522.06
258.918	539.06
259.151	525.06
259.383	524.06
259.616	524.06
259.849	514.06
260.081	543.06
260.314	534.06
260.547	556.06
260.779	563.06
261.012	541.06
261.244	552.06
261.477	554.06
261.71	559.06
261.942	580.06
262.175	559.06
262.407	577.06
262.64	559.06
262.872	583.06
263.105	578.06
263.337	593.06
263.57	585.06
263.802	593.06
264.035	612.06
264.267	582.06
264.499	590.06
264.732	595.06
264.964	607.06
265.197	609.06
265.429	589.06
265.661	609.06
265.894	591.06
266.126	618.06
266.358	617.06
266.591	618.06
266.823	637.06
267.055	619.06
267.287	630.06
267.52	625.06
267.752	645.06
267.984	645.06
268.216	647.06
268.448	649.06
268.681	629.06
268.913	648.06
269.145	655.06
269.377	663.06
269.609	676.06
269.841	655.06
270.073	690.06
270.306	681.06
270.538	671.06
270.77	691.06
271.002	693.06
271.234	679.06
271.466	685.06
271.698	692.06
271.93	703.06
272.162	693.06
272.394	690.06
272.626	712.06
272.858	681.06
273.09	694.06
273.322	685.06
273.553	705.06
273.785	721.06
274.017	698.06
274.249	726.06
274.481	723.06
274.713	709.06
274.945	745.06
275.176	739.06
275.408	742.06
275.64	737.06
275.872	751.06
276.104	765.06
276.335	739.06
276.567	767.06
276.799	757.06
277.031	753.06
277.262	770.06
277.494	771.06
277.726	773.06
277.957	813.06
278.189	772.06
278.421	775.06
278.652	769.06
278.884	794.06
279.115	775.06
279.347	808.06
279.579	781.06
279.81	809.06
280.042	813.06
280.273	821.06
280.505	794.06
280.736	793.06
280.968	834.06
281.199	801.06
281.431	804.06
281.662	847.06
281.894	802.06
282.125	849.06
282.356	857.06
282.588	817.06
282.819	825.06
283.051	854.06
283.282	864.06
283.513	852.06
283.745	897.06
283.976	834.06
284.207	835.06
284.439	874.06
284.67	872.06
284.901	883.06
285.132	866.06
285.364	886.06
285.595	888.06
285.826	871.06
286.057	898.06
286.288	903.06
286.52	889.06
286.751	911.06
286.982	887.06
287.213	896.06
287.444	903.06
287.675	903.06
287.906	919.06
288.138	883.06
288.369	913.06
288.6	918.06
288.831	921.06
289.062	945.06
289.293	927.06
289.524	907.06
289.755	940.06
289.986	931.06
290.217	901.06
290.448	928.06
290.679	930.06
290.91	932.06
291.141	960.06
291.371	950.06
291.602	934.06
291.833	923.06
292.064	962.06
292.295	975.06
292.526	918.06
292.757	944.06
292.987	940.06
293.218	955.06
293.449	981.06
293.68	950.06
293.91	913.06
294.141	941.06
294.372	961.06
294.603	950.06
294.833	953.06
295.064	983.06
295.295	992.06
295.525	960.06
295.756	963.06
295.987	973.06
296.217	1015.06
296.448	982.06
296.679	997.06
296.909	987.06
297.14	987.06
297.37	990.06
297.601	988.06
297.831	985.06
298.062	1009.06
298.292	1024.06
298.523	1034.06
298.753	1063.06
298.984	1044.06
299.214	1034.06
299.445	1002.06
299.675	1014.06
299.905	1023.06
300.136	1017.06
300.366	1025.06
300.597	1055.06
300.827	1064.06
301.057	1081.06
301.288	1075.06
301.518	1070.06
301.748	1080.06
301.979	1109.06
302.209	1054.06
302.439	1066.06
302.669	1095.06
302.9	1089.06
303.13	1076.06
303.36	1087.06
303.59	1081.06
303.82	1086.06
304.051	1099.06
304.281	1090.06
304.511	1074.06
304.741	1087.06
304.971	1091.06
305.201	1103.06
305.431	1084.06
305.661	1101.06
305.891	1074.06
306.121	1095.06
306.352	1039.06
306.582	1061.06
306.812	1065.06
307.042	1048.06
307.272	1078.06
307.502	1070.06
307.731	1069.06
307.961	1088.06
308.191	1093.06
308.421	1054.06
308.651	1065.06
308.881	1069.06
309.111	1079.06
309.341	1061.06
309.571	1073.06
309.8	1061.06
310.03	1065.06
310.26	1059.06
310.49	1073.06
310.72	1079.06
310.949	1070.06
311.179	1098.06
311.409	1086.06
311.639	1094.06
311.868	1111.06
312.098	1098.06
312.328	1124.06
312.557	1133.06
312.787	1140.06
313.017	1146.06
313.246	1125.06
313.476	1135.06
313.706	1133.06
313.935	1128.06
314.165	1155.06
314.394	1181.06
314.624	1173.06
314.853	1146.06
315.083	1140.06
315.312	1146.06
315.542	1175.06
315.771	1176.06
316.001	1167.06
316.23	1125.06
316.46	1141.06
316.689	1150.06
316.919	1133.06
317.148	1133.06
317.377	1124.06
317.607	1172.06
317.836	1125.06
318.065	1119.06
318.295	1126.06
318.524	1173.06
318.753	1122.06
318.983	1117.06
319.212	1130.06
319.441	1121.06
319.67	1167.06
319.9	1145.06
320.129	1149.06
320.358	1153.06
320.587	1152.06
320.816	1121.06
321.046	1163.06
321.275	1161.06
321.504	1148.06
321.733	1151.06
321.962	1141.06
322.191	1189.06
322.42	1173.06
322.649	1147.06
322.878	1156.06
323.108	1184.06
323.337	1189.06
323.566	1189.06
323.795	1201.06
324.024	1176.06
324.253	1188.06
324.482	1181.06
324.71	1195.06
324.939	1216.06
325.168	1199.06
325.397	1200.06
325.626	1215.06
325.855	1253.06
326.084	1214.06
326.313	1251.06
326.542	1218.06
326.77	1271.06
326.999	1255.06
327.228	1256.06
327.457	1224.06
327.686	1289.06
327.914	1249.06
328.143	1235.06
328.372	1239.06
328.6	1261.06
328.829	1237.06
329.058	1265.06
329.287	1263.06
329.515	1279.06
329.744	1248.06
329.972	1301.06
330.201	1274.06
330.43	1309.06
330.658	1327.06
330.887	1312.06
331.115	1321.06
331.344	1302.06
331.572	1285.06
331.801	1373.06
332.03	1369.06
332.258	1368.06
332.486	1396.06
332.715	1448.06
332.943	1506.06
333.172	1530.06
333.4	1553.06
333.629	1609.06
333.857	1650.06
334.085	1595.06
334.314	1623.06
334.542	1591.06
334.771	1606.06
334.999	1542.06
335.227	1555.06
335.455	1555.06
335.684	1535.06
335.912	1569.06
336.14	1502.06
336.369	1530.06
336.597	1522.06
336.825	1454.06
337.053	1478.06
337.281	1465.06
337.51	1422.06
337.738	1426.06
337.966	1387.06
338.194	1394.06
338.422	1401.06
338.65	1383.06
338.878	1366.06
339.106	1373.06
339.334	1366.06
339.562	1349.06
339.79	1361.06
340.018	1337.06
340.246	1323.06
340.474	1327.06
340.702	1311.06
340.93	1318.06
341.158	1327.06
341.386	1326.06
341.614	1342.06
341.842	1323.06
342.07	1331.06
342.298	1322.06
342.526	1313.06
342.754	1294.06
342.981	1314.06
343.209	1322.06
343.437	1418.06
343.665	1437.06
343.893	1497.06
344.12	1603.06
344.348	1553.06
344.576	1479.06
344.804	1453.06
345.031	1407.06
345.259	1356.06
345.487	1317.06
345.714	1325.06
345.942	1279.06
346.17	1318.06
346.397	1291.06
346.625	1262.06
346.853	1269.06
347.08	1258.06
347.308	1290.06
347.535	1293.06
347.763	1291.06
347.99	1246.06
348.218	1275.06
348.445	1251.06
348.673	1253.06
348.9	1277.06
349.128	1242.06
349.355	1246.06
349.583	1254.06
349.81	1240.06
350.037	1237.06
350.265	1262.06
350.492	1207.06
350.72	1224.06
350.947	1213.06
351.174	1246.06
351.402	1213.06
351.629	1223.06
351.856	1203.06
352.083	1181.06
352.311	1241.06
352.538	1227.06
352.765	1221.06
352.992	1209.06
353.22	1199.06
353.447	1192.06
353.674	1189.06
353.901	1195.06
354.128	1205.06
354.355	1197.06
354.583	1214.06
354.81	1209.06
355.037	1247.06
355.264	1246.06
355.491	1229.06
355.718	1254.06
355.945	1224.06
356.172	1223.06
356.399	1224.06
356.626	1195.06
356.853	1232.06
357.08	1240.06
357.307	1242.06
357.534	1203.06
357.761	1188.06
357.988	1229.06
358.215	1190.06
358.441	1239.06
358.668	1202.06
358.895	1216.06
359.122	1199.06
359.349	1239.06
359.576	1224.06
359.802	1198.06
360.029	1210.06
360.256	1253.06
360.483	1237.06
360.709	1199.06
360.936	1225.06
361.163	1213.06
361.39	1231.06
361.616	1237.06
361.843	1184.06
362.07	1233.06
362.296	1232.06
362.523	1226.06
362.749	1217.06
362.976	1206.06
363.203	1222.06
363.429	1225.06
363.656	1234.06
363.882	1235.06
364.109	1235.06
364.335	1215.06
364.562	1221.06
364.788	1230.06
365.015	1257.06
365.241	1195.06
365.468	1229.06
365.694	1227.06
365.92	1235.06
366.147	1223.06
366.373	1231.06
366.599	1230.06
366.826	1241.06
367.052	1226.06
367.278	1210.06
367.505	1226.06
367.731	1209.06
367.957	1218.06
368.184	1240.06
368.41	1248.06
368.636	1247.06
368.862	1267.06
369.089	1254.06
369.315	1261.06
369.541	1287.06
369.767	1312.06
369.993	1254.06
370.219	1238.06
370.445	1292.06
370.672	1262.06
370.898	1309.06
371.124	1320.06
371.35	1295.06
371.576	1321.06
371.802	1354.06
372.028	1321.06
372.254	1310.06
372.48	1321.06
372.706	1357.06
372.932	1376.06
373.158	1346.06
373.384	1343.06
373.61	1338.06
373.835	1328.06
374.061	1322.06
374.287	1333.06
374.513	1378.06
374.739	1419.06
374.965	1457.06
375.191	1455.06
375.416	1424.06
375.642	1409.06
375.868	1391.06
376.094	1389.06
376.319	1348.06
376.545	1311.06
376.771	1325.06
376.997	1320.06
377.222	1350.06
377.448	1331.06
377.674	1332.06
377.899	1301.06
378.125	1322.06
378.35	1315.06
378.576	1315.06
378.802	1317.06
379.027	1316.06
379.253	1304.06
379.478	1286.06
379.704	1337.06
379.929	1348.06
380.155	1274.06
380.38	1309.06
380.606	1317.06
380.831	1321.06
381.057	1306.06
381.282	1278.06
381.507	1333.06
381.733	1347.06
381.958	1353.06
382.184	1370.06
382.409	1376.06
382.634	1410.06
382.86	1407.06
383.085	1381.06
383.31	1445.06
383.535	1446.06
383.761	1437.06
383.986	1439.06
384.211	1447.06
384.436	1494.06
384.662	1514.06
384.887	1589.06
385.112	1506.06
385.337	1585.06
385.562	1578.06
385.787	1563.06
386.013	1609.06
386.238	1572.06
386.463	1619.06
386.688	1604.06
386.913	1572.06
387.138	1587.06
387.363	1610.06
387.588	1552.06
387.813	1570.06
388.038	1573.06
388.263	1589.06
388.488	1578.06
388.713	1565.06
388.938	1545.06
389.163	1569.06
389.387	1598.06
389.612	1578.06
389.837	1564.06
390.062	1578.06
390.287	1592.06
390.512	1585.06
390.736	1601.06
390.961	1602.06
391.186	1598.06
391.411	1679.06
391.636	1709.06
391.86	1757.06
392.085	1735.06
392.31	1745.06
392.534	1738.06
392.759	1687.06
392.984	1685.06
393.208	1681.06
393.433	1654.06
393.658	1679.06
393.882	1625.06
394.107	1671.06
394.331	1639.06
394.556	1683.06
394.78	1696.06
395.005	1711.06
395.229	1698.06
395.454	1759.06
395.678	1751.06
395.903	1764.06
396.127	1744.06
396.352	1734.06
396.576	1697.06
396.801	1696.06
397.025	1730.06
397.249	1747.06
397.474	1768.06
397.698	1802.06
397.922	1799.06
398.147	1786.06
398.371	1823.06
398.595	1841.06
398.82	1966.06
399.044	2065.06
399.268	2229.06
399.492	2489.06
399.717	2673.06
399.941	2743.06
400.165	2557.06
400.389	2360.06
400.613	2221.06
400.837	2091.06
401.062	2019.06
401.286	1980.06
401.51	2009.06
401.734	1989.06
401.958	1990.06
402.182	2007.06
402.406	1980.06
402.63	2018.06
402.854	2009.06
403.078	2056.06
403.302	2033.06
403.526	2078.06
403.75	2120.06
403.974	2129.06
404.198	2154.06
404.422	2115.06
404.645	2110.06
404.869	2146.06
405.093	2134.06
405.317	2097.06
405.541	2080.06
405.765	2107.06
405.988	2075.06
406.212	2151.06
406.436	2113.06
406.66	2159.06
406.883	2207.06
407.107	2334.06
407.331	2414.06
407.555	2472.06
407.778	2444.06
408.002	2435.06
408.226	2374.06
408.449	2329.06
408.673	2261.06
408.896	2250.06
409.12	2229.06
409.344	2197.06
409.567	2203.06
409.791	2160.06
410.014	2193.06
410.238	2142.06
410.461	2183.06
410.685	2116.06
410.908	2141.06
411.132	2129.06
411.355	2071.06
411.578	2074.06
411.802	2065.06
412.025	2042.06
412.249	2086.06
412.472	2059.06
412.695	2026.06
412.919	1955.06
413.142	1964.06
413.365	1997.06
413.589	2019.06
413.812	1990.06
414.035	1923.06
414.258	1943.06
414.482	1965.06
414.705	1987.06
414.928	1978.06
415.151	1978.06
415.374	1983.06
415.597	1989.06
415.821	1873.06
416.044	1871.06
416.267	1879.06
416.49	1893.06
416.713	1876.06
416.936	1913.06
417.159	1900.06
417.382	1853.06
417.605	1877.06
417.828	1865.06
418.051	1911.06
418.274	1899.06
418.497	1910.06
418.72	1915.06
418.943	1926.06
419.166	2043.06
419.389	2139.06
419.611	2147.06
419.834	2053.06
420.057	1987.06
420.28	1974.06
420.503	1842.06
420.726	1905.06
420.948	1869.06
421.171	1873.06
421.394	1877.06
421.617	1864.06
421.839	1875.06
422.062	1873.06
422.285	1820.06
422.507	1906.06
422.73	1885.06
422.953	1917.06
423.175	1945.06
423.398	1996.06
423.621	1922.06
423.843	1919.06
424.066	1952.06
424.288	1944.06
424.511	1917.06
424.733	1868.06
424.956	1889.06
425.178	1849.06
425.401	1865.06
425.623	1890.06
425.846	1860.06
426.068	1857.06
426.291	1822.06
426.513	1856.06
426.735	1774.06
426.958	1825.06
427.18	1750.06
427.402	1738.06
427.625	1792.06
427.847	1732.06
428.069	1711.06
428.292	1755.06
428.514	1715.06
428.736	1736.06
428.958	1760.06
429.181	1727.06
429.403	1687.06
429.625	1669.06
429.847	1658.06
430.069	1649.06
430.292	1669.06
430.514	1657.06
430.736	1676.06
430.958	1725.06
431.18	1674.06
431.402	1686.06
431.624	1700.06
431.846	1731.06
432.068	1730.06
432.29	1790.06
432.512	1731.06
432.734	1709.06
432.956	1738.06
433.178	1726.06
433.4	1785.06
433.622	1745.06
433.844	1779.06
434.066	1810.06
434.287	1826.06
434.509	1842.06
434.731	1861.06
434.953	1915.06
435.175	1933.06
435.397	1958.06
435.618	1834.06
435.84	1789.06
436.062	1745.06
436.284	1729.06
436.505	1704.06
436.727	1732.06
436.949	1741.06
437.17	1724.06
437.392	1677.06
437.614	1637.06
437.835	1627.06
438.057	1646.06
438.278	1625.06
438.5	1625.06
438.721	1613.06
438.943	1667.06
439.165	1659.06
439.386	1665.06
439.608	1661.06
439.829	1657.06
440.05	1658.06
440.272	1692.06
440.493	1722.06
440.715	1723.06
440.936	1768.06
441.158	1802.06
441.379	1804.06
441.6	1830.06
441.822	1891.06
442.043	1869.06
442.264	1865.06
442.486	1789.06
442.707	1856.06
442.928	1834.06
443.149	1797.06
443.371	1825.06
443.592	1871.06
443.813	1870.06
444.034	1881.06
444.255	1939.06
444.476	1987.06
444.698	2080.06
444.919	2117.06
445.14	2216.06
445.361	2049.06
445.582	1929.06
445.803	1843.06
446.024	1749.06
446.245	1740.06
446.466	1752.06
446.687	1696.06
446.908	1702.06
447.129	1669.06
447.35	1658.06
447.571	1619.06
447.792	1575.06
448.013	1601.06
448.234	1578.06
448.455	1558.06
448.675	1533.06
448.896	1561.06
449.117	1539.06
449.338	1523.06
449.559	1543.06
449.779	1525.06
450	1522.06
450.221	1515.06
450.442	1513.06
450.662	1547.06
450.883	1539.06
451.104	1538.06
451.324	1541.06
451.545	1547.06
451.766	1525.06
451.986	1515.06
452.207	1512.06
452.428	1504.06
452.648	1479.06
452.869	1481.06
453.089	1434.06
453.31	1477.06
453.53	1449.06
453.751	1467.06
453.971	1471.06
454.192	1418.06
454.412	1444.06
454.633	1437.06
454.853	1456.06
455.073	1447.06
455.294	1449.06
455.514	1422.06
455.734	1425.06
455.955	1428.06
456.175	1385.06
456.395	1468.06
456.616	1411.06
456.836	1453.06
457.056	1413.06
457.276	1405.06
457.497	1458.06
457.717	1432.06
457.937	1482.06
458.157	1493.06
458.377	1481.06
458.598	1528.06
458.818	1563.06
459.038	1607.06
459.258	1629.06
459.478	1679.06
459.698	1750.06
459.918	1769.06
460.138	1804.06
460.358	1878.06
460.578	1924.06
460.798	1939.06
461.018	1973.06
461.238	1906.06
461.458	1947.06
461.678	1925.06
461.898	1974.06
462.118	1978.06
462.338	2085.06
462.558	2079.06
462.777	2206.06
462.997	2304.06
463.217	2401.06
463.437	2467.06
463.657	2278.06
463.876	2190.06
464.096	2291.06
464.316	2233.06
464.536	2243.06
464.755	2181.06
464.975	2109.06
465.195	2001.06
465.414	1885.06
465.634	1800.06
465.854	1763.06
466.073	1712.06
466.293	1697.06
466.512	1641.06
466.732	1585.06
466.951	1645.06
467.171	1614.06
467.391	1608.06
467.61	1609.06
467.829	1626.06
468.049	1598.06
468.268	1577.06
468.488	1555.06
468.707	1521.06
468.927	1547.06
469.146	1517.06
469.365	1545.06
469.585	1576.06
469.804	1598.06
470.023	1613.06
470.243	1627.06
470.462	1625.06
470.681	1634.06
470.901	1637.06
471.12	1646.06
471.339	1608.06
471.558	1606.06
471.777	1617.06
471.997	1545.06
472.216	1574.06
472.435	1558.06
472.654	1534.06
472.873	1536.06
473.092	1534.06
473.311	1548.06
473.53	1544.06
473.749	1573.06
473.968	1530.06
474.187	1518.06
474.406	1511.06
474.625	1561.06
474.844	1555.06
475.063	1558.06
475.282	1541.06
475.501	1570.06
475.72	1532.06
475.939	1570.06
476.158	1607.06
476.377	1641.06
476.596	1634.06
476.814	1643.06
477.033	1647.06
477.252	1693.06
477.471	1743.06
477.69	1712.06
477.908	1733.06
478.127	1827.06
478.346	1793.06
478.564	1875.06
478.783	1866.06
479.002	1902.06
479.22	1950.06
479.439	1946.06
479.658	1967.06
479.876	1921.06
480.095	1967.06
480.313	1957.06
480.532	2016.06
480.751	2068.06
480.969	2007.06
481.188	1973.06
481.406	1954.06
481.624	1921.06
481.843	1885.06
482.061	1901.06
482.28	1907.06
482.498	1903.06
482.717	1904.06
482.935	1918.06
483.153	1861.06
483.372	1861.06
483.59	1918.06
483.808	1925.06
484.027	1917.06
484.245	1959.06
484.463	1974.06
484.681	2029.06
484.9	2035.06
485.118	2038.06
485.336	2031.06
485.554	2104.06
485.772	2094.06
485.99	2081.06
486.209	2091.06
486.427	2039.06
486.645	2041.06
486.863	2083.06
487.081	2058.06
487.299	2102.06
487.517	2045.06
487.735	2071.06
487.953	2031.06
488.171	2038.06
488.389	1986.06
488.607	1998.06
488.825	2005.06
489.043	1945.06
489.261	1939.06
489.479	1990.06
489.696	1935.06
