Data from NiCl2@0.5M.TitratingCurve.Agarose3%dH2O.NegLispCup.LampEnergy10.LIBS07252019_HRD10591_18-18-44-582.txt Node
Date: Thu Jul 25 18:18:44 EDT 2019
User: cochatt
Spectrometer: HR+D1059
Trigger mode: 1
Integration Time (sec): 1.000000E-1
Scans to average: 1
Electric dark correction enabled: true
Nonlinearity correction enabled: false
Boxcar width: 0
XAxis mode: Wavelengths
Number of Pixels in Spectrum: 2048
>>>>>Begin Spectral Data<<<<<
223.165	-8.38
223.4	-8.38
223.635	-8.38
223.869	-13.38
224.104	-18.38
224.338	-14.38
224.573	-15.38
224.808	3.62
225.042	-6.38
225.277	-6.38
225.511	-2.38
225.746	7.62
225.98	-3.38
226.215	19.62
226.449	7.62
226.683	11.62
226.918	29.62
227.152	8.62
227.387	19.62
227.621	30.62
227.856	58.62
228.09	59.62
228.324	41.62
228.559	68.62
228.793	83.62
229.027	124.62
229.262	136.62
229.496	145.62
229.73	150.62
229.964	149.62
230.199	153.62
230.433	165.62
230.667	180.62
230.901	168.62
231.136	168.62
231.37	168.62
231.604	171.62
231.838	181.62
232.072	181.62
232.306	169.62
232.541	177.62
232.775	180.62
233.009	176.62
233.243	190.62
233.477	182.62
233.711	184.62
233.945	175.62
234.179	181.62
234.413	180.62
234.647	186.62
234.881	169.62
235.115	184.62
235.349	189.62
235.583	177.62
235.817	172.62
236.051	188.62
236.285	183.62
236.519	176.62
236.753	196.62
236.987	184.62
237.221	192.62
237.455	206.62
237.689	196.62
237.922	186.62
238.156	192.62
238.39	202.62
238.624	197.62
238.858	205.62
239.091	205.62
239.325	213.62
239.559	223.62
239.793	213.62
240.027	228.62
240.26	229.62
240.494	228.62
240.728	214.62
240.961	227.62
241.195	233.62
241.429	228.62
241.662	242.62
241.896	234.62
242.13	242.62
242.363	237.62
242.597	232.62
242.83	240.62
243.064	236.62
243.298	241.62
243.531	264.62
243.765	252.62
243.998	285.62
244.232	269.62
244.465	282.62
244.699	269.62
244.932	261.62
245.166	289.62
245.399	273.62
245.633	292.62
245.866	278.62
246.099	276.62
246.333	283.62
246.566	294.62
246.8	259.62
247.033	276.62
247.266	280.62
247.5	286.62
247.733	269.62
247.966	295.62
248.2	290.62
248.433	313.62
248.666	292.62
248.899	288.62
249.133	308.62
249.366	299.62
249.599	320.62
249.832	321.62
250.066	315.62
250.299	325.62
250.532	326.62
250.765	326.62
250.998	339.62
251.231	334.62
251.465	354.62
251.698	358.62
251.931	332.62
252.164	344.62
252.397	341.62
252.63	342.62
252.863	348.62
253.096	337.62
253.329	347.62
253.562	351.62
253.795	355.62
254.028	372.62
254.261	362.62
254.494	347.62
254.727	365.62
254.96	378.62
255.193	364.62
255.426	369.62
255.659	374.62
255.892	365.62
256.124	381.62
256.357	367.62
256.59	385.62
256.823	371.62
257.056	370.62
257.289	410.62
257.521	384.62
257.754	400.62
257.987	400.62
258.22	385.62
258.452	386.62
258.685	412.62
258.918	397.62
259.151	406.62
259.383	387.62
259.616	403.62
259.849	406.62
260.081	433.62
260.314	421.62
260.547	420.62
260.779	428.62
261.012	425.62
261.244	416.62
261.477	412.62
261.71	416.62
261.942	413.62
262.175	425.62
262.407	421.62
262.64	426.62
262.872	416.62
263.105	427.62
263.337	420.62
263.57	467.62
263.802	450.62
264.035	445.62
264.267	435.62
264.499	440.62
264.732	448.62
264.964	468.62
265.197	438.62
265.429	450.62
265.661	451.62
265.894	459.62
266.126	469.62
266.358	468.62
266.591	468.62
266.823	475.62
267.055	480.62
267.287	495.62
267.52	489.62
267.752	482.62
267.984	476.62
268.216	458.62
268.448	481.62
268.681	489.62
268.913	504.62
269.145	466.62
269.377	487.62
269.609	508.62
269.841	491.62
270.073	506.62
270.306	512.62
270.538	505.62
270.77	470.62
271.002	493.62
271.234	481.62
271.466	519.62
271.698	499.62
271.93	508.62
272.162	508.62
272.394	512.62
272.626	530.62
272.858	519.62
273.09	565.62
273.322	523.62
273.553	522.62
273.785	526.62
274.017	534.62
274.249	545.62
274.481	543.62
274.713	560.62
274.945	554.62
275.176	557.62
275.408	555.62
275.64	574.62
275.872	573.62
276.104	562.62
276.335	564.62
276.567	567.62
276.799	553.62
277.031	581.62
277.262	563.62
277.494	562.62
277.726	574.62
277.957	566.62
278.189	593.62
278.421	586.62
278.652	602.62
278.884	571.62
279.115	599.62
279.347	586.62
279.579	600.62
279.81	590.62
280.042	567.62
280.273	623.62
280.505	609.62
280.736	613.62
280.968	605.62
281.199	632.62
281.431	613.62
281.662	616.62
281.894	612.62
282.125	627.62
282.356	643.62
282.588	625.62
282.819	629.62
283.051	641.62
283.282	632.62
283.513	624.62
283.745	629.62
283.976	625.62
284.207	661.62
284.439	663.62
284.67	662.62
284.901	654.62
285.132	685.62
285.364	654.62
285.595	657.62
285.826	656.62
286.057	680.62
286.288	667.62
286.52	688.62
286.751	704.62
286.982	660.62
287.213	673.62
287.444	683.62
287.675	696.62
287.906	664.62
288.138	710.62
288.369	694.62
288.6	683.62
288.831	694.62
289.062	701.62
289.293	701.62
289.524	720.62
289.755	690.62
289.986	688.62
290.217	710.62
290.448	689.62
290.679	704.62
290.91	689.62
291.141	700.62
291.371	709.62
291.602	722.62
291.833	710.62
292.064	703.62
292.295	697.62
292.526	692.62
292.757	709.62
292.987	724.62
293.218	690.62
293.449	701.62
293.68	714.62
293.91	706.62
294.141	707.62
294.372	708.62
294.603	705.62
294.833	718.62
295.064	709.62
295.295	720.62
295.525	729.62
295.756	741.62
295.987	719.62
296.217	733.62
296.448	718.62
296.679	749.62
296.909	745.62
297.14	725.62
297.37	753.62
297.601	759.62
297.831	745.62
298.062	748.62
298.292	761.62
298.523	764.62
298.753	770.62
298.984	777.62
299.214	772.62
299.445	789.62
299.675	792.62
299.905	780.62
300.136	771.62
300.366	793.62
300.597	813.62
300.827	816.62
301.057	826.62
301.288	817.62
301.518	825.62
301.748	823.62
301.979	828.62
302.209	824.62
302.439	826.62
302.669	795.62
302.9	805.62
303.13	800.62
303.36	826.62
303.59	804.62
303.82	804.62
304.051	836.62
304.281	828.62
304.511	814.62
304.741	818.62
304.971	831.62
305.201	846.62
305.431	846.62
305.661	831.62
305.891	844.62
306.121	820.62
306.352	836.62
306.582	815.62
306.812	795.62
307.042	800.62
307.272	806.62
307.502	820.62
307.731	839.62
307.961	822.62
308.191	811.62
308.421	773.62
308.651	825.62
308.881	769.62
309.111	820.62
309.341	770.62
309.571	798.62
309.8	790.62
310.03	828.62
310.26	844.62
310.49	838.62
310.72	827.62
310.949	813.62
311.179	854.62
311.409	830.62
311.639	836.62
311.868	821.62
312.098	831.62
312.328	839.62
312.557	847.62
312.787	832.62
313.017	832.62
313.246	869.62
313.476	874.62
313.706	880.62
313.935	884.62
314.165	870.62
314.394	856.62
314.624	851.62
314.853	884.62
315.083	859.62
315.312	899.62
315.542	891.62
315.771	850.62
316.001	848.62
316.23	882.62
316.46	870.62
316.689	857.62
316.919	855.62
317.148	835.62
317.377	860.62
317.607	845.62
317.836	890.62
318.065	856.62
318.295	899.62
318.524	873.62
318.753	839.62
318.983	873.62
319.212	856.62
319.441	874.62
319.67	874.62
319.9	886.62
320.129	890.62
320.358	840.62
320.587	865.62
320.816	887.62
321.046	881.62
321.275	893.62
321.504	888.62
321.733	877.62
321.962	895.62
322.191	898.62
322.42	880.62
322.649	925.62
322.878	880.62
323.108	876.62
323.337	888.62
323.566	899.62
323.795	900.62
324.024	910.62
324.253	928.62
324.482	912.62
324.71	913.62
324.939	904.62
325.168	916.62
325.397	917.62
325.626	885.62
325.855	941.62
326.084	947.62
326.313	934.62
326.542	938.62
326.77	966.62
326.999	944.62
327.228	923.62
327.457	934.62
327.686	928.62
327.914	930.62
328.143	948.62
328.372	951.62
328.6	955.62
328.829	949.62
329.058	952.62
329.287	949.62
329.515	937.62
329.744	944.62
329.972	972.62
330.201	966.62
330.43	973.62
330.658	974.62
330.887	964.62
331.115	971.62
331.344	1000.62
331.572	975.62
331.801	1004.62
332.03	1044.62
332.258	1072.62
332.486	1058.62
332.715	1088.62
332.943	1102.62
333.172	1133.62
333.4	1165.62
333.629	1191.62
333.857	1201.62
334.085	1197.62
334.314	1188.62
334.542	1165.62
334.771	1212.62
334.999	1160.62
335.227	1179.62
335.455	1150.62
335.684	1145.62
335.912	1146.62
336.14	1132.62
336.369	1156.62
336.597	1172.62
336.825	1143.62
337.053	1142.62
337.281	1154.62
337.51	1103.62
337.738	1082.62
337.966	1085.62
338.194	1133.62
338.422	1092.62
338.65	1008.62
338.878	1049.62
339.106	1058.62
339.334	1043.62
339.562	1101.62
339.79	1003.62
340.018	988.62
340.246	984.62
340.474	971.62
340.702	980.62
340.93	987.62
341.158	1000.62
341.386	1033.62
341.614	1076.62
341.842	1076.62
342.07	1023.62
342.298	986.62
342.526	1012.62
342.754	994.62
342.981	1004.62
343.209	988.62
343.437	1062.62
343.665	1118.62
343.893	1137.62
344.12	1169.62
344.348	1100.62
344.576	1133.62
344.804	1064.62
345.031	1066.62
345.259	1020.62
345.487	1015.62
345.714	1004.62
345.942	1033.62
346.17	1075.62
346.397	1032.62
346.625	980.62
346.853	966.62
347.08	969.62
347.308	983.62
347.535	970.62
347.763	971.62
347.99	962.62
348.218	967.62
348.445	948.62
348.673	980.62
348.9	943.62
349.128	946.62
349.355	975.62
349.583	982.62
349.81	932.62
350.037	903.62
350.265	914.62
350.492	910.62
350.72	914.62
350.947	957.62
351.174	954.62
351.402	973.62
351.629	964.62
351.856	976.62
352.083	963.62
352.311	932.62
352.538	970.62
352.765	986.62
352.992	926.62
353.22	869.62
353.447	905.62
353.674	914.62
353.901	907.62
354.128	896.62
354.355	878.62
354.583	898.62
354.81	908.62
355.037	893.62
355.264	902.62
355.491	886.62
355.718	942.62
355.945	919.62
356.172	915.62
356.399	914.62
356.626	937.62
356.853	939.62
357.08	931.62
357.307	910.62
357.534	918.62
357.761	911.62
357.988	938.62
358.215	905.62
358.441	904.62
358.668	889.62
358.895	896.62
359.122	922.62
359.349	902.62
359.576	892.62
359.802	897.62
360.029	918.62
360.256	897.62
360.483	905.62
360.709	903.62
360.936	896.62
361.163	916.62
361.39	895.62
361.616	920.62
361.843	936.62
362.07	965.62
362.296	979.62
362.523	918.62
362.749	899.62
362.976	917.62
363.203	900.62
363.429	908.62
363.656	876.62
363.882	897.62
364.109	916.62
364.335	914.62
364.562	883.62
364.788	883.62
365.015	881.62
365.241	891.62
365.468	913.62
365.694	903.62
365.92	891.62
366.147	876.62
366.373	876.62
366.599	868.62
366.826	899.62
367.052	877.62
367.278	878.62
367.505	908.62
367.731	902.62
367.957	887.62
368.184	895.62
368.41	933.62
368.636	928.62
368.862	910.62
369.089	917.62
369.315	890.62
369.541	901.62
369.767	928.62
369.993	926.62
370.219	898.62
370.445	924.62
370.672	960.62
370.898	905.62
371.124	926.62
371.35	938.62
371.576	927.62
371.802	927.62
372.028	931.62
372.254	947.62
372.48	948.62
372.706	987.62
372.932	972.62
373.158	950.62
373.384	972.62
373.61	953.62
373.835	949.62
374.061	979.62
374.287	955.62
374.513	973.62
374.739	984.62
374.965	1008.62
375.191	1035.62
375.416	1020.62
375.642	1010.62
375.868	988.62
376.094	967.62
376.319	952.62
376.545	970.62
376.771	924.62
376.997	978.62
377.222	944.62
377.448	936.62
377.674	965.62
377.899	967.62
378.125	946.62
378.35	931.62
378.576	947.62
378.802	941.62
379.027	919.62
379.253	944.62
379.478	938.62
379.704	909.62
379.929	931.62
380.155	923.62
380.38	929.62
380.606	934.62
380.831	956.62
381.057	956.62
381.282	954.62
381.507	929.62
381.733	961.62
381.958	967.62
382.184	932.62
382.409	950.62
382.634	958.62
382.86	988.62
383.085	986.62
383.31	985.62
383.535	993.62
383.761	973.62
383.986	1012.62
384.211	1032.62
384.436	1034.62
384.662	1046.62
384.887	1074.62
385.112	1058.62
385.337	1078.62
385.562	1100.62
385.787	1089.62
386.013	1127.62
386.238	1123.62
386.463	1085.62
386.688	1097.62
386.913	1083.62
387.138	1089.62
387.363	1088.62
387.588	1094.62
387.813	1130.62
388.038	1142.62
388.263	1111.62
388.488	1123.62
388.713	1120.62
388.938	1119.62
389.163	1089.62
389.387	1108.62
389.612	1074.62
389.837	1071.62
390.062	1074.62
390.287	1102.62
390.512	1098.62
390.736	1096.62
390.961	1134.62
391.186	1144.62
391.411	1141.62
391.636	1175.62
391.86	1196.62
392.085	1216.62
392.31	1221.62
392.534	1195.62
392.759	1140.62
392.984	1162.62
393.208	1158.62
393.433	1162.62
393.658	1167.62
393.882	1160.62
394.107	1142.62
394.331	1174.62
394.556	1163.62
394.78	1185.62
395.005	1160.62
395.229	1197.62
395.454	1226.62
395.678	1203.62
395.903	1224.62
396.127	1217.62
396.352	1188.62
396.576	1187.62
396.801	1192.62
397.025	1205.62
397.249	1213.62
397.474	1236.62
397.698	1232.62
397.922	1233.62
398.147	1230.62
398.371	1260.62
398.595	1309.62
398.82	1373.62
399.044	1447.62
399.268	1506.62
399.492	1683.62
399.717	1842.62
399.941	1846.62
400.165	1727.62
400.389	1629.62
400.613	1520.62
400.837	1453.62
401.062	1412.62
401.286	1402.62
401.51	1378.62
401.734	1354.62
401.958	1400.62
402.182	1382.62
402.406	1380.62
402.63	1381.62
402.854	1449.62
403.078	1411.62
403.302	1445.62
403.526	1466.62
403.75	1490.62
403.974	1467.62
404.198	1508.62
404.422	1498.62
404.645	1444.62
404.869	1492.62
405.093	1452.62
405.317	1475.62
405.541	1491.62
405.765	1502.62
405.988	1438.62
406.212	1489.62
406.436	1527.62
406.66	1540.62
406.883	1554.62
407.107	1608.62
407.331	1641.62
407.555	1710.62
407.778	1691.62
408.002	1652.62
408.226	1640.62
408.449	1587.62
408.673	1552.62
408.896	1514.62
409.12	1534.62
409.344	1530.62
409.567	1516.62
409.791	1510.62
410.014	1509.62
410.238	1510.62
410.461	1473.62
410.685	1468.62
410.908	1455.62
411.132	1434.62
411.355	1412.62
411.578	1446.62
411.802	1436.62
412.025	1425.62
412.249	1445.62
412.472	1429.62
412.695	1384.62
412.919	1379.62
413.142	1393.62
413.365	1390.62
413.589	1420.62
413.812	1397.62
414.035	1395.62
414.258	1373.62
414.482	1384.62
414.705	1401.62
414.928	1386.62
415.151	1370.62
415.374	1386.62
415.597	1368.62
415.821	1369.62
416.044	1353.62
416.267	1346.62
416.49	1324.62
416.713	1306.62
416.936	1325.62
417.159	1353.62
417.382	1363.62
417.605	1340.62
417.828	1321.62
418.051	1358.62
418.274	1339.62
418.497	1317.62
418.72	1400.62
418.943	1352.62
419.166	1474.62
419.389	1546.62
419.611	1504.62
419.834	1433.62
420.057	1437.62
420.28	1372.62
420.503	1349.62
420.726	1349.62
420.948	1388.62
421.171	1362.62
421.394	1360.62
421.617	1335.62
421.839	1337.62
422.062	1361.62
422.285	1336.62
422.507	1374.62
422.73	1356.62
422.953	1384.62
423.175	1394.62
423.398	1380.62
423.621	1368.62
423.843	1423.62
424.066	1396.62
424.288	1417.62
424.511	1382.62
424.733	1369.62
424.956	1351.62
425.178	1356.62
425.401	1345.62
425.623	1368.62
425.846	1301.62
426.068	1329.62
426.291	1302.62
426.513	1356.62
426.735	1306.62
426.958	1321.62
427.18	1267.62
427.402	1292.62
427.625	1273.62
427.847	1243.62
428.069	1261.62
428.292	1254.62
428.514	1244.62
428.736	1240.62
428.958	1265.62
429.181	1260.62
429.403	1264.62
429.625	1209.62
429.847	1219.62
430.069	1227.62
430.292	1227.62
430.514	1238.62
430.736	1245.62
430.958	1219.62
431.18	1229.62
431.402	1258.62
431.624	1243.62
431.846	1252.62
432.068	1265.62
432.29	1293.62
432.512	1246.62
432.734	1259.62
432.956	1271.62
433.178	1264.62
433.4	1262.62
433.622	1304.62
433.844	1285.62
434.066	1306.62
434.287	1276.62
434.509	1328.62
434.731	1384.62
434.953	1343.62
435.175	1416.62
435.397	1374.62
435.618	1348.62
435.84	1309.62
436.062	1286.62
436.284	1255.62
436.505	1250.62
436.727	1288.62
436.949	1251.62
437.17	1296.62
437.392	1273.62
437.614	1262.62
437.835	1236.62
438.057	1204.62
438.278	1198.62
438.5	1183.62
438.721	1232.62
438.943	1220.62
439.165	1235.62
439.386	1220.62
439.608	1283.62
439.829	1269.62
440.05	1286.62
440.272	1298.62
440.493	1254.62
440.715	1288.62
440.936	1297.62
441.158	1317.62
441.379	1352.62
441.6	1419.62
441.822	1386.62
442.043	1420.62
442.264	1379.62
442.486	1364.62
442.707	1362.62
442.928	1396.62
443.149	1377.62
443.371	1382.62
443.592	1435.62
443.813	1422.62
444.034	1412.62
444.255	1421.62
444.476	1477.62
444.698	1569.62
444.919	1568.62
445.14	1635.62
445.361	1529.62
445.582	1456.62
445.803	1362.62
446.024	1305.62
446.245	1328.62
446.466	1322.62
446.687	1280.62
446.908	1306.62
447.129	1237.62
447.35	1239.62
447.571	1253.62
447.792	1220.62
448.013	1176.62
448.234	1214.62
448.455	1192.62
448.675	1212.62
448.896	1186.62
449.117	1182.62
449.338	1170.62
449.559	1164.62
449.779	1173.62
450	1156.62
450.221	1160.62
450.442	1150.62
450.662	1200.62
450.883	1166.62
451.104	1208.62
451.324	1197.62
451.545	1191.62
451.766	1154.62
451.986	1158.62
452.207	1137.62
452.428	1157.62
452.648	1160.62
452.869	1136.62
453.089	1141.62
453.31	1156.62
453.53	1146.62
453.751	1141.62
453.971	1132.62
454.192	1138.62
454.412	1139.62
454.633	1120.62
454.853	1127.62
455.073	1117.62
455.294	1149.62
455.514	1112.62
455.734	1094.62
455.955	1088.62
456.175	1096.62
456.395	1110.62
456.616	1110.62
456.836	1124.62
457.056	1093.62
457.276	1092.62
457.497	1116.62
457.717	1114.62
457.937	1114.62
458.157	1155.62
458.377	1147.62
458.598	1148.62
458.818	1183.62
459.038	1226.62
459.258	1254.62
459.478	1301.62
459.698	1336.62
459.918	1369.62
460.138	1418.62
460.358	1456.62
460.578	1444.62
460.798	1462.62
461.018	1512.62
461.238	1481.62
461.458	1472.62
461.678	1453.62
461.898	1492.62
462.118	1514.62
462.338	1569.62
462.558	1613.62
462.777	1665.62
462.997	1754.62
463.217	1818.62
463.437	1872.62
463.657	1736.62
463.876	1682.62
464.096	1688.62
464.316	1717.62
464.536	1712.62
464.755	1618.62
464.975	1630.62
465.195	1492.62
465.414	1466.62
465.634	1426.62
465.854	1341.62
466.073	1311.62
466.293	1291.62
466.512	1237.62
466.732	1278.62
466.951	1280.62
467.171	1251.62
467.391	1251.62
467.61	1242.62
467.829	1248.62
468.049	1216.62
468.268	1229.62
468.488	1185.62
468.707	1192.62
468.927	1185.62
469.146	1184.62
469.365	1220.62
469.585	1232.62
469.804	1241.62
470.023	1241.62
470.243	1256.62
470.462	1284.62
470.681	1278.62
470.901	1265.62
471.12	1239.62
471.339	1268.62
471.558	1251.62
471.777	1264.62
471.997	1274.62
472.216	1224.62
472.435	1202.62
472.654	1193.62
472.873	1163.62
473.092	1189.62
473.311	1174.62
473.53	1188.62
473.749	1196.62
473.968	1228.62
474.187	1208.62
474.406	1191.62
474.625	1185.62
474.844	1200.62
475.063	1202.62
475.282	1204.62
475.501	1177.62
475.72	1206.62
475.939	1229.62
476.158	1246.62
476.377	1238.62
476.596	1246.62
476.814	1250.62
477.033	1260.62
477.252	1254.62
477.471	1306.62
477.69	1319.62
477.908	1352.62
478.127	1404.62
478.346	1374.62
478.564	1460.62
478.783	1445.62
479.002	1447.62
479.22	1502.62
479.439	1489.62
479.658	1428.62
479.876	1486.62
480.095	1490.62
480.313	1547.62
480.532	1572.62
480.751	1550.62
480.969	1505.62
481.188	1488.62
481.406	1415.62
481.624	1425.62
481.843	1409.62
482.061	1369.62
482.28	1385.62
482.498	1389.62
482.717	1351.62
482.935	1385.62
483.153	1408.62
483.372	1428.62
483.59	1422.62
483.808	1387.62
484.027	1392.62
484.245	1374.62
484.463	1370.62
484.681	1449.62
484.9	1411.62
485.118	1437.62
485.336	1409.62
485.554	1443.62
485.772	1452.62
485.99	1436.62
486.209	1446.62
486.427	1443.62
486.645	1447.62
486.863	1426.62
487.081	1446.62
487.299	1454.62
487.517	1409.62
487.735	1469.62
487.953	1465.62
488.171	1463.62
488.389	1439.62
488.607	1433.62
488.825	1410.62
489.043	1403.62
489.261	1462.62
489.479	1445.62
489.696	1421.62
489.914	1448.62
490.132	1432.62
490.35	1429.62
490.568	1472.62
490.786	1468.62
491.003	1467.62
491.221	1464.62
491.439	1440.62
491.657	1468.62
491.874	1486.62
492.092	1499.62
492.31	1532.62
492.527	1519.62
492.745	1537.62
492.963	1517.62
493.18	1459.62
493.398	1535.62
493.615	1602.62
493.833	1498.62
494.05	1523.62
