Data from NiCl2@0.5M.TitratingCurve.Agarose3%dH2O.NegLispCup.LampEnergy10.LIBS07252019_HRD10591_18-19-57-576.txt Node
Date: Thu Jul 25 18:19:57 EDT 2019
User: cochatt
Spectrometer: HR+D1059
Trigger mode: 1
Integration Time (sec): 1.000000E-1
Scans to average: 1
Electric dark correction enabled: true
Nonlinearity correction enabled: false
Boxcar width: 0
XAxis mode: Wavelengths
Number of Pixels in Spectrum: 2048
>>>>>Begin Spectral Data<<<<<
223.165	-16.81
223.4	-16.81
223.635	-16.81
223.869	-10.81
224.104	-29.81
224.338	-10.81
224.573	-17.81
224.808	-16.81
225.042	-5.81
225.277	-0.81
225.511	-9.81
225.746	4.19
225.98	-3.81
226.215	16.19
226.449	9.19
226.683	26.19
226.918	20.19
227.152	47.19
227.387	45.19
227.621	48.19
227.856	54.19
228.09	54.19
228.324	58.19
228.559	51.19
228.793	54.19
229.027	87.19
229.262	83.19
229.496	104.19
229.73	94.19
229.964	123.19
230.199	118.19
230.433	123.19
230.667	116.19
230.901	108.19
231.136	118.19
231.37	123.19
231.604	108.19
231.838	148.19
232.072	114.19
232.306	126.19
232.541	142.19
232.775	129.19
233.009	126.19
233.243	123.19
233.477	122.19
233.711	124.19
233.945	126.19
234.179	120.19
234.413	138.19
234.647	125.19
234.881	134.19
235.115	125.19
235.349	122.19
235.583	137.19
235.817	132.19
236.051	134.19
236.285	119.19
236.519	136.19
236.753	126.19
236.987	119.19
237.221	123.19
237.455	140.19
237.689	131.19
237.922	135.19
238.156	138.19
238.39	129.19
238.624	133.19
238.858	135.19
239.091	135.19
239.325	153.19
239.559	125.19
239.793	136.19
240.027	146.19
240.26	149.19
240.494	148.19
240.728	151.19
240.961	144.19
241.195	152.19
241.429	153.19
241.662	161.19
241.896	159.19
242.13	153.19
242.363	162.19
242.597	160.19
242.83	159.19
243.064	162.19
243.298	161.19
243.531	158.19
243.765	153.19
243.998	150.19
244.232	166.19
244.465	147.19
244.699	166.19
244.932	150.19
245.166	170.19
245.399	178.19
245.633	171.19
245.866	180.19
246.099	163.19
246.333	165.19
246.566	160.19
246.8	174.19
247.033	164.19
247.266	171.19
247.5	171.19
247.733	183.19
247.966	181.19
248.2	173.19
248.433	185.19
248.666	166.19
248.899	183.19
249.133	178.19
249.366	184.19
249.599	188.19
249.832	187.19
250.066	185.19
250.299	182.19
250.532	187.19
250.765	186.19
250.998	189.19
251.231	197.19
251.465	188.19
251.698	211.19
251.931	198.19
252.164	192.19
252.397	198.19
252.63	200.19
252.863	186.19
253.096	204.19
253.329	194.19
253.562	193.19
253.795	203.19
254.028	199.19
254.261	202.19
254.494	212.19
254.727	195.19
254.96	204.19
255.193	205.19
255.426	216.19
255.659	205.19
255.892	210.19
256.124	204.19
256.357	211.19
256.59	217.19
256.823	207.19
257.056	227.19
257.289	223.19
257.521	225.19
257.754	221.19
257.987	241.19
258.22	221.19
258.452	227.19
258.685	240.19
258.918	221.19
259.151	223.19
259.383	220.19
259.616	229.19
259.849	236.19
260.081	234.19
260.314	234.19
260.547	243.19
260.779	230.19
261.012	240.19
261.244	218.19
261.477	231.19
261.71	233.19
261.942	231.19
262.175	231.19
262.407	245.19
262.64	225.19
262.872	240.19
263.105	233.19
263.337	252.19
263.57	259.19
263.802	267.19
264.035	246.19
264.267	252.19
264.499	243.19
264.732	240.19
264.964	246.19
265.197	247.19
265.429	245.19
265.661	249.19
265.894	246.19
266.126	269.19
266.358	264.19
266.591	245.19
266.823	274.19
267.055	262.19
267.287	267.19
267.52	261.19
267.752	257.19
267.984	260.19
268.216	279.19
268.448	271.19
268.681	259.19
268.913	272.19
269.145	262.19
269.377	280.19
269.609	276.19
269.841	260.19
270.073	267.19
270.306	284.19
270.538	268.19
270.77	265.19
271.002	293.19
271.234	267.19
271.466	281.19
271.698	278.19
271.93	278.19
272.162	287.19
272.394	292.19
272.626	290.19
272.858	302.19
273.09	290.19
273.322	281.19
273.553	291.19
273.785	293.19
274.017	305.19
274.249	300.19
274.481	298.19
274.713	294.19
274.945	294.19
275.176	295.19
275.408	285.19
275.64	305.19
275.872	291.19
276.104	326.19
276.335	323.19
276.567	292.19
276.799	305.19
277.031	301.19
277.262	318.19
277.494	310.19
277.726	303.19
277.957	348.19
278.189	316.19
278.421	302.19
278.652	310.19
278.884	317.19
279.115	312.19
279.347	312.19
279.579	342.19
279.81	330.19
280.042	314.19
280.273	334.19
280.505	322.19
280.736	324.19
280.968	323.19
281.199	338.19
281.431	326.19
281.662	341.19
281.894	323.19
282.125	342.19
282.356	325.19
282.588	337.19
282.819	322.19
283.051	344.19
283.282	346.19
283.513	337.19
283.745	352.19
283.976	348.19
284.207	333.19
284.439	349.19
284.67	364.19
284.901	347.19
285.132	348.19
285.364	356.19
285.595	350.19
285.826	338.19
286.057	375.19
286.288	349.19
286.52	345.19
286.751	346.19
286.982	372.19
287.213	366.19
287.444	354.19
287.675	362.19
287.906	355.19
288.138	365.19
288.369	355.19
288.6	378.19
288.831	351.19
289.062	363.19
289.293	366.19
289.524	362.19
289.755	385.19
289.986	368.19
290.217	376.19
290.448	362.19
290.679	374.19
290.91	391.19
291.141	374.19
291.371	380.19
291.602	382.19
291.833	381.19
292.064	393.19
292.295	375.19
292.526	363.19
292.757	394.19
292.987	376.19
293.218	368.19
293.449	389.19
293.68	407.19
293.91	384.19
294.141	388.19
294.372	391.19
294.603	387.19
294.833	403.19
295.064	397.19
295.295	380.19
295.525	379.19
295.756	411.19
295.987	393.19
296.217	392.19
296.448	398.19
296.679	380.19
296.909	402.19
297.14	405.19
297.37	407.19
297.601	406.19
297.831	390.19
298.062	406.19
298.292	410.19
298.523	412.19
298.753	406.19
298.984	422.19
299.214	420.19
299.445	424.19
299.675	409.19
299.905	437.19
300.136	429.19
300.366	448.19
300.597	445.19
300.827	434.19
301.057	450.19
301.288	437.19
301.518	442.19
301.748	449.19
301.979	435.19
302.209	456.19
302.439	460.19
302.669	450.19
302.9	443.19
303.13	428.19
303.36	434.19
303.59	462.19
303.82	453.19
304.051	466.19
304.281	445.19
304.511	437.19
304.741	442.19
304.971	471.19
305.201	444.19
305.431	437.19
305.661	450.19
305.891	442.19
306.121	458.19
306.352	434.19
306.582	439.19
306.812	452.19
307.042	430.19
307.272	434.19
307.502	438.19
307.731	441.19
307.961	434.19
308.191	466.19
308.421	456.19
308.651	438.19
308.881	425.19
309.111	454.19
309.341	432.19
309.571	449.19
309.8	428.19
310.03	440.19
310.26	462.19
310.49	452.19
310.72	439.19
310.949	459.19
311.179	461.19
311.409	459.19
311.639	460.19
311.868	463.19
312.098	458.19
312.328	454.19
312.557	461.19
312.787	472.19
313.017	447.19
313.246	451.19
313.476	463.19
313.706	472.19
313.935	449.19
314.165	467.19
314.394	479.19
314.624	468.19
314.853	448.19
315.083	456.19
315.312	465.19
315.542	465.19
315.771	467.19
316.001	458.19
316.23	461.19
316.46	485.19
316.689	492.19
316.919	457.19
317.148	481.19
317.377	465.19
317.607	476.19
317.836	488.19
318.065	484.19
318.295	469.19
318.524	465.19
318.753	471.19
318.983	478.19
319.212	467.19
319.441	462.19
319.67	456.19
319.9	480.19
320.129	466.19
320.358	486.19
320.587	473.19
320.816	486.19
321.046	490.19
321.275	480.19
321.504	466.19
321.733	480.19
321.962	490.19
322.191	488.19
322.42	452.19
322.649	481.19
322.878	483.19
323.108	463.19
323.337	492.19
323.566	485.19
323.795	480.19
324.024	505.19
324.253	499.19
324.482	488.19
324.71	488.19
324.939	489.19
325.168	502.19
325.397	498.19
325.626	509.19
325.855	516.19
326.084	506.19
326.313	521.19
326.542	518.19
326.77	528.19
326.999	513.19
327.228	514.19
327.457	495.19
327.686	508.19
327.914	521.19
328.143	519.19
328.372	522.19
328.6	524.19
328.829	526.19
329.058	516.19
329.287	517.19
329.515	529.19
329.744	528.19
329.972	500.19
330.201	537.19
330.43	522.19
330.658	533.19
330.887	516.19
331.115	553.19
331.344	534.19
331.572	542.19
331.801	542.19
332.03	547.19
332.258	558.19
332.486	594.19
332.715	584.19
332.943	571.19
333.172	612.19
333.4	630.19
333.629	633.19
333.857	612.19
334.085	630.19
334.314	635.19
334.542	640.19
334.771	634.19
334.999	633.19
335.227	635.19
335.455	629.19
335.684	634.19
335.912	638.19
336.14	594.19
336.369	625.19
336.597	595.19
336.825	615.19
337.053	623.19
337.281	617.19
337.51	602.19
337.738	604.19
337.966	585.19
338.194	577.19
338.422	580.19
338.65	557.19
338.878	574.19
339.106	547.19
339.334	564.19
339.562	581.19
339.79	568.19
340.018	552.19
340.246	555.19
340.474	531.19
340.702	545.19
340.93	541.19
341.158	553.19
341.386	569.19
341.614	563.19
341.842	567.19
342.07	560.19
342.298	542.19
342.526	550.19
342.754	556.19
342.981	534.19
343.209	542.19
343.437	598.19
343.665	604.19
343.893	615.19
344.12	631.19
344.348	615.19
344.576	594.19
344.804	586.19
345.031	570.19
345.259	575.19
345.487	552.19
345.714	553.19
345.942	538.19
346.17	565.19
346.397	550.19
346.625	538.19
346.853	518.19
347.08	528.19
347.308	524.19
347.535	538.19
347.763	547.19
347.99	525.19
348.218	539.19
348.445	529.19
348.673	517.19
348.9	516.19
349.128	539.19
349.355	530.19
349.583	538.19
349.81	529.19
350.037	497.19
350.265	520.19
350.492	506.19
350.72	504.19
350.947	516.19
351.174	551.19
351.402	525.19
351.629	513.19
351.856	541.19
352.083	505.19
352.311	513.19
352.538	530.19
352.765	542.19
352.992	516.19
353.22	490.19
353.447	492.19
353.674	512.19
353.901	489.19
354.128	523.19
354.355	475.19
354.583	494.19
354.81	497.19
355.037	489.19
355.264	501.19
355.491	484.19
355.718	499.19
355.945	508.19
356.172	498.19
356.399	508.19
356.626	525.19
356.853	539.19
357.08	524.19
357.307	508.19
357.534	503.19
357.761	500.19
357.988	500.19
358.215	501.19
358.441	485.19
358.668	483.19
358.895	492.19
359.122	498.19
359.349	524.19
359.576	468.19
359.802	502.19
360.029	488.19
360.256	496.19
360.483	496.19
360.709	510.19
360.936	482.19
361.163	493.19
361.39	491.19
361.616	486.19
361.843	523.19
362.07	530.19
362.296	536.19
362.523	515.19
362.749	488.19
362.976	488.19
363.203	483.19
363.429	490.19
363.656	500.19
363.882	493.19
364.109	498.19
364.335	482.19
364.562	502.19
364.788	485.19
365.015	474.19
365.241	484.19
365.468	500.19
365.694	494.19
365.92	488.19
366.147	506.19
366.373	492.19
366.599	496.19
366.826	478.19
367.052	490.19
367.278	467.19
367.505	487.19
367.731	492.19
367.957	485.19
368.184	493.19
368.41	511.19
368.636	492.19
368.862	492.19
369.089	515.19
369.315	498.19
369.541	492.19
369.767	487.19
369.993	510.19
370.219	530.19
370.445	524.19
370.672	518.19
370.898	496.19
371.124	498.19
371.35	515.19
371.576	515.19
371.802	526.19
372.028	517.19
372.254	523.19
372.48	520.19
372.706	538.19
372.932	539.19
373.158	548.19
373.384	515.19
373.61	491.19
373.835	525.19
374.061	534.19
374.287	512.19
374.513	536.19
374.739	527.19
374.965	561.19
375.191	543.19
375.416	533.19
375.642	549.19
375.868	529.19
376.094	539.19
376.319	545.19
376.545	540.19
376.771	535.19
376.997	540.19
377.222	521.19
377.448	516.19
377.674	524.19
377.899	504.19
378.125	497.19
378.35	486.19
378.576	505.19
378.802	517.19
379.027	523.19
379.253	500.19
379.478	493.19
379.704	522.19
379.929	524.19
380.155	505.19
380.38	514.19
380.606	505.19
380.831	525.19
381.057	532.19
381.282	509.19
381.507	517.19
381.733	526.19
381.958	520.19
382.184	538.19
382.409	508.19
382.634	525.19
382.86	505.19
383.085	524.19
383.31	539.19
383.535	554.19
383.761	551.19
383.986	548.19
384.211	554.19
384.436	568.19
384.662	600.19
384.887	577.19
385.112	585.19
385.337	581.19
385.562	595.19
385.787	585.19
386.013	591.19
386.238	600.19
386.463	586.19
386.688	594.19
386.913	597.19
387.138	589.19
387.363	590.19
387.588	594.19
387.813	588.19
388.038	583.19
388.263	578.19
388.488	597.19
388.713	585.19
388.938	578.19
389.163	582.19
389.387	596.19
389.612	591.19
389.837	554.19
390.062	580.19
390.287	595.19
390.512	584.19
390.736	584.19
390.961	606.19
391.186	614.19
391.411	628.19
391.636	640.19
391.86	621.19
392.085	626.19
392.31	650.19
392.534	639.19
392.759	650.19
392.984	634.19
393.208	626.19
393.433	611.19
393.658	636.19
393.882	616.19
394.107	612.19
394.331	632.19
394.556	628.19
394.78	638.19
395.005	654.19
395.229	616.19
395.454	650.19
395.678	658.19
395.903	648.19
396.127	654.19
396.352	615.19
396.576	640.19
396.801	629.19
397.025	632.19
397.249	633.19
397.474	643.19
397.698	672.19
397.922	659.19
398.147	684.19
398.371	687.19
398.595	683.19
398.82	713.19
399.044	776.19
399.268	840.19
399.492	909.19
399.717	956.19
399.941	918.19
400.165	906.19
400.389	858.19
400.613	774.19
400.837	759.19
401.062	773.19
401.286	749.19
401.51	738.19
401.734	745.19
401.958	733.19
402.182	741.19
402.406	752.19
402.63	733.19
402.854	749.19
403.078	775.19
403.302	748.19
403.526	776.19
403.75	789.19
403.974	820.19
404.198	764.19
404.422	787.19
404.645	772.19
404.869	784.19
405.093	768.19
405.317	768.19
405.541	755.19
405.765	770.19
405.988	766.19
406.212	792.19
406.436	790.19
406.66	808.19
406.883	819.19
407.107	850.19
407.331	866.19
407.555	882.19
407.778	892.19
408.002	860.19
408.226	846.19
408.449	875.19
408.673	826.19
408.896	827.19
409.12	806.19
409.344	824.19
409.567	810.19
409.791	826.19
410.014	813.19
410.238	801.19
410.461	796.19
410.685	814.19
410.908	786.19
411.132	782.19
411.355	758.19
411.578	772.19
411.802	762.19
412.025	772.19
412.249	759.19
412.472	790.19
412.695	760.19
412.919	739.19
413.142	752.19
413.365	776.19
413.589	723.19
413.812	732.19
414.035	737.19
414.258	744.19
414.482	750.19
414.705	760.19
414.928	736.19
415.151	730.19
415.374	759.19
415.597	743.19
415.821	745.19
416.044	739.19
416.267	718.19
416.49	700.19
416.713	717.19
416.936	732.19
417.159	708.19
417.382	742.19
417.605	730.19
417.828	731.19
418.051	708.19
418.274	741.19
418.497	702.19
418.72	744.19
418.943	745.19
419.166	807.19
419.389	828.19
419.611	800.19
419.834	799.19
420.057	759.19
420.28	730.19
420.503	721.19
420.726	723.19
420.948	708.19
421.171	742.19
421.394	738.19
421.617	746.19
421.839	732.19
422.062	751.19
422.285	736.19
422.507	752.19
422.73	726.19
422.953	729.19
423.175	763.19
423.398	762.19
423.621	736.19
423.843	768.19
424.066	758.19
424.288	765.19
424.511	780.19
424.733	760.19
424.956	751.19
425.178	744.19
425.401	729.19
425.623	714.19
425.846	709.19
426.068	718.19
426.291	717.19
426.513	709.19
426.735	732.19
426.958	742.19
427.18	719.19
427.402	729.19
427.625	724.19
427.847	688.19
428.069	705.19
428.292	705.19
428.514	693.19
428.736	693.19
428.958	676.19
429.181	684.19
429.403	678.19
429.625	685.19
429.847	677.19
430.069	684.19
430.292	716.19
430.514	692.19
430.736	685.19
430.958	692.19
431.18	695.19
431.402	706.19
431.624	683.19
431.846	715.19
432.068	694.19
432.29	699.19
432.512	708.19
432.734	732.19
432.956	701.19
433.178	716.19
433.4	718.19
433.622	722.19
433.844	740.19
434.066	752.19
434.287	724.19
434.509	745.19
434.731	736.19
434.953	770.19
435.175	756.19
435.397	774.19
435.618	750.19
435.84	725.19
436.062	726.19
436.284	716.19
436.505	694.19
436.727	688.19
436.949	722.19
437.17	704.19
437.392	696.19
437.614	692.19
437.835	675.19
438.057	690.19
438.278	664.19
438.5	693.19
438.721	674.19
438.943	698.19
439.165	693.19
439.386	715.19
439.608	686.19
439.829	706.19
440.05	698.19
440.272	722.19
440.493	723.19
440.715	747.19
440.936	738.19
441.158	745.19
441.379	788.19
441.6	784.19
441.822	772.19
442.043	772.19
442.264	754.19
442.486	733.19
442.707	774.19
442.928	771.19
443.149	768.19
443.371	790.19
443.592	776.19
443.813	795.19
444.034	768.19
444.255	816.19
444.476	826.19
444.698	844.19
444.919	859.19
445.14	964.19
445.361	858.19
445.582	830.19
445.803	760.19
446.024	788.19
446.245	752.19
446.466	734.19
446.687	749.19
446.908	743.19
447.129	721.19
447.35	705.19
447.571	708.19
447.792	681.19
448.013	674.19
448.234	688.19
448.455	678.19
448.675	669.19
448.896	679.19
449.117	660.19
449.338	677.19
449.559	644.19
449.779	671.19
450	669.19
450.221	666.19
450.442	660.19
450.662	691.19
450.883	668.19
451.104	705.19
451.324	666.19
451.545	671.19
451.766	663.19
451.986	662.19
452.207	696.19
452.428	640.19
452.648	672.19
452.869	649.19
453.089	637.19
453.31	645.19
453.53	617.19
453.751	635.19
453.971	627.19
454.192	637.19
454.412	619.19
454.633	637.19
454.853	633.19
455.073	649.19
455.294	632.19
455.514	638.19
455.734	615.19
455.955	624.19
456.175	622.19
456.395	634.19
456.616	625.19
456.836	631.19
457.056	629.19
457.276	621.19
457.497	616.19
457.717	650.19
457.937	642.19
458.157	636.19
458.377	648.19
458.598	637.19
458.818	668.19
459.038	692.19
459.258	676.19
459.478	709.19
459.698	739.19
459.918	755.19
460.138	762.19
460.358	784.19
460.578	833.19
460.798	843.19
461.018	829.19
461.238	812.19
461.458	795.19
461.678	810.19
461.898	833.19
462.118	873.19
462.338	874.19
462.558	870.19
462.777	912.19
462.997	951.19
463.217	996.19
463.437	1038.19
463.657	954.19
463.876	937.19
464.096	928.19
464.316	944.19
464.536	900.19
464.755	911.19
464.975	896.19
465.195	828.19
465.414	842.19
465.634	772.19
465.854	784.19
466.073	744.19
466.293	735.19
466.512	710.19
466.732	723.19
466.951	728.19
467.171	718.19
467.391	702.19
467.61	681.19
467.829	702.19
468.049	716.19
468.268	690.19
468.488	704.19
468.707	709.19
468.927	673.19
469.146	688.19
469.365	703.19
469.585	686.19
469.804	698.19
470.023	713.19
470.243	708.19
470.462	722.19
470.681	737.19
470.901	745.19
471.12	724.19
471.339	711.19
471.558	698.19
471.777	714.19
471.997	694.19
472.216	680.19
472.435	674.19
472.654	684.19
472.873	685.19
473.092	661.19
473.311	698.19
473.53	689.19
473.749	662.19
473.968	680.19
474.187	700.19
474.406	678.19
474.625	676.19
474.844	689.19
475.063	691.19
475.282	698.19
475.501	685.19
475.72	691.19
475.939	701.19
476.158	709.19
476.377	749.19
476.596	729.19
476.814	701.19
477.033	723.19
477.252	725.19
477.471	721.19
477.69	768.19
477.908	778.19
478.127	787.19
478.346	792.19
478.564	793.19
478.783	813.19
479.002	838.19
479.22	832.19
479.439	832.19
479.658	801.19
479.876	828.19
480.095	819.19
480.313	846.19
480.532	861.19
480.751	841.19
480.969	832.19
481.188	813.19
481.406	796.19
481.624	821.19
481.843	798.19
482.061	808.19
482.28	760.19
482.498	773.19
482.717	800.19
482.935	774.19
483.153	804.19
483.372	794.19
483.59	823.19
483.808	801.19
484.027	796.19
484.245	810.19
484.463	808.19
484.681	843.19
484.9	807.19
485.118	842.19
485.336	817.19
485.554	805.19
485.772	801.19
485.99	820.19
486.209	790.19
486.427	799.19
486.645	806.19
486.863	838.19
487.081	804.19
487.299	846.19
487.517	826.19
487.735	845.19
487.953	865.19
488.171	859.19
488.389	858.19
488.607	828.19
488.825	834.19
489.043	836.19
489.261	803.19
489.479	819.19
489.696	826.19
489.914	809.19
490.132	838.19
490.35	829.19
490.568	825.19
490.786	842.19
491.003	845.19
491.221	834.19
491.439	894.19
491.657	854.19
491.874	855.19
492.092	877.19
492.31	900.19
492.527	869.19
492.745	869.19
492.963	885.19
493.18	886.19
493.398	900.19
493.615	904.19
493.833	890.19
494.05	870.19
494.268	876.19
494.485	907.19
494.703	884.19
494.92	918.19
495.138	904.19
495.355	894.19
495.573	896.19
495.79	900.19
496.008	906.19
496.225	925.19
496.442	913.19
496.66	935.19
496.877	940.19
497.094	953.19
497.312	973.19
497.529	967.19
497.746	990.19
497.963	1026.19
498.181	1076.19
498.398	1068.19
498.615	1128.19
498.832	1186.19
499.049	1257.19
499.267	1335.19
499.484	1420.19
499.701	1520.19
499.918	1587.19
500.135	1730.19
500.352	1895.19
500.569	1972.19
500.786	1907.19
501.003	1843.19
501.22	1714.19
501.437	1593.19
