Data from NiCl2@0.125M.TitratingCurve.Agarose3%dH2O.NegLispCup.LampEnergy10.LIBS07252019_HRD10591_18-29-56-575.txt Node
Date: Thu Jul 25 18:29:56 EDT 2019
User: cochatt
Spectrometer: HR+D1059
Trigger mode: 1
Integration Time (sec): 1.000000E-1
Scans to average: 1
Electric dark correction enabled: true
Nonlinearity correction enabled: false
Boxcar width: 0
XAxis mode: Wavelengths
Number of Pixels in Spectrum: 2048
>>>>>Begin Spectral Data<<<<<
223.165	-14.81
223.4	-14.81
223.635	-14.81
223.869	-14.81
224.104	-16.81
224.338	-4.81
224.573	-13.81
224.808	-9.81
225.042	-8.81
225.277	-11.81
225.511	-6.81
225.746	7.19
225.98	-3.81
226.215	4.19
226.449	21.19
226.683	17.19
226.918	33.19
227.152	23.19
227.387	41.19
227.621	41.19
227.856	37.19
228.09	41.19
228.324	61.19
228.559	51.19
228.793	73.19
229.027	103.19
229.262	118.19
229.496	129.19
229.73	121.19
229.964	140.19
230.199	130.19
230.433	135.19
230.667	138.19
230.901	124.19
231.136	130.19
231.37	138.19
231.604	163.19
231.838	140.19
232.072	133.19
232.306	134.19
232.541	157.19
232.775	155.19
233.009	145.19
233.243	138.19
233.477	152.19
233.711	141.19
233.945	168.19
234.179	151.19
234.413	165.19
234.647	152.19
234.881	153.19
235.115	156.19
235.349	169.19
235.583	154.19
235.817	165.19
236.051	156.19
236.285	150.19
236.519	159.19
236.753	172.19
236.987	158.19
237.221	159.19
237.455	167.19
237.689	160.19
237.922	165.19
238.156	163.19
238.39	172.19
238.624	156.19
238.858	181.19
239.091	162.19
239.325	169.19
239.559	187.19
239.793	179.19
240.027	188.19
240.26	184.19
240.494	195.19
240.728	184.19
240.961	180.19
241.195	180.19
241.429	183.19
241.662	173.19
241.896	187.19
242.13	197.19
242.363	196.19
242.597	203.19
242.83	188.19
243.064	199.19
243.298	207.19
243.531	204.19
243.765	216.19
243.998	226.19
244.232	213.19
244.465	210.19
244.699	206.19
244.932	221.19
245.166	226.19
245.399	224.19
245.633	222.19
245.866	235.19
246.099	235.19
246.333	197.19
246.566	219.19
246.8	227.19
247.033	207.19
247.266	234.19
247.5	233.19
247.733	221.19
247.966	222.19
248.2	237.19
248.433	224.19
248.666	225.19
248.899	245.19
249.133	267.19
249.366	228.19
249.599	261.19
249.832	252.19
250.066	256.19
250.299	252.19
250.532	236.19
250.765	263.19
250.998	259.19
251.231	249.19
251.465	267.19
251.698	260.19
251.931	269.19
252.164	270.19
252.397	274.19
252.63	257.19
252.863	277.19
253.096	273.19
253.329	276.19
253.562	252.19
253.795	268.19
254.028	283.19
254.261	273.19
254.494	273.19
254.727	275.19
254.96	274.19
255.193	265.19
255.426	287.19
255.659	277.19
255.892	299.19
256.124	282.19
256.357	281.19
256.59	303.19
256.823	282.19
257.056	281.19
257.289	291.19
257.521	291.19
257.754	299.19
257.987	300.19
258.22	307.19
258.452	292.19
258.685	303.19
258.918	332.19
259.151	317.19
259.383	290.19
259.616	299.19
259.849	334.19
260.081	329.19
260.314	327.19
260.547	316.19
260.779	316.19
261.012	313.19
261.244	323.19
261.477	331.19
261.71	333.19
261.942	325.19
262.175	322.19
262.407	347.19
262.64	330.19
262.872	331.19
263.105	344.19
263.337	353.19
263.57	353.19
263.802	343.19
264.035	334.19
264.267	355.19
264.499	346.19
264.732	343.19
264.964	353.19
265.197	359.19
265.429	332.19
265.661	344.19
265.894	364.19
266.126	343.19
266.358	354.19
266.591	359.19
266.823	353.19
267.055	366.19
267.287	362.19
267.52	364.19
267.752	355.19
267.984	344.19
268.216	363.19
268.448	360.19
268.681	365.19
268.913	365.19
269.145	374.19
269.377	373.19
269.609	361.19
269.841	379.19
270.073	378.19
270.306	367.19
270.538	377.19
270.77	366.19
271.002	383.19
271.234	369.19
271.466	398.19
271.698	402.19
271.93	383.19
272.162	397.19
272.394	377.19
272.626	386.19
272.858	383.19
273.09	380.19
273.322	376.19
273.553	388.19
273.785	402.19
274.017	401.19
274.249	430.19
274.481	379.19
274.713	401.19
274.945	422.19
275.176	440.19
275.408	404.19
275.64	412.19
275.872	429.19
276.104	425.19
276.335	406.19
276.567	418.19
276.799	409.19
277.031	415.19
277.262	442.19
277.494	429.19
277.726	416.19
277.957	437.19
278.189	449.19
278.421	428.19
278.652	411.19
278.884	467.19
279.115	457.19
279.347	441.19
279.579	430.19
279.81	427.19
280.042	438.19
280.273	449.19
280.505	445.19
280.736	450.19
280.968	437.19
281.199	443.19
281.431	452.19
281.662	454.19
281.894	461.19
282.125	440.19
282.356	483.19
282.588	469.19
282.819	483.19
283.051	462.19
283.282	477.19
283.513	471.19
283.745	480.19
283.976	475.19
284.207	467.19
284.439	473.19
284.67	454.19
284.901	492.19
285.132	512.19
285.364	480.19
285.595	471.19
285.826	483.19
286.057	479.19
286.288	473.19
286.52	504.19
286.751	485.19
286.982	509.19
287.213	510.19
287.444	508.19
287.675	510.19
287.906	504.19
288.138	503.19
288.369	511.19
288.6	518.19
288.831	500.19
289.062	523.19
289.293	527.19
289.524	521.19
289.755	513.19
289.986	511.19
290.217	520.19
290.448	500.19
290.679	536.19
290.91	515.19
291.141	531.19
291.371	541.19
291.602	515.19
291.833	525.19
292.064	537.19
292.295	515.19
292.526	545.19
292.757	531.19
292.987	529.19
293.218	520.19
293.449	556.19
293.68	519.19
293.91	533.19
294.141	537.19
294.372	540.19
294.603	536.19
294.833	547.19
295.064	530.19
295.295	525.19
295.525	533.19
295.756	518.19
295.987	539.19
296.217	550.19
296.448	541.19
296.679	545.19
296.909	553.19
297.14	564.19
297.37	552.19
297.601	578.19
297.831	550.19
298.062	583.19
298.292	609.19
298.523	593.19
298.753	614.19
298.984	571.19
299.214	577.19
299.445	564.19
299.675	571.19
299.905	591.19
300.136	586.19
300.366	580.19
300.597	574.19
300.827	623.19
301.057	583.19
301.288	593.19
301.518	598.19
301.748	593.19
301.979	616.19
302.209	635.19
302.439	615.19
302.669	584.19
302.9	601.19
303.13	583.19
303.36	580.19
303.59	570.19
303.82	576.19
304.051	599.19
304.281	592.19
304.511	574.19
304.741	606.19
304.971	575.19
305.201	596.19
305.431	575.19
305.661	589.19
305.891	582.19
306.121	607.19
306.352	605.19
306.582	589.19
306.812	567.19
307.042	603.19
307.272	576.19
307.502	573.19
307.731	581.19
307.961	560.19
308.191	564.19
308.421	591.19
308.651	573.19
308.881	577.19
309.111	583.19
309.341	589.19
309.571	598.19
309.8	589.19
310.03	571.19
310.26	575.19
310.49	569.19
310.72	601.19
310.949	574.19
311.179	568.19
311.409	605.19
311.639	605.19
311.868	573.19
312.098	579.19
312.328	588.19
312.557	613.19
312.787	613.19
313.017	603.19
313.246	631.19
313.476	614.19
313.706	603.19
313.935	608.19
314.165	612.19
314.394	609.19
314.624	623.19
314.853	635.19
315.083	610.19
315.312	617.19
315.542	605.19
315.771	609.19
316.001	602.19
316.23	615.19
316.46	603.19
316.689	609.19
316.919	596.19
317.148	589.19
317.377	591.19
317.607	591.19
317.836	597.19
318.065	593.19
318.295	615.19
318.524	620.19
318.753	595.19
318.983	580.19
319.212	596.19
319.441	598.19
319.67	610.19
319.9	593.19
320.129	606.19
320.358	608.19
320.587	591.19
320.816	602.19
321.046	581.19
321.275	602.19
321.504	585.19
321.733	589.19
321.962	622.19
322.191	614.19
322.42	597.19
322.649	619.19
322.878	610.19
323.108	609.19
323.337	619.19
323.566	657.19
323.795	622.19
324.024	625.19
324.253	612.19
324.482	619.19
324.71	625.19
324.939	612.19
325.168	619.19
325.397	639.19
325.626	638.19
325.855	651.19
326.084	639.19
326.313	667.19
326.542	659.19
326.77	681.19
326.999	655.19
327.228	671.19
327.457	636.19
327.686	648.19
327.914	656.19
328.143	653.19
328.372	662.19
328.6	653.19
328.829	630.19
329.058	633.19
329.287	684.19
329.515	659.19
329.744	675.19
329.972	678.19
330.201	673.19
330.43	669.19
330.658	670.19
330.887	680.19
331.115	701.19
331.344	668.19
331.572	693.19
331.801	711.19
332.03	717.19
332.258	732.19
332.486	761.19
332.715	793.19
332.943	804.19
333.172	808.19
333.4	877.19
333.629	876.19
333.857	896.19
334.085	877.19
334.314	872.19
334.542	877.19
334.771	818.19
334.999	835.19
335.227	828.19
335.455	808.19
335.684	801.19
335.912	811.19
336.14	792.19
336.369	789.19
336.597	794.19
336.825	808.19
337.053	789.19
337.281	784.19
337.51	728.19
337.738	742.19
337.966	742.19
338.194	728.19
338.422	723.19
338.65	709.19
338.878	711.19
339.106	718.19
339.334	707.19
339.562	719.19
339.79	703.19
340.018	693.19
340.246	680.19
340.474	661.19
340.702	678.19
340.93	681.19
341.158	678.19
341.386	689.19
341.614	694.19
341.842	684.19
342.07	691.19
342.298	679.19
342.526	681.19
342.754	675.19
342.981	683.19
343.209	679.19
343.437	719.19
343.665	781.19
343.893	835.19
344.12	856.19
344.348	848.19
344.576	774.19
344.804	740.19
345.031	739.19
345.259	711.19
345.487	706.19
345.714	707.19
345.942	694.19
346.17	698.19
346.397	668.19
346.625	663.19
346.853	705.19
347.08	659.19
347.308	676.19
347.535	688.19
347.763	663.19
347.99	695.19
348.218	675.19
348.445	678.19
348.673	683.19
348.9	674.19
349.128	655.19
349.355	668.19
349.583	663.19
349.81	657.19
350.037	654.19
350.265	637.19
350.492	658.19
350.72	639.19
350.947	644.19
351.174	644.19
351.402	648.19
351.629	658.19
351.856	651.19
352.083	642.19
352.311	627.19
352.538	638.19
352.765	645.19
352.992	631.19
353.22	643.19
353.447	623.19
353.674	628.19
353.901	639.19
354.128	609.19
354.355	630.19
354.583	620.19
354.81	631.19
355.037	651.19
355.264	643.19
355.491	667.19
355.718	663.19
355.945	641.19
356.172	647.19
356.399	629.19
356.626	646.19
356.853	672.19
357.08	646.19
357.307	645.19
357.534	616.19
357.761	635.19
357.988	658.19
358.215	647.19
358.441	656.19
358.668	618.19
358.895	647.19
359.122	647.19
359.349	635.19
359.576	640.19
359.802	650.19
360.029	641.19
360.256	632.19
360.483	653.19
360.709	671.19
360.936	632.19
361.163	632.19
361.39	648.19
361.616	637.19
361.843	637.19
362.07	654.19
362.296	661.19
362.523	632.19
362.749	641.19
362.976	622.19
363.203	635.19
363.429	645.19
363.656	638.19
363.882	643.19
364.109	637.19
364.335	616.19
364.562	633.19
364.788	650.19
365.015	632.19
365.241	661.19
365.468	629.19
365.694	620.19
365.92	620.19
366.147	640.19
366.373	634.19
366.599	661.19
366.826	635.19
367.052	656.19
367.278	646.19
367.505	649.19
367.731	658.19
367.957	632.19
368.184	648.19
368.41	656.19
368.636	644.19
368.862	649.19
369.089	660.19
369.315	652.19
369.541	662.19
369.767	699.19
369.993	633.19
370.219	684.19
370.445	689.19
370.672	683.19
370.898	682.19
371.124	702.19
371.35	711.19
371.576	712.19
371.802	712.19
372.028	704.19
372.254	715.19
372.48	709.19
372.706	718.19
372.932	693.19
373.158	738.19
373.384	718.19
373.61	699.19
373.835	707.19
374.061	696.19
374.287	712.19
374.513	727.19
374.739	736.19
374.965	783.19
375.191	814.19
375.416	784.19
375.642	731.19
375.868	747.19
376.094	746.19
376.319	701.19
376.545	700.19
376.771	703.19
376.997	696.19
377.222	702.19
377.448	711.19
377.674	699.19
377.899	726.19
378.125	697.19
378.35	695.19
378.576	720.19
378.802	669.19
379.027	697.19
379.253	700.19
379.478	683.19
379.704	695.19
379.929	684.19
380.155	688.19
380.38	679.19
380.606	679.19
380.831	677.19
381.057	700.19
381.282	704.19
381.507	705.19
381.733	701.19
381.958	703.19
382.184	706.19
382.409	737.19
382.634	746.19
382.86	758.19
383.085	744.19
383.31	727.19
383.535	769.19
383.761	765.19
383.986	800.19
384.211	799.19
384.436	820.19
384.662	827.19
384.887	832.19
385.112	828.19
385.337	842.19
385.562	853.19
385.787	846.19
386.013	859.19
386.238	833.19
386.463	854.19
386.688	843.19
386.913	841.19
387.138	833.19
387.363	874.19
387.588	816.19
387.813	811.19
388.038	831.19
388.263	831.19
388.488	817.19
388.713	847.19
388.938	835.19
389.163	812.19
389.387	806.19
389.612	796.19
389.837	810.19
390.062	807.19
390.287	817.19
390.512	815.19
390.736	848.19
390.961	856.19
391.186	837.19
391.411	899.19
391.636	891.19
391.86	946.19
392.085	935.19
392.31	912.19
392.534	925.19
392.759	879.19
392.984	889.19
393.208	892.19
393.433	891.19
393.658	883.19
393.882	884.19
394.107	938.19
394.331	935.19
394.556	914.19
394.78	892.19
395.005	924.19
395.229	905.19
395.454	928.19
395.678	931.19
395.903	939.19
396.127	956.19
396.352	944.19
396.576	873.19
396.801	885.19
397.025	896.19
397.249	897.19
397.474	932.19
397.698	954.19
397.922	941.19
398.147	927.19
398.371	931.19
398.595	985.19
398.82	1024.19
399.044	1071.19
399.268	1189.19
399.492	1356.19
399.717	1571.19
399.941	1599.19
400.165	1445.19
400.389	1269.19
400.613	1152.19
400.837	1105.19
401.062	1077.19
401.286	1045.19
401.51	1079.19
401.734	1037.19
401.958	1045.19
402.182	1031.19
402.406	1097.19
402.63	1118.19
402.854	1119.19
403.078	1115.19
403.302	1152.19
403.526	1181.19
403.75	1213.19
403.974	1204.19
404.198	1211.19
404.422	1241.19
404.645	1207.19
404.869	1197.19
405.093	1184.19
405.317	1182.19
405.541	1183.19
405.765	1149.19
405.988	1123.19
406.212	1179.19
406.436	1172.19
406.66	1167.19
406.883	1189.19
407.107	1297.19
407.331	1324.19
407.555	1386.19
407.778	1384.19
408.002	1321.19
408.226	1320.19
408.449	1283.19
408.673	1244.19
408.896	1201.19
409.12	1190.19
409.344	1207.19
409.567	1217.19
409.791	1241.19
410.014	1213.19
410.238	1178.19
410.461	1185.19
410.685	1223.19
410.908	1132.19
411.132	1151.19
411.355	1113.19
411.578	1096.19
411.802	1079.19
412.025	1086.19
412.249	1136.19
412.472	1116.19
412.695	1097.19
412.919	1061.19
413.142	1055.19
413.365	1063.19
413.589	1052.19
413.812	1055.19
414.035	1048.19
414.258	1046.19
414.482	1060.19
414.705	1091.19
414.928	1068.19
415.151	1075.19
415.374	1064.19
415.597	1033.19
415.821	1047.19
416.044	1021.19
416.267	1038.19
416.49	1043.19
416.713	1004.19
416.936	1055.19
417.159	1027.19
417.382	1019.19
417.605	1030.19
417.828	1040.19
418.051	1039.19
418.274	1064.19
418.497	1052.19
418.72	1102.19
418.943	1077.19
419.166	1157.19
419.389	1239.19
419.611	1187.19
419.834	1145.19
420.057	1128.19
420.28	1060.19
420.503	1055.19
420.726	1037.19
420.948	1031.19
421.171	1043.19
421.394	1055.19
421.617	1043.19
421.839	1040.19
422.062	1046.19
422.285	1054.19
422.507	1080.19
422.73	1058.19
422.953	1081.19
423.175	1085.19
423.398	1123.19
423.621	1112.19
423.843	1124.19
424.066	1126.19
424.288	1114.19
424.511	1134.19
424.733	1084.19
424.956	1083.19
425.178	1039.19
425.401	1063.19
425.623	1058.19
425.846	1035.19
426.068	1048.19
426.291	989.19
426.513	1000.19
426.735	971.19
426.958	984.19
427.18	947.19
427.402	992.19
427.625	967.19
427.847	954.19
428.069	950.19
428.292	961.19
428.514	933.19
428.736	929.19
428.958	943.19
429.181	928.19
429.403	913.19
429.625	899.19
429.847	927.19
430.069	906.19
430.292	913.19
430.514	903.19
430.736	910.19
430.958	921.19
431.18	933.19
431.402	944.19
431.624	916.19
431.846	957.19
432.068	964.19
432.29	954.19
432.512	927.19
432.734	962.19
432.956	950.19
433.178	951.19
433.4	954.19
433.622	970.19
433.844	980.19
434.066	960.19
434.287	951.19
434.509	1011.19
434.731	1007.19
434.953	1082.19
435.175	1079.19
435.397	1082.19
435.618	1013.19
435.84	1006.19
436.062	964.19
436.284	968.19
436.505	945.19
436.727	955.19
436.949	963.19
437.17	952.19
437.392	943.19
437.614	944.19
437.835	916.19
438.057	933.19
438.278	913.19
438.5	913.19
438.721	937.19
438.943	941.19
439.165	916.19
439.386	953.19
439.608	969.19
439.829	955.19
440.05	942.19
440.272	948.19
440.493	940.19
440.715	965.19
440.936	982.19
441.158	986.19
441.379	1044.19
441.6	1081.19
441.822	1062.19
442.043	1062.19
442.264	1093.19
442.486	1002.19
442.707	1043.19
442.928	1059.19
443.149	1051.19
443.371	1070.19
443.592	1058.19
443.813	1063.19
444.034	1059.19
444.255	1107.19
444.476	1132.19
444.698	1254.19
444.919	1295.19
445.14	1379.19
445.361	1219.19
445.582	1128.19
445.803	1064.19
446.024	1022.19
446.245	1012.19
446.466	964.19
446.687	974.19
446.908	975.19
447.129	945.19
447.35	914.19
447.571	917.19
447.792	909.19
448.013	888.19
448.234	906.19
448.455	886.19
448.675	896.19
448.896	885.19
449.117	902.19
449.338	841.19
449.559	875.19
449.779	864.19
450	865.19
450.221	871.19
450.442	903.19
450.662	874.19
450.883	929.19
451.104	911.19
451.324	933.19
451.545	928.19
451.766	907.19
451.986	897.19
452.207	909.19
452.428	900.19
452.648	903.19
452.869	890.19
453.089	865.19
453.31	896.19
453.53	861.19
453.751	876.19
453.971	873.19
454.192	828.19
454.412	837.19
454.633	847.19
454.853	843.19
455.073	855.19
455.294	830.19
455.514	795.19
455.734	841.19
455.955	829.19
456.175	824.19
456.395	805.19
456.616	799.19
456.836	816.19
457.056	814.19
457.276	798.19
457.497	813.19
457.717	835.19
457.937	831.19
458.157	827.19
458.377	849.19
458.598	849.19
458.818	877.19
459.038	909.19
459.258	953.19
459.478	966.19
459.698	999.19
459.918	1046.19
460.138	1051.19
460.358	1084.19
460.578	1140.19
460.798	1160.19
461.018	1154.19
461.238	1131.19
461.458	1105.19
461.678	1131.19
461.898	1111.19
462.118	1131.19
462.338	1198.19
462.558	1250.19
462.777	1282.19
462.997	1416.19
463.217	1520.19
463.437	1553.19
463.657	1404.19
463.876	1336.19
464.096	1315.19
464.316	1349.19
464.536	1324.19
464.755	1273.19
464.975	1200.19
465.195	1169.19
465.414	1082.19
465.634	1052.19
465.854	985.19
466.073	989.19
466.293	952.19
466.512	949.19
466.732	925.19
466.951	947.19
467.171	962.19
467.391	921.19
467.61	917.19
467.829	894.19
468.049	891.19
468.268	904.19
468.488	887.19
468.707	871.19
468.927	883.19
469.146	870.19
469.365	893.19
469.585	917.19
469.804	903.19
470.023	963.19
470.243	918.19
470.462	956.19
470.681	957.19
470.901	980.19
471.12	927.19
471.339	935.19
471.558	919.19
471.777	894.19
471.997	903.19
472.216	891.19
472.435	863.19
472.654	850.19
472.873	870.19
473.092	883.19
473.311	864.19
473.53	829.19
473.749	856.19
473.968	866.19
474.187	859.19
474.406	864.19
474.625	863.19
474.844	843.19
475.063	871.19
475.282	870.19
475.501	890.19
475.72	894.19
475.939	869.19
476.158	901.19
476.377	875.19
476.596	895.19
476.814	897.19
477.033	910.19
477.252	923.19
477.471	948.19
477.69	1000.19
477.908	965.19
478.127	1016.19
478.346	1029.19
478.564	1039.19
478.783	1018.19
479.002	1103.19
479.22	1117.19
479.439	1065.19
479.658	1095.19
479.876	1084.19
480.095	1079.19
480.313	1128.19
480.532	1154.19
480.751	1152.19
480.969	1103.19
481.188	1075.19
481.406	1056.19
481.624	1055.19
481.843	1002.19
482.061	1019.19
482.28	968.19
482.498	992.19
482.717	986.19
482.935	1002.19
483.153	958.19
483.372	979.19
483.59	1016.19
483.808	1023.19
484.027	1000.19
484.245	1016.19
484.463	1012.19
484.681	1031.19
484.9	1022.19
485.118	1030.19
485.336	1040.19
485.554	1061.19
485.772	1022.19
485.99	1063.19
486.209	1079.19
486.427	1071.19
486.645	1093.19
486.863	1077.19
487.081	1043.19
487.299	1033.19
487.517	1061.19
487.735	1019.19
487.953	1037.19
488.171	1035.19
488.389	1054.19
488.607	1018.19
488.825	1004.19
489.043	1017.19
489.261	1033.19
489.479	1037.19
489.696	1007.19
489.914	1043.19
490.132	1044.19
490.35	1045.19
490.568	1013.19
490.786	1039.19
491.003	1046.19
491.221	1032.19
491.439	1059.19
491.657	1027.19
491.874	1054.19
492.092	1068.19
492.31	1035.19
492.527	1073.19
492.745	1064.19
492.963	1062.19
493.18	1065.19
493.398	1068.19
493.615	1076.19
493.833	1077.19
494.05	1085.19
494.268	1108.19
494.485	1087.19
494.703	1065.19
494.92	1083.19
495.138	1085.19
495.355	1104.19
495.573	1113.19
495.79	1114.19
496.008	1114.19
496.225	1110.19
496.442	1100.19
496.66	1091.19
496.877	1134.19
497.094	1180.19
497.312	1179.19
497.529	1216.19
497.746	1248.19
497.963	1256.19
