Data from NiCl2@0.25M.TitratingCurve.Agarose3%dH2O.NegLispCup.LampEnergy10.LIBS07252019_HRD10591_18-25-16-572.txt Node
Date: Thu Jul 25 18:25:16 EDT 2019
User: cochatt
Spectrometer: HR+D1059
Trigger mode: 1
Integration Time (sec): 1.000000E-1
Scans to average: 1
Electric dark correction enabled: true
Nonlinearity correction enabled: false
Boxcar width: 0
XAxis mode: Wavelengths
Number of Pixels in Spectrum: 2048
>>>>>Begin Spectral Data<<<<<
223.165	-14.81
223.4	-14.81
223.635	-14.81
223.869	-15.81
224.104	-15.81
224.338	-12.81
224.573	-11.81
224.808	4.19
225.042	-15.81
225.277	4.19
225.511	7.19
225.746	-5.81
225.98	-4.81
226.215	3.19
226.449	11.19
226.683	29.19
226.918	19.19
227.152	19.19
227.387	43.19
227.621	25.19
227.856	31.19
228.09	37.19
228.324	47.19
228.559	61.19
228.793	69.19
229.027	102.19
229.262	112.19
229.496	117.19
229.73	117.19
229.964	118.19
230.199	134.19
230.433	132.19
230.667	158.19
230.901	129.19
231.136	130.19
231.37	119.19
231.604	149.19
231.838	137.19
232.072	143.19
232.306	151.19
232.541	148.19
232.775	149.19
233.009	144.19
233.243	141.19
233.477	143.19
233.711	141.19
233.945	133.19
234.179	159.19
234.413	144.19
234.647	133.19
234.881	151.19
235.115	161.19
235.349	155.19
235.583	151.19
235.817	141.19
236.051	143.19
236.285	159.19
236.519	159.19
236.753	147.19
236.987	169.19
237.221	170.19
237.455	166.19
237.689	171.19
237.922	159.19
238.156	144.19
238.39	159.19
238.624	157.19
238.858	171.19
239.091	170.19
239.325	159.19
239.559	176.19
239.793	148.19
240.027	179.19
240.26	172.19
240.494	171.19
240.728	173.19
240.961	173.19
241.195	160.19
241.429	209.19
241.662	185.19
241.896	205.19
242.13	187.19
242.363	195.19
242.597	180.19
242.83	180.19
243.064	204.19
243.298	194.19
243.531	224.19
243.765	211.19
243.998	199.19
244.232	225.19
244.465	206.19
244.699	206.19
244.932	244.19
245.166	212.19
245.399	211.19
245.633	214.19
245.866	209.19
246.099	220.19
246.333	220.19
246.566	221.19
246.8	219.19
247.033	225.19
247.266	228.19
247.5	240.19
247.733	222.19
247.966	239.19
248.2	224.19
248.433	232.19
248.666	233.19
248.899	244.19
249.133	251.19
249.366	235.19
249.599	262.19
249.832	257.19
250.066	241.19
250.299	247.19
250.532	251.19
250.765	241.19
250.998	272.19
251.231	254.19
251.465	271.19
251.698	265.19
251.931	273.19
252.164	279.19
252.397	277.19
252.63	269.19
252.863	280.19
253.096	272.19
253.329	287.19
253.562	271.19
253.795	265.19
254.028	278.19
254.261	283.19
254.494	265.19
254.727	274.19
254.96	260.19
255.193	277.19
255.426	261.19
255.659	303.19
255.892	280.19
256.124	288.19
256.357	285.19
256.59	285.19
256.823	316.19
257.056	304.19
257.289	294.19
257.521	297.19
257.754	297.19
257.987	289.19
258.22	318.19
258.452	289.19
258.685	311.19
258.918	315.19
259.151	321.19
259.383	300.19
259.616	303.19
259.849	333.19
260.081	313.19
260.314	307.19
260.547	309.19
260.779	319.19
261.012	311.19
261.244	305.19
261.477	329.19
261.71	323.19
261.942	322.19
262.175	318.19
262.407	339.19
262.64	335.19
262.872	336.19
263.105	326.19
263.337	328.19
263.57	350.19
263.802	343.19
264.035	343.19
264.267	355.19
264.499	334.19
264.732	333.19
264.964	339.19
265.197	329.19
265.429	359.19
265.661	370.19
265.894	363.19
266.126	368.19
266.358	350.19
266.591	370.19
266.823	372.19
267.055	375.19
267.287	358.19
267.52	354.19
267.752	365.19
267.984	373.19
268.216	370.19
268.448	366.19
268.681	372.19
268.913	371.19
269.145	360.19
269.377	375.19
269.609	374.19
269.841	371.19
270.073	382.19
270.306	383.19
270.538	378.19
270.77	386.19
271.002	379.19
271.234	399.19
271.466	368.19
271.698	388.19
271.93	399.19
272.162	400.19
272.394	391.19
272.626	392.19
272.858	387.19
273.09	408.19
273.322	384.19
273.553	406.19
273.785	410.19
274.017	409.19
274.249	407.19
274.481	400.19
274.713	421.19
274.945	426.19
275.176	423.19
275.408	404.19
275.64	431.19
275.872	405.19
276.104	423.19
276.335	413.19
276.567	430.19
276.799	412.19
277.031	423.19
277.262	422.19
277.494	433.19
277.726	417.19
277.957	427.19
278.189	436.19
278.421	440.19
278.652	460.19
278.884	441.19
279.115	459.19
279.347	451.19
279.579	447.19
279.81	451.19
280.042	433.19
280.273	448.19
280.505	452.19
280.736	462.19
280.968	455.19
281.199	473.19
281.431	492.19
281.662	475.19
281.894	463.19
282.125	476.19
282.356	469.19
282.588	484.19
282.819	471.19
283.051	481.19
283.282	481.19
283.513	469.19
283.745	490.19
283.976	480.19
284.207	488.19
284.439	508.19
284.67	491.19
284.901	507.19
285.132	504.19
285.364	519.19
285.595	511.19
285.826	520.19
286.057	497.19
286.288	488.19
286.52	505.19
286.751	527.19
286.982	529.19
287.213	503.19
287.444	511.19
287.675	506.19
287.906	520.19
288.138	532.19
288.369	493.19
288.6	526.19
288.831	514.19
289.062	495.19
289.293	533.19
289.524	525.19
289.755	508.19
289.986	520.19
290.217	519.19
290.448	509.19
290.679	531.19
290.91	524.19
291.141	530.19
291.371	527.19
291.602	513.19
291.833	518.19
292.064	511.19
292.295	542.19
292.526	563.19
292.757	543.19
292.987	538.19
293.218	539.19
293.449	524.19
293.68	535.19
293.91	526.19
294.141	521.19
294.372	536.19
294.603	535.19
294.833	556.19
295.064	561.19
295.295	550.19
295.525	553.19
295.756	555.19
295.987	561.19
296.217	546.19
296.448	563.19
296.679	560.19
296.909	542.19
297.14	576.19
297.37	602.19
297.601	582.19
297.831	561.19
298.062	569.19
298.292	577.19
298.523	578.19
298.753	582.19
298.984	584.19
299.214	602.19
299.445	590.19
299.675	568.19
299.905	585.19
300.136	561.19
300.366	598.19
300.597	606.19
300.827	595.19
301.057	598.19
301.288	606.19
301.518	603.19
301.748	595.19
301.979	607.19
302.209	597.19
302.439	599.19
302.669	622.19
302.9	627.19
303.13	612.19
303.36	619.19
303.59	593.19
303.82	614.19
304.051	589.19
304.281	590.19
304.511	604.19
304.741	599.19
304.971	605.19
305.201	599.19
305.431	606.19
305.661	598.19
305.891	591.19
306.121	599.19
306.352	606.19
306.582	599.19
306.812	573.19
307.042	582.19
307.272	609.19
307.502	587.19
307.731	593.19
307.961	601.19
308.191	590.19
308.421	599.19
308.651	560.19
308.881	612.19
309.111	596.19
309.341	580.19
309.571	579.19
309.8	599.19
310.03	585.19
310.26	612.19
310.49	589.19
310.72	591.19
310.949	615.19
311.179	615.19
311.409	602.19
311.639	623.19
311.868	641.19
312.098	589.19
312.328	592.19
312.557	628.19
312.787	622.19
313.017	632.19
313.246	649.19
313.476	639.19
313.706	646.19
313.935	657.19
314.165	625.19
314.394	641.19
314.624	645.19
314.853	639.19
315.083	636.19
315.312	643.19
315.542	628.19
315.771	631.19
316.001	637.19
316.23	637.19
316.46	622.19
316.689	653.19
316.919	621.19
317.148	642.19
317.377	626.19
317.607	627.19
317.836	628.19
318.065	612.19
318.295	627.19
318.524	623.19
318.753	602.19
318.983	628.19
319.212	597.19
319.441	619.19
319.67	604.19
319.9	645.19
320.129	604.19
320.358	623.19
320.587	603.19
320.816	627.19
321.046	628.19
321.275	633.19
321.504	645.19
321.733	650.19
321.962	639.19
322.191	601.19
322.42	643.19
322.649	630.19
322.878	645.19
323.108	641.19
323.337	667.19
323.566	632.19
323.795	639.19
324.024	625.19
324.253	645.19
324.482	643.19
324.71	648.19
324.939	663.19
325.168	643.19
325.397	659.19
325.626	659.19
325.855	670.19
326.084	679.19
326.313	684.19
326.542	675.19
326.77	681.19
326.999	697.19
327.228	671.19
327.457	684.19
327.686	670.19
327.914	674.19
328.143	711.19
328.372	671.19
328.6	700.19
328.829	677.19
329.058	698.19
329.287	695.19
329.515	704.19
329.744	695.19
329.972	710.19
330.201	702.19
330.43	703.19
330.658	695.19
330.887	735.19
331.115	736.19
331.344	747.19
331.572	747.19
331.801	740.19
332.03	760.19
332.258	789.19
332.486	759.19
332.715	808.19
332.943	831.19
333.172	868.19
333.4	920.19
333.629	929.19
333.857	927.19
334.085	929.19
334.314	896.19
334.542	909.19
334.771	905.19
334.999	895.19
335.227	865.19
335.455	885.19
335.684	868.19
335.912	854.19
336.14	842.19
336.369	851.19
336.597	816.19
336.825	823.19
337.053	830.19
337.281	831.19
337.51	815.19
337.738	807.19
337.966	753.19
338.194	791.19
338.422	765.19
338.65	750.19
338.878	740.19
339.106	750.19
339.334	733.19
339.562	750.19
339.79	715.19
340.018	703.19
340.246	706.19
340.474	700.19
340.702	738.19
340.93	732.19
341.158	717.19
341.386	734.19
341.614	751.19
341.842	708.19
342.07	689.19
342.298	719.19
342.526	704.19
342.754	712.19
342.981	723.19
343.209	748.19
343.437	797.19
343.665	821.19
343.893	850.19
344.12	886.19
344.348	856.19
344.576	832.19
344.804	787.19
345.031	773.19
345.259	751.19
345.487	716.19
345.714	716.19
345.942	719.19
346.17	716.19
346.397	715.19
346.625	696.19
346.853	693.19
347.08	691.19
347.308	665.19
347.535	694.19
347.763	693.19
347.99	708.19
348.218	698.19
348.445	680.19
348.673	680.19
348.9	673.19
349.128	697.19
349.355	676.19
349.583	680.19
349.81	660.19
350.037	678.19
350.265	681.19
350.492	676.19
350.72	657.19
350.947	668.19
351.174	675.19
351.402	673.19
351.629	687.19
351.856	680.19
352.083	670.19
352.311	676.19
352.538	646.19
352.765	639.19
352.992	636.19
353.22	649.19
353.447	650.19
353.674	630.19
353.901	660.19
354.128	672.19
354.355	648.19
354.583	679.19
354.81	665.19
355.037	665.19
355.264	660.19
355.491	677.19
355.718	664.19
355.945	652.19
356.172	663.19
356.399	670.19
356.626	659.19
356.853	687.19
357.08	691.19
357.307	693.19
357.534	675.19
357.761	677.19
357.988	657.19
358.215	647.19
358.441	649.19
358.668	637.19
358.895	678.19
359.122	653.19
359.349	679.19
359.576	659.19
359.802	659.19
360.029	655.19
360.256	671.19
360.483	657.19
360.709	656.19
360.936	656.19
361.163	680.19
361.39	672.19
361.616	679.19
361.843	692.19
362.07	673.19
362.296	663.19
362.523	668.19
362.749	655.19
362.976	656.19
363.203	673.19
363.429	669.19
363.656	677.19
363.882	640.19
364.109	652.19
364.335	670.19
364.562	655.19
364.788	656.19
365.015	661.19
365.241	668.19
365.468	699.19
365.694	665.19
365.92	657.19
366.147	655.19
366.373	673.19
366.599	665.19
366.826	696.19
367.052	664.19
367.278	664.19
367.505	684.19
367.731	682.19
367.957	653.19
368.184	667.19
368.41	671.19
368.636	685.19
368.862	664.19
369.089	683.19
369.315	680.19
369.541	716.19
369.767	683.19
369.993	707.19
370.219	683.19
370.445	710.19
370.672	701.19
370.898	721.19
371.124	733.19
371.35	733.19
371.576	711.19
371.802	727.19
372.028	740.19
372.254	724.19
372.48	696.19
372.706	745.19
372.932	741.19
373.158	753.19
373.384	742.19
373.61	737.19
373.835	748.19
374.061	718.19
374.287	726.19
374.513	753.19
374.739	783.19
374.965	805.19
375.191	807.19
375.416	797.19
375.642	772.19
375.868	784.19
376.094	756.19
376.319	755.19
376.545	737.19
376.771	736.19
376.997	729.19
377.222	763.19
377.448	751.19
377.674	728.19
377.899	710.19
378.125	706.19
378.35	705.19
378.576	716.19
378.802	705.19
379.027	722.19
379.253	719.19
379.478	721.19
379.704	725.19
379.929	698.19
380.155	713.19
380.38	701.19
380.606	713.19
380.831	716.19
381.057	713.19
381.282	718.19
381.507	719.19
381.733	748.19
381.958	731.19
382.184	717.19
382.409	753.19
382.634	760.19
382.86	756.19
383.085	760.19
383.31	780.19
383.535	799.19
383.761	803.19
383.986	821.19
384.211	823.19
384.436	836.19
384.662	868.19
384.887	863.19
385.112	880.19
385.337	867.19
385.562	871.19
385.787	861.19
386.013	869.19
386.238	871.19
386.463	875.19
386.688	887.19
386.913	904.19
387.138	876.19
387.363	862.19
387.588	849.19
387.813	859.19
388.038	864.19
388.263	864.19
388.488	887.19
388.713	857.19
388.938	894.19
389.163	865.19
389.387	851.19
389.612	849.19
389.837	812.19
390.062	846.19
390.287	864.19
390.512	877.19
390.736	857.19
390.961	898.19
391.186	896.19
391.411	927.19
391.636	956.19
391.86	963.19
392.085	988.19
392.31	1015.19
392.534	991.19
392.759	953.19
392.984	938.19
393.208	941.19
393.433	919.19
393.658	963.19
393.882	939.19
394.107	916.19
394.331	966.19
394.556	936.19
394.78	933.19
395.005	973.19
395.229	941.19
395.454	976.19
395.678	1010.19
395.903	999.19
396.127	981.19
396.352	927.19
396.576	945.19
396.801	953.19
397.025	924.19
397.249	963.19
397.474	984.19
397.698	973.19
397.922	999.19
398.147	1005.19
398.371	1041.19
398.595	1065.19
398.82	1095.19
399.044	1192.19
399.268	1271.19
399.492	1478.19
399.717	1663.19
399.941	1672.19
400.165	1541.19
400.389	1399.19
400.613	1287.19
400.837	1187.19
401.062	1186.19
401.286	1150.19
401.51	1119.19
401.734	1147.19
401.958	1136.19
402.182	1137.19
402.406	1140.19
402.63	1159.19
402.854	1167.19
403.078	1196.19
403.302	1211.19
403.526	1265.19
403.75	1289.19
403.974	1273.19
404.198	1244.19
404.422	1282.19
404.645	1261.19
404.869	1237.19
405.093	1256.19
405.317	1241.19
405.541	1233.19
405.765	1219.19
405.988	1223.19
406.212	1216.19
406.436	1216.19
406.66	1277.19
406.883	1246.19
407.107	1314.19
407.331	1389.19
407.555	1447.19
407.778	1477.19
408.002	1377.19
408.226	1373.19
408.449	1357.19
408.673	1279.19
408.896	1245.19
409.12	1248.19
409.344	1278.19
409.567	1279.19
409.791	1241.19
410.014	1230.19
410.238	1233.19
410.461	1241.19
410.685	1221.19
410.908	1190.19
411.132	1188.19
411.355	1156.19
411.578	1150.19
411.802	1156.19
412.025	1159.19
412.249	1173.19
412.472	1185.19
412.695	1156.19
412.919	1134.19
413.142	1143.19
413.365	1096.19
413.589	1141.19
413.812	1104.19
414.035	1105.19
414.258	1089.19
414.482	1142.19
414.705	1099.19
414.928	1119.19
415.151	1162.19
415.374	1102.19
415.597	1102.19
415.821	1110.19
416.044	1079.19
416.267	1081.19
416.49	1053.19
416.713	1093.19
416.936	1115.19
417.159	1109.19
417.382	1097.19
417.605	1083.19
417.828	1093.19
418.051	1093.19
418.274	1112.19
418.497	1109.19
418.72	1122.19
418.943	1120.19
419.166	1183.19
419.389	1262.19
419.611	1233.19
419.834	1177.19
420.057	1145.19
420.28	1116.19
420.503	1078.19
420.726	1098.19
420.948	1104.19
421.171	1098.19
421.394	1071.19
421.617	1097.19
421.839	1064.19
422.062	1087.19
422.285	1091.19
422.507	1109.19
422.73	1125.19
422.953	1136.19
423.175	1106.19
423.398	1144.19
423.621	1119.19
423.843	1143.19
424.066	1132.19
424.288	1175.19
424.511	1128.19
424.733	1120.19
424.956	1095.19
425.178	1108.19
425.401	1122.19
425.623	1111.19
425.846	1052.19
426.068	1067.19
426.291	1041.19
426.513	1025.19
426.735	1009.19
426.958	1043.19
427.18	1012.19
427.402	993.19
427.625	998.19
427.847	952.19
428.069	1038.19
428.292	980.19
428.514	973.19
428.736	974.19
428.958	985.19
429.181	945.19
429.403	947.19
429.625	910.19
429.847	935.19
430.069	936.19
430.292	956.19
430.514	920.19
430.736	931.19
430.958	956.19
431.18	962.19
431.402	960.19
431.624	965.19
431.846	955.19
432.068	988.19
432.29	969.19
432.512	951.19
432.734	975.19
432.956	973.19
433.178	965.19
433.4	981.19
433.622	974.19
433.844	987.19
434.066	982.19
434.287	983.19
434.509	1040.19
434.731	1067.19
434.953	1089.19
435.175	1087.19
435.397	1066.19
435.618	1037.19
435.84	1019.19
436.062	991.19
436.284	957.19
436.505	959.19
436.727	985.19
436.949	984.19
437.17	964.19
437.392	941.19
437.614	921.19
437.835	925.19
438.057	911.19
438.278	901.19
438.5	923.19
438.721	924.19
438.943	966.19
439.165	944.19
439.386	951.19
439.608	932.19
439.829	978.19
440.05	947.19
440.272	965.19
440.493	969.19
440.715	984.19
440.936	981.19
441.158	1030.19
441.379	1035.19
441.6	1113.19
441.822	1107.19
442.043	1110.19
442.264	1073.19
442.486	1029.19
442.707	1073.19
442.928	1052.19
443.149	1053.19
443.371	1079.19
443.592	1053.19
443.813	1085.19
444.034	1088.19
444.255	1124.19
444.476	1193.19
444.698	1223.19
444.919	1280.19
445.14	1358.19
445.361	1245.19
445.582	1159.19
445.803	1051.19
446.024	1020.19
446.245	1038.19
446.466	998.19
446.687	965.19
446.908	976.19
447.129	966.19
447.35	929.19
447.571	939.19
447.792	929.19
448.013	916.19
448.234	912.19
448.455	913.19
448.675	865.19
448.896	889.19
449.117	880.19
449.338	875.19
449.559	879.19
449.779	875.19
450	866.19
450.221	879.19
450.442	905.19
450.662	903.19
450.883	878.19
451.104	880.19
451.324	902.19
451.545	920.19
451.766	911.19
451.986	891.19
452.207	889.19
452.428	878.19
452.648	870.19
452.869	857.19
453.089	866.19
453.31	851.19
453.53	847.19
453.751	855.19
453.971	869.19
454.192	847.19
454.412	845.19
454.633	841.19
454.853	837.19
455.073	837.19
455.294	859.19
455.514	828.19
455.734	811.19
455.955	808.19
456.175	819.19
456.395	823.19
456.616	827.19
456.836	847.19
457.056	822.19
457.276	839.19
457.497	837.19
457.717	837.19
457.937	850.19
458.157	849.19
458.377	829.19
458.598	849.19
458.818	929.19
459.038	905.19
459.258	934.19
459.478	991.19
459.698	1037.19
459.918	1055.19
460.138	1064.19
460.358	1152.19
460.578	1151.19
460.798	1160.19
461.018	1175.19
461.238	1167.19
461.458	1159.19
461.678	1168.19
461.898	1152.19
462.118	1165.19
462.338	1211.19
462.558	1263.19
462.777	1331.19
462.997	1469.19
463.217	1534.19
463.437	1538.19
463.657	1446.19
463.876	1373.19
464.096	1391.19
464.316	1355.19
464.536	1397.19
464.755	1337.19
464.975	1257.19
465.195	1199.19
465.414	1128.19
465.634	1043.19
465.854	1025.19
466.073	993.19
466.293	985.19
466.512	945.19
466.732	955.19
466.951	935.19
467.171	933.19
467.391	895.19
467.61	914.19
467.829	912.19
468.049	924.19
468.268	917.19
468.488	881.19
468.707	887.19
468.927	877.19
469.146	888.19
469.365	901.19
469.585	901.19
469.804	916.19
470.023	947.19
470.243	953.19
470.462	951.19
470.681	975.19
470.901	981.19
471.12	982.19
471.339	926.19
471.558	896.19
471.777	906.19
471.997	914.19
472.216	888.19
472.435	901.19
472.654	882.19
472.873	869.19
473.092	863.19
473.311	889.19
473.53	849.19
473.749	859.19
473.968	893.19
474.187	863.19
474.406	864.19
474.625	878.19
474.844	871.19
475.063	863.19
475.282	897.19
475.501	875.19
475.72	888.19
475.939	875.19
476.158	907.19
476.377	889.19
476.596	895.19
476.814	918.19
477.033	905.19
477.252	915.19
477.471	951.19
477.69	957.19
477.908	991.19
478.127	1032.19
478.346	1033.19
478.564	1040.19
478.783	1093.19
479.002	1105.19
479.22	1114.19
479.439	1118.19
479.658	1070.19
479.876	1094.19
480.095	1116.19
480.313	1169.19
480.532	1149.19
480.751	1178.19
480.969	1129.19
481.188	1100.19
481.406	1059.19
481.624	1033.19
481.843	1029.19
482.061	1043.19
482.28	991.19
482.498	989.19
482.717	1000.19
482.935	981.19
483.153	967.19
483.372	1031.19
483.59	1004.19
483.808	980.19
484.027	1005.19
484.245	996.19
484.463	1015.19
484.681	1027.19
484.9	1038.19
485.118	1023.19
485.336	1037.19
485.554	1013.19
485.772	1063.19
485.99	1059.19
486.209	1038.19
486.427	1063.19
486.645	1064.19
486.863	1056.19
487.081	1047.19
487.299	1069.19
487.517	1035.19
487.735	1032.19
487.953	1055.19
488.171	1033.19
488.389	1044.19
488.607	1039.19
488.825	1033.19
489.043	1018.19
489.261	1027.19
489.479	1023.19
489.696	1024.19
489.914	1023.19
490.132	1009.19
490.35	1050.19
490.568	1069.19
490.786	1071.19
491.003	1061.19
491.221	1056.19
491.439	1069.19
491.657	1061.19
491.874	1059.19
492.092	1090.19
492.31	1083.19
492.527	1068.19
492.745	1070.19
492.963	1089.19
493.18	1072.19
493.398	1063.19
493.615	1114.19
493.833	1074.19
494.05	1121.19
494.268	1085.19
494.485	1118.19
494.703	1164.19
494.92	1092.19
495.138	1123.19
495.355	1126.19
495.573	1147.19
495.79	1144.19
496.008	1096.19
496.225	1141.19
496.442	1185.19
496.66	1162.19
496.877	1173.19
497.094	1205.19
497.312	1241.19
497.529	1231.19
497.746	1307.19
