Data from NiCl2@0.0625M.TitratingCurve.Agarose3%dH2O.NegLispCup.LampEnergy10.LIBS07252019_HRD10591_18-33-34-576.txt Node
Date: Thu Jul 25 18:33:34 EDT 2019
User: cochatt
Spectrometer: HR+D1059
Trigger mode: 1
Integration Time (sec): 1.000000E-1
Scans to average: 1
Electric dark correction enabled: true
Nonlinearity correction enabled: false
Boxcar width: 0
XAxis mode: Wavelengths
Number of Pixels in Spectrum: 2048
>>>>>Begin Spectral Data<<<<<
223.165	-18
223.4	-18
223.635	-18
223.869	-18
224.104	-22
224.338	-24
224.573	-16
224.808	-11
225.042	-26
225.277	-13
225.511	-9
225.746	15
225.98	10
226.215	23
226.449	28
226.683	31
226.918	19
227.152	31
227.387	19
227.621	37
227.856	54
228.09	39
228.324	31
228.559	50
228.793	80
229.027	137
229.262	154
229.496	169
229.73	165
229.964	172
230.199	181
230.433	176
230.667	169
230.901	182
231.136	190
231.37	193
231.604	189
231.838	198
232.072	193
232.306	199
232.541	199
232.775	212
233.009	183
233.243	209
233.477	200
233.711	201
233.945	214
234.179	217
234.413	226
234.647	211
234.881	219
235.115	221
235.349	212
235.583	220
235.817	232
236.051	220
236.285	230
236.519	245
236.753	243
236.987	233
237.221	228
237.455	233
237.689	252
237.922	226
238.156	254
238.39	247
238.624	255
238.858	274
239.091	264
239.325	264
239.559	261
239.793	263
240.027	275
240.26	270
240.494	281
240.728	293
240.961	302
241.195	289
241.429	293
241.662	291
241.896	302
242.13	305
242.363	288
242.597	301
242.83	305
243.064	327
243.298	313
243.531	324
243.765	315
243.998	328
244.232	343
244.465	347
244.699	346
244.932	347
245.166	347
245.399	372
245.633	362
245.866	341
246.099	352
246.333	356
246.566	339
246.8	354
247.033	370
247.266	369
247.5	370
247.733	379
247.966	381
248.2	389
248.433	391
248.666	390
248.899	391
249.133	389
249.366	394
249.599	405
249.832	410
250.066	405
250.299	395
250.532	418
250.765	407
250.998	408
251.231	410
251.465	413
251.698	428
251.931	443
252.164	431
252.397	452
252.63	441
252.863	441
253.096	450
253.329	440
253.562	423
253.795	459
254.028	477
254.261	462
254.494	487
254.727	473
254.96	466
255.193	458
255.426	470
255.659	477
255.892	484
256.124	493
256.357	479
256.59	500
256.823	500
257.056	493
257.289	474
257.521	479
257.754	490
257.987	540
258.22	526
258.452	523
258.685	515
258.918	514
259.151	519
259.383	529
259.616	511
259.849	530
260.081	542
260.314	547
260.547	535
260.779	536
261.012	541
261.244	555
261.477	553
261.71	560
261.942	540
262.175	535
262.407	557
262.64	537
262.872	563
263.105	544
263.337	575
263.57	543
263.802	599
264.035	597
264.267	587
264.499	607
264.732	585
264.964	599
265.197	577
265.429	583
265.661	602
265.894	594
266.126	617
266.358	597
266.591	611
266.823	584
267.055	616
267.287	603
267.52	595
267.752	626
267.984	628
268.216	623
268.448	629
268.681	645
268.913	629
269.145	631
269.377	669
269.609	639
269.841	647
270.073	631
270.306	615
270.538	654
270.77	639
271.002	644
271.234	660
271.466	671
271.698	672
271.93	666
272.162	683
272.394	672
272.626	673
272.858	698
273.09	691
273.322	698
273.553	685
273.785	693
274.017	693
274.249	702
274.481	714
274.713	697
274.945	692
275.176	710
275.408	723
275.64	732
275.872	712
276.104	753
276.335	753
276.567	739
276.799	732
277.031	767
277.262	719
277.494	732
277.726	721
277.957	776
278.189	763
278.421	764
278.652	770
278.884	796
279.115	803
279.347	787
279.579	777
279.81	789
280.042	785
280.273	792
280.505	790
280.736	786
280.968	777
281.199	789
281.431	832
281.662	842
281.894	828
282.125	809
282.356	827
282.588	837
282.819	811
283.051	832
283.282	828
283.513	822
283.745	856
283.976	849
284.207	841
284.439	820
284.67	860
284.901	824
285.132	842
285.364	891
285.595	875
285.826	875
286.057	843
286.288	876
286.52	866
286.751	901
286.982	899
287.213	866
287.444	877
287.675	897
287.906	902
288.138	894
288.369	905
288.6	887
288.831	892
289.062	916
289.293	927
289.524	899
289.755	901
289.986	917
290.217	907
290.448	962
290.679	895
290.91	917
291.141	902
291.371	895
291.602	925
291.833	900
292.064	934
292.295	949
292.526	898
292.757	930
292.987	934
293.218	892
293.449	925
293.68	920
293.91	945
294.141	899
294.372	903
294.603	928
294.833	936
295.064	931
295.295	967
295.525	946
295.756	951
295.987	935
296.217	980
296.448	958
296.679	957
296.909	968
297.14	938
297.37	1001
297.601	1001
297.831	1008
298.062	981
298.292	982
298.523	1038
298.753	1046
298.984	1011
299.214	1017
299.445	995
299.675	1011
299.905	992
300.136	996
300.366	1022
300.597	1024
300.827	1031
301.057	1036
301.288	1055
301.518	1039
301.748	1048
301.979	1071
302.209	1049
302.439	1063
302.669	1056
302.9	1072
303.13	1028
303.36	1076
303.59	1040
303.82	1016
304.051	1068
304.281	1073
304.511	1041
304.741	1062
304.971	1050
305.201	1089
305.431	1073
305.661	1064
305.891	1041
306.121	1037
306.352	1045
306.582	1071
306.812	1040
307.042	1040
307.272	1057
307.502	1033
307.731	1030
307.961	1049
308.191	1045
308.421	1002
308.651	1062
308.881	1053
309.111	1023
309.341	1045
309.571	1046
309.8	1033
310.03	1045
310.26	1055
310.49	1057
310.72	1053
310.949	1039
311.179	1062
311.409	1057
311.639	1064
311.868	1074
312.098	1118
312.328	1088
312.557	1096
312.787	1083
313.017	1084
313.246	1164
313.476	1117
313.706	1108
313.935	1132
314.165	1131
314.394	1117
314.624	1148
314.853	1123
315.083	1115
315.312	1143
315.542	1096
315.771	1097
316.001	1125
316.23	1131
316.46	1126
316.689	1110
316.919	1115
317.148	1132
317.377	1145
317.607	1117
317.836	1108
318.065	1100
318.295	1138
318.524	1123
318.753	1129
318.983	1111
319.212	1121
319.441	1132
319.67	1116
319.9	1121
320.129	1131
320.358	1115
320.587	1080
320.816	1136
321.046	1151
321.275	1112
321.504	1112
321.733	1139
321.962	1131
322.191	1137
322.42	1157
322.649	1158
322.878	1144
323.108	1172
323.337	1165
323.566	1149
323.795	1137
324.024	1155
324.253	1160
324.482	1157
324.71	1145
324.939	1186
325.168	1163
325.397	1147
325.626	1181
325.855	1193
326.084	1217
326.313	1230
326.542	1216
326.77	1227
326.999	1236
327.228	1215
327.457	1165
327.686	1235
327.914	1216
328.143	1253
328.372	1212
328.6	1221
328.829	1217
329.058	1236
329.287	1210
329.515	1214
329.744	1250
329.972	1259
330.201	1228
330.43	1262
330.658	1276
330.887	1250
331.115	1299
331.344	1277
331.572	1308
331.801	1327
332.03	1337
332.258	1345
332.486	1393
332.715	1429
332.943	1455
333.172	1450
333.4	1506
333.629	1537
333.857	1592
334.085	1599
334.314	1527
334.542	1560
334.771	1528
334.999	1504
335.227	1534
335.455	1503
335.684	1513
335.912	1521
336.14	1473
336.369	1474
336.597	1496
336.825	1466
337.053	1453
337.281	1459
337.51	1391
337.738	1414
337.966	1356
338.194	1382
338.422	1348
338.65	1339
338.878	1366
339.106	1339
339.334	1359
339.562	1317
339.79	1310
340.018	1282
340.246	1265
340.474	1257
340.702	1284
340.93	1291
341.158	1294
341.386	1269
341.614	1287
341.842	1312
342.07	1308
342.298	1313
342.526	1280
342.754	1285
342.981	1253
343.209	1327
343.437	1351
343.665	1390
343.893	1448
344.12	1491
344.348	1499
344.576	1416
344.804	1392
345.031	1332
345.259	1304
345.487	1299
345.714	1294
345.942	1296
346.17	1265
346.397	1251
346.625	1245
346.853	1215
347.08	1212
347.308	1221
347.535	1221
347.763	1215
347.99	1255
348.218	1236
348.445	1223
348.673	1195
348.9	1200
349.128	1209
349.355	1196
349.583	1213
349.81	1209
350.037	1186
350.265	1212
350.492	1223
350.72	1199
350.947	1211
351.174	1203
351.402	1203
351.629	1206
351.856	1195
352.083	1148
352.311	1191
352.538	1176
352.765	1186
352.992	1184
353.22	1164
353.447	1181
353.674	1165
353.901	1180
354.128	1195
354.355	1187
354.583	1175
354.81	1191
355.037	1200
355.264	1188
355.491	1207
355.718	1207
355.945	1208
356.172	1208
356.399	1204
356.626	1211
356.853	1211
357.08	1187
357.307	1203
357.534	1206
357.761	1216
357.988	1202
358.215	1159
358.441	1177
358.668	1176
358.895	1205
359.122	1184
359.349	1201
359.576	1185
359.802	1194
360.029	1190
360.256	1188
360.483	1185
360.709	1194
360.936	1206
361.163	1196
361.39	1153
361.616	1173
361.843	1184
362.07	1217
362.296	1211
362.523	1186
362.749	1183
362.976	1218
363.203	1212
363.429	1184
363.656	1194
363.882	1201
364.109	1197
364.335	1209
364.562	1193
364.788	1190
365.015	1199
365.241	1147
365.468	1185
365.694	1192
365.92	1197
366.147	1168
366.373	1213
366.599	1165
366.826	1192
367.052	1183
367.278	1199
367.505	1191
367.731	1189
367.957	1206
368.184	1221
368.41	1235
368.636	1207
368.862	1215
369.089	1214
369.315	1226
369.541	1239
369.767	1219
369.993	1219
370.219	1247
370.445	1281
370.672	1238
370.898	1257
371.124	1295
371.35	1297
371.576	1269
371.802	1317
372.028	1318
372.254	1324
372.48	1302
372.706	1308
372.932	1307
373.158	1316
373.384	1316
373.61	1294
373.835	1302
374.061	1304
374.287	1264
374.513	1371
374.739	1403
374.965	1395
375.191	1402
375.416	1436
375.642	1380
375.868	1324
376.094	1340
376.319	1313
376.545	1291
376.771	1340
376.997	1309
377.222	1281
377.448	1283
377.674	1285
377.899	1288
378.125	1260
378.35	1270
378.576	1285
378.802	1298
379.027	1294
379.253	1240
379.478	1265
379.704	1277
379.929	1263
380.155	1281
380.38	1268
380.606	1313
380.831	1300
381.057	1308
381.282	1307
381.507	1279
381.733	1283
381.958	1292
382.184	1352
382.409	1321
382.634	1353
382.86	1369
383.085	1373
383.31	1381
383.535	1405
383.761	1404
383.986	1425
384.211	1440
384.436	1465
384.662	1485
384.887	1492
385.112	1464
385.337	1511
385.562	1513
385.787	1511
386.013	1572
386.238	1530
386.463	1565
386.688	1564
386.913	1506
387.138	1556
387.363	1553
387.588	1522
387.813	1511
388.038	1511
388.263	1541
388.488	1532
388.713	1547
388.938	1538
389.163	1495
389.387	1530
389.612	1540
389.837	1523
390.062	1485
390.287	1508
390.512	1561
390.736	1543
390.961	1570
391.186	1564
391.411	1589
391.636	1661
391.86	1703
392.085	1678
392.31	1686
392.534	1668
392.759	1681
392.984	1634
393.208	1654
393.433	1654
393.658	1658
393.882	1603
394.107	1617
394.331	1626
394.556	1631
394.78	1621
395.005	1628
395.229	1626
395.454	1725
395.678	1724
395.903	1693
396.127	1693
396.352	1675
396.576	1643
396.801	1676
397.025	1669
397.249	1692
397.474	1683
397.698	1724
397.922	1743
398.147	1731
398.371	1768
398.595	1858
398.82	1932
399.044	2001
399.268	2135
399.492	2424
399.717	2617
399.941	2656
400.165	2446
400.389	2263
400.613	2119
400.837	2019
401.062	1988
401.286	1959
401.51	1958
401.734	1938
401.958	1946
402.182	1904
402.406	1918
402.63	1952
402.854	1995
403.078	1945
403.302	1989
403.526	1987
403.75	2046
403.974	2073
404.198	2074
404.422	2108
404.645	2111
404.869	2064
405.093	2072
405.317	2019
405.541	2083
405.765	2051
405.988	2062
406.212	2044
406.436	2071
406.66	2145
406.883	2168
407.107	2284
407.331	2333
407.555	2407
407.778	2365
408.002	2348
408.226	2283
408.449	2267
408.673	2195
408.896	2150
409.12	2068
409.344	2148
409.567	2082
409.791	2089
410.014	2085
410.238	2080
410.461	2119
410.685	2074
410.908	2051
411.132	1984
411.355	1978
411.578	2021
411.802	1983
412.025	1994
412.249	2020
412.472	2011
412.695	1937
412.919	1955
413.142	1922
413.365	1977
413.589	1954
413.812	1904
414.035	1883
414.258	1881
414.482	1860
414.705	1954
414.928	1913
415.151	1939
415.374	1918
415.597	1892
415.821	1851
416.044	1835
416.267	1827
416.49	1830
416.713	1820
416.936	1837
417.159	1823
417.382	1809
417.605	1799
417.828	1846
418.051	1844
418.274	1877
418.497	1832
418.72	1880
418.943	1866
419.166	1996
419.389	2116
419.611	2067
419.834	1979
420.057	1929
420.28	1865
420.503	1831
420.726	1831
420.948	1804
421.171	1841
421.394	1835
421.617	1799
421.839	1822
422.062	1825
422.285	1821
422.507	1883
422.73	1862
422.953	1879
423.175	1897
423.398	1871
423.621	1835
423.843	1918
424.066	1881
424.288	1861
424.511	1871
424.733	1850
424.956	1869
425.178	1884
425.401	1868
425.623	1848
425.846	1794
426.068	1778
426.291	1767
426.513	1759
426.735	1749
426.958	1809
427.18	1657
427.402	1770
427.625	1719
427.847	1660
428.069	1683
428.292	1715
428.514	1678
428.736	1649
428.958	1676
429.181	1667
429.403	1660
429.625	1627
429.847	1651
430.069	1637
430.292	1665
430.514	1641
430.736	1644
430.958	1665
431.18	1628
431.402	1690
431.624	1675
431.846	1673
432.068	1690
432.29	1728
432.512	1691
432.734	1703
432.956	1692
433.178	1722
433.4	1705
433.622	1687
433.844	1731
434.066	1724
434.287	1757
434.509	1752
434.731	1837
434.953	1826
435.175	1861
435.397	1841
435.618	1806
435.84	1762
436.062	1673
436.284	1692
436.505	1663
436.727	1687
436.949	1650
437.17	1691
437.392	1673
437.614	1639
437.835	1573
438.057	1606
438.278	1575
438.5	1591
438.721	1581
438.943	1623
439.165	1573
439.386	1629
439.608	1658
439.829	1623
440.05	1637
440.272	1674
440.493	1641
440.715	1691
440.936	1727
441.158	1769
441.379	1733
441.6	1833
441.822	1807
442.043	1800
442.264	1752
442.486	1757
442.707	1749
442.928	1744
443.149	1792
443.371	1751
443.592	1773
443.813	1773
444.034	1834
444.255	1851
444.476	1956
444.698	1978
444.919	2045
445.14	2160
445.361	1988
445.582	1847
445.803	1835
446.024	1767
446.245	1742
446.466	1721
446.687	1649
446.908	1672
447.129	1637
447.35	1624
447.571	1552
447.792	1539
448.013	1554
448.234	1544
448.455	1523
448.675	1482
448.896	1491
449.117	1460
449.338	1455
449.559	1499
449.779	1434
450	1428
450.221	1452
450.442	1492
450.662	1485
450.883	1520
451.104	1516
451.324	1522
451.545	1441
451.766	1479
451.986	1441
452.207	1471
452.428	1460
452.648	1451
452.869	1418
453.089	1435
453.31	1454
453.53	1393
453.751	1443
453.971	1440
454.192	1453
454.412	1425
454.633	1400
454.853	1425
455.073	1384
455.294	1431
455.514	1387
455.734	1391
455.955	1401
456.175	1409
456.395	1394
456.616	1388
456.836	1399
457.056	1385
457.276	1367
457.497	1419
457.717	1420
457.937	1409
458.157	1416
458.377	1427
458.598	1472
458.818	1537
459.038	1516
459.258	1586
459.478	1655
459.698	1672
459.918	1729
460.138	1753
460.358	1828
460.578	1849
460.798	1864
461.018	1879
461.238	1839
461.458	1846
461.678	1869
461.898	1882
462.118	1895
462.338	2020
462.558	2051
462.777	2070
462.997	2240
463.217	2321
463.437	2365
463.657	2261
463.876	2174
464.096	2143
464.316	2143
464.536	2174
464.755	2097
464.975	2044
465.195	1948
465.414	1865
465.634	1749
465.854	1724
466.073	1683
466.293	1659
466.512	1617
466.732	1587
466.951	1591
467.171	1547
467.391	1557
467.61	1560
467.829	1576
468.049	1542
468.268	1464
468.488	1484
468.707	1471
468.927	1505
469.146	1494
469.365	1516
469.585	1540
469.804	1537
470.023	1573
470.243	1599
470.462	1651
470.681	1606
470.901	1612
471.12	1589
471.339	1591
471.558	1537
471.777	1533
471.997	1523
472.216	1535
472.435	1530
472.654	1528
472.873	1509
473.092	1501
473.311	1501
473.53	1495
473.749	1519
473.968	1505
474.187	1481
474.406	1485
474.625	1516
474.844	1509
475.063	1535
475.282	1535
475.501	1541
475.72	1526
475.939	1541
476.158	1567
476.377	1569
476.596	1581
476.814	1611
477.033	1593
477.252	1608
477.471	1660
477.69	1691
477.908	1737
478.127	1717
478.346	1809
478.564	1791
478.783	1852
479.002	1815
479.22	1860
479.439	1852
479.658	1906
479.876	1898
480.095	1880
480.313	1970
480.532	2005
480.751	1928
480.969	1944
481.188	1921
481.406	1882
481.624	1898
481.843	1849
482.061	1797
482.28	1818
482.498	1836
482.717	1855
482.935	1857
483.153	1875
483.372	1831
483.59	1852
483.808	1873
484.027	1899
484.245	1884
484.463	1941
484.681	1937
484.9	1953
485.118	2015
485.336	1984
485.554	2028
485.772	2047
485.99	1981
486.209	1997
486.427	2022
486.645	2028
486.863	2027
487.081	2008
487.299	1985
487.517	1968
487.735	1960
487.953	1990
488.171	1939
488.389	1927
488.607	1920
488.825	1929
489.043	1897
489.261	1937
489.479	1906
489.696	1909
489.914	1943
490.132	1909
490.35	1951
490.568	1875
490.786	1900
491.003	1900
491.221	1913
491.439	1913
491.657	1871
491.874	1927
492.092	1925
492.31	1859
492.527	1895
492.745	1874
492.963	1929
493.18	1901
493.398	1917
493.615	1935
493.833	1881
494.05	1882
494.268	1866
494.485	1916
494.703	1942
494.92	1898
495.138	1895
495.355	1943
495.573	1943
495.79	1970
496.008	2005
496.225	1969
496.442	1986
496.66	1998
496.877	2052
497.094	2054
497.312	2091
497.529	2177
497.746	2220
497.963	2229
498.181	2327
498.398	2400
498.615	2490
498.832	2678
499.049	2859
499.267	3072
499.484	3316
499.701	3589
499.918	3879
500.135	4232
500.352	4645
500.569	4778
500.786	4772
501.003	4530
501.22	4159
501.437	3848
501.654	3552
501.871	3193
502.088	2927
502.305	2807
502.522	2676
502.739	2607
502.956	2441
503.172	2388
503.389	2301
503.606	2193
503.823	2160
504.04	2175
504.256	2168
504.473	2194
504.69	2187
504.907	2148
505.123	2026
505.34	1993
505.557	1919
505.773	1824
505.99	1783
506.207	1768
506.423	1739
506.64	1721
506.856	1732
507.073	1653
507.289	1703
507.506	1668
507.722	1661
507.939	1607
508.155	1609
508.372	1584
508.588	1579
508.805	1551
509.021	1600
509.238	1540
509.454	1571
509.67	1515
509.887	1545
510.103	1501
510.319	1515
510.536	1510
510.752	1469
510.968	1495
511.184	1490
511.401	1489
511.617	1502
511.833	1494
512.049	1499
512.265	1483
512.481	1502
512.698	1498
512.914	1515
513.13	1490
513.346	1487
513.562	1539
513.778	1511
513.994	1579
514.21	1532
514.426	1528
514.642	1514
514.858	1515
515.074	1545
515.29	1544
515.506	1541
515.721	1647
515.937	1627
516.153	1622
516.369	1610
516.585	1695
516.801	1738
517.016	1763
517.232	1860
517.448	1905
517.664	1939
517.879	1913
518.095	1968
518.311	1946
518.527	1843
518.742	1821
518.958	1808
519.173	1693
519.389	1653
519.605	1618
519.82	1549
520.036	1602
520.251	1556
520.467	1509
520.682	1488
520.898	1496
521.113	1492
521.329	1452
521.544	1447
521.76	1429
521.975	1428
522.19	1403
522.406	1401
522.621	1391
522.836	1397
523.052	1377
523.267	1372
523.482	1379
523.698	1364
523.913	1355
524.128	1380
524.343	1378
524.559	1370
524.774	1335
524.989	1359
525.204	1313
525.419	1381
525.634	1365
525.849	1352
526.064	1335
526.28	1315
526.495	1323
526.71	1291
526.925	1287
527.14	1295
527.355	1315
527.57	1308
527.785	1295
527.999	1312
528.214	1309
528.429	1315
528.644	1292
528.859	1270
529.074	1305
529.289	1285
529.503	1341
529.718	1319
529.933	1303
530.148	1322
530.363	1322
530.577	1328
530.792	1316
531.007	1298
531.221	1324
531.436	1308
531.651	1310
531.865	1281
532.08	1309
532.295	1296
532.509	1277
532.724	1282
532.938	1301
533.153	1304
533.367	1307
533.582	1295
533.796	1301
534.011	1312
534.225	1256
534.44	1285
534.654	1288
534.868	1291
535.083	1273
535.297	1273
535.511	1256
535.726	1253
535.94	1246
536.154	1241
536.369	1227
536.583	1190
536.797	1209
537.011	1211
537.225	1219
537.44	1207
537.654	1173
537.868	1218
538.082	1205
538.296	1185
538.51	1188
538.724	1208
538.938	1179
539.153	1175
539.367	1170
539.581	1207
539.795	1170
540.009	1177
540.222	1161
540.436	1159
540.65	1142
540.864	1167
541.078	1195
541.292	1152
541.506	1159
541.72	1149
541.934	1163
542.147	1142
542.361	1144
542.575	1152
542.789	1138
543.002	1133
543.216	1146
543.43	1147
543.644	1109
543.857	1136
544.071	1141
544.285	1145
544.498	1174
544.712	1180
