Data from NiCl2@0.5M.TitratingCurve.Agarose3%dH2O.NegLispCup.LampEnergy10.LIBS07252019_HRD10591_18-20-09-572.txt Node
Date: Thu Jul 25 18:20:09 EDT 2019
User: cochatt
Spectrometer: HR+D1059
Trigger mode: 1
Integration Time (sec): 1.000000E-1
Scans to average: 1
Electric dark correction enabled: true
Nonlinearity correction enabled: false
Boxcar width: 0
XAxis mode: Wavelengths
Number of Pixels in Spectrum: 2048
>>>>>Begin Spectral Data<<<<<
223.165	0.94
223.4	0.94
223.635	0.94
223.869	-0.06
224.104	-22.06
224.338	-27.06
224.573	-22.06
224.808	-15.06
225.042	-8.06
225.277	2.94
225.511	-10.06
225.746	1.94
225.98	-0.06
226.215	10.94
226.449	21.94
226.683	21.94
226.918	21.94
227.152	21.94
227.387	23.94
227.621	39.94
227.856	40.94
228.09	42.94
228.324	47.94
228.559	45.94
228.793	64.94
229.027	89.94
229.262	87.94
229.496	91.94
229.73	102.94
229.964	118.94
230.199	94.94
230.433	117.94
230.667	110.94
230.901	105.94
231.136	109.94
231.37	119.94
231.604	128.94
231.838	127.94
232.072	118.94
232.306	127.94
232.541	120.94
232.775	118.94
233.009	120.94
233.243	123.94
233.477	133.94
233.711	117.94
233.945	131.94
234.179	139.94
234.413	134.94
234.647	124.94
234.881	126.94
235.115	133.94
235.349	125.94
235.583	132.94
235.817	132.94
236.051	137.94
236.285	138.94
236.519	138.94
236.753	141.94
236.987	131.94
237.221	140.94
237.455	134.94
237.689	136.94
237.922	159.94
238.156	139.94
238.39	143.94
238.624	132.94
238.858	134.94
239.091	152.94
239.325	132.94
239.559	141.94
239.793	150.94
240.027	148.94
240.26	142.94
240.494	151.94
240.728	159.94
240.961	141.94
241.195	155.94
241.429	153.94
241.662	143.94
241.896	157.94
242.13	159.94
242.363	155.94
242.597	151.94
242.83	144.94
243.064	160.94
243.298	156.94
243.531	163.94
243.765	163.94
243.998	177.94
244.232	157.94
244.465	167.94
244.699	169.94
244.932	179.94
245.166	169.94
245.399	169.94
245.633	171.94
245.866	176.94
246.099	187.94
246.333	193.94
246.566	198.94
246.8	184.94
247.033	180.94
247.266	169.94
247.5	182.94
247.733	201.94
247.966	195.94
248.2	196.94
248.433	194.94
248.666	197.94
248.899	210.94
249.133	188.94
249.366	207.94
249.599	208.94
249.832	182.94
250.066	194.94
250.299	201.94
250.532	205.94
250.765	199.94
250.998	213.94
251.231	198.94
251.465	212.94
251.698	215.94
251.931	183.94
252.164	197.94
252.397	223.94
252.63	232.94
252.863	205.94
253.096	199.94
253.329	202.94
253.562	227.94
253.795	207.94
254.028	222.94
254.261	217.94
254.494	205.94
254.727	212.94
254.96	227.94
255.193	215.94
255.426	225.94
255.659	235.94
255.892	241.94
256.124	221.94
256.357	226.94
256.59	217.94
256.823	230.94
257.056	230.94
257.289	213.94
257.521	240.94
257.754	231.94
257.987	231.94
258.22	228.94
258.452	232.94
258.685	258.94
258.918	257.94
259.151	226.94
259.383	227.94
259.616	258.94
259.849	231.94
260.081	256.94
260.314	243.94
260.547	243.94
260.779	237.94
261.012	239.94
261.244	249.94
261.477	244.94
261.71	267.94
261.942	269.94
262.175	251.94
262.407	255.94
262.64	268.94
262.872	249.94
263.105	253.94
263.337	264.94
263.57	271.94
263.802	275.94
264.035	242.94
264.267	271.94
264.499	276.94
264.732	250.94
264.964	273.94
265.197	269.94
265.429	280.94
265.661	293.94
265.894	272.94
266.126	298.94
266.358	290.94
266.591	284.94
266.823	286.94
267.055	295.94
267.287	275.94
267.52	287.94
267.752	285.94
267.984	285.94
268.216	290.94
268.448	303.94
268.681	294.94
268.913	280.94
269.145	291.94
269.377	290.94
269.609	295.94
269.841	295.94
270.073	294.94
270.306	308.94
270.538	317.94
270.77	298.94
271.002	293.94
271.234	302.94
271.466	287.94
271.698	309.94
271.93	299.94
272.162	311.94
272.394	306.94
272.626	309.94
272.858	303.94
273.09	323.94
273.322	318.94
273.553	326.94
273.785	322.94
274.017	319.94
274.249	310.94
274.481	344.94
274.713	325.94
274.945	307.94
275.176	308.94
275.408	325.94
275.64	354.94
275.872	339.94
276.104	346.94
276.335	337.94
276.567	323.94
276.799	345.94
277.031	345.94
277.262	338.94
277.494	352.94
277.726	335.94
277.957	350.94
278.189	347.94
278.421	347.94
278.652	333.94
278.884	328.94
279.115	333.94
279.347	353.94
279.579	351.94
279.81	334.94
280.042	344.94
280.273	354.94
280.505	354.94
280.736	343.94
280.968	347.94
281.199	375.94
281.431	369.94
281.662	365.94
281.894	369.94
282.125	374.94
282.356	373.94
282.588	374.94
282.819	390.94
283.051	379.94
283.282	358.94
283.513	369.94
283.745	370.94
283.976	377.94
284.207	376.94
284.439	383.94
284.67	383.94
284.901	373.94
285.132	376.94
285.364	380.94
285.595	383.94
285.826	388.94
286.057	386.94
286.288	382.94
286.52	385.94
286.751	394.94
286.982	402.94
287.213	398.94
287.444	387.94
287.675	390.94
287.906	383.94
288.138	382.94
288.369	414.94
288.6	405.94
288.831	403.94
289.062	392.94
289.293	410.94
289.524	409.94
289.755	421.94
289.986	416.94
290.217	419.94
290.448	423.94
290.679	410.94
290.91	411.94
291.141	432.94
291.371	417.94
291.602	407.94
291.833	401.94
292.064	421.94
292.295	423.94
292.526	430.94
292.757	430.94
292.987	399.94
293.218	413.94
293.449	411.94
293.68	411.94
293.91	399.94
294.141	420.94
294.372	437.94
294.603	425.94
294.833	443.94
295.064	407.94
295.295	427.94
295.525	424.94
295.756	437.94
295.987	415.94
296.217	436.94
296.448	421.94
296.679	439.94
296.909	437.94
297.14	433.94
297.37	435.94
297.601	465.94
297.831	429.94
298.062	439.94
298.292	454.94
298.523	475.94
298.753	481.94
298.984	450.94
299.214	459.94
299.445	446.94
299.675	472.94
299.905	459.94
300.136	455.94
300.366	478.94
300.597	480.94
300.827	479.94
301.057	477.94
301.288	473.94
301.518	498.94
301.748	467.94
301.979	492.94
302.209	488.94
302.439	470.94
302.669	464.94
302.9	479.94
303.13	469.94
303.36	472.94
303.59	468.94
303.82	493.94
304.051	496.94
304.281	463.94
304.511	484.94
304.741	494.94
304.971	488.94
305.201	502.94
305.431	498.94
305.661	494.94
305.891	471.94
306.121	476.94
306.352	481.94
306.582	485.94
306.812	470.94
307.042	479.94
307.272	472.94
307.502	464.94
307.731	478.94
307.961	467.94
308.191	484.94
308.421	479.94
308.651	481.94
308.881	485.94
309.111	465.94
309.341	460.94
309.571	488.94
309.8	465.94
310.03	474.94
310.26	486.94
310.49	482.94
310.72	497.94
310.949	490.94
311.179	482.94
311.409	504.94
311.639	490.94
311.868	488.94
312.098	483.94
312.328	509.94
312.557	511.94
312.787	502.94
313.017	513.94
313.246	522.94
313.476	525.94
313.706	529.94
313.935	516.94
314.165	527.94
314.394	545.94
314.624	496.94
314.853	520.94
315.083	518.94
315.312	507.94
315.542	498.94
315.771	509.94
316.001	509.94
316.23	509.94
316.46	506.94
316.689	505.94
316.919	523.94
317.148	509.94
317.377	507.94
317.607	525.94
317.836	501.94
318.065	517.94
318.295	496.94
318.524	508.94
318.753	507.94
318.983	498.94
319.212	511.94
319.441	501.94
319.67	503.94
319.9	531.94
320.129	524.94
320.358	508.94
320.587	506.94
320.816	521.94
321.046	527.94
321.275	507.94
321.504	510.94
321.733	529.94
321.962	509.94
322.191	532.94
322.42	526.94
322.649	546.94
322.878	530.94
323.108	522.94
323.337	534.94
323.566	534.94
323.795	541.94
324.024	543.94
324.253	509.94
324.482	521.94
324.71	531.94
324.939	523.94
325.168	535.94
325.397	536.94
325.626	546.94
325.855	545.94
326.084	554.94
326.313	551.94
326.542	560.94
326.77	580.94
326.999	578.94
327.228	542.94
327.457	550.94
327.686	538.94
327.914	554.94
328.143	577.94
328.372	559.94
328.6	559.94
328.829	579.94
329.058	542.94
329.287	547.94
329.515	548.94
329.744	561.94
329.972	547.94
330.201	590.94
330.43	583.94
330.658	609.94
330.887	574.94
331.115	598.94
331.344	604.94
331.572	603.94
331.801	631.94
332.03	613.94
332.258	634.94
332.486	637.94
332.715	649.94
332.943	686.94
333.172	711.94
333.4	734.94
333.629	731.94
333.857	734.94
334.085	743.94
334.314	721.94
334.542	697.94
334.771	710.94
334.999	715.94
335.227	670.94
335.455	664.94
335.684	693.94
335.912	698.94
336.14	651.94
336.369	681.94
336.597	664.94
336.825	664.94
337.053	682.94
337.281	679.94
337.51	647.94
337.738	664.94
337.966	632.94
338.194	637.94
338.422	609.94
338.65	613.94
338.878	617.94
339.106	615.94
339.334	630.94
339.562	605.94
339.79	612.94
340.018	600.94
340.246	580.94
340.474	605.94
340.702	592.94
340.93	609.94
341.158	594.94
341.386	614.94
341.614	617.94
341.842	604.94
342.07	597.94
342.298	565.94
342.526	580.94
342.754	590.94
342.981	590.94
343.209	597.94
343.437	616.94
343.665	666.94
343.893	674.94
344.12	729.94
344.348	706.94
344.576	650.94
344.804	642.94
345.031	581.94
345.259	598.94
345.487	595.94
345.714	594.94
345.942	600.94
346.17	605.94
346.397	629.94
346.625	569.94
346.853	571.94
347.08	571.94
347.308	567.94
347.535	578.94
347.763	575.94
347.99	594.94
348.218	560.94
348.445	586.94
348.673	569.94
348.9	558.94
349.128	551.94
349.355	566.94
349.583	567.94
349.81	555.94
350.037	533.94
350.265	549.94
350.492	550.94
350.72	552.94
350.947	538.94
351.174	562.94
351.402	549.94
351.629	567.94
351.856	550.94
352.083	539.94
352.311	551.94
352.538	548.94
352.765	552.94
352.992	524.94
353.22	548.94
353.447	530.94
353.674	527.94
353.901	513.94
354.128	511.94
354.355	537.94
354.583	532.94
354.81	531.94
355.037	549.94
355.264	531.94
355.491	546.94
355.718	557.94
355.945	554.94
356.172	540.94
356.399	554.94
356.626	561.94
356.853	557.94
357.08	554.94
357.307	529.94
357.534	541.94
357.761	563.94
357.988	550.94
358.215	539.94
358.441	531.94
358.668	559.94
358.895	543.94
359.122	518.94
359.349	518.94
359.576	557.94
359.802	558.94
360.029	547.94
360.256	541.94
360.483	540.94
360.709	523.94
360.936	534.94
361.163	552.94
361.39	547.94
361.616	526.94
361.843	541.94
362.07	559.94
362.296	543.94
362.523	542.94
362.749	528.94
362.976	543.94
363.203	547.94
363.429	551.94
363.656	532.94
363.882	532.94
364.109	547.94
364.335	535.94
364.562	549.94
364.788	526.94
365.015	539.94
365.241	547.94
365.468	524.94
365.694	537.94
365.92	527.94
366.147	534.94
366.373	545.94
366.599	545.94
366.826	534.94
367.052	537.94
367.278	554.94
367.505	552.94
367.731	546.94
367.957	541.94
368.184	534.94
368.41	534.94
368.636	548.94
368.862	543.94
369.089	547.94
369.315	549.94
369.541	547.94
369.767	540.94
369.993	570.94
370.219	579.94
370.445	554.94
370.672	550.94
370.898	546.94
371.124	551.94
371.35	570.94
371.576	560.94
371.802	570.94
372.028	566.94
372.254	560.94
372.48	577.94
372.706	593.94
372.932	603.94
373.158	582.94
373.384	583.94
373.61	584.94
373.835	588.94
374.061	600.94
374.287	594.94
374.513	585.94
374.739	597.94
374.965	631.94
375.191	624.94
375.416	617.94
375.642	615.94
375.868	587.94
376.094	580.94
376.319	580.94
376.545	585.94
376.771	559.94
376.997	587.94
377.222	598.94
377.448	566.94
377.674	578.94
377.899	570.94
378.125	558.94
378.35	591.94
378.576	551.94
378.802	557.94
379.027	545.94
379.253	562.94
379.478	577.94
379.704	577.94
379.929	572.94
380.155	579.94
380.38	580.94
380.606	575.94
380.831	557.94
381.057	574.94
381.282	536.94
381.507	577.94
381.733	586.94
381.958	584.94
382.184	584.94
382.409	607.94
382.634	605.94
382.86	582.94
383.085	614.94
383.31	594.94
383.535	602.94
383.761	603.94
383.986	603.94
384.211	631.94
384.436	651.94
384.662	671.94
384.887	657.94
385.112	645.94
385.337	650.94
385.562	669.94
385.787	676.94
386.013	683.94
386.238	698.94
386.463	671.94
386.688	698.94
386.913	680.94
387.138	676.94
387.363	658.94
387.588	659.94
387.813	674.94
388.038	678.94
388.263	643.94
388.488	671.94
388.713	679.94
388.938	660.94
389.163	655.94
389.387	661.94
389.612	661.94
389.837	651.94
390.062	666.94
390.287	675.94
390.512	679.94
390.736	682.94
390.961	673.94
391.186	713.94
391.411	703.94
391.636	728.94
391.86	734.94
392.085	743.94
392.31	737.94
392.534	734.94
392.759	717.94
392.984	708.94
393.208	721.94
393.433	683.94
393.658	714.94
393.882	710.94
394.107	721.94
394.331	697.94
394.556	723.94
394.78	730.94
395.005	732.94
395.229	728.94
395.454	734.94
395.678	751.94
395.903	721.94
396.127	747.94
396.352	708.94
396.576	716.94
396.801	711.94
397.025	715.94
397.249	744.94
397.474	795.94
397.698	771.94
397.922	771.94
398.147	739.94
398.371	762.94
398.595	792.94
398.82	830.94
399.044	873.94
399.268	951.94
399.492	1090.94
399.717	1231.94
399.941	1191.94
400.165	1053.94
400.389	953.94
400.613	913.94
400.837	886.94
401.062	862.94
401.286	846.94
401.51	838.94
401.734	832.94
401.958	829.94
402.182	837.94
402.406	851.94
402.63	855.94
402.854	907.94
403.078	889.94
403.302	910.94
403.526	919.94
403.75	938.94
403.974	946.94
404.198	950.94
404.422	936.94
404.645	913.94
404.869	919.94
405.093	939.94
405.317	926.94
405.541	922.94
405.765	886.94
405.988	917.94
406.212	936.94
406.436	895.94
406.66	932.94
406.883	938.94
407.107	999.94
407.331	1035.94
407.555	1079.94
407.778	1066.94
408.002	1039.94
408.226	1022.94
408.449	996.94
408.673	956.94
408.896	934.94
409.12	931.94
409.344	982.94
409.567	940.94
409.791	957.94
410.014	928.94
410.238	941.94
410.461	922.94
410.685	915.94
410.908	909.94
411.132	877.94
411.355	866.94
411.578	886.94
411.802	850.94
412.025	900.94
412.249	889.94
412.472	886.94
412.695	842.94
412.919	821.94
413.142	867.94
413.365	845.94
413.589	878.94
413.812	845.94
414.035	815.94
414.258	853.94
414.482	845.94
414.705	882.94
414.928	862.94
415.151	861.94
415.374	866.94
415.597	850.94
415.821	817.94
416.044	837.94
416.267	838.94
416.49	829.94
416.713	825.94
416.936	840.94
417.159	807.94
417.382	821.94
417.605	857.94
417.828	842.94
418.051	804.94
418.274	817.94
418.497	828.94
418.72	835.94
418.943	866.94
419.166	888.94
419.389	934.94
419.611	955.94
419.834	888.94
420.057	870.94
420.28	869.94
420.503	825.94
420.726	821.94
420.948	830.94
421.171	849.94
421.394	846.94
421.617	845.94
421.839	817.94
422.062	853.94
422.285	844.94
422.507	870.94
422.73	871.94
422.953	863.94
423.175	874.94
423.398	882.94
423.621	877.94
423.843	882.94
424.066	881.94
424.288	881.94
424.511	890.94
424.733	839.94
424.956	858.94
425.178	856.94
425.401	842.94
425.623	831.94
425.846	830.94
426.068	792.94
426.291	811.94
426.513	811.94
426.735	820.94
426.958	819.94
427.18	775.94
427.402	788.94
427.625	786.94
427.847	805.94
428.069	756.94
428.292	765.94
428.514	768.94
428.736	766.94
428.958	774.94
429.181	745.94
429.403	734.94
429.625	741.94
429.847	733.94
430.069	741.94
430.292	746.94
430.514	751.94
430.736	753.94
430.958	749.94
431.18	753.94
431.402	759.94
431.624	770.94
431.846	758.94
432.068	793.94
432.29	806.94
432.512	778.94
432.734	797.94
432.956	773.94
433.178	785.94
433.4	769.94
433.622	789.94
433.844	789.94
434.066	763.94
434.287	791.94
434.509	823.94
434.731	837.94
434.953	872.94
435.175	877.94
435.397	847.94
435.618	798.94
435.84	815.94
436.062	802.94
436.284	781.94
436.505	771.94
436.727	782.94
436.949	778.94
437.17	776.94
437.392	769.94
437.614	749.94
437.835	754.94
438.057	769.94
438.278	751.94
438.5	732.94
438.721	736.94
438.943	751.94
439.165	753.94
439.386	771.94
439.608	763.94
439.829	784.94
440.05	786.94
440.272	798.94
440.493	789.94
440.715	800.94
440.936	802.94
441.158	811.94
441.379	857.94
441.6	870.94
441.822	876.94
442.043	879.94
442.264	850.94
442.486	821.94
442.707	855.94
442.928	853.94
443.149	854.94
443.371	847.94
443.592	874.94
443.813	848.94
444.034	897.94
444.255	921.94
444.476	956.94
444.698	1005.94
444.919	1002.94
445.14	1074.94
445.361	926.94
445.582	890.94
445.803	861.94
446.024	836.94
446.245	813.94
446.466	833.94
446.687	815.94
446.908	857.94
447.129	785.94
447.35	773.94
447.571	731.94
447.792	741.94
448.013	738.94
448.234	743.94
448.455	717.94
448.675	723.94
448.896	740.94
449.117	728.94
449.338	723.94
449.559	713.94
449.779	733.94
450	720.94
450.221	725.94
450.442	726.94
450.662	738.94
450.883	744.94
451.104	736.94
451.324	737.94
451.545	744.94
451.766	731.94
451.986	704.94
452.207	707.94
452.428	671.94
452.648	727.94
452.869	705.94
453.089	726.94
453.31	721.94
453.53	724.94
453.751	706.94
453.971	696.94
454.192	684.94
454.412	696.94
454.633	696.94
454.853	695.94
455.073	683.94
455.294	662.94
455.514	661.94
455.734	660.94
455.955	654.94
456.175	664.94
456.395	687.94
456.616	665.94
456.836	685.94
457.056	657.94
457.276	661.94
457.497	680.94
457.717	690.94
457.937	695.94
458.157	698.94
458.377	701.94
458.598	716.94
458.818	736.94
459.038	741.94
459.258	758.94
459.478	774.94
459.698	803.94
459.918	831.94
460.138	857.94
460.358	870.94
460.578	894.94
460.798	911.94
461.018	913.94
461.238	914.94
461.458	913.94
461.678	894.94
461.898	901.94
462.118	932.94
462.338	964.94
462.558	977.94
462.777	1014.94
462.997	1126.94
463.217	1181.94
463.437	1203.94
463.657	1096.94
463.876	1069.94
464.096	1075.94
464.316	1047.94
464.536	1070.94
464.755	1015.94
464.975	969.94
465.195	925.94
465.414	902.94
465.634	873.94
465.854	802.94
466.073	794.94
466.293	810.94
466.512	788.94
466.732	783.94
466.951	763.94
467.171	758.94
467.391	749.94
467.61	753.94
467.829	769.94
468.049	766.94
468.268	728.94
468.488	730.94
468.707	764.94
468.927	735.94
469.146	739.94
469.365	796.94
469.585	747.94
469.804	773.94
470.023	791.94
470.243	784.94
470.462	784.94
470.681	808.94
470.901	803.94
471.12	781.94
471.339	783.94
471.558	762.94
471.777	765.94
471.997	754.94
472.216	733.94
472.435	744.94
472.654	736.94
472.873	722.94
473.092	713.94
473.311	738.94
473.53	746.94
473.749	751.94
473.968	721.94
474.187	710.94
474.406	712.94
474.625	714.94
474.844	726.94
475.063	736.94
475.282	714.94
475.501	734.94
475.72	760.94
475.939	755.94
476.158	755.94
476.377	742.94
476.596	753.94
476.814	745.94
477.033	769.94
477.252	791.94
477.471	784.94
477.69	809.94
477.908	825.94
478.127	874.94
478.346	858.94
478.564	870.94
478.783	884.94
479.002	910.94
479.22	898.94
479.439	918.94
479.658	880.94
479.876	890.94
480.095	887.94
480.313	925.94
480.532	944.94
480.751	915.94
480.969	903.94
481.188	875.94
481.406	870.94
481.624	891.94
481.843	836.94
482.061	834.94
482.28	849.94
482.498	815.94
482.717	829.94
482.935	831.94
483.153	848.94
483.372	815.94
483.59	848.94
483.808	844.94
484.027	842.94
484.245	837.94
484.463	838.94
484.681	873.94
484.9	865.94
485.118	899.94
485.336	870.94
485.554	879.94
485.772	888.94
485.99	893.94
486.209	875.94
486.427	887.94
486.645	856.94
486.863	885.94
487.081	877.94
487.299	913.94
487.517	899.94
487.735	907.94
487.953	890.94
488.171	906.94
488.389	872.94
488.607	872.94
488.825	851.94
489.043	850.94
489.261	874.94
489.479	857.94
489.696	889.94
489.914	863.94
490.132	870.94
490.35	856.94
490.568	866.94
490.786	873.94
491.003	893.94
491.221	905.94
491.439	908.94
491.657	905.94
491.874	930.94
492.092	923.94
492.31	911.94
492.527	899.94
492.745	928.94
492.963	923.94
493.18	920.94
493.398	925.94
493.615	928.94
493.833	935.94
494.05	939.94
494.268	910.94
494.485	943.94
494.703	959.94
494.92	929.94
495.138	935.94
495.355	956.94
495.573	949.94
495.79	946.94
496.008	957.94
496.225	939.94
496.442	954.94
496.66	972.94
496.877	1008.94
497.094	1000.94
497.312	1025.94
497.529	1047.94
497.746	1035.94
497.963	1106.94
498.181	1115.94
498.398	1151.94
498.615	1236.94
498.832	1331.94
499.049	1423.94
499.267	1537.94
499.484	1586.94
499.701	1750.94
499.918	1904.94
500.135	2122.94
500.352	2407.94
500.569	2503.94
500.786	2454.94
501.003	2301.94
501.22	2087.94
