Data from NiCl2@0.125M.TitratingCurve.Agarose3%dH2O.NegLispCup.LampEnergy10.LIBS07252019_HRD10591_18-29-03-575.txt Node
Date: Thu Jul 25 18:29:03 EDT 2019
User: cochatt
Spectrometer: HR+D1059
Trigger mode: 1
Integration Time (sec): 1.000000E-1
Scans to average: 1
Electric dark correction enabled: true
Nonlinearity correction enabled: false
Boxcar width: 0
XAxis mode: Wavelengths
Number of Pixels in Spectrum: 2048
>>>>>Begin Spectral Data<<<<<
223.165	-10.81
223.4	-10.81
223.635	-10.81
223.869	-4.81
224.104	-12.81
224.338	-6.81
224.573	-10.81
224.808	-14.81
225.042	-23.81
225.277	-23.81
225.511	-2.81
225.746	10.19
225.98	2.19
226.215	10.19
226.449	16.19
226.683	8.19
226.918	25.19
227.152	39.19
227.387	43.19
227.621	34.19
227.856	34.19
228.09	62.19
228.324	53.19
228.559	38.19
228.793	74.19
229.027	101.19
229.262	94.19
229.496	113.19
229.73	120.19
229.964	120.19
230.199	129.19
230.433	122.19
230.667	128.19
230.901	129.19
231.136	121.19
231.37	124.19
231.604	138.19
231.838	138.19
232.072	148.19
232.306	143.19
232.541	157.19
232.775	148.19
233.009	148.19
233.243	156.19
233.477	156.19
233.711	149.19
233.945	135.19
234.179	150.19
234.413	152.19
234.647	144.19
234.881	161.19
235.115	148.19
235.349	141.19
235.583	144.19
235.817	161.19
236.051	157.19
236.285	162.19
236.519	147.19
236.753	151.19
236.987	166.19
237.221	166.19
237.455	168.19
237.689	157.19
237.922	150.19
238.156	168.19
238.39	151.19
238.624	165.19
238.858	174.19
239.091	180.19
239.325	160.19
239.559	164.19
239.793	172.19
240.027	155.19
240.26	183.19
240.494	181.19
240.728	192.19
240.961	180.19
241.195	192.19
241.429	184.19
241.662	182.19
241.896	179.19
242.13	190.19
242.363	203.19
242.597	211.19
242.83	189.19
243.064	198.19
243.298	217.19
243.531	205.19
243.765	217.19
243.998	206.19
244.232	219.19
244.465	211.19
244.699	211.19
244.932	229.19
245.166	221.19
245.399	208.19
245.633	224.19
245.866	216.19
246.099	222.19
246.333	207.19
246.566	218.19
246.8	239.19
247.033	229.19
247.266	218.19
247.5	238.19
247.733	236.19
247.966	233.19
248.2	239.19
248.433	248.19
248.666	227.19
248.899	255.19
249.133	241.19
249.366	252.19
249.599	258.19
249.832	244.19
250.066	258.19
250.299	273.19
250.532	262.19
250.765	252.19
250.998	251.19
251.231	274.19
251.465	264.19
251.698	257.19
251.931	263.19
252.164	266.19
252.397	270.19
252.63	292.19
252.863	276.19
253.096	277.19
253.329	262.19
253.562	277.19
253.795	267.19
254.028	270.19
254.261	267.19
254.494	274.19
254.727	280.19
254.96	291.19
255.193	290.19
255.426	288.19
255.659	286.19
255.892	286.19
256.124	287.19
256.357	304.19
256.59	268.19
256.823	293.19
257.056	305.19
257.289	275.19
257.521	295.19
257.754	318.19
257.987	327.19
258.22	319.19
258.452	314.19
258.685	282.19
258.918	319.19
259.151	307.19
259.383	316.19
259.616	312.19
259.849	318.19
260.081	303.19
260.314	318.19
260.547	320.19
260.779	294.19
261.012	320.19
261.244	327.19
261.477	314.19
261.71	324.19
261.942	324.19
262.175	314.19
262.407	333.19
262.64	318.19
262.872	322.19
263.105	319.19
263.337	352.19
263.57	328.19
263.802	336.19
264.035	338.19
264.267	345.19
264.499	336.19
264.732	342.19
264.964	351.19
265.197	353.19
265.429	357.19
265.661	365.19
265.894	361.19
266.126	352.19
266.358	364.19
266.591	358.19
266.823	352.19
267.055	365.19
267.287	374.19
267.52	345.19
267.752	353.19
267.984	362.19
268.216	367.19
268.448	356.19
268.681	370.19
268.913	378.19
269.145	377.19
269.377	387.19
269.609	382.19
269.841	368.19
270.073	356.19
270.306	374.19
270.538	374.19
270.77	377.19
271.002	366.19
271.234	358.19
271.466	389.19
271.698	396.19
271.93	375.19
272.162	368.19
272.394	397.19
272.626	375.19
272.858	386.19
273.09	384.19
273.322	389.19
273.553	391.19
273.785	412.19
274.017	405.19
274.249	403.19
274.481	417.19
274.713	402.19
274.945	420.19
275.176	402.19
275.408	408.19
275.64	398.19
275.872	433.19
276.104	427.19
276.335	417.19
276.567	406.19
276.799	422.19
277.031	454.19
277.262	426.19
277.494	418.19
277.726	417.19
277.957	422.19
278.189	431.19
278.421	424.19
278.652	434.19
278.884	436.19
279.115	430.19
279.347	428.19
279.579	439.19
279.81	447.19
280.042	433.19
280.273	444.19
280.505	450.19
280.736	448.19
280.968	457.19
281.199	452.19
281.431	452.19
281.662	453.19
281.894	456.19
282.125	466.19
282.356	452.19
282.588	450.19
282.819	454.19
283.051	458.19
283.282	477.19
283.513	457.19
283.745	461.19
283.976	458.19
284.207	487.19
284.439	475.19
284.67	476.19
284.901	505.19
285.132	499.19
285.364	492.19
285.595	506.19
285.826	475.19
286.057	495.19
286.288	495.19
286.52	490.19
286.751	516.19
286.982	489.19
287.213	494.19
287.444	494.19
287.675	498.19
287.906	506.19
288.138	497.19
288.369	497.19
288.6	518.19
288.831	514.19
289.062	515.19
289.293	495.19
289.524	533.19
289.755	528.19
289.986	505.19
290.217	523.19
290.448	529.19
290.679	533.19
290.91	508.19
291.141	542.19
291.371	531.19
291.602	522.19
291.833	535.19
292.064	519.19
292.295	538.19
292.526	540.19
292.757	530.19
292.987	529.19
293.218	537.19
293.449	547.19
293.68	531.19
293.91	529.19
294.141	542.19
294.372	522.19
294.603	510.19
294.833	537.19
295.064	536.19
295.295	532.19
295.525	526.19
295.756	540.19
295.987	535.19
296.217	536.19
296.448	554.19
296.679	547.19
296.909	548.19
297.14	575.19
297.37	574.19
297.601	577.19
297.831	562.19
298.062	582.19
298.292	592.19
298.523	601.19
298.753	609.19
298.984	576.19
299.214	563.19
299.445	560.19
299.675	569.19
299.905	586.19
300.136	562.19
300.366	591.19
300.597	600.19
300.827	575.19
301.057	585.19
301.288	582.19
301.518	601.19
301.748	607.19
301.979	605.19
302.209	609.19
302.439	605.19
302.669	602.19
302.9	590.19
303.13	583.19
303.36	594.19
303.59	598.19
303.82	586.19
304.051	600.19
304.281	559.19
304.511	584.19
304.741	609.19
304.971	577.19
305.201	563.19
305.431	572.19
305.661	584.19
305.891	577.19
306.121	568.19
306.352	562.19
306.582	586.19
306.812	568.19
307.042	577.19
307.272	574.19
307.502	558.19
307.731	568.19
307.961	558.19
308.191	572.19
308.421	556.19
308.651	576.19
308.881	566.19
309.111	572.19
309.341	588.19
309.571	590.19
309.8	551.19
310.03	564.19
310.26	577.19
310.49	577.19
310.72	592.19
310.949	584.19
311.179	586.19
311.409	600.19
311.639	591.19
311.868	584.19
312.098	584.19
312.328	598.19
312.557	593.19
312.787	595.19
313.017	593.19
313.246	602.19
313.476	608.19
313.706	630.19
313.935	626.19
314.165	615.19
314.394	605.19
314.624	604.19
314.853	596.19
315.083	608.19
315.312	587.19
315.542	621.19
315.771	594.19
316.001	574.19
316.23	605.19
316.46	585.19
316.689	593.19
316.919	609.19
317.148	589.19
317.377	617.19
317.607	608.19
317.836	588.19
318.065	579.19
318.295	604.19
318.524	588.19
318.753	586.19
318.983	584.19
319.212	581.19
319.441	585.19
319.67	602.19
319.9	606.19
320.129	591.19
320.358	584.19
320.587	582.19
320.816	603.19
321.046	604.19
321.275	627.19
321.504	607.19
321.733	608.19
321.962	587.19
322.191	609.19
322.42	595.19
322.649	596.19
322.878	597.19
323.108	608.19
323.337	609.19
323.566	606.19
323.795	622.19
324.024	643.19
324.253	610.19
324.482	618.19
324.71	614.19
324.939	622.19
325.168	624.19
325.397	622.19
325.626	629.19
325.855	642.19
326.084	636.19
326.313	661.19
326.542	662.19
326.77	704.19
326.999	650.19
327.228	640.19
327.457	624.19
327.686	641.19
327.914	637.19
328.143	658.19
328.372	648.19
328.6	632.19
328.829	646.19
329.058	640.19
329.287	668.19
329.515	655.19
329.744	654.19
329.972	670.19
330.201	660.19
330.43	656.19
330.658	642.19
330.887	660.19
331.115	674.19
331.344	692.19
331.572	696.19
331.801	697.19
332.03	737.19
332.258	712.19
332.486	738.19
332.715	754.19
332.943	790.19
333.172	850.19
333.4	890.19
333.629	916.19
333.857	932.19
334.085	890.19
334.314	846.19
334.542	845.19
334.771	830.19
334.999	840.19
335.227	807.19
335.455	833.19
335.684	802.19
335.912	807.19
336.14	762.19
336.369	777.19
336.597	796.19
336.825	798.19
337.053	790.19
337.281	760.19
337.51	748.19
337.738	739.19
337.966	710.19
338.194	709.19
338.422	706.19
338.65	702.19
338.878	712.19
339.106	701.19
339.334	708.19
339.562	705.19
339.79	686.19
340.018	693.19
340.246	684.19
340.474	660.19
340.702	683.19
340.93	678.19
341.158	691.19
341.386	691.19
341.614	672.19
341.842	676.19
342.07	684.19
342.298	665.19
342.526	680.19
342.754	644.19
342.981	652.19
343.209	693.19
343.437	728.19
343.665	760.19
343.893	832.19
344.12	878.19
344.348	830.19
344.576	793.19
344.804	731.19
345.031	718.19
345.259	698.19
345.487	686.19
345.714	651.19
345.942	678.19
346.17	678.19
346.397	665.19
346.625	657.19
346.853	646.19
347.08	624.19
347.308	685.19
347.535	664.19
347.763	682.19
347.99	699.19
348.218	684.19
348.445	671.19
348.673	646.19
348.9	662.19
349.128	649.19
349.355	660.19
349.583	648.19
349.81	642.19
350.037	642.19
350.265	625.19
350.492	622.19
350.72	620.19
350.947	631.19
351.174	629.19
351.402	622.19
351.629	637.19
351.856	597.19
352.083	607.19
352.311	606.19
352.538	602.19
352.765	622.19
352.992	630.19
353.22	629.19
353.447	606.19
353.674	605.19
353.901	630.19
354.128	610.19
354.355	621.19
354.583	626.19
354.81	622.19
355.037	638.19
355.264	632.19
355.491	615.19
355.718	621.19
355.945	622.19
356.172	601.19
356.399	631.19
356.626	642.19
356.853	647.19
357.08	630.19
357.307	633.19
357.534	628.19
357.761	617.19
357.988	632.19
358.215	620.19
358.441	632.19
358.668	642.19
358.895	647.19
359.122	634.19
359.349	645.19
359.576	638.19
359.802	616.19
360.029	597.19
360.256	635.19
360.483	616.19
360.709	630.19
360.936	649.19
361.163	653.19
361.39	628.19
361.616	631.19
361.843	635.19
362.07	632.19
362.296	612.19
362.523	614.19
362.749	632.19
362.976	628.19
363.203	613.19
363.429	608.19
363.656	632.19
363.882	638.19
364.109	641.19
364.335	628.19
364.562	594.19
364.788	629.19
365.015	622.19
365.241	610.19
365.468	634.19
365.694	624.19
365.92	646.19
366.147	624.19
366.373	661.19
366.599	612.19
366.826	612.19
367.052	635.19
367.278	636.19
367.505	647.19
367.731	640.19
367.957	645.19
368.184	615.19
368.41	632.19
368.636	629.19
368.862	655.19
369.089	656.19
369.315	623.19
369.541	641.19
369.767	650.19
369.993	644.19
370.219	631.19
370.445	648.19
370.672	672.19
370.898	648.19
371.124	678.19
371.35	715.19
371.576	688.19
371.802	685.19
372.028	682.19
372.254	683.19
372.48	678.19
372.706	705.19
372.932	716.19
373.158	725.19
373.384	695.19
373.61	702.19
373.835	692.19
374.061	669.19
374.287	710.19
374.513	713.19
374.739	723.19
374.965	730.19
375.191	798.19
375.416	788.19
375.642	738.19
375.868	724.19
376.094	719.19
376.319	712.19
376.545	677.19
376.771	690.19
376.997	698.19
377.222	709.19
377.448	707.19
377.674	691.19
377.899	677.19
378.125	661.19
378.35	674.19
378.576	681.19
378.802	672.19
379.027	676.19
379.253	665.19
379.478	667.19
379.704	660.19
379.929	661.19
380.155	691.19
380.38	663.19
380.606	666.19
380.831	666.19
381.057	686.19
381.282	703.19
381.507	662.19
381.733	672.19
381.958	684.19
382.184	700.19
382.409	704.19
382.634	679.19
382.86	692.19
383.085	728.19
383.31	724.19
383.535	751.19
383.761	760.19
383.986	783.19
384.211	794.19
384.436	798.19
384.662	828.19
384.887	813.19
385.112	824.19
385.337	821.19
385.562	815.19
385.787	801.19
386.013	826.19
386.238	816.19
386.463	838.19
386.688	828.19
386.913	851.19
387.138	814.19
387.363	820.19
387.588	824.19
387.813	786.19
388.038	796.19
388.263	797.19
388.488	782.19
388.713	814.19
388.938	827.19
389.163	796.19
389.387	788.19
389.612	773.19
389.837	793.19
390.062	776.19
390.287	785.19
390.512	794.19
390.736	805.19
390.961	815.19
391.186	814.19
391.411	860.19
391.636	879.19
391.86	904.19
392.085	968.19
392.31	949.19
392.534	938.19
392.759	907.19
392.984	877.19
393.208	869.19
393.433	889.19
393.658	880.19
393.882	899.19
394.107	892.19
394.331	868.19
394.556	883.19
394.78	884.19
395.005	899.19
395.229	867.19
395.454	940.19
395.678	918.19
395.903	896.19
396.127	921.19
396.352	903.19
396.576	862.19
396.801	858.19
397.025	860.19
397.249	894.19
397.474	894.19
397.698	905.19
397.922	910.19
398.147	898.19
398.371	936.19
398.595	947.19
398.82	996.19
399.044	1073.19
399.268	1205.19
399.492	1366.19
399.717	1628.19
399.941	1634.19
400.165	1414.19
400.389	1231.19
400.613	1156.19
400.837	1089.19
401.062	1052.19
401.286	1054.19
401.51	1023.19
401.734	1045.19
401.958	1042.19
402.182	1041.19
402.406	1089.19
402.63	1096.19
402.854	1100.19
403.078	1119.19
403.302	1171.19
403.526	1188.19
403.75	1228.19
403.974	1252.19
404.198	1238.19
404.422	1238.19
404.645	1225.19
404.869	1195.19
405.093	1221.19
405.317	1143.19
405.541	1141.19
405.765	1155.19
405.988	1152.19
406.212	1160.19
406.436	1121.19
406.66	1173.19
406.883	1177.19
407.107	1273.19
407.331	1319.19
407.555	1389.19
407.778	1368.19
408.002	1330.19
408.226	1263.19
408.449	1242.19
408.673	1191.19
408.896	1211.19
409.12	1188.19
409.344	1182.19
409.567	1199.19
409.791	1206.19
410.014	1220.19
410.238	1188.19
410.461	1196.19
410.685	1140.19
410.908	1151.19
411.132	1087.19
411.355	1093.19
411.578	1063.19
411.802	1046.19
412.025	1100.19
412.249	1105.19
412.472	1070.19
412.695	1074.19
412.919	1025.19
413.142	1015.19
413.365	1007.19
413.589	1040.19
413.812	1037.19
414.035	1020.19
414.258	1034.19
414.482	1040.19
414.705	1027.19
414.928	1065.19
415.151	1052.19
415.374	1041.19
415.597	1057.19
415.821	1025.19
416.044	985.19
416.267	1006.19
416.49	1006.19
416.713	1006.19
416.936	1037.19
417.159	1002.19
417.382	1022.19
417.605	1035.19
417.828	1060.19
418.051	1072.19
418.274	1014.19
418.497	1045.19
418.72	1082.19
418.943	1074.19
419.166	1141.19
419.389	1232.19
419.611	1158.19
419.834	1150.19
420.057	1099.19
420.28	1038.19
420.503	1048.19
420.726	1017.19
420.948	1005.19
421.171	1030.19
421.394	1026.19
421.617	1021.19
421.839	1006.19
422.062	1009.19
422.285	1025.19
422.507	1042.19
422.73	1060.19
422.953	1066.19
423.175	1092.19
423.398	1120.19
423.621	1114.19
423.843	1140.19
424.066	1144.19
424.288	1118.19
424.511	1102.19
424.733	1109.19
424.956	1085.19
425.178	1070.19
425.401	1064.19
425.623	1044.19
425.846	1009.19
426.068	994.19
426.291	1003.19
426.513	953.19
426.735	979.19
426.958	945.19
427.18	922.19
427.402	935.19
427.625	965.19
427.847	923.19
428.069	934.19
428.292	931.19
428.514	924.19
428.736	903.19
428.958	898.19
429.181	907.19
429.403	896.19
429.625	865.19
429.847	862.19
430.069	881.19
430.292	906.19
430.514	893.19
430.736	895.19
430.958	882.19
431.18	883.19
431.402	908.19
431.624	881.19
431.846	944.19
432.068	918.19
432.29	947.19
432.512	942.19
432.734	943.19
432.956	914.19
433.178	930.19
433.4	938.19
433.622	926.19
433.844	923.19
434.066	938.19
434.287	938.19
434.509	988.19
434.731	1020.19
434.953	1056.19
435.175	1030.19
435.397	1048.19
435.618	993.19
435.84	940.19
436.062	944.19
436.284	921.19
436.505	911.19
436.727	937.19
436.949	943.19
437.17	926.19
437.392	905.19
437.614	930.19
437.835	902.19
438.057	873.19
438.278	864.19
438.5	876.19
438.721	904.19
438.943	932.19
439.165	915.19
439.386	896.19
439.608	921.19
439.829	917.19
440.05	937.19
440.272	935.19
440.493	955.19
440.715	938.19
440.936	979.19
441.158	983.19
441.379	1007.19
441.6	1056.19
441.822	1076.19
442.043	1087.19
442.264	1053.19
442.486	1005.19
442.707	1041.19
442.928	1051.19
443.149	1028.19
443.371	1017.19
443.592	1055.19
443.813	1073.19
444.034	1071.19
444.255	1112.19
444.476	1161.19
444.698	1252.19
444.919	1309.19
445.14	1381.19
445.361	1256.19
445.582	1143.19
445.803	1046.19
446.024	1006.19
446.245	989.19
446.466	997.19
446.687	938.19
446.908	969.19
447.129	961.19
447.35	895.19
447.571	899.19
447.792	878.19
448.013	884.19
448.234	881.19
448.455	876.19
448.675	841.19
448.896	857.19
449.117	854.19
449.338	839.19
449.559	851.19
449.779	868.19
450	834.19
450.221	878.19
450.442	866.19
450.662	901.19
450.883	878.19
451.104	904.19
451.324	907.19
451.545	920.19
451.766	882.19
451.986	858.19
452.207	849.19
452.428	883.19
452.648	873.19
452.869	842.19
453.089	854.19
453.31	873.19
453.53	850.19
453.751	846.19
453.971	827.19
454.192	823.19
454.412	842.19
454.633	814.19
454.853	809.19
455.073	793.19
455.294	803.19
455.514	806.19
455.734	790.19
455.955	783.19
456.175	800.19
456.395	807.19
456.616	812.19
456.836	816.19
457.056	802.19
457.276	783.19
457.497	799.19
457.717	783.19
457.937	813.19
458.157	823.19
458.377	821.19
458.598	826.19
458.818	847.19
459.038	873.19
459.258	906.19
459.478	973.19
459.698	959.19
459.918	993.19
460.138	1057.19
460.358	1110.19
460.578	1121.19
460.798	1132.19
461.018	1133.19
461.238	1100.19
461.458	1114.19
461.678	1102.19
461.898	1084.19
462.118	1128.19
462.338	1194.19
462.558	1198.19
462.777	1238.19
462.997	1396.19
463.217	1536.19
463.437	1557.19
463.657	1408.19
463.876	1328.19
464.096	1301.19
464.316	1318.19
464.536	1315.19
464.755	1245.19
464.975	1210.19
465.195	1144.19
465.414	1085.19
465.634	1026.19
465.854	974.19
466.073	980.19
466.293	940.19
466.512	917.19
466.732	912.19
466.951	911.19
467.171	913.19
467.391	896.19
467.61	896.19
467.829	893.19
468.049	884.19
468.268	842.19
468.488	862.19
468.707	842.19
468.927	860.19
469.146	841.19
469.365	881.19
469.585	872.19
469.804	884.19
470.023	929.19
470.243	948.19
470.462	936.19
470.681	954.19
470.901	941.19
471.12	901.19
471.339	872.19
471.558	900.19
471.777	875.19
471.997	845.19
472.216	844.19
472.435	847.19
472.654	826.19
472.873	842.19
473.092	858.19
473.311	831.19
473.53	805.19
473.749	801.19
473.968	808.19
474.187	812.19
474.406	825.19
474.625	846.19
474.844	826.19
475.063	845.19
475.282	834.19
475.501	826.19
475.72	832.19
475.939	841.19
476.158	848.19
476.377	867.19
476.596	880.19
476.814	875.19
477.033	848.19
477.252	908.19
477.471	895.19
477.69	932.19
477.908	972.19
478.127	976.19
478.346	991.19
478.564	984.19
478.783	1010.19
479.002	1030.19
479.22	1048.19
479.439	1055.19
479.658	1061.19
479.876	1038.19
480.095	1033.19
480.313	1087.19
480.532	1114.19
480.751	1142.19
480.969	1072.19
481.188	1016.19
481.406	994.19
481.624	973.19
481.843	938.19
482.061	924.19
482.28	953.19
482.498	933.19
482.717	917.19
482.935	938.19
483.153	892.19
483.372	928.19
483.59	920.19
483.808	956.19
484.027	950.19
484.245	964.19
484.463	945.19
484.681	974.19
484.9	936.19
485.118	982.19
485.336	967.19
485.554	993.19
485.772	987.19
485.99	1011.19
486.209	1011.19
486.427	1030.19
486.645	1010.19
486.863	990.19
487.081	979.19
487.299	984.19
487.517	988.19
487.735	998.19
487.953	999.19
488.171	974.19
488.389	966.19
488.607	925.19
488.825	990.19
489.043	961.19
489.261	953.19
489.479	970.19
489.696	984.19
489.914	977.19
490.132	974.19
490.35	964.19
490.568	989.19
490.786	965.19
491.003	984.19
491.221	997.19
491.439	992.19
491.657	999.19
491.874	1016.19
492.092	1006.19
492.31	1000.19
492.527	988.19
492.745	1013.19
492.963	1005.19
493.18	1023.19
493.398	1006.19
493.615	1036.19
493.833	1029.19
494.05	1039.19
494.268	1064.19
494.485	1026.19
494.703	1070.19
494.92	1036.19
495.138	1083.19
495.355	1056.19
495.573	1042.19
495.79	1054.19
496.008	1059.19
496.225	1050.19
496.442	1081.19
496.66	1094.19
496.877	1088.19
497.094	1134.19
497.312	1150.19
497.529	1145.19
497.746	1160.19
497.963	1180.19
498.181	1219.19
498.398	1315.19
498.615	1423.19
