Data from NiCl2@0.25M.TitratingCurve.Agarose3%dH2O.NegLispCup.LampEnergy10.LIBS07252019_HRD10591_18-24-47-573.txt Node
Date: Thu Jul 25 18:24:47 EDT 2019
User: cochatt
Spectrometer: HR+D1059
Trigger mode: 1
Integration Time (sec): 1.000000E-1
Scans to average: 1
Electric dark correction enabled: true
Nonlinearity correction enabled: false
Boxcar width: 0
XAxis mode: Wavelengths
Number of Pixels in Spectrum: 2048
>>>>>Begin Spectral Data<<<<<
223.165	-18.62
223.4	-18.62
223.635	-18.62
223.869	-14.62
224.104	-21.62
224.338	-5.62
224.573	-25.62
224.808	-10.62
225.042	-3.62
225.277	2.38
225.511	-3.62
225.746	1.38
225.98	2.38
226.215	3.38
226.449	8.38
226.683	32.38
226.918	25.38
227.152	28.38
227.387	49.38
227.621	39.38
227.856	42.38
228.09	42.38
228.324	52.38
228.559	50.38
228.793	73.38
229.027	100.38
229.262	100.38
229.496	107.38
229.73	125.38
229.964	116.38
230.199	135.38
230.433	120.38
230.667	143.38
230.901	134.38
231.136	128.38
231.37	129.38
231.604	131.38
231.838	126.38
232.072	133.38
232.306	149.38
232.541	149.38
232.775	135.38
233.009	135.38
233.243	151.38
233.477	143.38
233.711	142.38
233.945	155.38
234.179	148.38
234.413	144.38
234.647	141.38
234.881	147.38
235.115	154.38
235.349	136.38
235.583	150.38
235.817	152.38
236.051	148.38
236.285	145.38
236.519	156.38
236.753	156.38
236.987	159.38
237.221	165.38
237.455	153.38
237.689	163.38
237.922	154.38
238.156	151.38
238.39	178.38
238.624	157.38
238.858	162.38
239.091	146.38
239.325	181.38
239.559	162.38
239.793	154.38
240.027	165.38
240.26	175.38
240.494	166.38
240.728	182.38
240.961	173.38
241.195	169.38
241.429	170.38
241.662	181.38
241.896	187.38
242.13	199.38
242.363	189.38
242.597	182.38
242.83	207.38
243.064	191.38
243.298	190.38
243.531	197.38
243.765	207.38
243.998	180.38
244.232	200.38
244.465	208.38
244.699	194.38
244.932	203.38
245.166	209.38
245.399	210.38
245.633	202.38
245.866	208.38
246.099	215.38
246.333	204.38
246.566	219.38
246.8	200.38
247.033	216.38
247.266	221.38
247.5	204.38
247.733	210.38
247.966	210.38
248.2	238.38
248.433	220.38
248.666	216.38
248.899	229.38
249.133	230.38
249.366	256.38
249.599	236.38
249.832	222.38
250.066	220.38
250.299	232.38
250.532	246.38
250.765	229.38
250.998	228.38
251.231	226.38
251.465	247.38
251.698	242.38
251.931	242.38
252.164	245.38
252.397	258.38
252.63	269.38
252.863	269.38
253.096	262.38
253.329	234.38
253.562	247.38
253.795	271.38
254.028	248.38
254.261	274.38
254.494	280.38
254.727	285.38
254.96	278.38
255.193	262.38
255.426	260.38
255.659	254.38
255.892	270.38
256.124	282.38
256.357	279.38
256.59	286.38
256.823	269.38
257.056	286.38
257.289	282.38
257.521	278.38
257.754	292.38
257.987	292.38
258.22	276.38
258.452	293.38
258.685	286.38
258.918	293.38
259.151	314.38
259.383	300.38
259.616	300.38
259.849	295.38
260.081	296.38
260.314	305.38
260.547	313.38
260.779	301.38
261.012	317.38
261.244	317.38
261.477	304.38
261.71	297.38
261.942	302.38
262.175	313.38
262.407	317.38
262.64	290.38
262.872	326.38
263.105	322.38
263.337	319.38
263.57	338.38
263.802	318.38
264.035	325.38
264.267	330.38
264.499	326.38
264.732	349.38
264.964	323.38
265.197	327.38
265.429	316.38
265.661	327.38
265.894	334.38
266.126	322.38
266.358	330.38
266.591	331.38
266.823	349.38
267.055	346.38
267.287	363.38
267.52	347.38
267.752	337.38
267.984	335.38
268.216	362.38
268.448	355.38
268.681	362.38
268.913	371.38
269.145	350.38
269.377	365.38
269.609	364.38
269.841	344.38
270.073	355.38
270.306	361.38
270.538	362.38
270.77	364.38
271.002	371.38
271.234	365.38
271.466	364.38
271.698	351.38
271.93	369.38
272.162	358.38
272.394	375.38
272.626	372.38
272.858	367.38
273.09	366.38
273.322	384.38
273.553	392.38
273.785	388.38
274.017	396.38
274.249	387.38
274.481	398.38
274.713	392.38
274.945	398.38
275.176	403.38
275.408	401.38
275.64	403.38
275.872	387.38
276.104	395.38
276.335	413.38
276.567	404.38
276.799	387.38
277.031	410.38
277.262	400.38
277.494	395.38
277.726	400.38
277.957	389.38
278.189	403.38
278.421	419.38
278.652	418.38
278.884	423.38
279.115	403.38
279.347	397.38
279.579	424.38
279.81	420.38
280.042	410.38
280.273	427.38
280.505	436.38
280.736	414.38
280.968	418.38
281.199	451.38
281.431	430.38
281.662	434.38
281.894	434.38
282.125	441.38
282.356	456.38
282.588	424.38
282.819	456.38
283.051	462.38
283.282	440.38
283.513	463.38
283.745	476.38
283.976	450.38
284.207	474.38
284.439	463.38
284.67	444.38
284.901	449.38
285.132	439.38
285.364	467.38
285.595	452.38
285.826	478.38
286.057	459.38
286.288	470.38
286.52	478.38
286.751	466.38
286.982	494.38
287.213	449.38
287.444	464.38
287.675	484.38
287.906	491.38
288.138	494.38
288.369	486.38
288.6	479.38
288.831	480.38
289.062	491.38
289.293	470.38
289.524	470.38
289.755	498.38
289.986	488.38
290.217	495.38
290.448	479.38
290.679	481.38
290.91	499.38
291.141	505.38
291.371	510.38
291.602	513.38
291.833	491.38
292.064	503.38
292.295	481.38
292.526	496.38
292.757	459.38
292.987	502.38
293.218	526.38
293.449	502.38
293.68	535.38
293.91	502.38
294.141	504.38
294.372	483.38
294.603	492.38
294.833	496.38
295.064	528.38
295.295	506.38
295.525	499.38
295.756	517.38
295.987	501.38
296.217	516.38
296.448	496.38
296.679	518.38
296.909	540.38
297.14	523.38
297.37	526.38
297.601	538.38
297.831	539.38
298.062	535.38
298.292	554.38
298.523	566.38
298.753	555.38
298.984	530.38
299.214	527.38
299.445	538.38
299.675	550.38
299.905	549.38
300.136	518.38
300.366	543.38
300.597	574.38
300.827	552.38
301.057	562.38
301.288	582.38
301.518	568.38
301.748	573.38
301.979	571.38
302.209	587.38
302.439	575.38
302.669	564.38
302.9	534.38
303.13	551.38
303.36	547.38
303.59	559.38
303.82	552.38
304.051	576.38
304.281	558.38
304.511	573.38
304.741	578.38
304.971	540.38
305.201	558.38
305.431	571.38
305.661	564.38
305.891	566.38
306.121	566.38
306.352	581.38
306.582	558.38
306.812	548.38
307.042	555.38
307.272	547.38
307.502	536.38
307.731	546.38
307.961	570.38
308.191	557.38
308.421	550.38
308.651	568.38
308.881	550.38
309.111	539.38
309.341	556.38
309.571	573.38
309.8	554.38
310.03	551.38
310.26	558.38
310.49	590.38
310.72	574.38
310.949	553.38
311.179	548.38
311.409	579.38
311.639	589.38
311.868	566.38
312.098	585.38
312.328	590.38
312.557	590.38
312.787	591.38
313.017	583.38
313.246	601.38
313.476	603.38
313.706	588.38
313.935	611.38
314.165	579.38
314.394	591.38
314.624	585.38
314.853	584.38
315.083	620.38
315.312	599.38
315.542	596.38
315.771	594.38
316.001	602.38
316.23	590.38
316.46	583.38
316.689	576.38
316.919	572.38
317.148	583.38
317.377	591.38
317.607	589.38
317.836	579.38
318.065	596.38
318.295	577.38
318.524	592.38
318.753	570.38
318.983	560.38
319.212	582.38
319.441	586.38
319.67	581.38
319.9	562.38
320.129	601.38
320.358	578.38
320.587	607.38
320.816	587.38
321.046	587.38
321.275	610.38
321.504	602.38
321.733	590.38
321.962	610.38
322.191	591.38
322.42	581.38
322.649	579.38
322.878	598.38
323.108	596.38
323.337	596.38
323.566	594.38
323.795	620.38
324.024	618.38
324.253	598.38
324.482	601.38
324.71	603.38
324.939	606.38
325.168	616.38
325.397	616.38
325.626	619.38
325.855	664.38
326.084	641.38
326.313	646.38
326.542	646.38
326.77	650.38
326.999	638.38
327.228	632.38
327.457	631.38
327.686	638.38
327.914	646.38
328.143	635.38
328.372	651.38
328.6	659.38
328.829	622.38
329.058	632.38
329.287	628.38
329.515	660.38
329.744	651.38
329.972	651.38
330.201	659.38
330.43	670.38
330.658	653.38
330.887	664.38
331.115	656.38
331.344	668.38
331.572	664.38
331.801	705.38
332.03	712.38
332.258	755.38
332.486	775.38
332.715	748.38
332.943	777.38
333.172	846.38
333.4	847.38
333.629	863.38
333.857	885.38
334.085	876.38
334.314	872.38
334.542	837.38
334.771	842.38
334.999	831.38
335.227	810.38
335.455	818.38
335.684	788.38
335.912	783.38
336.14	756.38
336.369	785.38
336.597	788.38
336.825	795.38
337.053	788.38
337.281	759.38
337.51	744.38
337.738	735.38
337.966	708.38
338.194	721.38
338.422	726.38
338.65	705.38
338.878	692.38
339.106	715.38
339.334	709.38
339.562	697.38
339.79	712.38
340.018	664.38
340.246	655.38
340.474	664.38
340.702	676.38
340.93	675.38
341.158	690.38
341.386	678.38
341.614	664.38
341.842	678.38
342.07	656.38
342.298	688.38
342.526	678.38
342.754	670.38
342.981	678.38
343.209	708.38
343.437	754.38
343.665	734.38
343.893	818.38
344.12	831.38
344.348	814.38
344.576	766.38
344.804	733.38
345.031	703.38
345.259	710.38
345.487	646.38
345.714	665.38
345.942	676.38
346.17	668.38
346.397	650.38
346.625	644.38
346.853	623.38
347.08	654.38
347.308	666.38
347.535	652.38
347.763	650.38
347.99	660.38
348.218	692.38
348.445	640.38
348.673	652.38
348.9	653.38
349.128	632.38
349.355	636.38
349.583	641.38
349.81	638.38
350.037	643.38
350.265	646.38
350.492	636.38
350.72	639.38
350.947	620.38
351.174	620.38
351.402	613.38
351.629	629.38
351.856	613.38
352.083	640.38
352.311	634.38
352.538	644.38
352.765	653.38
352.992	616.38
353.22	623.38
353.447	612.38
353.674	606.38
353.901	609.38
354.128	646.38
354.355	627.38
354.583	628.38
354.81	628.38
355.037	628.38
355.264	639.38
355.491	646.38
355.718	622.38
355.945	619.38
356.172	642.38
356.399	642.38
356.626	632.38
356.853	638.38
357.08	628.38
357.307	626.38
357.534	634.38
357.761	637.38
357.988	651.38
358.215	610.38
358.441	621.38
358.668	605.38
358.895	624.38
359.122	626.38
359.349	635.38
359.576	624.38
359.802	614.38
360.029	618.38
360.256	624.38
360.483	631.38
360.709	644.38
360.936	624.38
361.163	623.38
361.39	655.38
361.616	642.38
361.843	618.38
362.07	619.38
362.296	621.38
362.523	611.38
362.749	626.38
362.976	632.38
363.203	607.38
363.429	632.38
363.656	634.38
363.882	651.38
364.109	621.38
364.335	623.38
364.562	641.38
364.788	617.38
365.015	600.38
365.241	638.38
365.468	638.38
365.694	615.38
365.92	614.38
366.147	627.38
366.373	651.38
366.599	616.38
366.826	638.38
367.052	638.38
367.278	622.38
367.505	634.38
367.731	630.38
367.957	631.38
368.184	644.38
368.41	653.38
368.636	621.38
368.862	640.38
369.089	636.38
369.315	654.38
369.541	654.38
369.767	643.38
369.993	651.38
370.219	644.38
370.445	650.38
370.672	666.38
370.898	670.38
371.124	670.38
371.35	674.38
371.576	687.38
371.802	676.38
372.028	666.38
372.254	676.38
372.48	701.38
372.706	687.38
372.932	717.38
373.158	669.38
373.384	708.38
373.61	690.38
373.835	687.38
374.061	701.38
374.287	673.38
374.513	715.38
374.739	712.38
374.965	730.38
375.191	786.38
375.416	750.38
375.642	712.38
375.868	700.38
376.094	750.38
376.319	704.38
376.545	681.38
376.771	677.38
376.997	676.38
377.222	701.38
377.448	699.38
377.674	663.38
377.899	672.38
378.125	667.38
378.35	675.38
378.576	666.38
378.802	675.38
379.027	679.38
379.253	696.38
379.478	672.38
379.704	696.38
379.929	685.38
380.155	676.38
380.38	659.38
380.606	678.38
380.831	664.38
381.057	699.38
381.282	694.38
381.507	679.38
381.733	687.38
381.958	702.38
382.184	690.38
382.409	715.38
382.634	707.38
382.86	718.38
383.085	728.38
383.31	750.38
383.535	741.38
383.761	775.38
383.986	767.38
384.211	779.38
384.436	792.38
384.662	830.38
384.887	823.38
385.112	826.38
385.337	818.38
385.562	823.38
385.787	822.38
386.013	823.38
386.238	861.38
386.463	810.38
386.688	824.38
386.913	824.38
387.138	795.38
387.363	810.38
387.588	808.38
387.813	822.38
388.038	804.38
388.263	824.38
388.488	819.38
388.713	808.38
388.938	803.38
389.163	802.38
389.387	800.38
389.612	794.38
389.837	800.38
390.062	820.38
390.287	790.38
390.512	778.38
390.736	802.38
390.961	794.38
391.186	870.38
391.411	861.38
391.636	885.38
391.86	922.38
392.085	951.38
392.31	933.38
392.534	897.38
392.759	868.38
392.984	870.38
393.208	890.38
393.433	870.38
393.658	859.38
393.882	867.38
394.107	894.38
394.331	888.38
394.556	887.38
394.78	902.38
395.005	874.38
395.229	868.38
395.454	908.38
395.678	934.38
395.903	919.38
396.127	899.38
396.352	863.38
396.576	873.38
396.801	889.38
397.025	894.38
397.249	900.38
397.474	922.38
397.698	927.38
397.922	935.38
398.147	920.38
398.371	944.38
398.595	1000.38
398.82	1039.38
399.044	1114.38
399.268	1234.38
399.492	1418.38
399.717	1577.38
399.941	1570.38
400.165	1402.38
400.389	1242.38
400.613	1127.38
400.837	1085.38
401.062	1072.38
401.286	1045.38
401.51	1060.38
401.734	1048.38
401.958	1069.38
402.182	1032.38
402.406	1080.38
402.63	1083.38
402.854	1104.38
403.078	1114.38
403.302	1162.38
403.526	1180.38
403.75	1200.38
403.974	1210.38
404.198	1196.38
404.422	1218.38
404.645	1183.38
404.869	1168.38
405.093	1172.38
405.317	1116.38
405.541	1145.38
405.765	1158.38
405.988	1112.38
406.212	1120.38
406.436	1144.38
406.66	1143.38
406.883	1174.38
407.107	1260.38
407.331	1295.38
407.555	1332.38
407.778	1363.38
408.002	1280.38
408.226	1259.38
408.449	1214.38
408.673	1221.38
408.896	1162.38
409.12	1176.38
409.344	1186.38
409.567	1175.38
409.791	1196.38
410.014	1170.38
410.238	1160.38
410.461	1143.38
410.685	1110.38
410.908	1111.38
411.132	1102.38
411.355	1042.38
411.578	1076.38
411.802	1062.38
412.025	1082.38
412.249	1086.38
412.472	1079.38
412.695	1058.38
412.919	1016.38
413.142	1001.38
413.365	1052.38
413.589	1040.38
413.812	1016.38
414.035	1038.38
414.258	1028.38
414.482	1055.38
414.705	1053.38
414.928	1086.38
415.151	1058.38
415.374	1032.38
415.597	1037.38
415.821	1017.38
416.044	1000.38
416.267	969.38
416.49	974.38
416.713	1020.38
416.936	1020.38
417.159	1012.38
417.382	1001.38
417.605	994.38
417.828	1018.38
418.051	1041.38
418.274	1028.38
418.497	1038.38
418.72	1058.38
418.943	1062.38
419.166	1142.38
419.389	1185.38
419.611	1164.38
419.834	1097.38
420.057	1054.38
420.28	1052.38
420.503	1023.38
420.726	1008.38
420.948	1031.38
421.171	1015.38
421.394	1038.38
421.617	1012.38
421.839	1034.38
422.062	1041.38
422.285	1042.38
422.507	1043.38
422.73	1024.38
422.953	1047.38
423.175	1030.38
423.398	1092.38
423.621	1069.38
423.843	1090.38
424.066	1118.38
424.288	1084.38
424.511	1065.38
424.733	1055.38
424.956	1032.38
425.178	1052.38
425.401	1018.38
425.623	1017.38
425.846	969.38
426.068	970.38
426.291	956.38
426.513	953.38
426.735	954.38
426.958	966.38
427.18	920.38
427.402	913.38
427.625	935.38
427.847	898.38
428.069	910.38
428.292	927.38
428.514	896.38
428.736	917.38
428.958	892.38
429.181	890.38
429.403	871.38
429.625	873.38
429.847	884.38
430.069	888.38
430.292	884.38
430.514	834.38
430.736	876.38
430.958	914.38
431.18	918.38
431.402	883.38
431.624	898.38
431.846	927.38
432.068	893.38
432.29	904.38
432.512	854.38
432.734	898.38
432.956	894.38
433.178	911.38
433.4	919.38
433.622	897.38
433.844	910.38
434.066	934.38
434.287	920.38
434.509	959.38
434.731	985.38
434.953	1031.38
435.175	1050.38
435.397	1008.38
435.618	973.38
435.84	926.38
436.062	912.38
436.284	926.38
436.505	873.38
436.727	912.38
436.949	898.38
437.17	916.38
437.392	899.38
437.614	873.38
437.835	872.38
438.057	898.38
438.278	876.38
438.5	863.38
438.721	864.38
438.943	849.38
439.165	879.38
439.386	875.38
439.608	895.38
439.829	880.38
440.05	908.38
440.272	912.38
440.493	907.38
440.715	892.38
440.936	916.38
441.158	967.38
441.379	938.38
441.6	1019.38
441.822	1028.38
442.043	1031.38
442.264	1014.38
442.486	973.38
442.707	990.38
442.928	998.38
443.149	1008.38
443.371	976.38
443.592	1018.38
443.813	1004.38
444.034	1016.38
444.255	1050.38
444.476	1084.38
444.698	1182.38
444.919	1208.38
445.14	1307.38
445.361	1138.38
445.582	1039.38
445.803	962.38
446.024	972.38
446.245	947.38
446.466	940.38
446.687	898.38
446.908	906.38
447.129	903.38
447.35	894.38
447.571	880.38
447.792	850.38
448.013	869.38
448.234	834.38
448.455	853.38
448.675	814.38
448.896	839.38
449.117	804.38
449.338	780.38
449.559	810.38
449.779	812.38
450	813.38
450.221	796.38
450.442	828.38
450.662	836.38
450.883	858.38
451.104	860.38
451.324	841.38
451.545	824.38
451.766	824.38
451.986	840.38
452.207	839.38
452.428	836.38
452.648	854.38
452.869	828.38
453.089	804.38
453.31	806.38
453.53	797.38
453.751	791.38
453.971	787.38
454.192	790.38
454.412	774.38
454.633	795.38
454.853	798.38
455.073	773.38
455.294	806.38
455.514	770.38
455.734	771.38
455.955	792.38
456.175	761.38
456.395	779.38
456.616	730.38
456.836	794.38
457.056	798.38
457.276	733.38
457.497	800.38
457.717	779.38
457.937	802.38
458.157	788.38
458.377	807.38
458.598	804.38
458.818	827.38
459.038	860.38
459.258	904.38
459.478	908.38
459.698	913.38
459.918	956.38
460.138	1003.38
460.358	1041.38
460.578	1030.38
460.798	1065.38
461.018	1092.38
461.238	1047.38
461.458	1071.38
461.678	1035.38
461.898	1092.38
462.118	1062.38
462.338	1154.38
462.558	1199.38
462.777	1227.38
462.997	1324.38
463.217	1412.38
463.437	1432.38
463.657	1302.38
463.876	1269.38
464.096	1255.38
464.316	1228.38
464.536	1260.38
464.755	1217.38
464.975	1148.38
465.195	1121.38
465.414	1059.38
465.634	978.38
465.854	939.38
466.073	917.38
466.293	924.38
466.512	887.38
466.732	855.38
466.951	864.38
467.171	871.38
467.391	855.38
467.61	861.38
467.829	894.38
468.049	845.38
468.268	811.38
468.488	803.38
468.707	819.38
468.927	811.38
469.146	808.38
469.365	864.38
469.585	866.38
469.804	866.38
470.023	892.38
470.243	891.38
470.462	894.38
470.681	896.38
470.901	874.38
471.12	893.38
471.339	860.38
471.558	839.38
471.777	834.38
471.997	847.38
472.216	858.38
472.435	806.38
472.654	796.38
472.873	822.38
473.092	802.38
473.311	826.38
473.53	814.38
473.749	790.38
473.968	800.38
474.187	797.38
474.406	812.38
474.625	795.38
474.844	830.38
475.063	838.38
475.282	815.38
475.501	820.38
475.72	828.38
475.939	838.38
476.158	837.38
476.377	848.38
476.596	824.38
476.814	836.38
477.033	875.38
477.252	876.38
477.471	890.38
477.69	923.38
477.908	933.38
478.127	963.38
478.346	977.38
478.564	979.38
478.783	992.38
479.002	1003.38
479.22	1012.38
479.439	1040.38
479.658	988.38
479.876	1033.38
480.095	1007.38
480.313	1058.38
480.532	1090.38
480.751	1106.38
480.969	1031.38
481.188	987.38
481.406	976.38
481.624	930.38
481.843	946.38
482.061	934.38
482.28	906.38
482.498	921.38
482.717	931.38
482.935	927.38
483.153	918.38
483.372	906.38
483.59	896.38
483.808	930.38
484.027	913.38
484.245	938.38
484.463	949.38
484.681	949.38
484.9	941.38
485.118	952.38
485.336	944.38
485.554	929.38
485.772	959.38
485.99	987.38
486.209	958.38
486.427	962.38
486.645	972.38
486.863	986.38
487.081	982.38
487.299	950.38
487.517	984.38
487.735	966.38
487.953	960.38
488.171	975.38
488.389	962.38
488.607	960.38
488.825	969.38
489.043	949.38
489.261	947.38
489.479	976.38
489.696	982.38
489.914	942.38
490.132	980.38
490.35	973.38
490.568	994.38
490.786	976.38
491.003	1004.38
491.221	987.38
491.439	1002.38
491.657	1005.38
491.874	980.38
492.092	963.38
492.31	1021.38
492.527	973.38
492.745	1025.38
492.963	1008.38
493.18	1016.38
493.398	996.38
493.615	1024.38
493.833	1012.38
494.05	997.38
494.268	1017.38
494.485	1046.38
494.703	1057.38
494.92	1060.38
495.138	1062.38
495.355	1055.38
495.573	1047.38
495.79	1041.38
496.008	1038.38
496.225	1091.38
496.442	1063.38
496.66	1064.38
496.877	1110.38
497.094	1105.38
497.312	1122.38
497.529	1148.38
497.746	1182.38
497.963	1230.38
498.181	1273.38
498.398	1326.38
498.615	1393.38
498.832	1490.38
