Data from NiCl2@0.25M.TitratingCurve.Agarose3%dH2O.NegLispCup.LampEnergy10.LIBS07252019_HRD10591_18-23-27-572.txt Node
Date: Thu Jul 25 18:23:27 EDT 2019
User: cochatt
Spectrometer: HR+D1059
Trigger mode: 1
Integration Time (sec): 1.000000E-1
Scans to average: 1
Electric dark correction enabled: true
Nonlinearity correction enabled: false
Boxcar width: 0
XAxis mode: Wavelengths
Number of Pixels in Spectrum: 2048
>>>>>Begin Spectral Data<<<<<
223.165	-29
223.4	-29
223.635	-29
223.869	-15
224.104	-16
224.338	-4
224.573	-10
224.808	-21
225.042	-7
225.277	-5
225.511	-6
225.746	0
225.98	10
226.215	11
226.449	16
226.683	31
226.918	21
227.152	24
227.387	35
227.621	41
227.856	31
228.09	44
228.324	43
228.559	58
228.793	69
229.027	81
229.262	90
229.496	115
229.73	100
229.964	99
230.199	117
230.433	95
230.667	92
230.901	101
231.136	105
231.37	118
231.604	107
231.838	120
232.072	125
232.306	127
232.541	147
232.775	104
233.009	133
233.243	131
233.477	124
233.711	136
233.945	140
234.179	133
234.413	128
234.647	130
234.881	116
235.115	131
235.349	135
235.583	130
235.817	120
236.051	137
236.285	119
236.519	134
236.753	131
236.987	133
237.221	130
237.455	134
237.689	124
237.922	112
238.156	140
238.39	140
238.624	121
238.858	115
239.091	138
239.325	120
239.559	128
239.793	131
240.027	136
240.26	127
240.494	143
240.728	140
240.961	137
241.195	159
241.429	124
241.662	124
241.896	147
242.13	137
242.363	156
242.597	154
242.83	145
243.064	140
243.298	154
243.531	148
243.765	150
243.998	143
244.232	153
244.465	165
244.699	160
244.932	173
245.166	152
245.399	170
245.633	147
245.866	165
246.099	155
246.333	168
246.566	162
246.8	181
247.033	152
247.266	181
247.5	172
247.733	164
247.966	180
248.2	178
248.433	151
248.666	181
248.899	182
249.133	187
249.366	188
249.599	185
249.832	173
250.066	188
250.299	179
250.532	181
250.765	172
250.998	187
251.231	185
251.465	188
251.698	194
251.931	187
252.164	193
252.397	184
252.63	186
252.863	193
253.096	209
253.329	191
253.562	190
253.795	205
254.028	194
254.261	191
254.494	192
254.727	200
254.96	200
255.193	209
255.426	199
255.659	177
255.892	206
256.124	219
256.357	204
256.59	231
256.823	209
257.056	212
257.289	215
257.521	207
257.754	217
257.987	223
258.22	224
258.452	212
258.685	219
258.918	213
259.151	209
259.383	228
259.616	214
259.849	205
260.081	224
260.314	236
260.547	223
260.779	236
261.012	232
261.244	224
261.477	225
261.71	224
261.942	228
262.175	241
262.407	229
262.64	229
262.872	233
263.105	205
263.337	220
263.57	242
263.802	234
264.035	257
264.267	223
264.499	248
264.732	230
264.964	244
265.197	268
265.429	259
265.661	225
265.894	252
266.126	258
266.358	248
266.591	255
266.823	253
267.055	265
267.287	261
267.52	248
267.752	257
267.984	261
268.216	251
268.448	252
268.681	266
268.913	268
269.145	261
269.377	262
269.609	247
269.841	282
270.073	274
270.306	265
270.538	268
270.77	287
271.002	278
271.234	268
271.466	261
271.698	278
271.93	267
272.162	283
272.394	263
272.626	284
272.858	284
273.09	277
273.322	267
273.553	290
273.785	296
274.017	285
274.249	285
274.481	272
274.713	298
274.945	314
275.176	291
275.408	291
275.64	303
275.872	295
276.104	291
276.335	300
276.567	284
276.799	329
277.031	303
277.262	291
277.494	307
277.726	293
277.957	300
278.189	291
278.421	300
278.652	310
278.884	315
279.115	310
279.347	307
279.579	300
279.81	308
280.042	333
280.273	296
280.505	319
280.736	319
280.968	328
281.199	316
281.431	336
281.662	336
281.894	320
282.125	322
282.356	313
282.588	325
282.819	317
283.051	323
283.282	347
283.513	337
283.745	322
283.976	329
284.207	337
284.439	330
284.67	358
284.901	335
285.132	352
285.364	340
285.595	350
285.826	368
286.057	351
286.288	339
286.52	333
286.751	345
286.982	374
287.213	344
287.444	358
287.675	362
287.906	362
288.138	339
288.369	355
288.6	337
288.831	371
289.062	367
289.293	371
289.524	355
289.755	363
289.986	344
290.217	365
290.448	356
290.679	364
290.91	360
291.141	355
291.371	371
291.602	351
291.833	376
292.064	361
292.295	373
292.526	368
292.757	376
292.987	383
293.218	357
293.449	379
293.68	369
293.91	368
294.141	348
294.372	355
294.603	367
294.833	383
295.064	373
295.295	383
295.525	369
295.756	377
295.987	374
296.217	382
296.448	381
296.679	364
296.909	366
297.14	395
297.37	391
297.601	402
297.831	385
298.062	385
298.292	392
298.523	401
298.753	391
298.984	385
299.214	414
299.445	406
299.675	397
299.905	414
300.136	379
300.366	378
300.597	394
300.827	413
301.057	417
301.288	419
301.518	415
301.748	416
301.979	418
302.209	425
302.439	427
302.669	413
302.9	405
303.13	389
303.36	426
303.59	402
303.82	414
304.051	393
304.281	420
304.511	407
304.741	431
304.971	422
305.201	429
305.431	409
305.661	415
305.891	406
306.121	411
306.352	409
306.582	412
306.812	405
307.042	401
307.272	398
307.502	413
307.731	419
307.961	424
308.191	418
308.421	410
308.651	400
308.881	400
309.111	410
309.341	417
309.571	416
309.8	408
310.03	416
310.26	421
310.49	421
310.72	412
310.949	414
311.179	414
311.409	428
311.639	411
311.868	427
312.098	420
312.328	431
312.557	437
312.787	446
313.017	435
313.246	429
313.476	419
313.706	411
313.935	448
314.165	441
314.394	458
314.624	442
314.853	432
315.083	438
315.312	461
315.542	427
315.771	432
316.001	436
316.23	443
316.46	423
316.689	450
316.919	433
317.148	426
317.377	417
317.607	425
317.836	420
318.065	421
318.295	457
318.524	417
318.753	433
318.983	435
319.212	429
319.441	434
319.67	447
319.9	447
320.129	420
320.358	420
320.587	426
320.816	443
321.046	428
321.275	429
321.504	439
321.733	432
321.962	454
322.191	426
322.42	452
322.649	433
322.878	438
323.108	457
323.337	461
323.566	452
323.795	444
324.024	433
324.253	437
324.482	438
324.71	445
324.939	463
325.168	450
325.397	453
325.626	464
325.855	472
326.084	481
326.313	460
326.542	471
326.77	492
326.999	454
327.228	465
327.457	471
327.686	473
327.914	476
328.143	475
328.372	474
328.6	479
328.829	466
329.058	478
329.287	472
329.515	491
329.744	489
329.972	485
330.201	502
330.43	489
330.658	491
330.887	486
331.115	479
331.344	525
331.572	526
331.801	532
332.03	505
332.258	517
332.486	551
332.715	591
332.943	588
333.172	599
333.4	610
333.629	637
333.857	669
334.085	635
334.314	628
334.542	625
334.771	603
334.999	605
335.227	608
335.455	600
335.684	580
335.912	583
336.14	573
336.369	574
336.597	565
336.825	578
337.053	570
337.281	568
337.51	544
337.738	550
337.966	539
338.194	538
338.422	544
338.65	533
338.878	520
339.106	502
339.334	523
339.562	537
339.79	513
340.018	528
340.246	509
340.474	513
340.702	512
340.93	504
341.158	531
341.386	504
341.614	544
341.842	505
342.07	485
342.298	506
342.526	503
342.754	496
342.981	500
343.209	522
343.437	555
343.665	588
343.893	595
344.12	607
344.348	593
344.576	585
344.804	538
345.031	523
345.259	511
345.487	509
345.714	509
345.942	500
346.17	517
346.397	484
346.625	498
346.853	479
347.08	492
347.308	486
347.535	493
347.763	489
347.99	499
348.218	502
348.445	490
348.673	480
348.9	480
349.128	500
349.355	479
349.583	487
349.81	505
350.037	463
350.265	483
350.492	456
350.72	471
350.947	468
351.174	485
351.402	480
351.629	481
351.856	485
352.083	455
352.311	476
352.538	473
352.765	467
352.992	443
353.22	469
353.447	458
353.674	479
353.901	456
354.128	464
354.355	469
354.583	499
354.81	455
355.037	482
355.264	487
355.491	486
355.718	469
355.945	462
356.172	448
356.399	490
356.626	474
356.853	467
357.08	479
357.307	458
357.534	465
357.761	483
357.988	464
358.215	464
358.441	470
358.668	464
358.895	457
359.122	470
359.349	452
359.576	482
359.802	485
360.029	477
360.256	474
360.483	469
360.709	466
360.936	474
361.163	474
361.39	469
361.616	475
361.843	474
362.07	473
362.296	480
362.523	438
362.749	463
362.976	458
363.203	468
363.429	467
363.656	461
363.882	468
364.109	461
364.335	484
364.562	461
364.788	453
365.015	479
365.241	460
365.468	468
365.694	468
365.92	475
366.147	468
366.373	474
366.599	468
366.826	459
367.052	463
367.278	475
367.505	465
367.731	469
367.957	477
368.184	478
368.41	485
368.636	482
368.862	479
369.089	488
369.315	480
369.541	472
369.767	499
369.993	472
370.219	511
370.445	499
370.672	513
370.898	538
371.124	507
371.35	517
371.576	509
371.802	491
372.028	497
372.254	512
372.48	537
372.706	516
372.932	533
373.158	533
373.384	514
373.61	493
373.835	511
374.061	525
374.287	520
374.513	539
374.739	521
374.965	553
375.191	569
375.416	570
375.642	547
375.868	539
376.094	561
376.319	513
376.545	518
376.771	527
376.997	516
377.222	525
377.448	520
377.674	506
377.899	523
378.125	502
378.35	518
378.576	503
378.802	499
379.027	484
379.253	513
379.478	499
379.704	515
379.929	538
380.155	514
380.38	526
380.606	511
380.831	539
381.057	523
381.282	509
381.507	514
381.733	517
381.958	498
382.184	515
382.409	523
382.634	550
382.86	550
383.085	542
383.31	563
383.535	570
383.761	564
383.986	567
384.211	595
384.436	599
384.662	595
384.887	603
385.112	601
385.337	645
385.562	635
385.787	611
386.013	621
386.238	613
386.463	619
386.688	585
386.913	602
387.138	596
387.363	591
387.588	587
387.813	607
388.038	593
388.263	603
388.488	597
388.713	600
388.938	611
389.163	593
389.387	600
389.612	606
389.837	619
390.062	602
390.287	613
390.512	591
390.736	629
390.961	618
391.186	633
391.411	644
391.636	674
391.86	684
392.085	676
392.31	680
392.534	664
392.759	677
392.984	639
393.208	658
393.433	644
393.658	643
393.882	646
394.107	633
394.331	627
394.556	685
394.78	657
395.005	693
395.229	659
395.454	689
395.678	691
395.903	694
396.127	676
396.352	655
396.576	652
396.801	637
397.025	694
397.249	669
397.474	719
397.698	665
397.922	689
398.147	694
398.371	693
398.595	737
398.82	767
399.044	805
399.268	887
399.492	1012
399.717	1137
399.941	1079
400.165	1002
400.389	944
400.613	856
400.837	816
401.062	779
401.286	769
401.51	803
401.734	783
401.958	781
402.182	779
402.406	808
402.63	788
402.854	812
403.078	841
403.302	843
403.526	881
403.75	882
403.974	895
404.198	845
404.422	853
404.645	874
404.869	873
405.093	837
405.317	820
405.541	851
405.765	841
405.988	815
406.212	841
406.436	831
406.66	880
406.883	876
407.107	923
407.331	951
407.555	978
407.778	943
408.002	945
408.226	919
408.449	901
408.673	902
408.896	864
409.12	855
409.344	854
409.567	852
409.791	850
410.014	844
410.238	852
410.461	832
410.685	817
410.908	822
411.132	817
411.355	799
411.578	807
411.802	777
412.025	795
412.249	829
412.472	796
412.695	759
412.919	757
413.142	756
413.365	793
413.589	775
413.812	758
414.035	757
414.258	746
414.482	765
414.705	768
414.928	787
415.151	772
415.374	794
415.597	749
415.821	754
416.044	740
416.267	753
416.49	757
416.713	765
416.936	759
417.159	749
417.382	728
417.605	747
417.828	775
418.051	757
418.274	776
418.497	743
418.72	778
418.943	763
419.166	808
419.389	849
419.611	833
419.834	796
420.057	784
420.28	785
420.503	732
420.726	747
420.948	744
421.171	739
421.394	757
421.617	768
421.839	739
422.062	759
422.285	743
422.507	740
422.73	789
422.953	773
423.175	771
423.398	789
423.621	790
423.843	791
424.066	788
424.288	789
424.511	785
424.733	796
424.956	781
425.178	751
425.401	772
425.623	755
425.846	705
426.068	724
426.291	732
426.513	705
426.735	711
426.958	705
427.18	691
427.402	687
427.625	688
427.847	678
428.069	678
428.292	699
428.514	661
428.736	645
428.958	654
429.181	643
429.403	641
429.625	664
429.847	677
430.069	657
430.292	694
430.514	661
430.736	671
430.958	658
431.18	651
431.402	662
431.624	646
431.846	671
432.068	691
432.29	699
432.512	650
432.734	697
432.956	665
433.178	663
433.4	652
433.622	669
433.844	669
434.066	676
434.287	679
434.509	709
434.731	727
434.953	726
435.175	746
435.397	736
435.618	692
435.84	683
436.062	693
436.284	673
436.505	713
436.727	706
436.949	677
437.17	667
437.392	654
437.614	649
437.835	650
438.057	673
438.278	651
438.5	628
438.721	657
438.943	648
439.165	650
439.386	661
439.608	676
439.829	663
440.05	667
440.272	691
440.493	667
440.715	673
440.936	667
441.158	693
441.379	714
441.6	755
441.822	747
442.043	771
442.264	755
442.486	727
442.707	756
442.928	748
443.149	736
443.371	734
443.592	764
443.813	738
444.034	742
444.255	803
444.476	823
444.698	854
444.919	893
445.14	971
445.361	877
445.582	798
445.803	749
446.024	736
446.245	721
446.466	694
446.687	684
446.908	683
447.129	650
447.35	641
447.571	635
447.792	635
448.013	641
448.234	625
448.455	646
448.675	628
448.896	626
449.117	615
449.338	597
449.559	610
449.779	607
450	599
450.221	639
450.442	623
450.662	616
450.883	631
451.104	614
451.324	631
451.545	633
451.766	632
451.986	611
452.207	623
452.428	613
452.648	610
452.869	612
453.089	607
453.31	605
453.53	595
453.751	587
453.971	598
454.192	587
454.412	592
454.633	596
454.853	588
455.073	596
455.294	598
455.514	583
455.734	555
455.955	575
456.175	600
456.395	576
456.616	575
456.836	556
457.056	585
457.276	587
457.497	573
457.717	577
457.937	573
458.157	591
458.377	611
458.598	599
458.818	651
459.038	647
459.258	652
459.478	659
459.698	695
459.918	717
460.138	738
460.358	760
460.578	811
460.798	799
461.018	807
461.238	781
461.458	775
461.678	771
461.898	807
462.118	806
462.338	850
462.558	890
462.777	896
462.997	965
463.217	1068
463.437	1018
463.657	956
463.876	918
464.096	905
464.316	892
464.536	915
464.755	861
464.975	837
465.195	803
465.414	765
465.634	744
465.854	712
466.073	701
466.293	659
466.512	672
466.732	661
466.951	666
467.171	624
467.391	647
467.61	654
467.829	654
468.049	648
468.268	629
468.488	627
468.707	603
468.927	608
469.146	616
469.365	651
469.585	633
469.804	644
470.023	678
470.243	674
470.462	657
470.681	668
470.901	668
471.12	666
471.339	635
471.558	628
471.777	663
471.997	616
472.216	605
472.435	611
472.654	620
472.873	567
473.092	597
473.311	623
473.53	592
473.749	599
473.968	621
474.187	611
474.406	599
474.625	618
474.844	623
475.063	615
475.282	635
475.501	609
475.72	620
475.939	612
476.158	633
476.377	629
476.596	621
476.814	635
477.033	632
477.252	662
477.471	675
477.69	667
477.908	682
478.127	742
478.346	714
478.564	728
478.783	742
479.002	785
479.22	783
479.439	731
479.658	740
479.876	747
480.095	736
480.313	799
480.532	811
480.751	793
480.969	752
481.188	741
481.406	710
481.624	715
481.843	712
482.061	709
482.28	687
482.498	692
482.717	695
482.935	677
483.153	697
483.372	708
483.59	707
483.808	699
484.027	683
484.245	696
484.463	695
484.681	713
484.9	684
485.118	718
485.336	703
485.554	713
485.772	732
485.99	731
486.209	712
486.427	704
486.645	751
486.863	732
487.081	754
487.299	723
487.517	717
487.735	742
487.953	727
488.171	748
488.389	711
488.607	743
488.825	721
489.043	732
489.261	723
489.479	723
489.696	714
489.914	730
490.132	728
490.35	773
490.568	762
490.786	720
491.003	747
491.221	771
491.439	747
491.657	744
491.874	758
492.092	743
492.31	759
492.527	781
492.745	763
492.963	757
493.18	787
493.398	760
493.615	792
493.833	774
494.05	788
494.268	770
494.485	807
494.703	790
494.92	772
495.138	800
495.355	786
495.573	769
495.79	800
496.008	819
496.225	789
496.442	811
496.66	822
496.877	845
497.094	843
497.312	865
497.529	865
497.746	899
497.963	911
498.181	936
498.398	980
498.615	1043
498.832	1114
499.049	1185
499.267	1304
499.484	1419
499.701	1541
499.918	1697
500.135	1925
500.352	2163
500.569	2205
500.786	2228
501.003	2009
501.22	1825
501.437	1651
501.654	1465
501.871	1318
502.088	1236
502.305	1175
502.522	1097
502.739	1050
502.956	1039
503.172	984
503.389	973
503.606	922
503.823	901
504.04	911
504.256	916
504.473	918
504.69	927
504.907	899
505.123	848
505.34	819
505.557	778
505.773	787
505.99	766
506.207	712
506.423	753
506.64	718
506.856	707
507.073	692
507.289	690
507.506	701
507.722	717
507.939	684
508.155	668
508.372	659
508.588	638
508.805	667
509.021	659
509.238	667
509.454	643
509.67	643
509.887	631
510.103	644
510.319	637
510.536	651
510.752	652
510.968	636
511.184	618
511.401	635
511.617	627
511.833	635
512.049	634
512.265	641
512.481	635
512.698	618
512.914	622
513.13	629
513.346	658
513.562	651
513.778	646
513.994	633
514.21	665
514.426	644
514.642	639
514.858	626
515.074	653
515.29	656
515.506	633
515.721	658
515.937	671
516.153	671
516.369	701
516.585	731
516.801	761
517.016	782
517.232	819
517.448	827
517.664	853
517.879	855
518.095	889
518.311	844
518.527	801
518.742	786
518.958	777
519.173	737
519.389	723
519.605	709
519.82	708
520.036	687
520.251	659
520.467	649
520.682	635
520.898	630
521.113	626
521.329	649
521.544	601
521.76	620
521.975	614
522.19	609
522.406	586
522.621	604
522.836	599
523.052	602
523.267	581
523.482	599
523.698	600
523.913	582
524.128	610
524.343	585
524.559	586
524.774	589
524.989	600
525.204	593
525.419	602
525.634	586
525.849	595
526.064	596
526.28	574
526.495	564
526.71	548
526.925	568
527.14	559
527.355	543
527.57	557
527.785	585
527.999	583
528.214	572
528.429	579
528.644	584
528.859	597
529.074	579
529.289	573
529.503	570
529.718	581
529.933	566
530.148	572
530.363	595
530.577	571
530.792	535
531.007	544
531.221	571
531.436	593
531.651	546
531.865	563
532.08	548
532.295	565
532.509	572
532.724	546
532.938	577
533.153	562
533.367	569
533.582	578
533.796	565
534.011	594
534.225	558
534.44	536
534.654	571
534.868	547
535.083	567
535.297	563
535.511	551
535.726	564
535.94	550
536.154	540
536.369	535
536.583	552
536.797	537
537.011	555
537.225	517
537.44	543
537.654	533
537.868	507
538.082	521
538.296	520
538.51	531
538.724	529
538.938	505
539.153	511
539.367	542
539.581	532
539.795	514
540.009	511
540.222	536
540.436	499
540.65	518
540.864	545
541.078	503
541.292	555
541.506	509
541.72	522
541.934	524
542.147	527
542.361	525
542.575	529
542.789	523
543.002	493
543.216	535
543.43	511
543.644	524
543.857	509
544.071	508
544.285	537
544.498	541
544.712	521
544.925	519
545.139	543
545.352	533
545.566	545
545.779	525
545.993	529
546.206	544
546.42	523
546.633	547
546.847	531
547.06	522
547.274	536
547.487	529
547.7	533
547.914	535
548.127	541
548.34	535
548.554	548
548.767	533
548.98	547
549.193	543
549.407	537
549.62	538
549.833	544
550.046	549
550.259	543
550.473	537
550.686	536
550.899	518
551.112	502
551.325	523
551.538	539
551.751	525
551.964	535
552.177	545
552.39	520
552.603	534
552.816	561
553.029	581
553.242	561
553.455	570
553.667	584
553.88	583
554.093	551
554.306	564
554.519	529
554.732	531
554.944	536
555.157	509
555.37	477
555.583	503
555.795	487
556.008	483
556.221	475
556.433	463
556.646	478
556.859	471
557.071	472
557.284	446
557.496	471
557.709	459
557.921	451
558.134	461
558.346	467
558.559	462
558.771	459
558.984	444
559.196	439
559.409	434
559.621	450
559.833	448
560.046	433
560.258	411
560.47	428
560.683	436
560.895	439
561.107	428
561.32	423
561.532	450
561.744	460
561.956	439
562.168	428
562.381	437
562.593	441
562.805	439
