Data from NiCl2@0.25M.TitratingCurve.Agarose3%dH2O.NegLispCup.LampEnergy10.LIBS07252019_HRD10591_18-25-23-627.txt Node
Date: Thu Jul 25 18:25:23 EDT 2019
User: cochatt
Spectrometer: HR+D1059
Trigger mode: 1
Integration Time (sec): 1.000000E-1
Scans to average: 1
Electric dark correction enabled: true
Nonlinearity correction enabled: false
Boxcar width: 0
XAxis mode: Wavelengths
Number of Pixels in Spectrum: 2048
>>>>>Begin Spectral Data<<<<<
223.165	-9.31
223.4	-9.31
223.635	-9.31
223.869	-18.31
224.104	-20.31
224.338	-4.31
224.573	-20.31
224.808	-15.31
225.042	-28.31
225.277	4.69
225.511	-16.31
225.746	-0.31
225.98	11.69
226.215	4.69
226.449	23.69
226.683	27.69
226.918	28.69
227.152	31.69
227.387	32.69
227.621	39.69
227.856	37.69
228.09	46.69
228.324	43.69
228.559	53.69
228.793	78.69
229.027	123.69
229.262	137.69
229.496	139.69
229.73	130.69
229.964	142.69
230.199	163.69
230.433	137.69
230.667	141.69
230.901	153.69
231.136	149.69
231.37	166.69
231.604	163.69
231.838	161.69
232.072	157.69
232.306	159.69
232.541	150.69
232.775	181.69
233.009	179.69
233.243	167.69
233.477	169.69
233.711	181.69
233.945	191.69
234.179	173.69
234.413	177.69
234.647	172.69
234.881	175.69
235.115	173.69
235.349	191.69
235.583	180.69
235.817	179.69
236.051	183.69
236.285	177.69
236.519	188.69
236.753	199.69
236.987	182.69
237.221	181.69
237.455	183.69
237.689	205.69
237.922	199.69
238.156	186.69
238.39	207.69
238.624	197.69
238.858	200.69
239.091	198.69
239.325	207.69
239.559	210.69
239.793	206.69
240.027	199.69
240.26	218.69
240.494	221.69
240.728	202.69
240.961	224.69
241.195	214.69
241.429	218.69
241.662	225.69
241.896	232.69
242.13	239.69
242.363	242.69
242.597	231.69
242.83	221.69
243.064	241.69
243.298	242.69
243.531	242.69
243.765	259.69
243.998	228.69
244.232	253.69
244.465	262.69
244.699	269.69
244.932	254.69
245.166	275.69
245.399	277.69
245.633	246.69
245.866	277.69
246.099	268.69
246.333	277.69
246.566	257.69
246.8	266.69
247.033	268.69
247.266	269.69
247.5	282.69
247.733	286.69
247.966	289.69
248.2	275.69
248.433	281.69
248.666	277.69
248.899	293.69
249.133	291.69
249.366	319.69
249.599	309.69
249.832	312.69
250.066	315.69
250.299	320.69
250.532	317.69
250.765	314.69
250.998	301.69
251.231	305.69
251.465	313.69
251.698	318.69
251.931	333.69
252.164	323.69
252.397	325.69
252.63	338.69
252.863	334.69
253.096	336.69
253.329	321.69
253.562	343.69
253.795	323.69
254.028	357.69
254.261	355.69
254.494	352.69
254.727	331.69
254.96	341.69
255.193	335.69
255.426	332.69
255.659	357.69
255.892	357.69
256.124	376.69
256.357	351.69
256.59	350.69
256.823	357.69
257.056	339.69
257.289	357.69
257.521	347.69
257.754	370.69
257.987	381.69
258.22	381.69
258.452	381.69
258.685	388.69
258.918	381.69
259.151	386.69
259.383	386.69
259.616	380.69
259.849	373.69
260.081	394.69
260.314	405.69
260.547	406.69
260.779	390.69
261.012	407.69
261.244	407.69
261.477	385.69
261.71	397.69
261.942	406.69
262.175	402.69
262.407	409.69
262.64	417.69
262.872	420.69
263.105	431.69
263.337	426.69
263.57	409.69
263.802	424.69
264.035	406.69
264.267	417.69
264.499	446.69
264.732	447.69
264.964	424.69
265.197	453.69
265.429	457.69
265.661	409.69
265.894	436.69
266.126	423.69
266.358	439.69
266.591	443.69
266.823	438.69
267.055	454.69
267.287	451.69
267.52	441.69
267.752	439.69
267.984	443.69
268.216	454.69
268.448	442.69
268.681	462.69
268.913	474.69
269.145	461.69
269.377	474.69
269.609	471.69
269.841	461.69
270.073	459.69
270.306	470.69
270.538	466.69
270.77	474.69
271.002	465.69
271.234	478.69
271.466	492.69
271.698	473.69
271.93	478.69
272.162	478.69
272.394	485.69
272.626	488.69
272.858	480.69
273.09	504.69
273.322	510.69
273.553	507.69
273.785	494.69
274.017	516.69
274.249	503.69
274.481	495.69
274.713	500.69
274.945	510.69
275.176	524.69
275.408	519.69
275.64	506.69
275.872	512.69
276.104	531.69
276.335	528.69
276.567	532.69
276.799	508.69
277.031	519.69
277.262	507.69
277.494	550.69
277.726	533.69
277.957	531.69
278.189	546.69
278.421	542.69
278.652	534.69
278.884	577.69
279.115	571.69
279.347	579.69
279.579	547.69
279.81	557.69
280.042	558.69
280.273	560.69
280.505	568.69
280.736	554.69
280.968	535.69
281.199	565.69
281.431	582.69
281.662	588.69
281.894	581.69
282.125	581.69
282.356	584.69
282.588	595.69
282.819	586.69
283.051	602.69
283.282	568.69
283.513	599.69
283.745	609.69
283.976	590.69
284.207	595.69
284.439	613.69
284.67	609.69
284.901	606.69
285.132	612.69
285.364	610.69
285.595	613.69
285.826	629.69
286.057	629.69
286.288	618.69
286.52	653.69
286.751	649.69
286.982	634.69
287.213	620.69
287.444	641.69
287.675	633.69
287.906	638.69
288.138	650.69
288.369	638.69
288.6	643.69
288.831	628.69
289.062	638.69
289.293	639.69
289.524	667.69
289.755	658.69
289.986	653.69
290.217	637.69
290.448	658.69
290.679	653.69
290.91	655.69
291.141	638.69
291.371	655.69
291.602	662.69
291.833	660.69
292.064	672.69
292.295	649.69
292.526	643.69
292.757	669.69
292.987	654.69
293.218	658.69
293.449	678.69
293.68	670.69
293.91	655.69
294.141	653.69
294.372	671.69
294.603	663.69
294.833	671.69
295.064	672.69
295.295	668.69
295.525	669.69
295.756	696.69
295.987	694.69
296.217	663.69
296.448	669.69
296.679	695.69
296.909	683.69
297.14	685.69
297.37	707.69
297.601	728.69
297.831	726.69
298.062	738.69
298.292	740.69
298.523	749.69
298.753	742.69
298.984	740.69
299.214	742.69
299.445	717.69
299.675	697.69
299.905	734.69
300.136	729.69
300.366	741.69
300.597	741.69
300.827	743.69
301.057	769.69
301.288	753.69
301.518	747.69
301.748	782.69
301.979	757.69
302.209	771.69
302.439	742.69
302.669	742.69
302.9	759.69
303.13	748.69
303.36	758.69
303.59	737.69
303.82	731.69
304.051	746.69
304.281	744.69
304.511	720.69
304.741	761.69
304.971	771.69
305.201	771.69
305.431	742.69
305.661	743.69
305.891	706.69
306.121	725.69
306.352	733.69
306.582	748.69
306.812	723.69
307.042	725.69
307.272	719.69
307.502	734.69
307.731	732.69
307.961	716.69
308.191	742.69
308.421	732.69
308.651	735.69
308.881	718.69
309.111	759.69
309.341	714.69
309.571	755.69
309.8	760.69
310.03	755.69
310.26	738.69
310.49	734.69
310.72	742.69
310.949	747.69
311.179	781.69
311.409	753.69
311.639	773.69
311.868	752.69
312.098	762.69
312.328	785.69
312.557	770.69
312.787	753.69
313.017	788.69
313.246	773.69
313.476	793.69
313.706	801.69
313.935	770.69
314.165	819.69
314.394	789.69
314.624	803.69
314.853	803.69
315.083	793.69
315.312	811.69
315.542	768.69
315.771	780.69
316.001	789.69
316.23	781.69
316.46	784.69
316.689	791.69
316.919	774.69
317.148	774.69
317.377	771.69
317.607	763.69
317.836	777.69
318.065	758.69
318.295	769.69
318.524	763.69
318.753	765.69
318.983	766.69
319.212	777.69
319.441	747.69
319.67	769.69
319.9	773.69
320.129	759.69
320.358	786.69
320.587	765.69
320.816	749.69
321.046	760.69
321.275	778.69
321.504	787.69
321.733	786.69
321.962	790.69
322.191	780.69
322.42	799.69
322.649	777.69
322.878	801.69
323.108	791.69
323.337	797.69
323.566	813.69
323.795	810.69
324.024	798.69
324.253	810.69
324.482	805.69
324.71	818.69
324.939	805.69
325.168	812.69
325.397	805.69
325.626	842.69
325.855	823.69
326.084	839.69
326.313	845.69
326.542	852.69
326.77	859.69
326.999	845.69
327.228	817.69
327.457	841.69
327.686	832.69
327.914	844.69
328.143	837.69
328.372	852.69
328.6	857.69
328.829	857.69
329.058	848.69
329.287	862.69
329.515	859.69
329.744	886.69
329.972	905.69
330.201	873.69
330.43	891.69
330.658	888.69
330.887	903.69
331.115	867.69
331.344	906.69
331.572	897.69
331.801	932.69
332.03	931.69
332.258	980.69
332.486	958.69
332.715	1010.69
332.943	1063.69
333.172	1087.69
333.4	1117.69
333.629	1148.69
333.857	1173.69
334.085	1164.69
334.314	1141.69
334.542	1138.69
334.771	1097.69
334.999	1108.69
335.227	1077.69
335.455	1080.69
335.684	1070.69
335.912	1043.69
336.14	1035.69
336.369	1062.69
336.597	1060.69
336.825	1020.69
337.053	1033.69
337.281	1014.69
337.51	981.69
337.738	966.69
337.966	955.69
338.194	924.69
338.422	907.69
338.65	942.69
338.878	929.69
339.106	957.69
339.334	945.69
339.562	921.69
339.79	913.69
340.018	887.69
340.246	875.69
340.474	898.69
340.702	881.69
340.93	907.69
341.158	879.69
341.386	917.69
341.614	893.69
341.842	907.69
342.07	884.69
342.298	898.69
342.526	891.69
342.754	887.69
342.981	890.69
343.209	898.69
343.437	966.69
343.665	999.69
343.893	1056.69
344.12	1102.69
344.348	1045.69
344.576	997.69
344.804	957.69
345.031	903.69
345.259	898.69
345.487	914.69
345.714	908.69
345.942	873.69
346.17	868.69
346.397	889.69
346.625	859.69
346.853	854.69
347.08	872.69
347.308	850.69
347.535	860.69
347.763	857.69
347.99	862.69
348.218	871.69
348.445	889.69
348.673	855.69
348.9	861.69
349.128	895.69
349.355	872.69
349.583	829.69
349.81	833.69
350.037	847.69
350.265	815.69
350.492	833.69
350.72	819.69
350.947	834.69
351.174	807.69
351.402	813.69
351.629	837.69
351.856	822.69
352.083	833.69
352.311	822.69
352.538	821.69
352.765	832.69
352.992	817.69
353.22	801.69
353.447	807.69
353.674	828.69
353.901	834.69
354.128	809.69
354.355	797.69
354.583	822.69
354.81	807.69
355.037	832.69
355.264	819.69
355.491	833.69
355.718	813.69
355.945	826.69
356.172	828.69
356.399	838.69
356.626	837.69
356.853	830.69
357.08	809.69
357.307	846.69
357.534	836.69
357.761	818.69
357.988	840.69
358.215	817.69
358.441	817.69
358.668	833.69
358.895	836.69
359.122	819.69
359.349	857.69
359.576	838.69
359.802	843.69
360.029	833.69
360.256	821.69
360.483	832.69
360.709	835.69
360.936	823.69
361.163	838.69
361.39	819.69
361.616	823.69
361.843	839.69
362.07	826.69
362.296	828.69
362.523	841.69
362.749	833.69
362.976	819.69
363.203	833.69
363.429	817.69
363.656	838.69
363.882	829.69
364.109	824.69
364.335	818.69
364.562	830.69
364.788	829.69
365.015	845.69
365.241	811.69
365.468	827.69
365.694	847.69
365.92	813.69
366.147	813.69
366.373	837.69
366.599	831.69
366.826	825.69
367.052	797.69
367.278	827.69
367.505	801.69
367.731	821.69
367.957	841.69
368.184	820.69
368.41	819.69
368.636	838.69
368.862	855.69
369.089	830.69
369.315	836.69
369.541	859.69
369.767	847.69
369.993	860.69
370.219	839.69
370.445	867.69
370.672	853.69
370.898	866.69
371.124	885.69
371.35	913.69
371.576	927.69
371.802	921.69
372.028	890.69
372.254	914.69
372.48	933.69
372.706	948.69
372.932	925.69
373.158	924.69
373.384	920.69
373.61	929.69
373.835	909.69
374.061	891.69
374.287	918.69
374.513	927.69
374.739	961.69
374.965	990.69
375.191	1012.69
375.416	980.69
375.642	956.69
375.868	958.69
376.094	942.69
376.319	921.69
376.545	895.69
376.771	922.69
376.997	899.69
377.222	896.69
377.448	879.69
377.674	894.69
377.899	874.69
378.125	894.69
378.35	881.69
378.576	873.69
378.802	895.69
379.027	883.69
379.253	889.69
379.478	891.69
379.704	907.69
379.929	900.69
380.155	892.69
380.38	888.69
380.606	906.69
380.831	875.69
381.057	881.69
381.282	901.69
381.507	895.69
381.733	887.69
381.958	885.69
382.184	904.69
382.409	935.69
382.634	939.69
382.86	938.69
383.085	934.69
383.31	953.69
383.535	981.69
383.761	979.69
383.986	993.69
384.211	1007.69
384.436	1053.69
384.662	1051.69
384.887	1073.69
385.112	1091.69
385.337	1093.69
385.562	1084.69
385.787	1101.69
386.013	1101.69
386.238	1117.69
386.463	1085.69
386.688	1101.69
386.913	1071.69
387.138	1071.69
387.363	1064.69
387.588	1032.69
387.813	1105.69
388.038	1074.69
388.263	1090.69
388.488	1063.69
388.713	1086.69
388.938	1068.69
389.163	1086.69
389.387	1049.69
389.612	1078.69
389.837	1041.69
390.062	1049.69
390.287	1051.69
390.512	1062.69
390.736	1104.69
390.961	1074.69
391.186	1086.69
391.411	1126.69
391.636	1172.69
391.86	1203.69
392.085	1244.69
392.31	1245.69
392.534	1209.69
392.759	1179.69
392.984	1141.69
393.208	1153.69
393.433	1129.69
393.658	1135.69
393.882	1151.69
394.107	1191.69
394.331	1174.69
394.556	1123.69
394.78	1181.69
395.005	1177.69
395.229	1192.69
395.454	1225.69
395.678	1218.69
395.903	1225.69
396.127	1217.69
396.352	1197.69
396.576	1177.69
396.801	1172.69
397.025	1167.69
397.249	1169.69
397.474	1224.69
397.698	1236.69
397.922	1231.69
398.147	1230.69
398.371	1292.69
398.595	1286.69
398.82	1374.69
399.044	1452.69
399.268	1582.69
399.492	1842.69
399.717	2059.69
399.941	2062.69
400.165	1894.69
400.389	1686.69
400.613	1565.69
400.837	1493.69
401.062	1439.69
401.286	1368.69
401.51	1386.69
401.734	1381.69
401.958	1383.69
402.182	1407.69
402.406	1431.69
402.63	1405.69
402.854	1453.69
403.078	1480.69
403.302	1499.69
403.526	1554.69
403.75	1534.69
403.974	1574.69
404.198	1602.69
404.422	1567.69
404.645	1586.69
404.869	1569.69
405.093	1540.69
405.317	1521.69
405.541	1516.69
405.765	1499.69
405.988	1477.69
406.212	1501.69
406.436	1509.69
406.66	1542.69
406.883	1575.69
407.107	1662.69
407.331	1724.69
407.555	1795.69
407.778	1777.69
408.002	1778.69
408.226	1705.69
408.449	1654.69
408.673	1587.69
408.896	1573.69
409.12	1517.69
409.344	1550.69
409.567	1507.69
409.791	1559.69
410.014	1533.69
410.238	1507.69
410.461	1530.69
410.685	1505.69
410.908	1456.69
411.132	1445.69
411.355	1374.69
411.578	1443.69
411.802	1401.69
412.025	1420.69
412.249	1446.69
412.472	1447.69
412.695	1405.69
412.919	1359.69
413.142	1379.69
413.365	1332.69
413.589	1372.69
413.812	1334.69
414.035	1349.69
414.258	1361.69
414.482	1373.69
414.705	1399.69
414.928	1369.69
415.151	1398.69
415.374	1375.69
415.597	1355.69
415.821	1330.69
416.044	1341.69
416.267	1286.69
416.49	1317.69
416.713	1323.69
416.936	1323.69
417.159	1345.69
417.382	1319.69
417.605	1308.69
417.828	1333.69
418.051	1320.69
418.274	1366.69
418.497	1335.69
418.72	1394.69
418.943	1384.69
419.166	1473.69
419.389	1573.69
419.611	1529.69
419.834	1467.69
420.057	1417.69
420.28	1356.69
420.503	1306.69
420.726	1338.69
420.948	1345.69
421.171	1324.69
421.394	1325.69
421.617	1315.69
421.839	1375.69
422.062	1351.69
422.285	1311.69
422.507	1363.69
422.73	1358.69
422.953	1340.69
423.175	1393.69
423.398	1412.69
423.621	1365.69
423.843	1401.69
424.066	1398.69
424.288	1412.69
424.511	1407.69
424.733	1359.69
424.956	1401.69
425.178	1363.69
425.401	1351.69
425.623	1361.69
425.846	1313.69
426.068	1326.69
426.291	1303.69
426.513	1306.69
426.735	1294.69
426.958	1265.69
427.18	1207.69
427.402	1210.69
427.625	1236.69
427.847	1174.69
428.069	1210.69
428.292	1201.69
428.514	1168.69
428.736	1209.69
428.958	1193.69
429.181	1167.69
429.403	1149.69
429.625	1151.69
429.847	1159.69
430.069	1127.69
430.292	1139.69
430.514	1149.69
430.736	1169.69
430.958	1156.69
431.18	1186.69
431.402	1155.69
431.624	1172.69
431.846	1166.69
432.068	1177.69
432.29	1249.69
432.512	1174.69
432.734	1211.69
432.956	1174.69
433.178	1175.69
433.4	1158.69
433.622	1201.69
433.844	1214.69
434.066	1260.69
434.287	1217.69
434.509	1242.69
434.731	1308.69
434.953	1322.69
435.175	1336.69
435.397	1332.69
435.618	1261.69
435.84	1235.69
436.062	1198.69
436.284	1227.69
436.505	1155.69
436.727	1191.69
436.949	1186.69
437.17	1197.69
437.392	1159.69
437.614	1175.69
437.835	1121.69
438.057	1101.69
438.278	1117.69
438.5	1160.69
438.721	1101.69
438.943	1154.69
439.165	1131.69
439.386	1148.69
439.608	1175.69
439.829	1173.69
440.05	1184.69
440.272	1198.69
440.493	1183.69
440.715	1192.69
440.936	1194.69
441.158	1206.69
441.379	1265.69
441.6	1310.69
441.822	1353.69
442.043	1329.69
442.264	1346.69
442.486	1307.69
442.707	1337.69
442.928	1318.69
443.149	1335.69
443.371	1295.69
443.592	1315.69
443.813	1314.69
444.034	1335.69
444.255	1386.69
444.476	1453.69
444.698	1508.69
444.919	1575.69
445.14	1656.69
445.361	1502.69
445.582	1399.69
445.803	1291.69
446.024	1283.69
446.245	1224.69
446.466	1228.69
446.687	1159.69
446.908	1175.69
447.129	1165.69
447.35	1153.69
447.571	1136.69
447.792	1117.69
448.013	1092.69
448.234	1084.69
448.455	1096.69
448.675	1070.69
448.896	1065.69
449.117	1061.69
449.338	1049.69
449.559	1051.69
449.779	1080.69
450	1059.69
450.221	1072.69
450.442	1062.69
450.662	1092.69
450.883	1094.69
451.104	1112.69
451.324	1095.69
451.545	1106.69
451.766	1105.69
451.986	1062.69
452.207	1065.69
452.428	1062.69
452.648	1082.69
452.869	1051.69
453.089	1046.69
453.31	1086.69
453.53	1036.69
453.751	1045.69
453.971	1046.69
454.192	1042.69
454.412	1016.69
454.633	1008.69
454.853	1032.69
455.073	1002.69
455.294	1011.69
455.514	987.69
455.734	983.69
455.955	967.69
456.175	1007.69
456.395	1003.69
456.616	984.69
456.836	998.69
457.056	980.69
457.276	1005.69
457.497	1003.69
457.717	1037.69
457.937	1012.69
458.157	1036.69
458.377	1036.69
458.598	1078.69
458.818	1109.69
459.038	1121.69
459.258	1150.69
459.478	1208.69
459.698	1231.69
459.918	1271.69
460.138	1331.69
460.358	1370.69
460.578	1393.69
460.798	1405.69
461.018	1395.69
461.238	1415.69
461.458	1374.69
461.678	1368.69
461.898	1430.69
462.118	1415.69
462.338	1521.69
462.558	1568.69
462.777	1621.69
462.997	1697.69
463.217	1846.69
463.437	1862.69
463.657	1731.69
463.876	1677.69
464.096	1662.69
464.316	1640.69
464.536	1667.69
464.755	1582.69
464.975	1505.69
465.195	1440.69
465.414	1367.69
465.634	1301.69
465.854	1254.69
466.073	1203.69
466.293	1221.69
466.512	1169.69
466.732	1156.69
466.951	1161.69
467.171	1126.69
467.391	1123.69
467.61	1122.69
467.829	1106.69
468.049	1099.69
468.268	1092.69
468.488	1109.69
468.707	1081.69
468.927	1073.69
469.146	1090.69
469.365	1097.69
469.585	1115.69
469.804	1120.69
470.023	1177.69
470.243	1149.69
470.462	1166.69
470.681	1166.69
470.901	1174.69
471.12	1163.69
471.339	1148.69
471.558	1123.69
471.777	1125.69
471.997	1112.69
472.216	1094.69
472.435	1086.69
472.654	1106.69
472.873	1052.69
473.092	1062.69
473.311	1054.69
473.53	1034.69
473.749	1087.69
473.968	1063.69
474.187	1046.69
474.406	1048.69
474.625	1033.69
474.844	1065.69
475.063	1078.69
475.282	1039.69
475.501	1073.69
475.72	1066.69
475.939	1057.69
476.158	1070.69
476.377	1101.69
476.596	1088.69
476.814	1117.69
477.033	1139.69
477.252	1159.69
477.471	1181.69
477.69	1171.69
477.908	1224.69
478.127	1254.69
478.346	1261.69
478.564	1334.69
478.783	1347.69
479.002	1342.69
479.22	1335.69
479.439	1343.69
479.658	1313.69
479.876	1352.69
480.095	1337.69
480.313	1407.69
480.532	1420.69
480.751	1431.69
480.969	1370.69
481.188	1295.69
481.406	1299.69
481.624	1265.69
481.843	1215.69
482.061	1234.69
482.28	1198.69
482.498	1201.69
482.717	1212.69
482.935	1237.69
483.153	1213.69
483.372	1205.69
483.59	1213.69
483.808	1217.69
484.027	1185.69
484.245	1226.69
484.463	1188.69
484.681	1226.69
484.9	1253.69
485.118	1256.69
485.336	1293.69
485.554	1260.69
485.772	1297.69
485.99	1265.69
486.209	1289.69
486.427	1310.69
486.645	1297.69
486.863	1267.69
487.081	1286.69
487.299	1259.69
487.517	1255.69
487.735	1259.69
487.953	1281.69
488.171	1296.69
488.389	1266.69
488.607	1228.69
488.825	1238.69
489.043	1231.69
489.261	1252.69
489.479	1242.69
489.696	1237.69
489.914	1267.69
490.132	1262.69
490.35	1288.69
490.568	1289.69
490.786	1245.69
491.003	1262.69
491.221	1256.69
491.439	1290.69
491.657	1309.69
491.874	1258.69
492.092	1306.69
492.31	1313.69
492.527	1287.69
492.745	1294.69
492.963	1304.69
493.18	1303.69
493.398	1317.69
493.615	1325.69
493.833	1335.69
494.05	1331.69
494.268	1339.69
494.485	1377.69
