Data from NiCl2@0.5M.TitratingCurve.Agarose3%dH2O.NegLispCup.LampEnergy10.LIBS07252019_HRD10591_18-19-29-571.txt Node
Date: Thu Jul 25 18:19:29 EDT 2019
User: cochatt
Spectrometer: HR+D1059
Trigger mode: 1
Integration Time (sec): 1.000000E-1
Scans to average: 1
Electric dark correction enabled: true
Nonlinearity correction enabled: false
Boxcar width: 0
XAxis mode: Wavelengths
Number of Pixels in Spectrum: 2048
>>>>>Begin Spectral Data<<<<<
223.165	-13.62
223.4	-13.62
223.635	-13.62
223.869	-9.62
224.104	-17.62
224.338	-19.62
224.573	-7.62
224.808	-7.62
225.042	-18.62
225.277	7.38
225.511	-9.62
225.746	-6.62
225.98	4.38
226.215	25.38
226.449	12.38
226.683	12.38
226.918	24.38
227.152	24.38
227.387	33.38
227.621	34.38
227.856	43.38
228.09	49.38
228.324	61.38
228.559	43.38
228.793	69.38
229.027	107.38
229.262	91.38
229.496	109.38
229.73	104.38
229.964	106.38
230.199	121.38
230.433	128.38
230.667	127.38
230.901	130.38
231.136	134.38
231.37	126.38
231.604	133.38
231.838	132.38
232.072	136.38
232.306	133.38
232.541	132.38
232.775	136.38
233.009	122.38
233.243	135.38
233.477	116.38
233.711	121.38
233.945	126.38
234.179	147.38
234.413	128.38
234.647	142.38
234.881	132.38
235.115	142.38
235.349	127.38
235.583	125.38
235.817	132.38
236.051	137.38
236.285	124.38
236.519	126.38
236.753	131.38
236.987	136.38
237.221	142.38
237.455	138.38
237.689	145.38
237.922	142.38
238.156	139.38
238.39	125.38
238.624	132.38
238.858	154.38
239.091	156.38
239.325	150.38
239.559	151.38
239.793	143.38
240.027	166.38
240.26	156.38
240.494	140.38
240.728	159.38
240.961	157.38
241.195	148.38
241.429	153.38
241.662	138.38
241.896	165.38
242.13	169.38
242.363	156.38
242.597	161.38
242.83	150.38
243.064	156.38
243.298	163.38
243.531	168.38
243.765	172.38
243.998	168.38
244.232	171.38
244.465	169.38
244.699	158.38
244.932	180.38
245.166	158.38
245.399	186.38
245.633	176.38
245.866	172.38
246.099	172.38
246.333	178.38
246.566	176.38
246.8	162.38
247.033	181.38
247.266	186.38
247.5	176.38
247.733	193.38
247.966	182.38
248.2	189.38
248.433	192.38
248.666	171.38
248.899	190.38
249.133	193.38
249.366	193.38
249.599	213.38
249.832	190.38
250.066	199.38
250.299	189.38
250.532	200.38
250.765	203.38
250.998	208.38
251.231	207.38
251.465	216.38
251.698	208.38
251.931	199.38
252.164	209.38
252.397	219.38
252.63	208.38
252.863	213.38
253.096	212.38
253.329	217.38
253.562	212.38
253.795	219.38
254.028	217.38
254.261	220.38
254.494	211.38
254.727	240.38
254.96	227.38
255.193	225.38
255.426	240.38
255.659	219.38
255.892	214.38
256.124	226.38
256.357	232.38
256.59	238.38
256.823	234.38
257.056	227.38
257.289	228.38
257.521	237.38
257.754	227.38
257.987	238.38
258.22	219.38
258.452	223.38
258.685	236.38
258.918	246.38
259.151	236.38
259.383	256.38
259.616	228.38
259.849	258.38
260.081	249.38
260.314	248.38
260.547	245.38
260.779	266.38
261.012	258.38
261.244	257.38
261.477	237.38
261.71	260.38
261.942	256.38
262.175	249.38
262.407	250.38
262.64	242.38
262.872	244.38
263.105	251.38
263.337	256.38
263.57	281.38
263.802	265.38
264.035	289.38
264.267	279.38
264.499	279.38
264.732	277.38
264.964	268.38
265.197	276.38
265.429	270.38
265.661	262.38
265.894	279.38
266.126	280.38
266.358	275.38
266.591	258.38
266.823	277.38
267.055	278.38
267.287	260.38
267.52	259.38
267.752	273.38
267.984	272.38
268.216	291.38
268.448	305.38
268.681	302.38
268.913	306.38
269.145	290.38
269.377	275.38
269.609	282.38
269.841	307.38
270.073	291.38
270.306	294.38
270.538	300.38
270.77	295.38
271.002	303.38
271.234	297.38
271.466	301.38
271.698	300.38
271.93	301.38
272.162	306.38
272.394	309.38
272.626	309.38
272.858	284.38
273.09	315.38
273.322	297.38
273.553	320.38
273.785	322.38
274.017	308.38
274.249	326.38
274.481	324.38
274.713	313.38
274.945	341.38
275.176	319.38
275.408	306.38
275.64	310.38
275.872	335.38
276.104	331.38
276.335	342.38
276.567	330.38
276.799	323.38
277.031	330.38
277.262	343.38
277.494	341.38
277.726	321.38
277.957	321.38
278.189	330.38
278.421	338.38
278.652	329.38
278.884	331.38
279.115	362.38
279.347	355.38
279.579	331.38
279.81	347.38
280.042	343.38
280.273	337.38
280.505	365.38
280.736	372.38
280.968	370.38
281.199	354.38
281.431	354.38
281.662	361.38
281.894	334.38
282.125	378.38
282.356	350.38
282.588	348.38
282.819	359.38
283.051	362.38
283.282	372.38
283.513	379.38
283.745	385.38
283.976	373.38
284.207	376.38
284.439	386.38
284.67	365.38
284.901	386.38
285.132	382.38
285.364	378.38
285.595	390.38
285.826	377.38
286.057	350.38
286.288	392.38
286.52	382.38
286.751	381.38
286.982	390.38
287.213	396.38
287.444	411.38
287.675	394.38
287.906	400.38
288.138	381.38
288.369	396.38
288.6	408.38
288.831	394.38
289.062	397.38
289.293	386.38
289.524	393.38
289.755	392.38
289.986	410.38
290.217	413.38
290.448	395.38
290.679	418.38
290.91	386.38
291.141	406.38
291.371	409.38
291.602	412.38
291.833	406.38
292.064	420.38
292.295	407.38
292.526	414.38
292.757	408.38
292.987	406.38
293.218	403.38
293.449	412.38
293.68	425.38
293.91	400.38
294.141	430.38
294.372	408.38
294.603	413.38
294.833	415.38
295.064	416.38
295.295	417.38
295.525	410.38
295.756	423.38
295.987	396.38
296.217	432.38
296.448	450.38
296.679	433.38
296.909	426.38
297.14	419.38
297.37	406.38
297.601	432.38
297.831	426.38
298.062	451.38
298.292	463.38
298.523	442.38
298.753	453.38
298.984	448.38
299.214	455.38
299.445	426.38
299.675	435.38
299.905	434.38
300.136	440.38
300.366	445.38
300.597	473.38
300.827	471.38
301.057	474.38
301.288	463.38
301.518	456.38
301.748	474.38
301.979	485.38
302.209	450.38
302.439	468.38
302.669	473.38
302.9	456.38
303.13	457.38
303.36	456.38
303.59	475.38
303.82	486.38
304.051	493.38
304.281	472.38
304.511	498.38
304.741	489.38
304.971	482.38
305.201	490.38
305.431	480.38
305.661	498.38
305.891	474.38
306.121	462.38
306.352	491.38
306.582	476.38
306.812	442.38
307.042	463.38
307.272	470.38
307.502	460.38
307.731	457.38
307.961	482.38
308.191	467.38
308.421	483.38
308.651	489.38
308.881	473.38
309.111	459.38
309.341	471.38
309.571	475.38
309.8	469.38
310.03	496.38
310.26	498.38
310.49	503.38
310.72	511.38
310.949	505.38
311.179	504.38
311.409	464.38
311.639	487.38
311.868	461.38
312.098	471.38
312.328	510.38
312.557	485.38
312.787	488.38
313.017	492.38
313.246	502.38
313.476	496.38
313.706	527.38
313.935	510.38
314.165	525.38
314.394	495.38
314.624	511.38
314.853	523.38
315.083	508.38
315.312	505.38
315.542	496.38
315.771	529.38
316.001	512.38
316.23	497.38
316.46	529.38
316.689	508.38
316.919	488.38
317.148	506.38
317.377	502.38
317.607	506.38
317.836	516.38
318.065	489.38
318.295	508.38
318.524	506.38
318.753	506.38
318.983	515.38
319.212	512.38
319.441	501.38
319.67	512.38
319.9	507.38
320.129	517.38
320.358	514.38
320.587	532.38
320.816	527.38
321.046	491.38
321.275	494.38
321.504	529.38
321.733	515.38
321.962	524.38
322.191	524.38
322.42	521.38
322.649	541.38
322.878	526.38
323.108	526.38
323.337	520.38
323.566	500.38
323.795	538.38
324.024	534.38
324.253	518.38
324.482	525.38
324.71	521.38
324.939	536.38
325.168	539.38
325.397	537.38
325.626	562.38
325.855	557.38
326.084	551.38
326.313	574.38
326.542	541.38
326.77	570.38
326.999	552.38
327.228	547.38
327.457	567.38
327.686	573.38
327.914	552.38
328.143	552.38
328.372	547.38
328.6	557.38
328.829	562.38
329.058	572.38
329.287	544.38
329.515	571.38
329.744	552.38
329.972	566.38
330.201	582.38
330.43	568.38
330.658	569.38
330.887	569.38
331.115	571.38
331.344	596.38
331.572	571.38
331.801	582.38
332.03	567.38
332.258	585.38
332.486	588.38
332.715	608.38
332.943	634.38
333.172	660.38
333.4	645.38
333.629	673.38
333.857	675.38
334.085	646.38
334.314	669.38
334.542	660.38
334.771	679.38
334.999	658.38
335.227	660.38
335.455	655.38
335.684	649.38
335.912	679.38
336.14	651.38
336.369	645.38
336.597	674.38
336.825	658.38
337.053	653.38
337.281	654.38
337.51	641.38
337.738	648.38
337.966	635.38
338.194	628.38
338.422	627.38
338.65	620.38
338.878	617.38
339.106	587.38
339.334	636.38
339.562	600.38
339.79	609.38
340.018	592.38
340.246	595.38
340.474	587.38
340.702	577.38
340.93	584.38
341.158	580.38
341.386	626.38
341.614	633.38
341.842	612.38
342.07	572.38
342.298	582.38
342.526	617.38
342.754	591.38
342.981	606.38
343.209	595.38
343.437	628.38
343.665	628.38
343.893	642.38
344.12	661.38
344.348	634.38
344.576	630.38
344.804	638.38
345.031	633.38
345.259	590.38
345.487	610.38
345.714	598.38
345.942	586.38
346.17	607.38
346.397	596.38
346.625	592.38
346.853	569.38
347.08	578.38
347.308	587.38
347.535	595.38
347.763	561.38
347.99	565.38
348.218	548.38
348.445	574.38
348.673	564.38
348.9	560.38
349.128	575.38
349.355	573.38
349.583	591.38
349.81	556.38
350.037	566.38
350.265	566.38
350.492	551.38
350.72	553.38
350.947	545.38
351.174	562.38
351.402	569.38
351.629	570.38
351.856	598.38
352.083	550.38
352.311	556.38
352.538	553.38
352.765	570.38
352.992	553.38
353.22	512.38
353.447	554.38
353.674	557.38
353.901	544.38
354.128	561.38
354.355	543.38
354.583	541.38
354.81	534.38
355.037	536.38
355.264	532.38
355.491	512.38
355.718	549.38
355.945	536.38
356.172	542.38
356.399	540.38
356.626	559.38
356.853	566.38
357.08	543.38
357.307	554.38
357.534	530.38
357.761	524.38
357.988	527.38
358.215	526.38
358.441	539.38
358.668	517.38
358.895	527.38
359.122	525.38
359.349	516.38
359.576	530.38
359.802	534.38
360.029	551.38
360.256	505.38
360.483	530.38
360.709	517.38
360.936	528.38
361.163	546.38
361.39	534.38
361.616	524.38
361.843	550.38
362.07	558.38
362.296	569.38
362.523	553.38
362.749	518.38
362.976	520.38
363.203	548.38
363.429	518.38
363.656	545.38
363.882	520.38
364.109	521.38
364.335	521.38
364.562	530.38
364.788	505.38
365.015	549.38
365.241	513.38
365.468	530.38
365.694	526.38
365.92	522.38
366.147	513.38
366.373	496.38
366.599	524.38
366.826	522.38
367.052	494.38
367.278	530.38
367.505	525.38
367.731	538.38
367.957	537.38
368.184	527.38
368.41	529.38
368.636	539.38
368.862	534.38
369.089	533.38
369.315	537.38
369.541	537.38
369.767	529.38
369.993	521.38
370.219	520.38
370.445	538.38
370.672	556.38
370.898	532.38
371.124	552.38
371.35	575.38
371.576	554.38
371.802	537.38
372.028	553.38
372.254	544.38
372.48	568.38
372.706	572.38
372.932	556.38
373.158	588.38
373.384	574.38
373.61	541.38
373.835	555.38
374.061	552.38
374.287	568.38
374.513	562.38
374.739	590.38
374.965	597.38
375.191	585.38
375.416	596.38
375.642	561.38
375.868	554.38
376.094	557.38
376.319	561.38
376.545	560.38
376.771	551.38
376.997	568.38
377.222	526.38
377.448	549.38
377.674	551.38
377.899	577.38
378.125	515.38
378.35	540.38
378.576	535.38
378.802	515.38
379.027	537.38
379.253	523.38
379.478	531.38
379.704	534.38
379.929	545.38
380.155	533.38
380.38	555.38
380.606	539.38
380.831	545.38
381.057	557.38
381.282	567.38
381.507	553.38
381.733	537.38
381.958	541.38
382.184	524.38
382.409	558.38
382.634	542.38
382.86	566.38
383.085	556.38
383.31	575.38
383.535	561.38
383.761	569.38
383.986	597.38
384.211	587.38
384.436	587.38
384.662	591.38
384.887	603.38
385.112	595.38
385.337	613.38
385.562	615.38
385.787	628.38
386.013	623.38
386.238	649.38
386.463	612.38
386.688	604.38
386.913	631.38
387.138	591.38
387.363	630.38
387.588	610.38
387.813	622.38
388.038	596.38
388.263	596.38
388.488	606.38
388.713	602.38
388.938	608.38
389.163	600.38
389.387	621.38
389.612	608.38
389.837	636.38
390.062	603.38
390.287	635.38
390.512	612.38
390.736	604.38
390.961	616.38
391.186	648.38
391.411	632.38
391.636	641.38
391.86	674.38
392.085	677.38
392.31	658.38
392.534	652.38
392.759	662.38
392.984	652.38
393.208	657.38
393.433	666.38
393.658	646.38
393.882	646.38
394.107	653.38
394.331	645.38
394.556	651.38
394.78	660.38
395.005	684.38
395.229	673.38
395.454	662.38
395.678	680.38
395.903	682.38
396.127	686.38
396.352	693.38
396.576	684.38
396.801	636.38
397.025	651.38
397.249	715.38
397.474	701.38
397.698	661.38
397.922	680.38
398.147	677.38
398.371	706.38
398.595	730.38
398.82	757.38
399.044	789.38
399.268	821.38
399.492	896.38
399.717	957.38
399.941	950.38
400.165	924.38
400.389	884.38
400.613	817.38
400.837	804.38
401.062	777.38
401.286	756.38
401.51	760.38
401.734	737.38
401.958	760.38
402.182	785.38
402.406	745.38
402.63	772.38
402.854	783.38
403.078	795.38
403.302	791.38
403.526	796.38
403.75	781.38
403.974	822.38
404.198	815.38
404.422	841.38
404.645	817.38
404.869	826.38
405.093	801.38
405.317	794.38
405.541	817.38
405.765	824.38
405.988	801.38
406.212	842.38
406.436	827.38
406.66	852.38
406.883	841.38
407.107	872.38
407.331	905.38
407.555	905.38
407.778	905.38
408.002	914.38
408.226	880.38
408.449	865.38
408.673	860.38
408.896	851.38
409.12	847.38
409.344	867.38
409.567	861.38
409.791	853.38
410.014	837.38
410.238	847.38
410.461	851.38
410.685	821.38
410.908	816.38
411.132	813.38
411.355	783.38
411.578	808.38
411.802	802.38
412.025	819.38
412.249	818.38
412.472	791.38
412.695	791.38
412.919	778.38
413.142	812.38
413.365	789.38
413.589	776.38
413.812	767.38
414.035	729.38
414.258	762.38
414.482	767.38
414.705	759.38
414.928	791.38
415.151	769.38
415.374	780.38
415.597	784.38
415.821	761.38
416.044	767.38
416.267	773.38
416.49	754.38
416.713	758.38
416.936	768.38
417.159	729.38
417.382	755.38
417.605	752.38
417.828	737.38
418.051	753.38
418.274	736.38
418.497	731.38
418.72	796.38
418.943	768.38
419.166	800.38
419.389	862.38
419.611	837.38
419.834	812.38
420.057	814.38
420.28	797.38
420.503	750.38
420.726	746.38
420.948	763.38
421.171	764.38
421.394	769.38
421.617	762.38
421.839	753.38
422.062	768.38
422.285	744.38
422.507	779.38
422.73	780.38
422.953	771.38
423.175	809.38
423.398	783.38
423.621	798.38
423.843	788.38
424.066	784.38
424.288	772.38
424.511	786.38
424.733	784.38
424.956	788.38
425.178	777.38
425.401	788.38
425.623	764.38
425.846	762.38
426.068	748.38
426.291	743.38
426.513	773.38
426.735	749.38
426.958	741.38
427.18	747.38
427.402	749.38
427.625	743.38
427.847	744.38
428.069	729.38
428.292	731.38
428.514	744.38
428.736	749.38
428.958	729.38
429.181	721.38
429.403	723.38
429.625	716.38
429.847	744.38
430.069	700.38
430.292	746.38
430.514	726.38
430.736	734.38
430.958	728.38
431.18	755.38
431.402	730.38
431.624	731.38
431.846	722.38
432.068	747.38
432.29	735.38
432.512	737.38
432.734	731.38
432.956	736.38
433.178	750.38
433.4	758.38
433.622	759.38
433.844	777.38
434.066	768.38
434.287	756.38
434.509	761.38
434.731	774.38
434.953	782.38
435.175	798.38
435.397	788.38
435.618	760.38
435.84	759.38
436.062	769.38
436.284	734.38
436.505	734.38
436.727	725.38
436.949	770.38
437.17	737.38
437.392	738.38
437.614	716.38
437.835	703.38
438.057	700.38
438.278	705.38
438.5	711.38
438.721	707.38
438.943	715.38
439.165	720.38
439.386	728.38
439.608	749.38
439.829	740.38
440.05	751.38
440.272	764.38
440.493	768.38
440.715	739.38
440.936	750.38
441.158	789.38
441.379	778.38
441.6	818.38
441.822	811.38
442.043	797.38
442.264	800.38
442.486	789.38
442.707	785.38
442.928	798.38
443.149	770.38
443.371	784.38
443.592	835.38
443.813	835.38
444.034	830.38
444.255	841.38
444.476	838.38
444.698	900.38
444.919	905.38
445.14	993.38
445.361	952.38
445.582	854.38
445.803	820.38
446.024	797.38
446.245	772.38
446.466	783.38
446.687	790.38
446.908	781.38
447.129	750.38
447.35	741.38
447.571	725.38
447.792	734.38
448.013	738.38
448.234	736.38
448.455	717.38
448.675	712.38
448.896	702.38
449.117	701.38
449.338	706.38
449.559	698.38
449.779	681.38
450	688.38
450.221	709.38
450.442	711.38
450.662	721.38
450.883	717.38
451.104	715.38
451.324	695.38
451.545	697.38
451.766	702.38
451.986	714.38
452.207	696.38
452.428	698.38
452.648	697.38
452.869	680.38
453.089	682.38
453.31	683.38
453.53	656.38
453.751	653.38
453.971	668.38
454.192	669.38
454.412	691.38
454.633	694.38
454.853	672.38
455.073	678.38
455.294	683.38
455.514	694.38
455.734	666.38
455.955	676.38
456.175	677.38
456.395	699.38
456.616	690.38
456.836	656.38
457.056	673.38
457.276	678.38
457.497	683.38
457.717	686.38
457.937	682.38
458.157	698.38
458.377	717.38
458.598	704.38
458.818	713.38
459.038	732.38
459.258	710.38
459.478	724.38
459.698	791.38
459.918	812.38
460.138	826.38
460.358	852.38
460.578	833.38
460.798	866.38
461.018	857.38
461.238	850.38
461.458	883.38
461.678	858.38
461.898	846.38
462.118	888.38
462.338	908.38
462.558	903.38
462.777	948.38
462.997	984.38
463.217	1012.38
463.437	1024.38
463.657	981.38
463.876	950.38
464.096	979.38
464.316	979.38
464.536	981.38
464.755	931.38
464.975	930.38
465.195	871.38
465.414	846.38
465.634	791.38
465.854	792.38
466.073	804.38
466.293	772.38
466.512	755.38
466.732	752.38
466.951	779.38
467.171	773.38
467.391	738.38
467.61	765.38
467.829	749.38
468.049	776.38
468.268	700.38
468.488	727.38
468.707	709.38
468.927	750.38
469.146	732.38
469.365	746.38
469.585	737.38
469.804	771.38
470.023	772.38
470.243	756.38
470.462	766.38
470.681	756.38
470.901	754.38
471.12	781.38
471.339	731.38
471.558	719.38
471.777	752.38
471.997	719.38
472.216	728.38
472.435	713.38
472.654	709.38
472.873	715.38
473.092	722.38
473.311	711.38
473.53	727.38
473.749	743.38
473.968	725.38
474.187	714.38
474.406	730.38
474.625	730.38
474.844	720.38
475.063	730.38
475.282	752.38
475.501	757.38
475.72	738.38
475.939	731.38
476.158	759.38
476.377	762.38
476.596	729.38
476.814	765.38
477.033	772.38
477.252	776.38
477.471	804.38
477.69	793.38
477.908	829.38
478.127	844.38
478.346	820.38
478.564	850.38
478.783	840.38
479.002	874.38
479.22	885.38
479.439	898.38
479.658	869.38
479.876	890.38
480.095	860.38
480.313	910.38
480.532	894.38
480.751	908.38
480.969	855.38
481.188	857.38
481.406	859.38
481.624	847.38
481.843	836.38
482.061	831.38
482.28	841.38
482.498	841.38
482.717	835.38
482.935	851.38
483.153	837.38
483.372	855.38
483.59	849.38
483.808	866.38
484.027	851.38
484.245	850.38
484.463	846.38
484.681	848.38
484.9	866.38
485.118	850.38
485.336	840.38
485.554	853.38
485.772	853.38
485.99	844.38
486.209	876.38
486.427	873.38
486.645	874.38
486.863	858.38
487.081	866.38
487.299	885.38
487.517	885.38
487.735	877.38
487.953	871.38
488.171	895.38
488.389	886.38
488.607	872.38
488.825	870.38
489.043	849.38
489.261	859.38
489.479	892.38
489.696	860.38
489.914	868.38
490.132	871.38
490.35	873.38
490.568	891.38
490.786	891.38
491.003	916.38
491.221	901.38
491.439	911.38
491.657	906.38
491.874	901.38
492.092	945.38
492.31	923.38
492.527	916.38
492.745	931.38
492.963	925.38
493.18	902.38
493.398	930.38
493.615	920.38
493.833	934.38
494.05	930.38
494.268	964.38
494.485	933.38
494.703	972.38
494.92	946.38
495.138	955.38
495.355	941.38
495.573	969.38
495.79	962.38
496.008	961.38
496.225	991.38
496.442	975.38
496.66	990.38
496.877	1003.38
497.094	987.38
497.312	1025.38
497.529	1049.38
497.746	1027.38
497.963	1088.38
498.181	1094.38
498.398	1162.38
498.615	1228.38
498.832	1245.38
499.049	1271.38
499.267	1368.38
499.484	1443.38
499.701	1572.38
499.918	1637.38
500.135	1785.38
500.352	1948.38
500.569	2008.38
500.786	1960.38
501.003	1874.38
501.22	1765.38
501.437	1639.38
