Data from NiCl2@0.125M.TitratingCurve.Agarose3%dH2O.NegLispCup.LampEnergy10.LIBS07252019_HRD10591_18-28-28-574.txt Node
Date: Thu Jul 25 18:28:28 EDT 2019
User: cochatt
Spectrometer: HR+D1059
Trigger mode: 1
Integration Time (sec): 1.000000E-1
Scans to average: 1
Electric dark correction enabled: true
Nonlinearity correction enabled: false
Boxcar width: 0
XAxis mode: Wavelengths
Number of Pixels in Spectrum: 2048
>>>>>Begin Spectral Data<<<<<
223.165	-20.5
223.4	-20.5
223.635	-20.5
223.869	-24.5
224.104	-24.5
224.338	-16.5
224.573	-15.5
224.808	-3.5
225.042	-18.5
225.277	-3.5
225.511	-0.5
225.746	18.5
225.98	12.5
226.215	15.5
226.449	3.5
226.683	26.5
226.918	13.5
227.152	37.5
227.387	32.5
227.621	30.5
227.856	35.5
228.09	32.5
228.324	37.5
228.559	45.5
228.793	53.5
229.027	88.5
229.262	95.5
229.496	117.5
229.73	109.5
229.964	121.5
230.199	131.5
230.433	127.5
230.667	129.5
230.901	136.5
231.136	152.5
231.37	142.5
231.604	147.5
231.838	138.5
232.072	130.5
232.306	146.5
232.541	123.5
232.775	149.5
233.009	138.5
233.243	134.5
233.477	144.5
233.711	155.5
233.945	148.5
234.179	141.5
234.413	160.5
234.647	143.5
234.881	136.5
235.115	161.5
235.349	153.5
235.583	133.5
235.817	136.5
236.051	164.5
236.285	154.5
236.519	150.5
236.753	152.5
236.987	159.5
237.221	151.5
237.455	141.5
237.689	157.5
237.922	161.5
238.156	156.5
238.39	153.5
238.624	168.5
238.858	178.5
239.091	173.5
239.325	188.5
239.559	175.5
239.793	194.5
240.027	168.5
240.26	182.5
240.494	178.5
240.728	178.5
240.961	179.5
241.195	180.5
241.429	172.5
241.662	186.5
241.896	195.5
242.13	190.5
242.363	204.5
242.597	199.5
242.83	198.5
243.064	207.5
243.298	179.5
243.531	200.5
243.765	200.5
243.998	192.5
244.232	210.5
244.465	197.5
244.699	196.5
244.932	202.5
245.166	209.5
245.399	207.5
245.633	232.5
245.866	232.5
246.099	225.5
246.333	218.5
246.566	227.5
246.8	213.5
247.033	218.5
247.266	231.5
247.5	224.5
247.733	229.5
247.966	244.5
248.2	232.5
248.433	219.5
248.666	250.5
248.899	230.5
249.133	238.5
249.366	253.5
249.599	244.5
249.832	258.5
250.066	261.5
250.299	247.5
250.532	259.5
250.765	254.5
250.998	227.5
251.231	254.5
251.465	260.5
251.698	262.5
251.931	274.5
252.164	278.5
252.397	256.5
252.63	267.5
252.863	293.5
253.096	280.5
253.329	299.5
253.562	278.5
253.795	284.5
254.028	290.5
254.261	286.5
254.494	285.5
254.727	293.5
254.96	271.5
255.193	278.5
255.426	282.5
255.659	301.5
255.892	309.5
256.124	296.5
256.357	300.5
256.59	300.5
256.823	262.5
257.056	295.5
257.289	293.5
257.521	303.5
257.754	309.5
257.987	307.5
258.22	293.5
258.452	311.5
258.685	327.5
258.918	288.5
259.151	306.5
259.383	327.5
259.616	296.5
259.849	333.5
260.081	314.5
260.314	306.5
260.547	305.5
260.779	347.5
261.012	329.5
261.244	345.5
261.477	323.5
261.71	335.5
261.942	327.5
262.175	334.5
262.407	339.5
262.64	329.5
262.872	332.5
263.105	348.5
263.337	343.5
263.57	355.5
263.802	333.5
264.035	345.5
264.267	328.5
264.499	367.5
264.732	355.5
264.964	360.5
265.197	340.5
265.429	347.5
265.661	359.5
265.894	352.5
266.126	362.5
266.358	338.5
266.591	349.5
266.823	381.5
267.055	393.5
267.287	369.5
267.52	373.5
267.752	357.5
267.984	367.5
268.216	364.5
268.448	374.5
268.681	373.5
268.913	371.5
269.145	383.5
269.377	374.5
269.609	374.5
269.841	374.5
270.073	388.5
270.306	374.5
270.538	372.5
270.77	386.5
271.002	398.5
271.234	386.5
271.466	391.5
271.698	393.5
271.93	393.5
272.162	403.5
272.394	386.5
272.626	389.5
272.858	392.5
273.09	409.5
273.322	421.5
273.553	408.5
273.785	386.5
274.017	416.5
274.249	412.5
274.481	426.5
274.713	421.5
274.945	414.5
275.176	420.5
275.408	424.5
275.64	416.5
275.872	423.5
276.104	436.5
276.335	407.5
276.567	450.5
276.799	421.5
277.031	439.5
277.262	451.5
277.494	419.5
277.726	418.5
277.957	427.5
278.189	435.5
278.421	447.5
278.652	451.5
278.884	455.5
279.115	445.5
279.347	464.5
279.579	457.5
279.81	449.5
280.042	447.5
280.273	448.5
280.505	439.5
280.736	459.5
280.968	461.5
281.199	467.5
281.431	441.5
281.662	480.5
281.894	476.5
282.125	447.5
282.356	483.5
282.588	463.5
282.819	498.5
283.051	483.5
283.282	485.5
283.513	495.5
283.745	453.5
283.976	481.5
284.207	468.5
284.439	494.5
284.67	465.5
284.901	496.5
285.132	498.5
285.364	498.5
285.595	510.5
285.826	495.5
286.057	515.5
286.288	509.5
286.52	512.5
286.751	512.5
286.982	518.5
287.213	503.5
287.444	507.5
287.675	530.5
287.906	533.5
288.138	534.5
288.369	526.5
288.6	515.5
288.831	533.5
289.062	524.5
289.293	533.5
289.524	525.5
289.755	540.5
289.986	522.5
290.217	524.5
290.448	524.5
290.679	524.5
290.91	509.5
291.141	541.5
291.371	543.5
291.602	535.5
291.833	535.5
292.064	533.5
292.295	543.5
292.526	541.5
292.757	545.5
292.987	532.5
293.218	534.5
293.449	526.5
293.68	543.5
293.91	526.5
294.141	527.5
294.372	540.5
294.603	524.5
294.833	557.5
295.064	538.5
295.295	555.5
295.525	545.5
295.756	535.5
295.987	528.5
296.217	580.5
296.448	544.5
296.679	558.5
296.909	575.5
297.14	586.5
297.37	594.5
297.601	588.5
297.831	569.5
298.062	582.5
298.292	603.5
298.523	595.5
298.753	614.5
298.984	591.5
299.214	590.5
299.445	591.5
299.675	579.5
299.905	587.5
300.136	601.5
300.366	626.5
300.597	605.5
300.827	594.5
301.057	629.5
301.288	622.5
301.518	623.5
301.748	635.5
301.979	620.5
302.209	629.5
302.439	617.5
302.669	623.5
302.9	604.5
303.13	600.5
303.36	600.5
303.59	599.5
303.82	603.5
304.051	613.5
304.281	596.5
304.511	595.5
304.741	595.5
304.971	597.5
305.201	632.5
305.431	600.5
305.661	632.5
305.891	623.5
306.121	594.5
306.352	609.5
306.582	615.5
306.812	564.5
307.042	618.5
307.272	602.5
307.502	587.5
307.731	599.5
307.961	598.5
308.191	596.5
308.421	611.5
308.651	595.5
308.881	575.5
309.111	592.5
309.341	588.5
309.571	610.5
309.8	601.5
310.03	621.5
310.26	624.5
310.49	618.5
310.72	579.5
310.949	596.5
311.179	613.5
311.409	626.5
311.639	611.5
311.868	598.5
312.098	606.5
312.328	637.5
312.557	634.5
312.787	611.5
313.017	627.5
313.246	631.5
313.476	621.5
313.706	649.5
313.935	622.5
314.165	648.5
314.394	642.5
314.624	648.5
314.853	619.5
315.083	631.5
315.312	627.5
315.542	628.5
315.771	618.5
316.001	637.5
316.23	643.5
316.46	612.5
316.689	615.5
316.919	639.5
317.148	640.5
317.377	627.5
317.607	631.5
317.836	612.5
318.065	630.5
318.295	619.5
318.524	610.5
318.753	642.5
318.983	608.5
319.212	609.5
319.441	613.5
319.67	624.5
319.9	644.5
320.129	614.5
320.358	640.5
320.587	631.5
320.816	638.5
321.046	630.5
321.275	654.5
321.504	627.5
321.733	640.5
321.962	666.5
322.191	634.5
322.42	638.5
322.649	624.5
322.878	628.5
323.108	636.5
323.337	642.5
323.566	621.5
323.795	641.5
324.024	638.5
324.253	652.5
324.482	643.5
324.71	633.5
324.939	642.5
325.168	634.5
325.397	641.5
325.626	639.5
325.855	664.5
326.084	677.5
326.313	694.5
326.542	693.5
326.77	704.5
326.999	713.5
327.228	679.5
327.457	671.5
327.686	658.5
327.914	670.5
328.143	695.5
328.372	694.5
328.6	691.5
328.829	684.5
329.058	672.5
329.287	677.5
329.515	675.5
329.744	683.5
329.972	706.5
330.201	720.5
330.43	688.5
330.658	723.5
330.887	704.5
331.115	721.5
331.344	752.5
331.572	715.5
331.801	700.5
332.03	758.5
332.258	765.5
332.486	780.5
332.715	812.5
332.943	830.5
333.172	881.5
333.4	891.5
333.629	916.5
333.857	922.5
334.085	917.5
334.314	919.5
334.542	888.5
334.771	888.5
334.999	864.5
335.227	867.5
335.455	882.5
335.684	858.5
335.912	846.5
336.14	836.5
336.369	814.5
336.597	859.5
336.825	812.5
337.053	803.5
337.281	826.5
337.51	788.5
337.738	788.5
337.966	772.5
338.194	782.5
338.422	754.5
338.65	780.5
338.878	750.5
339.106	762.5
339.334	763.5
339.562	731.5
339.79	719.5
340.018	731.5
340.246	721.5
340.474	720.5
340.702	719.5
340.93	732.5
341.158	746.5
341.386	750.5
341.614	728.5
341.842	726.5
342.07	701.5
342.298	706.5
342.526	710.5
342.754	726.5
342.981	733.5
343.209	717.5
343.437	766.5
343.665	806.5
343.893	838.5
344.12	910.5
344.348	872.5
344.576	826.5
344.804	786.5
345.031	732.5
345.259	750.5
345.487	742.5
345.714	716.5
345.942	742.5
346.17	733.5
346.397	703.5
346.625	705.5
346.853	709.5
347.08	683.5
347.308	733.5
347.535	723.5
347.763	710.5
347.99	705.5
348.218	700.5
348.445	716.5
348.673	702.5
348.9	697.5
349.128	704.5
349.355	701.5
349.583	693.5
349.81	685.5
350.037	669.5
350.265	675.5
350.492	666.5
350.72	683.5
350.947	666.5
351.174	683.5
351.402	693.5
351.629	663.5
351.856	669.5
352.083	692.5
352.311	666.5
352.538	700.5
352.765	668.5
352.992	656.5
353.22	645.5
353.447	666.5
353.674	665.5
353.901	684.5
354.128	653.5
354.355	710.5
354.583	705.5
354.81	667.5
355.037	685.5
355.264	649.5
355.491	687.5
355.718	662.5
355.945	676.5
356.172	667.5
356.399	695.5
356.626	689.5
356.853	693.5
357.08	683.5
357.307	684.5
357.534	690.5
357.761	683.5
357.988	684.5
358.215	643.5
358.441	689.5
358.668	644.5
358.895	666.5
359.122	667.5
359.349	695.5
359.576	657.5
359.802	669.5
360.029	691.5
360.256	671.5
360.483	676.5
360.709	693.5
360.936	660.5
361.163	666.5
361.39	667.5
361.616	661.5
361.843	666.5
362.07	688.5
362.296	674.5
362.523	667.5
362.749	677.5
362.976	660.5
363.203	677.5
363.429	654.5
363.656	692.5
363.882	688.5
364.109	682.5
364.335	689.5
364.562	666.5
364.788	652.5
365.015	679.5
365.241	661.5
365.468	667.5
365.694	660.5
365.92	669.5
366.147	665.5
366.373	682.5
366.599	677.5
366.826	643.5
367.052	651.5
367.278	676.5
367.505	678.5
367.731	684.5
367.957	675.5
368.184	675.5
368.41	658.5
368.636	709.5
368.862	674.5
369.089	696.5
369.315	688.5
369.541	706.5
369.767	713.5
369.993	700.5
370.219	705.5
370.445	698.5
370.672	729.5
370.898	723.5
371.124	726.5
371.35	723.5
371.576	732.5
371.802	725.5
372.028	728.5
372.254	720.5
372.48	723.5
372.706	758.5
372.932	783.5
373.158	794.5
373.384	772.5
373.61	730.5
373.835	721.5
374.061	750.5
374.287	773.5
374.513	771.5
374.739	766.5
374.965	789.5
375.191	823.5
375.416	832.5
375.642	795.5
375.868	784.5
376.094	786.5
376.319	763.5
376.545	763.5
376.771	751.5
376.997	759.5
377.222	727.5
377.448	735.5
377.674	723.5
377.899	716.5
378.125	720.5
378.35	694.5
378.576	707.5
378.802	712.5
379.027	703.5
379.253	739.5
379.478	701.5
379.704	740.5
379.929	749.5
380.155	727.5
380.38	714.5
380.606	718.5
380.831	738.5
381.057	738.5
381.282	719.5
381.507	736.5
381.733	738.5
381.958	748.5
382.184	756.5
382.409	790.5
382.634	770.5
382.86	767.5
383.085	804.5
383.31	810.5
383.535	799.5
383.761	822.5
383.986	817.5
384.211	823.5
384.436	849.5
384.662	880.5
384.887	859.5
385.112	887.5
385.337	884.5
385.562	871.5
385.787	887.5
386.013	895.5
386.238	889.5
386.463	894.5
386.688	894.5
386.913	879.5
387.138	867.5
387.363	871.5
387.588	854.5
387.813	902.5
388.038	886.5
388.263	877.5
388.488	891.5
388.713	883.5
388.938	884.5
389.163	877.5
389.387	881.5
389.612	850.5
389.837	866.5
390.062	859.5
390.287	891.5
390.512	899.5
390.736	903.5
390.961	882.5
391.186	889.5
391.411	923.5
391.636	939.5
391.86	986.5
392.085	1030.5
392.31	1028.5
392.534	988.5
392.759	940.5
392.984	926.5
393.208	924.5
393.433	932.5
393.658	960.5
393.882	947.5
394.107	940.5
394.331	954.5
394.556	941.5
394.78	966.5
395.005	950.5
395.229	951.5
395.454	982.5
395.678	991.5
395.903	1009.5
396.127	983.5
396.352	966.5
396.576	937.5
396.801	966.5
397.025	950.5
397.249	959.5
397.474	1000.5
397.698	984.5
397.922	1008.5
398.147	993.5
398.371	1014.5
398.595	1070.5
398.82	1092.5
399.044	1206.5
399.268	1277.5
399.492	1468.5
399.717	1644.5
399.941	1706.5
400.165	1568.5
400.389	1404.5
400.613	1287.5
400.837	1246.5
401.062	1158.5
401.286	1136.5
401.51	1122.5
401.734	1109.5
401.958	1127.5
402.182	1112.5
402.406	1165.5
402.63	1144.5
402.854	1178.5
403.078	1188.5
403.302	1229.5
403.526	1198.5
403.75	1244.5
403.974	1260.5
404.198	1250.5
404.422	1290.5
404.645	1275.5
404.869	1276.5
405.093	1296.5
405.317	1258.5
405.541	1250.5
405.765	1246.5
405.988	1248.5
406.212	1234.5
406.436	1223.5
406.66	1249.5
406.883	1244.5
407.107	1330.5
407.331	1400.5
407.555	1454.5
407.778	1417.5
408.002	1398.5
408.226	1387.5
408.449	1330.5
408.673	1294.5
408.896	1298.5
409.12	1263.5
409.344	1286.5
409.567	1248.5
409.791	1258.5
410.014	1266.5
410.238	1242.5
410.461	1219.5
410.685	1236.5
410.908	1198.5
411.132	1205.5
411.355	1142.5
411.578	1147.5
411.802	1154.5
412.025	1182.5
412.249	1187.5
412.472	1207.5
412.695	1127.5
412.919	1103.5
413.142	1125.5
413.365	1143.5
413.589	1125.5
413.812	1087.5
414.035	1158.5
414.258	1109.5
414.482	1114.5
414.705	1147.5
414.928	1134.5
415.151	1094.5
415.374	1126.5
415.597	1128.5
415.821	1118.5
416.044	1085.5
416.267	1108.5
416.49	1090.5
416.713	1066.5
416.936	1086.5
417.159	1079.5
417.382	1071.5
417.605	1102.5
417.828	1082.5
418.051	1122.5
418.274	1115.5
418.497	1094.5
418.72	1134.5
418.943	1126.5
419.166	1215.5
419.389	1283.5
419.611	1259.5
419.834	1200.5
420.057	1170.5
420.28	1102.5
420.503	1102.5
420.726	1099.5
420.948	1079.5
421.171	1106.5
421.394	1073.5
421.617	1088.5
421.839	1098.5
422.062	1114.5
422.285	1093.5
422.507	1126.5
422.73	1108.5
422.953	1104.5
423.175	1152.5
423.398	1148.5
423.621	1142.5
423.843	1180.5
424.066	1168.5
424.288	1167.5
424.511	1154.5
424.733	1136.5
424.956	1121.5
425.178	1140.5
425.401	1134.5
425.623	1109.5
425.846	1140.5
426.068	1081.5
426.291	1093.5
426.513	1051.5
426.735	1060.5
426.958	1047.5
427.18	1014.5
427.402	1011.5
427.625	1009.5
427.847	978.5
428.069	1022.5
428.292	1014.5
428.514	1004.5
428.736	958.5
428.958	1029.5
429.181	963.5
429.403	998.5
429.625	969.5
429.847	959.5
430.069	963.5
430.292	974.5
430.514	973.5
430.736	979.5
430.958	973.5
431.18	971.5
431.402	954.5
431.624	946.5
431.846	991.5
432.068	1028.5
432.29	1022.5
432.512	1021.5
432.734	987.5
432.956	999.5
433.178	1016.5
433.4	1026.5
433.622	1019.5
433.844	1001.5
434.066	1036.5
434.287	1014.5
434.509	1040.5
434.731	1102.5
434.953	1124.5
435.175	1107.5
435.397	1111.5
435.618	1055.5
435.84	1063.5
436.062	1039.5
436.284	1017.5
436.505	1032.5
436.727	1018.5
436.949	1018.5
437.17	1008.5
437.392	1002.5
437.614	976.5
437.835	955.5
438.057	958.5
438.278	953.5
438.5	952.5
438.721	980.5
438.943	951.5
439.165	950.5
439.386	1006.5
439.608	1003.5
439.829	981.5
440.05	976.5
440.272	1005.5
440.493	1042.5
440.715	1018.5
440.936	1034.5
441.158	1042.5
441.379	1095.5
441.6	1134.5
441.822	1140.5
442.043	1160.5
442.264	1133.5
442.486	1083.5
442.707	1132.5
442.928	1109.5
443.149	1130.5
443.371	1070.5
443.592	1103.5
443.813	1141.5
444.034	1134.5
444.255	1169.5
444.476	1243.5
444.698	1318.5
444.919	1336.5
445.14	1409.5
445.361	1278.5
445.582	1221.5
445.803	1127.5
446.024	1070.5
446.245	1098.5
446.466	1040.5
446.687	1018.5
446.908	1028.5
447.129	995.5
447.35	979.5
447.571	1005.5
447.792	949.5
448.013	942.5
448.234	943.5
448.455	928.5
448.675	932.5
448.896	934.5
449.117	943.5
449.338	922.5
449.559	921.5
449.779	934.5
450	927.5
450.221	925.5
450.442	918.5
450.662	910.5
450.883	939.5
451.104	954.5
451.324	950.5
451.545	933.5
451.766	948.5
451.986	916.5
452.207	925.5
452.428	906.5
452.648	926.5
452.869	906.5
453.089	901.5
453.31	905.5
453.53	889.5
453.751	883.5
453.971	877.5
454.192	905.5
454.412	854.5
454.633	882.5
454.853	868.5
455.073	880.5
455.294	878.5
455.514	838.5
455.734	877.5
455.955	876.5
456.175	854.5
456.395	855.5
456.616	858.5
456.836	855.5
457.056	861.5
457.276	866.5
457.497	888.5
457.717	878.5
457.937	884.5
458.157	897.5
458.377	914.5
458.598	924.5
458.818	922.5
459.038	948.5
459.258	1001.5
459.478	993.5
459.698	1053.5
459.918	1068.5
460.138	1106.5
460.358	1152.5
460.578	1188.5
460.798	1201.5
461.018	1188.5
461.238	1194.5
461.458	1196.5
461.678	1184.5
461.898	1208.5
462.118	1200.5
462.338	1232.5
462.558	1282.5
462.777	1363.5
462.997	1439.5
463.217	1551.5
463.437	1616.5
463.657	1518.5
463.876	1451.5
464.096	1419.5
464.316	1396.5
464.536	1387.5
464.755	1360.5
464.975	1267.5
465.195	1218.5
465.414	1174.5
465.634	1114.5
465.854	1090.5
466.073	1072.5
466.293	1030.5
466.512	995.5
466.732	997.5
466.951	988.5
467.171	970.5
467.391	1005.5
467.61	950.5
467.829	972.5
468.049	924.5
468.268	934.5
468.488	959.5
468.707	936.5
468.927	922.5
469.146	914.5
469.365	959.5
469.585	958.5
469.804	968.5
470.023	978.5
470.243	974.5
470.462	1020.5
470.681	983.5
470.901	1035.5
471.12	1005.5
471.339	996.5
471.558	980.5
471.777	956.5
471.997	949.5
472.216	955.5
472.435	963.5
472.654	904.5
472.873	916.5
473.092	905.5
473.311	902.5
473.53	917.5
473.749	914.5
473.968	896.5
474.187	904.5
474.406	899.5
474.625	909.5
474.844	923.5
475.063	902.5
475.282	887.5
475.501	922.5
475.72	919.5
475.939	919.5
476.158	936.5
476.377	962.5
476.596	961.5
476.814	972.5
477.033	949.5
477.252	987.5
477.471	999.5
477.69	1026.5
477.908	1036.5
478.127	1043.5
478.346	1112.5
478.564	1112.5
478.783	1091.5
479.002	1111.5
479.22	1124.5
479.439	1163.5
479.658	1134.5
479.876	1114.5
480.095	1130.5
480.313	1182.5
480.532	1232.5
480.751	1209.5
480.969	1194.5
481.188	1135.5
481.406	1090.5
481.624	1074.5
481.843	1052.5
482.061	1057.5
482.28	1091.5
482.498	1061.5
482.717	1078.5
482.935	1046.5
483.153	1047.5
483.372	1058.5
483.59	1088.5
483.808	1044.5
484.027	1053.5
484.245	1042.5
484.463	1067.5
484.681	1070.5
484.9	1083.5
485.118	1128.5
485.336	1106.5
485.554	1103.5
485.772	1110.5
485.99	1107.5
486.209	1105.5
486.427	1087.5
486.645	1139.5
486.863	1125.5
487.081	1127.5
487.299	1137.5
487.517	1122.5
487.735	1116.5
487.953	1111.5
488.171	1090.5
488.389	1088.5
488.607	1092.5
488.825	1054.5
489.043	1070.5
489.261	1109.5
489.479	1106.5
489.696	1095.5
489.914	1056.5
490.132	1094.5
490.35	1101.5
490.568	1104.5
490.786	1149.5
491.003	1106.5
491.221	1110.5
491.439	1126.5
491.657	1101.5
491.874	1116.5
492.092	1137.5
492.31	1156.5
492.527	1141.5
492.745	1125.5
492.963	1122.5
493.18	1142.5
493.398	1140.5
493.615	1134.5
493.833	1156.5
494.05	1143.5
494.268	1170.5
494.485	1156.5
494.703	1183.5
494.92	1153.5
495.138	1152.5
495.355	1197.5
495.573	1150.5
495.79	1156.5
496.008	1156.5
496.225	1192.5
496.442	1196.5
496.66	1224.5
496.877	1228.5
497.094	1234.5
497.312	1269.5
497.529	1276.5
497.746	1318.5
497.963	1350.5
498.181	1414.5
498.398	1475.5
498.615	1568.5
498.832	1660.5
499.049	1793.5
499.267	1900.5
499.484	2110.5
499.701	2310.5
499.918	2547.5
500.135	2852.5
500.352	3217.5
500.569	3372.5
500.786	3389.5
501.003	3194.5
501.22	2863.5
501.437	2591.5
501.654	2245.5
501.871	2058.5
502.088	1891.5
502.305	1795.5
502.522	1702.5
502.739	1619.5
502.956	1504.5
503.172	1454.5
503.389	1408.5
503.606	1359.5
503.823	1330.5
504.04	1348.5
504.256	1335.5
504.473	1365.5
504.69	1394.5
504.907	1359.5
505.123	1258.5
505.34	1206.5
505.557	1165.5
505.773	1160.5
505.99	1106.5
506.207	1055.5
506.423	1050.5
506.64	1063.5
506.856	1050.5
507.073	1040.5
507.289	1042.5
507.506	1044.5
507.722	1053.5
507.939	1010.5
508.155	979.5
508.372	981.5
508.588	981.5
508.805	971.5
509.021	922.5
509.238	972.5
509.454	981.5
509.67	927.5
509.887	938.5
510.103	943.5
510.319	938.5
510.536	940.5
510.752	955.5
510.968	939.5
511.184	920.5
511.401	931.5
511.617	958.5
511.833	932.5
512.049	942.5
512.265	963.5
512.481	947.5
512.698	927.5
512.914	916.5
513.13	924.5
513.346	920.5
513.562	918.5
513.778	939.5
513.994	919.5
514.21	946.5
