Data from NiCl2@0.5M.TitratingCurve.Agarose3%dH2O.NegLispCup.LampEnergy10.LIBS07252019_HRD10591_18-18-46-572.txt Node
Date: Thu Jul 25 18:18:46 EDT 2019
User: cochatt
Spectrometer: HR+D1059
Trigger mode: 1
Integration Time (sec): 1.000000E-1
Scans to average: 1
Electric dark correction enabled: true
Nonlinearity correction enabled: false
Boxcar width: 0
XAxis mode: Wavelengths
Number of Pixels in Spectrum: 2048
>>>>>Begin Spectral Data<<<<<
223.165	-21.5
223.4	-21.5
223.635	-21.5
223.869	-24.5
224.104	-18.5
224.338	-15.5
224.573	-13.5
224.808	-3.5
225.042	-0.5
225.277	1.5
225.511	3.5
225.746	9.5
225.98	8.5
226.215	8.5
226.449	9.5
226.683	12.5
226.918	15.5
227.152	28.5
227.387	39.5
227.621	36.5
227.856	47.5
228.09	44.5
228.324	51.5
228.559	57.5
228.793	73.5
229.027	125.5
229.262	136.5
229.496	137.5
229.73	149.5
229.964	153.5
230.199	168.5
230.433	161.5
230.667	159.5
230.901	170.5
231.136	173.5
231.37	171.5
231.604	174.5
231.838	178.5
232.072	171.5
232.306	192.5
232.541	196.5
232.775	181.5
233.009	164.5
233.243	196.5
233.477	182.5
233.711	180.5
233.945	179.5
234.179	199.5
234.413	187.5
234.647	191.5
234.881	196.5
235.115	199.5
235.349	178.5
235.583	183.5
235.817	196.5
236.051	180.5
236.285	180.5
236.519	187.5
236.753	200.5
236.987	189.5
237.221	176.5
237.455	186.5
237.689	197.5
237.922	194.5
238.156	197.5
238.39	210.5
238.624	194.5
238.858	212.5
239.091	200.5
239.325	204.5
239.559	217.5
239.793	252.5
240.027	253.5
240.26	227.5
240.494	220.5
240.728	232.5
240.961	233.5
241.195	245.5
241.429	234.5
241.662	247.5
241.896	270.5
242.13	248.5
242.363	231.5
242.597	240.5
242.83	253.5
243.064	237.5
243.298	262.5
243.531	241.5
243.765	254.5
243.998	270.5
244.232	259.5
244.465	261.5
244.699	274.5
244.932	253.5
245.166	273.5
245.399	291.5
245.633	266.5
245.866	284.5
246.099	277.5
246.333	270.5
246.566	284.5
246.8	288.5
247.033	281.5
247.266	276.5
247.5	298.5
247.733	273.5
247.966	294.5
248.2	302.5
248.433	311.5
248.666	306.5
248.899	294.5
249.133	326.5
249.366	307.5
249.599	324.5
249.832	320.5
250.066	317.5
250.299	321.5
250.532	315.5
250.765	316.5
250.998	335.5
251.231	340.5
251.465	348.5
251.698	317.5
251.931	344.5
252.164	326.5
252.397	351.5
252.63	342.5
252.863	368.5
253.096	374.5
253.329	352.5
253.562	339.5
253.795	376.5
254.028	354.5
254.261	375.5
254.494	368.5
254.727	358.5
254.96	378.5
255.193	360.5
255.426	369.5
255.659	383.5
255.892	373.5
256.124	395.5
256.357	374.5
256.59	390.5
256.823	363.5
257.056	390.5
257.289	386.5
257.521	385.5
257.754	379.5
257.987	383.5
258.22	397.5
258.452	405.5
258.685	411.5
258.918	394.5
259.151	419.5
259.383	406.5
259.616	410.5
259.849	394.5
260.081	428.5
260.314	416.5
260.547	428.5
260.779	416.5
261.012	417.5
261.244	413.5
261.477	424.5
261.71	447.5
261.942	418.5
262.175	441.5
262.407	441.5
262.64	443.5
262.872	459.5
263.105	427.5
263.337	438.5
263.57	444.5
263.802	451.5
264.035	429.5
264.267	466.5
264.499	450.5
264.732	465.5
264.964	474.5
265.197	467.5
265.429	462.5
265.661	452.5
265.894	470.5
266.126	478.5
266.358	469.5
266.591	465.5
266.823	465.5
267.055	488.5
267.287	500.5
267.52	479.5
267.752	490.5
267.984	490.5
268.216	481.5
268.448	522.5
268.681	489.5
268.913	513.5
269.145	499.5
269.377	489.5
269.609	506.5
269.841	497.5
270.073	514.5
270.306	498.5
270.538	522.5
270.77	494.5
271.002	508.5
271.234	515.5
271.466	519.5
271.698	547.5
271.93	520.5
272.162	531.5
272.394	541.5
272.626	541.5
272.858	539.5
273.09	539.5
273.322	552.5
273.553	549.5
273.785	560.5
274.017	544.5
274.249	538.5
274.481	553.5
274.713	557.5
274.945	556.5
275.176	560.5
275.408	580.5
275.64	587.5
275.872	553.5
276.104	572.5
276.335	576.5
276.567	589.5
276.799	573.5
277.031	580.5
277.262	568.5
277.494	594.5
277.726	578.5
277.957	595.5
278.189	600.5
278.421	595.5
278.652	599.5
278.884	600.5
279.115	588.5
279.347	621.5
279.579	591.5
279.81	630.5
280.042	619.5
280.273	616.5
280.505	633.5
280.736	626.5
280.968	624.5
281.199	625.5
281.431	615.5
281.662	642.5
281.894	642.5
282.125	638.5
282.356	636.5
282.588	640.5
282.819	614.5
283.051	618.5
283.282	616.5
283.513	646.5
283.745	649.5
283.976	663.5
284.207	650.5
284.439	662.5
284.67	652.5
284.901	658.5
285.132	681.5
285.364	661.5
285.595	669.5
285.826	669.5
286.057	698.5
286.288	664.5
286.52	668.5
286.751	672.5
286.982	718.5
287.213	701.5
287.444	678.5
287.675	704.5
287.906	695.5
288.138	716.5
288.369	694.5
288.6	708.5
288.831	704.5
289.062	702.5
289.293	728.5
289.524	715.5
289.755	715.5
289.986	706.5
290.217	710.5
290.448	722.5
290.679	730.5
290.91	704.5
291.141	701.5
291.371	718.5
291.602	737.5
291.833	718.5
292.064	704.5
292.295	731.5
292.526	730.5
292.757	706.5
292.987	720.5
293.218	703.5
293.449	732.5
293.68	746.5
293.91	722.5
294.141	715.5
294.372	700.5
294.603	720.5
294.833	707.5
295.064	713.5
295.295	742.5
295.525	745.5
295.756	742.5
295.987	753.5
296.217	740.5
296.448	728.5
296.679	754.5
296.909	759.5
297.14	787.5
297.37	770.5
297.601	784.5
297.831	754.5
298.062	794.5
298.292	783.5
298.523	782.5
298.753	837.5
298.984	778.5
299.214	806.5
299.445	784.5
299.675	790.5
299.905	816.5
300.136	776.5
300.366	804.5
300.597	812.5
300.827	821.5
301.057	816.5
301.288	833.5
301.518	860.5
301.748	836.5
301.979	858.5
302.209	835.5
302.439	851.5
302.669	804.5
302.9	833.5
303.13	831.5
303.36	828.5
303.59	830.5
303.82	826.5
304.051	834.5
304.281	836.5
304.511	838.5
304.741	845.5
304.971	849.5
305.201	877.5
305.431	881.5
305.661	850.5
305.891	842.5
306.121	851.5
306.352	832.5
306.582	808.5
306.812	813.5
307.042	824.5
307.272	831.5
307.502	822.5
307.731	786.5
307.961	829.5
308.191	834.5
308.421	849.5
308.651	834.5
308.881	812.5
309.111	838.5
309.341	821.5
309.571	802.5
309.8	829.5
310.03	863.5
310.26	880.5
310.49	884.5
310.72	861.5
310.949	842.5
311.179	838.5
311.409	823.5
311.639	832.5
311.868	832.5
312.098	848.5
312.328	862.5
312.557	864.5
312.787	840.5
313.017	853.5
313.246	875.5
313.476	901.5
313.706	912.5
313.935	888.5
314.165	864.5
314.394	866.5
314.624	902.5
314.853	887.5
315.083	868.5
315.312	900.5
315.542	877.5
315.771	872.5
316.001	894.5
316.23	843.5
316.46	886.5
316.689	898.5
316.919	901.5
317.148	922.5
317.377	888.5
317.607	871.5
317.836	898.5
318.065	908.5
318.295	892.5
318.524	898.5
318.753	853.5
318.983	857.5
319.212	871.5
319.441	892.5
319.67	908.5
319.9	908.5
320.129	907.5
320.358	910.5
320.587	908.5
320.816	883.5
321.046	902.5
321.275	877.5
321.504	891.5
321.733	882.5
321.962	923.5
322.191	889.5
322.42	952.5
322.649	912.5
322.878	885.5
323.108	924.5
323.337	934.5
323.566	941.5
323.795	937.5
324.024	937.5
324.253	956.5
324.482	929.5
324.71	918.5
324.939	928.5
325.168	934.5
325.397	907.5
325.626	935.5
325.855	952.5
326.084	994.5
326.313	962.5
326.542	982.5
326.77	996.5
326.999	986.5
327.228	963.5
327.457	955.5
327.686	956.5
327.914	963.5
328.143	960.5
328.372	960.5
328.6	959.5
328.829	967.5
329.058	952.5
329.287	972.5
329.515	963.5
329.744	968.5
329.972	974.5
330.201	965.5
330.43	1029.5
330.658	984.5
330.887	995.5
331.115	997.5
331.344	991.5
331.572	1034.5
331.801	1056.5
332.03	1053.5
332.258	1048.5
332.486	1034.5
332.715	1097.5
332.943	1103.5
333.172	1112.5
333.4	1158.5
333.629	1189.5
333.857	1182.5
334.085	1171.5
334.314	1177.5
334.542	1214.5
334.771	1173.5
334.999	1156.5
335.227	1160.5
335.455	1169.5
335.684	1133.5
335.912	1165.5
336.14	1152.5
336.369	1152.5
336.597	1122.5
336.825	1162.5
337.053	1178.5
337.281	1148.5
337.51	1119.5
337.738	1117.5
337.966	1092.5
338.194	1144.5
338.422	1078.5
338.65	1066.5
338.878	1048.5
339.106	1065.5
339.334	1070.5
339.562	1078.5
339.79	1046.5
340.018	1024.5
340.246	1021.5
340.474	1001.5
340.702	1009.5
340.93	1041.5
341.158	1052.5
341.386	1057.5
341.614	1143.5
341.842	1079.5
342.07	1038.5
342.298	990.5
342.526	1025.5
342.754	1038.5
342.981	1006.5
343.209	1025.5
343.437	1046.5
343.665	1082.5
343.893	1120.5
344.12	1158.5
344.348	1131.5
344.576	1163.5
344.804	1116.5
345.031	1085.5
345.259	1040.5
345.487	1034.5
345.714	1069.5
345.942	1031.5
346.17	1051.5
346.397	1037.5
346.625	1002.5
346.853	973.5
347.08	982.5
347.308	989.5
347.535	1012.5
347.763	971.5
347.99	998.5
348.218	1001.5
348.445	977.5
348.673	981.5
348.9	965.5
349.128	973.5
349.355	998.5
349.583	1011.5
349.81	992.5
350.037	930.5
350.265	948.5
350.492	958.5
350.72	951.5
350.947	966.5
351.174	993.5
351.402	999.5
351.629	980.5
351.856	997.5
352.083	961.5
352.311	974.5
352.538	1008.5
352.765	1017.5
352.992	958.5
353.22	936.5
353.447	942.5
353.674	938.5
353.901	930.5
354.128	947.5
354.355	910.5
354.583	898.5
354.81	932.5
355.037	952.5
355.264	917.5
355.491	914.5
355.718	910.5
355.945	927.5
356.172	944.5
356.399	940.5
356.626	978.5
356.853	938.5
357.08	961.5
357.307	939.5
357.534	952.5
357.761	941.5
357.988	931.5
358.215	958.5
358.441	938.5
358.668	926.5
358.895	910.5
359.122	930.5
359.349	914.5
359.576	914.5
359.802	918.5
360.029	934.5
360.256	935.5
360.483	950.5
360.709	909.5
360.936	938.5
361.163	939.5
361.39	940.5
361.616	965.5
361.843	974.5
362.07	1001.5
362.296	977.5
362.523	926.5
362.749	936.5
362.976	933.5
363.203	948.5
363.429	928.5
363.656	917.5
363.882	906.5
364.109	917.5
364.335	925.5
364.562	915.5
364.788	924.5
365.015	925.5
365.241	909.5
365.468	918.5
365.694	926.5
365.92	892.5
366.147	931.5
366.373	929.5
366.599	922.5
366.826	915.5
367.052	894.5
367.278	953.5
367.505	911.5
367.731	937.5
367.957	957.5
368.184	890.5
368.41	938.5
368.636	954.5
368.862	934.5
369.089	940.5
369.315	922.5
369.541	927.5
369.767	939.5
369.993	930.5
370.219	925.5
370.445	929.5
370.672	950.5
370.898	948.5
371.124	942.5
371.35	952.5
371.576	973.5
371.802	981.5
372.028	938.5
372.254	990.5
372.48	960.5
372.706	988.5
372.932	976.5
373.158	968.5
373.384	979.5
373.61	986.5
373.835	980.5
374.061	964.5
374.287	977.5
374.513	997.5
374.739	1029.5
374.965	1019.5
375.191	1011.5
375.416	1041.5
375.642	984.5
375.868	1036.5
376.094	995.5
376.319	993.5
376.545	974.5
376.771	999.5
376.997	973.5
377.222	973.5
377.448	944.5
377.674	980.5
377.899	950.5
378.125	935.5
378.35	951.5
378.576	941.5
378.802	962.5
379.027	963.5
379.253	953.5
379.478	967.5
379.704	951.5
379.929	935.5
380.155	938.5
380.38	957.5
380.606	954.5
380.831	965.5
381.057	978.5
381.282	958.5
381.507	940.5
381.733	953.5
381.958	959.5
382.184	962.5
382.409	949.5
382.634	960.5
382.86	979.5
383.085	1010.5
383.31	1011.5
383.535	1021.5
383.761	984.5
383.986	1048.5
384.211	1067.5
384.436	1080.5
384.662	1069.5
384.887	1090.5
385.112	1059.5
385.337	1103.5
385.562	1086.5
385.787	1124.5
386.013	1136.5
386.238	1130.5
386.463	1152.5
386.688	1152.5
386.913	1114.5
387.138	1097.5
387.363	1110.5
387.588	1104.5
387.813	1099.5
388.038	1106.5
388.263	1104.5
388.488	1123.5
388.713	1112.5
388.938	1089.5
389.163	1099.5
389.387	1130.5
389.612	1108.5
389.837	1101.5
390.062	1114.5
390.287	1100.5
390.512	1089.5
390.736	1083.5
390.961	1117.5
391.186	1133.5
391.411	1174.5
391.636	1174.5
391.86	1168.5
392.085	1216.5
392.31	1206.5
392.534	1202.5
392.759	1189.5
392.984	1191.5
393.208	1159.5
393.433	1174.5
393.658	1174.5
393.882	1180.5
394.107	1165.5
394.331	1198.5
394.556	1180.5
394.78	1181.5
395.005	1157.5
395.229	1182.5
395.454	1229.5
395.678	1211.5
395.903	1208.5
396.127	1193.5
396.352	1180.5
396.576	1159.5
396.801	1188.5
397.025	1186.5
397.249	1205.5
397.474	1241.5
397.698	1234.5
397.922	1269.5
398.147	1245.5
398.371	1317.5
398.595	1324.5
398.82	1323.5
399.044	1396.5
399.268	1452.5
399.492	1664.5
399.717	1786.5
399.941	1790.5
400.165	1684.5
400.389	1591.5
400.613	1507.5
400.837	1440.5
401.062	1389.5
401.286	1359.5
401.51	1376.5
401.734	1365.5
401.958	1397.5
402.182	1360.5
402.406	1376.5
402.63	1374.5
402.854	1395.5
403.078	1420.5
403.302	1442.5
403.526	1454.5
403.75	1435.5
403.974	1466.5
404.198	1481.5
404.422	1464.5
404.645	1473.5
404.869	1453.5
405.093	1445.5
405.317	1451.5
405.541	1495.5
405.765	1481.5
405.988	1431.5
406.212	1504.5
406.436	1462.5
406.66	1528.5
406.883	1509.5
407.107	1581.5
407.331	1609.5
407.555	1688.5
407.778	1638.5
408.002	1642.5
408.226	1646.5
408.449	1627.5
408.673	1558.5
408.896	1556.5
409.12	1508.5
409.344	1543.5
409.567	1554.5
409.791	1521.5
410.014	1535.5
410.238	1519.5
410.461	1497.5
410.685	1472.5
410.908	1454.5
411.132	1492.5
411.355	1438.5
411.578	1433.5
411.802	1441.5
412.025	1436.5
412.249	1479.5
412.472	1438.5
412.695	1408.5
412.919	1393.5
413.142	1373.5
413.365	1401.5
413.589	1380.5
413.812	1365.5
414.035	1354.5
414.258	1398.5
414.482	1408.5
414.705	1389.5
414.928	1385.5
415.151	1405.5
415.374	1368.5
415.597	1391.5
415.821	1353.5
416.044	1340.5
416.267	1334.5
416.49	1365.5
416.713	1371.5
416.936	1364.5
417.159	1360.5
417.382	1346.5
417.605	1332.5
417.828	1338.5
418.051	1366.5
418.274	1333.5
418.497	1352.5
418.72	1379.5
418.943	1369.5
419.166	1446.5
419.389	1558.5
419.611	1513.5
419.834	1468.5
420.057	1385.5
420.28	1388.5
420.503	1353.5
420.726	1319.5
420.948	1335.5
421.171	1353.5
421.394	1358.5
421.617	1360.5
421.839	1369.5
422.062	1377.5
422.285	1353.5
422.507	1384.5
422.73	1388.5
422.953	1357.5
423.175	1378.5
423.398	1388.5
423.621	1356.5
423.843	1376.5
424.066	1389.5
424.288	1400.5
424.511	1367.5
424.733	1408.5
424.956	1345.5
425.178	1350.5
425.401	1356.5
425.623	1364.5
425.846	1346.5
426.068	1312.5
426.291	1357.5
426.513	1350.5
426.735	1321.5
426.958	1330.5
427.18	1255.5
427.402	1310.5
427.625	1266.5
427.847	1270.5
428.069	1264.5
428.292	1276.5
428.514	1306.5
428.736	1246.5
428.958	1288.5
429.181	1247.5
429.403	1279.5
429.625	1282.5
429.847	1256.5
430.069	1243.5
430.292	1296.5
430.514	1275.5
430.736	1262.5
430.958	1270.5
431.18	1248.5
431.402	1268.5
431.624	1300.5
431.846	1269.5
432.068	1269.5
432.29	1265.5
432.512	1293.5
432.734	1299.5
432.956	1294.5
433.178	1276.5
433.4	1317.5
433.622	1292.5
433.844	1286.5
434.066	1345.5
434.287	1332.5
434.509	1364.5
434.731	1387.5
434.953	1409.5
435.175	1412.5
435.397	1396.5
435.618	1339.5
435.84	1318.5
436.062	1324.5
436.284	1271.5
436.505	1276.5
436.727	1313.5
436.949	1308.5
437.17	1309.5
437.392	1266.5
437.614	1276.5
437.835	1233.5
438.057	1279.5
438.278	1232.5
438.5	1267.5
438.721	1254.5
438.943	1272.5
439.165	1236.5
439.386	1261.5
439.608	1268.5
439.829	1285.5
440.05	1316.5
440.272	1291.5
440.493	1325.5
440.715	1326.5
440.936	1313.5
441.158	1335.5
441.379	1366.5
441.6	1416.5
441.822	1400.5
442.043	1432.5
442.264	1400.5
442.486	1390.5
442.707	1389.5
442.928	1385.5
443.149	1420.5
443.371	1370.5
443.592	1446.5
443.813	1418.5
444.034	1425.5
444.255	1431.5
444.476	1488.5
444.698	1566.5
444.919	1585.5
445.14	1637.5
445.361	1510.5
445.582	1482.5
445.803	1421.5
446.024	1381.5
446.245	1334.5
446.466	1381.5
446.687	1318.5
446.908	1298.5
447.129	1268.5
447.35	1288.5
447.571	1296.5
447.792	1234.5
448.013	1246.5
448.234	1208.5
448.455	1181.5
448.675	1197.5
448.896	1222.5
449.117	1172.5
449.338	1195.5
449.559	1202.5
449.779	1164.5
450	1160.5
450.221	1180.5
450.442	1187.5
450.662	1182.5
450.883	1208.5
451.104	1239.5
451.324	1186.5
451.545	1193.5
451.766	1230.5
451.986	1194.5
452.207	1202.5
452.428	1191.5
452.648	1184.5
452.869	1170.5
453.089	1120.5
453.31	1202.5
453.53	1152.5
453.751	1178.5
453.971	1144.5
454.192	1184.5
454.412	1131.5
454.633	1156.5
454.853	1142.5
455.073	1151.5
455.294	1144.5
455.514	1117.5
455.734	1144.5
455.955	1141.5
456.175	1136.5
456.395	1127.5
456.616	1136.5
456.836	1125.5
457.056	1129.5
457.276	1141.5
457.497	1140.5
457.717	1123.5
457.937	1133.5
458.157	1179.5
458.377	1194.5
458.598	1205.5
458.818	1237.5
459.038	1241.5
459.258	1249.5
459.478	1284.5
459.698	1352.5
459.918	1395.5
460.138	1364.5
460.358	1443.5
460.578	1477.5
460.798	1508.5
461.018	1541.5
461.238	1462.5
461.458	1499.5
461.678	1498.5
461.898	1530.5
462.118	1475.5
462.338	1565.5
462.558	1620.5
462.777	1642.5
462.997	1730.5
463.217	1854.5
463.437	1856.5
463.657	1744.5
463.876	1635.5
464.096	1674.5
464.316	1650.5
464.536	1686.5
464.755	1647.5
464.975	1574.5
465.195	1513.5
465.414	1497.5
465.634	1388.5
465.854	1353.5
466.073	1400.5
466.293	1357.5
466.512	1319.5
466.732	1317.5
466.951	1291.5
467.171	1278.5
467.391	1277.5
467.61	1282.5
467.829	1244.5
468.049	1227.5
468.268	1226.5
468.488	1211.5
468.707	1217.5
468.927	1201.5
469.146	1229.5
469.365	1259.5
469.585	1265.5
469.804	1274.5
470.023	1277.5
470.243	1272.5
470.462	1317.5
470.681	1312.5
470.901	1279.5
471.12	1298.5
471.339	1299.5
471.558	1286.5
471.777	1290.5
471.997	1280.5
472.216	1228.5
472.435	1232.5
472.654	1206.5
472.873	1220.5
473.092	1218.5
473.311	1222.5
473.53	1216.5
473.749	1206.5
473.968	1230.5
474.187	1228.5
474.406	1241.5
474.625	1238.5
474.844	1249.5
475.063	1246.5
475.282	1275.5
475.501	1286.5
475.72	1227.5
475.939	1290.5
476.158	1283.5
476.377	1274.5
476.596	1266.5
476.814	1290.5
477.033	1333.5
477.252	1332.5
477.471	1389.5
477.69	1376.5
477.908	1384.5
478.127	1426.5
478.346	1450.5
478.564	1441.5
478.783	1496.5
479.002	1524.5
479.22	1563.5
479.439	1513.5
479.658	1483.5
479.876	1517.5
480.095	1505.5
480.313	1547.5
480.532	1544.5
480.751	1533.5
480.969	1531.5
481.188	1486.5
481.406	1474.5
481.624	1436.5
481.843	1448.5
482.061	1416.5
482.28	1452.5
482.498	1411.5
482.717	1439.5
482.935	1425.5
483.153	1406.5
483.372	1444.5
483.59	1470.5
483.808	1464.5
484.027	1436.5
484.245	1413.5
484.463	1451.5
484.681	1481.5
484.9	1462.5
485.118	1484.5
485.336	1485.5
485.554	1481.5
485.772	1496.5
485.99	1488.5
486.209	1471.5
486.427	1495.5
486.645	1505.5
486.863	1505.5
487.081	1496.5
487.299	1520.5
487.517	1499.5
487.735	1518.5
487.953	1554.5
488.171	1498.5
488.389	1494.5
488.607	1501.5
488.825	1485.5
489.043	1480.5
489.261	1486.5
489.479	1516.5
489.696	1462.5
489.914	1505.5
490.132	1499.5
490.35	1496.5
490.568	1531.5
490.786	1542.5
491.003	1538.5
491.221	1529.5
491.439	1517.5
491.657	1532.5
491.874	1525.5
492.092	1551.5
492.31	1580.5
492.527	1597.5
492.745	1585.5
492.963	1573.5
493.18	1578.5
493.398	1580.5
493.615	1629.5
493.833	1597.5
494.05	1596.5
494.268	1556.5
494.485	1598.5
494.703	1594.5
494.92	1580.5
495.138	1590.5
495.355	1624.5
495.573	1600.5
495.79	1620.5
496.008	1635.5
496.225	1652.5
496.442	1642.5
496.66	1688.5
496.877	1676.5
497.094	1754.5
497.312	1782.5
497.529	1810.5
497.746	1812.5
497.963	1911.5
498.181	1944.5
498.398	1987.5
498.615	2048.5
498.832	2138.5
499.049	2267.5
499.267	2420.5
499.484	2532.5
499.701	2770.5
499.918	2930.5
500.135	3208.5
500.352	3499.5
500.569	3578.5
500.786	3548.5
501.003	3394.5
501.22	3146.5
501.437	2924.5
501.654	2708.5
501.871	2557.5
502.088	2418.5
502.305	2262.5
502.522	2168.5
502.739	2128.5
502.956	2004.5
503.172	1939.5
503.389	1848.5
503.606	1829.5
503.823	1847.5
504.04	1849.5
504.256	1809.5
504.473	1836.5
504.69	1776.5
504.907	1750.5
505.123	1706.5
505.34	1657.5
505.557	1599.5
505.773	1548.5
505.99	1519.5
506.207	1470.5
506.423	1499.5
506.64	1449.5
506.856	1451.5
507.073	1425.5
507.289	1394.5
507.506	1409.5
507.722	1432.5
507.939	1407.5
508.155	1406.5
508.372	1394.5
508.588	1342.5
508.805	1338.5
509.021	1337.5
509.238	1339.5
509.454	1304.5
509.67	1332.5
509.887	1316.5
510.103	1334.5
