Data from NiCl2@0.0625M.TitratingCurve.Agarose3%dH2O.NegLispCup.LampEnergy10.LIBS07252019_HRD10591_18-35-33-576.txt Node
Date: Thu Jul 25 18:35:33 EDT 2019
User: cochatt
Spectrometer: HR+D1059
Trigger mode: 1
Integration Time (sec): 1.000000E-1
Scans to average: 1
Electric dark correction enabled: true
Nonlinearity correction enabled: false
Boxcar width: 0
XAxis mode: Wavelengths
Number of Pixels in Spectrum: 2048
>>>>>Begin Spectral Data<<<<<
223.165	-10
223.4	-10
223.635	-10
223.869	-19
224.104	-14
224.338	-15
224.573	-12
224.808	-12
225.042	-15
225.277	-10
225.511	-5
225.746	6
225.98	1
226.215	10
226.449	6
226.683	20
226.918	34
227.152	35
227.387	36
227.621	42
227.856	43
228.09	50
228.324	56
228.559	46
228.793	81
229.027	138
229.262	131
229.496	143
229.73	176
229.964	173
230.199	160
230.433	166
230.667	174
230.901	170
231.136	177
231.37	197
231.604	196
231.838	199
232.072	204
232.306	198
232.541	205
232.775	193
233.009	204
233.243	214
233.477	213
233.711	203
233.945	218
234.179	212
234.413	220
234.647	223
234.881	224
235.115	213
235.349	222
235.583	226
235.817	206
236.051	225
236.285	233
236.519	227
236.753	221
236.987	233
237.221	205
237.455	231
237.689	255
237.922	231
238.156	232
238.39	252
238.624	229
238.858	257
239.091	244
239.325	253
239.559	266
239.793	243
240.027	257
240.26	252
240.494	256
240.728	271
240.961	280
241.195	281
241.429	283
241.662	281
241.896	283
242.13	271
242.363	284
242.597	296
242.83	290
243.064	306
243.298	301
243.531	321
243.765	318
243.998	332
244.232	306
244.465	319
244.699	307
244.932	335
245.166	331
245.399	323
245.633	330
245.866	332
246.099	336
246.333	344
246.566	340
246.8	348
247.033	344
247.266	329
247.5	348
247.733	347
247.966	363
248.2	358
248.433	372
248.666	357
248.899	361
249.133	369
249.366	364
249.599	350
249.832	381
250.066	380
250.299	377
250.532	396
250.765	398
250.998	394
251.231	400
251.465	390
251.698	413
251.931	390
252.164	399
252.397	428
252.63	418
252.863	427
253.096	406
253.329	434
253.562	413
253.795	409
254.028	430
254.261	444
254.494	430
254.727	453
254.96	418
255.193	446
255.426	479
255.659	435
255.892	424
256.124	437
256.357	452
256.59	479
256.823	456
257.056	466
257.289	480
257.521	462
257.754	471
257.987	488
258.22	492
258.452	487
258.685	474
258.918	513
259.151	502
259.383	490
259.616	507
259.849	490
260.081	523
260.314	511
260.547	504
260.779	489
261.012	493
261.244	499
261.477	522
261.71	521
261.942	498
262.175	541
262.407	502
262.64	525
262.872	539
263.105	520
263.337	537
263.57	539
263.802	547
264.035	551
264.267	541
264.499	541
264.732	577
264.964	557
265.197	565
265.429	561
265.661	555
265.894	565
266.126	575
266.358	562
266.591	564
266.823	569
267.055	577
267.287	596
267.52	595
267.752	600
267.984	590
268.216	589
268.448	611
268.681	604
268.913	618
269.145	601
269.377	604
269.609	581
269.841	612
270.073	611
270.306	592
270.538	617
270.77	601
271.002	621
271.234	626
271.466	603
271.698	620
271.93	641
272.162	637
272.394	635
272.626	640
272.858	639
273.09	661
273.322	673
273.553	629
273.785	645
274.017	642
274.249	671
274.481	663
274.713	660
274.945	638
275.176	677
275.408	670
275.64	678
275.872	681
276.104	705
276.335	698
276.567	674
276.799	696
277.031	707
277.262	663
277.494	708
277.726	678
277.957	708
278.189	720
278.421	684
278.652	701
278.884	729
279.115	743
279.347	745
279.579	740
279.81	738
280.042	719
280.273	748
280.505	731
280.736	734
280.968	740
281.199	749
281.431	763
281.662	753
281.894	765
282.125	758
282.356	748
282.588	803
282.819	777
283.051	783
283.282	781
283.513	768
283.745	784
283.976	782
284.207	807
284.439	798
284.67	784
284.901	812
285.132	793
285.364	795
285.595	799
285.826	795
286.057	829
286.288	803
286.52	808
286.751	828
286.982	839
287.213	812
287.444	837
287.675	811
287.906	865
288.138	853
288.369	823
288.6	831
288.831	866
289.062	878
289.293	819
289.524	833
289.755	866
289.986	852
290.217	839
290.448	852
290.679	881
290.91	860
291.141	863
291.371	890
291.602	846
291.833	841
292.064	858
292.295	867
292.526	852
292.757	840
292.987	847
293.218	843
293.449	881
293.68	876
293.91	892
294.141	882
294.372	849
294.603	861
294.833	875
295.064	881
295.295	882
295.525	856
295.756	889
295.987	865
296.217	887
296.448	893
296.679	898
296.909	893
297.14	901
297.37	945
297.601	901
297.831	915
298.062	938
298.292	935
298.523	974
298.753	969
298.984	923
299.214	916
299.445	934
299.675	948
299.905	940
300.136	929
300.366	947
300.597	938
300.827	947
301.057	955
301.288	982
301.518	995
301.748	987
301.979	1006
302.209	1034
302.439	1000
302.669	978
302.9	964
303.13	999
303.36	1000
303.59	982
303.82	985
304.051	999
304.281	1002
304.511	961
304.741	975
304.971	971
305.201	987
305.431	999
305.661	988
305.891	976
306.121	997
306.352	1013
306.582	956
306.812	942
307.042	967
307.272	955
307.502	959
307.731	961
307.961	982
308.191	959
308.421	918
308.651	981
308.881	969
309.111	951
309.341	962
309.571	967
309.8	989
310.03	1001
310.26	975
310.49	969
310.72	979
310.949	989
311.179	983
311.409	1000
311.639	973
311.868	996
312.098	968
312.328	1024
312.557	1009
312.787	1032
313.017	983
313.246	1020
313.476	1054
313.706	1068
313.935	1082
314.165	1075
314.394	1064
314.624	1058
314.853	1031
315.083	1067
315.312	1060
315.542	1034
315.771	1037
316.001	1017
316.23	1055
316.46	1046
316.689	1045
316.919	1054
317.148	1035
317.377	1038
317.607	1033
317.836	1019
318.065	1023
318.295	1045
318.524	1079
318.753	1050
318.983	1043
319.212	1019
319.441	1070
319.67	1016
319.9	1034
320.129	1027
320.358	1064
320.587	1033
320.816	1049
321.046	1064
321.275	1037
321.504	1062
321.733	1029
321.962	1054
322.191	1052
322.42	1031
322.649	1055
322.878	1039
323.108	1049
323.337	1045
323.566	1080
323.795	1093
324.024	1093
324.253	1078
324.482	1080
324.71	1073
324.939	1113
325.168	1090
325.397	1072
325.626	1139
325.855	1128
326.084	1127
326.313	1156
326.542	1116
326.77	1149
326.999	1102
327.228	1121
327.457	1135
327.686	1115
327.914	1121
328.143	1137
328.372	1137
328.6	1146
328.829	1138
329.058	1139
329.287	1138
329.515	1157
329.744	1153
329.972	1153
330.201	1171
330.43	1171
330.658	1179
330.887	1173
331.115	1199
331.344	1204
331.572	1219
331.801	1193
332.03	1243
332.258	1255
332.486	1284
332.715	1327
332.943	1362
333.172	1415
333.4	1424
333.629	1455
333.857	1481
334.085	1473
334.314	1458
334.542	1442
334.771	1457
334.999	1452
335.227	1426
335.455	1431
335.684	1401
335.912	1412
336.14	1409
336.369	1383
336.597	1389
336.825	1352
337.053	1355
337.281	1327
337.51	1342
337.738	1313
337.966	1278
338.194	1298
338.422	1298
338.65	1237
338.878	1250
339.106	1243
339.334	1214
339.562	1239
339.79	1177
340.018	1189
340.246	1198
340.474	1221
340.702	1175
340.93	1201
341.158	1189
341.386	1206
341.614	1214
341.842	1160
342.07	1167
342.298	1150
342.526	1190
342.754	1202
342.981	1211
343.209	1240
343.437	1272
343.665	1337
343.893	1371
344.12	1477
344.348	1395
344.576	1354
344.804	1331
345.031	1238
345.259	1212
345.487	1212
345.714	1203
345.942	1183
346.17	1190
346.397	1192
346.625	1189
346.853	1182
347.08	1149
347.308	1147
347.535	1169
347.763	1145
347.99	1144
348.218	1109
348.445	1139
348.673	1145
348.9	1144
349.128	1133
349.355	1130
349.583	1132
349.81	1123
350.037	1100
350.265	1148
350.492	1124
350.72	1117
350.947	1131
351.174	1114
351.402	1119
351.629	1098
351.856	1114
352.083	1113
352.311	1105
352.538	1125
352.765	1138
352.992	1121
353.22	1108
353.447	1093
353.674	1066
353.901	1075
354.128	1068
354.355	1088
354.583	1079
354.81	1089
355.037	1088
355.264	1097
355.491	1090
355.718	1075
355.945	1106
356.172	1092
356.399	1131
356.626	1133
356.853	1127
357.08	1088
357.307	1080
357.534	1093
357.761	1133
357.988	1149
358.215	1107
358.441	1088
358.668	1095
358.895	1077
359.122	1124
359.349	1101
359.576	1107
359.802	1091
360.029	1102
360.256	1107
360.483	1101
360.709	1116
360.936	1103
361.163	1119
361.39	1124
361.616	1116
361.843	1106
362.07	1132
362.296	1128
362.523	1100
362.749	1111
362.976	1073
363.203	1087
363.429	1104
363.656	1107
363.882	1121
364.109	1081
364.335	1090
364.562	1125
364.788	1103
365.015	1121
365.241	1102
365.468	1133
365.694	1095
365.92	1082
366.147	1089
366.373	1105
366.599	1100
366.826	1089
367.052	1097
367.278	1125
367.505	1095
367.731	1119
367.957	1109
368.184	1095
368.41	1100
368.636	1111
368.862	1119
369.089	1157
369.315	1156
369.541	1116
369.767	1157
369.993	1121
370.219	1177
370.445	1160
370.672	1157
370.898	1191
371.124	1181
371.35	1223
371.576	1197
371.802	1215
372.028	1180
372.254	1197
372.48	1209
372.706	1224
372.932	1235
373.158	1245
373.384	1201
373.61	1183
373.835	1198
374.061	1178
374.287	1227
374.513	1212
374.739	1268
374.965	1316
375.191	1320
375.416	1315
375.642	1268
375.868	1257
376.094	1223
376.319	1222
376.545	1203
376.771	1252
376.997	1224
377.222	1203
377.448	1200
377.674	1212
377.899	1193
378.125	1195
378.35	1190
378.576	1194
378.802	1134
379.027	1171
379.253	1191
379.478	1192
379.704	1175
379.929	1187
380.155	1214
380.38	1180
380.606	1169
380.831	1189
381.057	1209
381.282	1176
381.507	1196
381.733	1205
381.958	1195
382.184	1226
382.409	1229
382.634	1268
382.86	1265
383.085	1269
383.31	1280
383.535	1306
383.761	1310
383.986	1341
384.211	1347
384.436	1360
384.662	1375
384.887	1437
385.112	1397
385.337	1434
385.562	1429
385.787	1400
386.013	1429
386.238	1446
386.463	1432
386.688	1438
386.913	1429
387.138	1429
387.363	1428
387.588	1433
387.813	1426
388.038	1429
388.263	1413
388.488	1443
388.713	1441
388.938	1421
389.163	1433
389.387	1429
389.612	1414
389.837	1404
390.062	1395
390.287	1397
390.512	1414
390.736	1457
390.961	1455
391.186	1499
391.411	1518
391.636	1556
391.86	1615
392.085	1597
392.31	1586
392.534	1571
392.759	1567
392.984	1511
393.208	1514
393.433	1522
393.658	1529
393.882	1487
394.107	1538
394.331	1521
394.556	1532
394.78	1556
395.005	1545
395.229	1544
395.454	1571
395.678	1618
395.903	1608
396.127	1618
396.352	1534
396.576	1544
396.801	1514
397.025	1575
397.249	1604
397.474	1642
397.698	1636
397.922	1657
398.147	1628
398.371	1658
398.595	1724
398.82	1795
399.044	1908
399.268	2057
399.492	2262
399.717	2497
399.941	2542
400.165	2337
400.389	2157
400.613	2005
400.837	1956
401.062	1898
401.286	1849
401.51	1835
401.734	1788
401.958	1804
402.182	1867
402.406	1807
402.63	1860
402.854	1869
403.078	1903
403.302	1916
403.526	1945
403.75	1940
403.974	2029
404.198	1994
404.422	1987
404.645	1967
404.869	1973
405.093	1979
405.317	1941
405.541	1938
405.765	1942
405.988	1919
406.212	1941
406.436	1977
406.66	2030
406.883	2036
407.107	2106
407.331	2233
407.555	2261
407.778	2286
408.002	2207
408.226	2190
408.449	2178
408.673	2073
408.896	2016
409.12	2019
409.344	2051
409.567	2002
409.791	2014
410.014	1979
410.238	1971
410.461	1956
410.685	1943
410.908	1938
411.132	1924
411.355	1885
411.578	1899
411.802	1852
412.025	1881
412.249	1918
412.472	1909
412.695	1846
412.919	1807
413.142	1824
413.365	1815
413.589	1857
413.812	1785
414.035	1764
414.258	1774
414.482	1791
414.705	1818
414.928	1823
415.151	1814
415.374	1790
415.597	1742
415.821	1723
416.044	1717
416.267	1709
416.49	1709
416.713	1721
416.936	1779
417.159	1718
417.382	1697
417.605	1730
417.828	1700
418.051	1770
418.274	1730
418.497	1727
418.72	1789
418.943	1719
419.166	1882
419.389	1963
419.611	1977
419.834	1900
420.057	1865
420.28	1797
420.503	1693
420.726	1713
420.948	1731
421.171	1735
421.394	1738
421.617	1714
421.839	1733
422.062	1743
422.285	1688
422.507	1751
422.73	1767
422.953	1782
423.175	1772
423.398	1785
423.621	1791
423.843	1813
424.066	1804
424.288	1772
424.511	1782
424.733	1755
424.956	1737
425.178	1738
425.401	1752
425.623	1761
425.846	1677
426.068	1691
426.291	1698
426.513	1678
426.735	1653
426.958	1650
427.18	1635
427.402	1604
427.625	1619
427.847	1610
428.069	1616
428.292	1602
428.514	1585
428.736	1551
428.958	1599
429.181	1521
429.403	1506
429.625	1547
429.847	1552
430.069	1502
430.292	1534
430.514	1522
430.736	1542
430.958	1551
431.18	1561
431.402	1544
431.624	1523
431.846	1606
432.068	1615
432.29	1634
432.512	1591
432.734	1579
432.956	1562
433.178	1591
433.4	1601
433.622	1585
433.844	1624
434.066	1634
434.287	1661
434.509	1700
434.731	1717
434.953	1752
435.175	1743
435.397	1771
435.618	1665
435.84	1645
436.062	1617
436.284	1577
436.505	1543
436.727	1593
436.949	1567
437.17	1585
437.392	1545
437.614	1518
437.835	1458
438.057	1541
438.278	1536
438.5	1513
438.721	1495
438.943	1492
439.165	1511
439.386	1573
439.608	1553
439.829	1572
440.05	1556
440.272	1548
440.493	1574
440.715	1592
440.936	1601
441.158	1617
441.379	1639
441.6	1707
441.822	1725
442.043	1733
442.264	1706
442.486	1659
442.707	1672
442.928	1639
443.149	1680
443.371	1691
443.592	1727
443.813	1713
444.034	1763
444.255	1785
444.476	1818
444.698	1886
444.919	1920
445.14	2029
445.361	1881
445.582	1762
445.803	1687
446.024	1628
446.245	1661
446.466	1587
446.687	1584
446.908	1570
447.129	1501
447.35	1507
447.571	1461
447.792	1475
448.013	1465
448.234	1416
448.455	1411
448.675	1465
448.896	1421
449.117	1396
449.338	1419
449.559	1383
449.779	1370
450	1365
450.221	1401
450.442	1409
450.662	1409
450.883	1409
451.104	1423
451.324	1390
451.545	1400
451.766	1415
451.986	1379
452.207	1376
452.428	1424
452.648	1372
452.869	1375
453.089	1355
453.31	1388
453.53	1364
453.751	1371
453.971	1366
454.192	1355
454.412	1341
454.633	1343
454.853	1330
455.073	1312
455.294	1322
455.514	1322
455.734	1344
455.955	1311
456.175	1309
456.395	1292
456.616	1299
456.836	1308
457.056	1315
457.276	1313
457.497	1337
457.717	1310
457.937	1333
458.157	1349
458.377	1388
458.598	1417
458.818	1416
459.038	1471
459.258	1529
459.478	1521
459.698	1601
459.918	1639
460.138	1667
460.358	1757
460.578	1745
460.798	1740
461.018	1817
461.238	1800
461.458	1786
461.678	1794
461.898	1817
462.118	1831
462.338	1884
462.558	1966
462.777	2028
462.997	2168
463.217	2285
463.437	2285
463.657	2160
463.876	2120
464.096	2117
464.316	2057
464.536	2039
464.755	1981
464.975	1944
465.195	1846
465.414	1774
465.634	1650
465.854	1633
466.073	1585
466.293	1583
466.512	1541
466.732	1509
466.951	1506
467.171	1498
467.391	1492
467.61	1492
467.829	1443
468.049	1478
468.268	1426
468.488	1423
468.707	1406
468.927	1437
469.146	1435
469.365	1433
469.585	1417
469.804	1496
470.023	1528
470.243	1481
470.462	1501
470.681	1547
470.901	1513
471.12	1493
471.339	1482
471.558	1490
471.777	1445
471.997	1455
472.216	1427
472.435	1401
472.654	1399
472.873	1404
473.092	1375
473.311	1415
473.53	1419
473.749	1413
473.968	1400
474.187	1389
474.406	1401
474.625	1441
474.844	1375
475.063	1385
475.282	1427
475.501	1435
475.72	1426
475.939	1454
476.158	1419
476.377	1454
476.596	1486
476.814	1515
477.033	1496
477.252	1508
477.471	1565
477.69	1545
477.908	1626
478.127	1608
478.346	1640
478.564	1703
478.783	1724
479.002	1733
479.22	1771
479.439	1763
479.658	1735
479.876	1784
480.095	1787
480.313	1826
480.532	1872
480.751	1862
480.969	1855
481.188	1758
481.406	1733
481.624	1719
481.843	1721
482.061	1667
482.28	1657
482.498	1694
482.717	1673
482.935	1688
483.153	1684
483.372	1680
483.59	1731
483.808	1732
484.027	1761
484.245	1766
484.463	1784
484.681	1813
484.9	1808
485.118	1839
485.336	1842
485.554	1891
485.772	1881
485.99	1884
486.209	1828
486.427	1855
486.645	1877
486.863	1857
487.081	1849
487.299	1836
487.517	1814
487.735	1832
487.953	1828
488.171	1796
488.389	1769
488.607	1774
488.825	1763
489.043	1767
489.261	1790
489.479	1807
489.696	1742
489.914	1737
490.132	1770
490.35	1750
490.568	1742
490.786	1792
491.003	1770
491.221	1745
491.439	1740
491.657	1745
491.874	1717
492.092	1755
492.31	1750
492.527	1761
492.745	1762
492.963	1733
493.18	1751
493.398	1772
493.615	1789
493.833	1763
494.05	1761
494.268	1774
494.485	1786
494.703	1811
494.92	1833
495.138	1772
495.355	1853
495.573	1825
495.79	1803
496.008	1834
496.225	1801
496.442	1872
496.66	1868
496.877	1899
497.094	1927
497.312	2002
497.529	2005
497.746	2051
497.963	2153
498.181	2230
498.398	2262
498.615	2425
498.832	2535
499.049	2727
499.267	2909
499.484	3131
499.701	3442
499.918	3685
500.135	4120
500.352	4484
500.569	4655
500.786	4663
501.003	4448
501.22	4076
501.437	3720
501.654	3293
501.871	3107
502.088	2867
502.305	2721
502.522	2562
502.739	2493
502.956	2329
503.172	2253
503.389	2154
503.606	2066
503.823	2026
504.04	2027
504.256	2041
504.473	2092
504.69	2056
504.907	2061
505.123	1947
505.34	1834
505.557	1736
505.773	1709
505.99	1701
506.207	1636
506.423	1610
506.64	1597
506.856	1617
507.073	1568
507.289	1605
507.506	1546
507.722	1533
507.939	1520
508.155	1515
508.372	1499
508.588	1495
508.805	1472
509.021	1458
509.238	1480
509.454	1433
509.67	1431
509.887	1415
510.103	1414
510.319	1399
510.536	1379
510.752	1421
510.968	1433
511.184	1381
511.401	1429
511.617	1404
511.833	1399
512.049	1403
512.265	1408
512.481	1415
512.698	1370
512.914	1345
513.13	1388
513.346	1363
513.562	1371
513.778	1409
513.994	1403
514.21	1410
514.426	1405
514.642	1435
514.858	1426
515.074	1469
515.29	1457
515.506	1479
515.721	1506
515.937	1533
516.153	1483
516.369	1551
516.585	1615
516.801	1652
517.016	1703
517.232	1758
517.448	1789
517.664	1833
517.879	1808
518.095	1834
518.311	1861
518.527	1790
518.742	1749
518.958	1656
519.173	1641
519.389	1581
519.605	1529
519.82	1482
520.036	1491
520.251	1443
520.467	1431
520.682	1418
520.898	1426
521.113	1382
521.329	1387
521.544	1373
521.76	1362
521.975	1359
522.19	1342
522.406	1321
522.621	1296
522.836	1295
523.052	1303
523.267	1291
523.482	1314
523.698	1292
523.913	1284
524.128	1259
524.343	1266
524.559	1287
524.774	1288
524.989	1266
525.204	1247
525.419	1239
525.634	1246
525.849	1261
526.064	1233
526.28	1254
526.495	1255
526.71	1237
526.925	1271
527.14	1241
527.355	1228
527.57	1187
527.785	1234
527.999	1223
528.214	1227
528.429	1216
528.644	1230
528.859	1235
529.074	1227
529.289	1228
529.503	1247
529.718	1219
529.933	1211
530.148	1225
530.363	1241
530.577	1238
530.792	1236
531.007	1226
531.221	1271
531.436	1221
531.651	1235
531.865	1231
532.08	1210
532.295	1218
532.509	1228
532.724	1235
532.938	1226
533.153	1218
533.367	1196
533.582	1198
533.796	1217
534.011	1219
534.225	1225
534.44	1209
534.654	1198
534.868	1203
535.083	1206
535.297	1196
535.511	1183
535.726	1176
535.94	1158
536.154	1187
536.369	1204
536.583	1137
536.797	1143
537.011	1132
537.225	1126
537.44	1155
537.654	1151
537.868	1140
538.082	1106
538.296	1130
538.51	1089
538.724	1131
538.938	1102
539.153	1093
539.367	1075
539.581	1114
539.795	1094
540.009	1113
540.222	1108
540.436	1098
540.65	1103
540.864	1089
541.078	1084
541.292	1098
541.506	1083
541.72	1108
541.934	1104
542.147	1075
542.361	1077
542.575	1082
542.789	1079
543.002	1091
543.216	1051
543.43	1079
543.644	1048
543.857	1057
544.071	1117
544.285	1081
544.498	1086
544.712	1089
544.925	1091
545.139	1106
545.352	1074
545.566	1111
