Data from NiCl2@0.25M.TitratingCurve.Agarose3%dH2O.NegLispCup.LampEnergy10.LIBS07252019_HRD10591_18-23-31-572.txt Node
Date: Thu Jul 25 18:23:31 EDT 2019
User: cochatt
Spectrometer: HR+D1059
Trigger mode: 1
Integration Time (sec): 1.000000E-1
Scans to average: 1
Electric dark correction enabled: true
Nonlinearity correction enabled: false
Boxcar width: 0
XAxis mode: Wavelengths
Number of Pixels in Spectrum: 2048
>>>>>Begin Spectral Data<<<<<
223.165	-20.19
223.4	-20.19
223.635	-20.19
223.869	-5.19
224.104	-28.19
224.338	-10.19
224.573	-10.19
224.808	-1.19
225.042	-0.19
225.277	-12.19
225.511	-7.19
225.746	2.81
225.98	-3.19
226.215	3.81
226.449	20.81
226.683	27.81
226.918	28.81
227.152	13.81
227.387	43.81
227.621	33.81
227.856	33.81
228.09	52.81
228.324	41.81
228.559	55.81
228.793	71.81
229.027	101.81
229.262	103.81
229.496	114.81
229.73	122.81
229.964	112.81
230.199	125.81
230.433	118.81
230.667	123.81
230.901	136.81
231.136	124.81
231.37	132.81
231.604	133.81
231.838	134.81
232.072	138.81
232.306	154.81
232.541	148.81
232.775	143.81
233.009	125.81
233.243	127.81
233.477	140.81
233.711	142.81
233.945	140.81
234.179	136.81
234.413	154.81
234.647	140.81
234.881	151.81
235.115	124.81
235.349	137.81
235.583	160.81
235.817	154.81
236.051	147.81
236.285	124.81
236.519	134.81
236.753	137.81
236.987	135.81
237.221	138.81
237.455	149.81
237.689	141.81
237.922	149.81
238.156	156.81
238.39	150.81
238.624	158.81
238.858	162.81
239.091	157.81
239.325	163.81
239.559	168.81
239.793	153.81
240.027	170.81
240.26	164.81
240.494	158.81
240.728	161.81
240.961	172.81
241.195	165.81
241.429	160.81
241.662	165.81
241.896	169.81
242.13	170.81
242.363	170.81
242.597	188.81
242.83	168.81
243.064	167.81
243.298	185.81
243.531	200.81
243.765	185.81
243.998	195.81
244.232	172.81
244.465	185.81
244.699	194.81
244.932	192.81
245.166	203.81
245.399	204.81
245.633	199.81
245.866	194.81
246.099	191.81
246.333	199.81
246.566	192.81
246.8	193.81
247.033	207.81
247.266	201.81
247.5	196.81
247.733	188.81
247.966	217.81
248.2	203.81
248.433	205.81
248.666	212.81
248.899	215.81
249.133	235.81
249.366	206.81
249.599	223.81
249.832	213.81
250.066	221.81
250.299	213.81
250.532	217.81
250.765	219.81
250.998	232.81
251.231	243.81
251.465	217.81
251.698	215.81
251.931	232.81
252.164	232.81
252.397	221.81
252.63	244.81
252.863	230.81
253.096	251.81
253.329	247.81
253.562	239.81
253.795	242.81
254.028	246.81
254.261	244.81
254.494	230.81
254.727	252.81
254.96	252.81
255.193	245.81
255.426	256.81
255.659	248.81
255.892	254.81
256.124	252.81
256.357	265.81
256.59	262.81
256.823	268.81
257.056	251.81
257.289	251.81
257.521	240.81
257.754	260.81
257.987	276.81
258.22	275.81
258.452	270.81
258.685	280.81
258.918	263.81
259.151	261.81
259.383	263.81
259.616	262.81
259.849	278.81
260.081	263.81
260.314	274.81
260.547	272.81
260.779	280.81
261.012	291.81
261.244	292.81
261.477	282.81
261.71	290.81
261.942	296.81
262.175	284.81
262.407	275.81
262.64	288.81
262.872	299.81
263.105	299.81
263.337	297.81
263.57	300.81
263.802	287.81
264.035	315.81
264.267	304.81
264.499	308.81
264.732	312.81
264.964	318.81
265.197	280.81
265.429	309.81
265.661	316.81
265.894	313.81
266.126	313.81
266.358	303.81
266.591	329.81
266.823	319.81
267.055	328.81
267.287	304.81
267.52	319.81
267.752	302.81
267.984	313.81
268.216	331.81
268.448	326.81
268.681	324.81
268.913	325.81
269.145	333.81
269.377	331.81
269.609	336.81
269.841	353.81
270.073	340.81
270.306	338.81
270.538	340.81
270.77	331.81
271.002	337.81
271.234	337.81
271.466	328.81
271.698	341.81
271.93	343.81
272.162	362.81
272.394	357.81
272.626	355.81
272.858	334.81
273.09	345.81
273.322	354.81
273.553	355.81
273.785	352.81
274.017	350.81
274.249	346.81
274.481	371.81
274.713	367.81
274.945	344.81
275.176	358.81
275.408	352.81
275.64	363.81
275.872	375.81
276.104	372.81
276.335	369.81
276.567	369.81
276.799	360.81
277.031	366.81
277.262	375.81
277.494	394.81
277.726	381.81
277.957	383.81
278.189	382.81
278.421	380.81
278.652	379.81
278.884	377.81
279.115	376.81
279.347	378.81
279.579	388.81
279.81	399.81
280.042	378.81
280.273	407.81
280.505	399.81
280.736	390.81
280.968	402.81
281.199	393.81
281.431	404.81
281.662	401.81
281.894	396.81
282.125	414.81
282.356	407.81
282.588	406.81
282.819	409.81
283.051	419.81
283.282	428.81
283.513	432.81
283.745	427.81
283.976	420.81
284.207	422.81
284.439	412.81
284.67	432.81
284.901	444.81
285.132	420.81
285.364	425.81
285.595	432.81
285.826	435.81
286.057	435.81
286.288	415.81
286.52	432.81
286.751	453.81
286.982	457.81
287.213	454.81
287.444	459.81
287.675	451.81
287.906	460.81
288.138	458.81
288.369	460.81
288.6	459.81
288.831	447.81
289.062	457.81
289.293	448.81
289.524	443.81
289.755	459.81
289.986	448.81
290.217	452.81
290.448	447.81
290.679	447.81
290.91	467.81
291.141	465.81
291.371	481.81
291.602	462.81
291.833	447.81
292.064	461.81
292.295	460.81
292.526	488.81
292.757	466.81
292.987	468.81
293.218	467.81
293.449	478.81
293.68	442.81
293.91	470.81
294.141	478.81
294.372	451.81
294.603	469.81
294.833	483.81
295.064	477.81
295.295	465.81
295.525	485.81
295.756	476.81
295.987	466.81
296.217	472.81
296.448	490.81
296.679	471.81
296.909	481.81
297.14	490.81
297.37	479.81
297.601	488.81
297.831	492.81
298.062	490.81
298.292	513.81
298.523	519.81
298.753	527.81
298.984	507.81
299.214	513.81
299.445	503.81
299.675	507.81
299.905	501.81
300.136	502.81
300.366	493.81
300.597	525.81
300.827	519.81
301.057	516.81
301.288	528.81
301.518	526.81
301.748	555.81
301.979	534.81
302.209	529.81
302.439	544.81
302.669	538.81
302.9	517.81
303.13	511.81
303.36	536.81
303.59	521.81
303.82	534.81
304.051	540.81
304.281	531.81
304.511	528.81
304.741	532.81
304.971	529.81
305.201	534.81
305.431	532.81
305.661	544.81
305.891	495.81
306.121	527.81
306.352	505.81
306.582	521.81
306.812	507.81
307.042	516.81
307.272	537.81
307.502	500.81
307.731	520.81
307.961	515.81
308.191	501.81
308.421	520.81
308.651	537.81
308.881	531.81
309.111	517.81
309.341	519.81
309.571	527.81
309.8	525.81
310.03	551.81
310.26	510.81
310.49	513.81
310.72	520.81
310.949	506.81
311.179	542.81
311.409	504.81
311.639	532.81
311.868	530.81
312.098	537.81
312.328	542.81
312.557	540.81
312.787	550.81
313.017	562.81
313.246	581.81
313.476	581.81
313.706	571.81
313.935	547.81
314.165	592.81
314.394	587.81
314.624	541.81
314.853	541.81
315.083	546.81
315.312	561.81
315.542	552.81
315.771	540.81
316.001	533.81
316.23	546.81
316.46	567.81
316.689	560.81
316.919	560.81
317.148	550.81
317.377	539.81
317.607	562.81
317.836	523.81
318.065	561.81
318.295	547.81
318.524	545.81
318.753	548.81
318.983	522.81
319.212	543.81
319.441	541.81
319.67	549.81
319.9	571.81
320.129	557.81
320.358	550.81
320.587	538.81
320.816	545.81
321.046	536.81
321.275	562.81
321.504	553.81
321.733	548.81
321.962	549.81
322.191	578.81
322.42	575.81
322.649	564.81
322.878	554.81
323.108	556.81
323.337	560.81
323.566	559.81
323.795	579.81
324.024	584.81
324.253	555.81
324.482	563.81
324.71	552.81
324.939	542.81
325.168	587.81
325.397	577.81
325.626	561.81
325.855	598.81
326.084	606.81
326.313	620.81
326.542	586.81
326.77	601.81
326.999	594.81
327.228	626.81
327.457	591.81
327.686	577.81
327.914	631.81
328.143	627.81
328.372	607.81
328.6	635.81
328.829	609.81
329.058	621.81
329.287	611.81
329.515	609.81
329.744	610.81
329.972	609.81
330.201	634.81
330.43	629.81
330.658	612.81
330.887	633.81
331.115	619.81
331.344	651.81
331.572	646.81
331.801	647.81
332.03	651.81
332.258	680.81
332.486	696.81
332.715	736.81
332.943	744.81
333.172	789.81
333.4	823.81
333.629	812.81
333.857	822.81
334.085	799.81
334.314	808.81
334.542	809.81
334.771	773.81
334.999	767.81
335.227	791.81
335.455	768.81
335.684	720.81
335.912	746.81
336.14	739.81
336.369	737.81
336.597	696.81
336.825	728.81
337.053	735.81
337.281	722.81
337.51	701.81
337.738	709.81
337.966	654.81
338.194	665.81
338.422	658.81
338.65	658.81
338.878	663.81
339.106	668.81
339.334	671.81
339.562	640.81
339.79	628.81
340.018	652.81
340.246	621.81
340.474	634.81
340.702	633.81
340.93	640.81
341.158	644.81
341.386	619.81
341.614	636.81
341.842	656.81
342.07	638.81
342.298	619.81
342.526	608.81
342.754	636.81
342.981	646.81
343.209	653.81
343.437	675.81
343.665	682.81
343.893	779.81
344.12	796.81
344.348	760.81
344.576	727.81
344.804	703.81
345.031	673.81
345.259	657.81
345.487	650.81
345.714	632.81
345.942	645.81
346.17	620.81
346.397	642.81
346.625	639.81
346.853	587.81
347.08	597.81
347.308	617.81
347.535	636.81
347.763	634.81
347.99	622.81
348.218	598.81
348.445	627.81
348.673	607.81
348.9	602.81
349.128	607.81
349.355	596.81
349.583	628.81
349.81	619.81
350.037	608.81
350.265	604.81
350.492	581.81
350.72	607.81
350.947	605.81
351.174	591.81
351.402	604.81
351.629	580.81
351.856	588.81
352.083	599.81
352.311	608.81
352.538	573.81
352.765	600.81
352.992	594.81
353.22	577.81
353.447	578.81
353.674	586.81
353.901	585.81
354.128	580.81
354.355	591.81
354.583	575.81
354.81	583.81
355.037	597.81
355.264	593.81
355.491	602.81
355.718	607.81
355.945	587.81
356.172	578.81
356.399	593.81
356.626	599.81
356.853	593.81
357.08	581.81
357.307	575.81
357.534	602.81
357.761	605.81
357.988	604.81
358.215	573.81
358.441	602.81
358.668	573.81
358.895	586.81
359.122	583.81
359.349	583.81
359.576	599.81
359.802	596.81
360.029	596.81
360.256	589.81
360.483	600.81
360.709	584.81
360.936	604.81
361.163	608.81
361.39	605.81
361.616	609.81
361.843	588.81
362.07	617.81
362.296	587.81
362.523	575.81
362.749	612.81
362.976	591.81
363.203	605.81
363.429	572.81
363.656	591.81
363.882	605.81
364.109	596.81
364.335	593.81
364.562	617.81
364.788	596.81
365.015	573.81
365.241	609.81
365.468	610.81
365.694	594.81
365.92	591.81
366.147	603.81
366.373	581.81
366.599	598.81
366.826	595.81
367.052	580.81
367.278	586.81
367.505	590.81
367.731	593.81
367.957	593.81
368.184	610.81
368.41	617.81
368.636	603.81
368.862	588.81
369.089	594.81
369.315	612.81
369.541	635.81
369.767	614.81
369.993	609.81
370.219	624.81
370.445	608.81
370.672	629.81
370.898	620.81
371.124	631.81
371.35	641.81
371.576	640.81
371.802	663.81
372.028	633.81
372.254	641.81
372.48	643.81
372.706	659.81
372.932	653.81
373.158	661.81
373.384	675.81
373.61	643.81
373.835	647.81
374.061	651.81
374.287	651.81
374.513	672.81
374.739	677.81
374.965	715.81
375.191	722.81
375.416	703.81
375.642	683.81
375.868	697.81
376.094	658.81
376.319	665.81
376.545	641.81
376.771	653.81
376.997	639.81
377.222	673.81
377.448	643.81
377.674	635.81
377.899	644.81
378.125	647.81
378.35	653.81
378.576	650.81
378.802	645.81
379.027	608.81
379.253	623.81
379.478	639.81
379.704	637.81
379.929	629.81
380.155	615.81
380.38	627.81
380.606	623.81
380.831	627.81
381.057	650.81
381.282	639.81
381.507	651.81
381.733	647.81
381.958	650.81
382.184	651.81
382.409	676.81
382.634	673.81
382.86	692.81
383.085	662.81
383.31	671.81
383.535	681.81
383.761	714.81
383.986	704.81
384.211	732.81
384.436	765.81
384.662	771.81
384.887	738.81
385.112	779.81
385.337	785.81
385.562	788.81
385.787	769.81
386.013	787.81
386.238	778.81
386.463	762.81
386.688	803.81
386.913	765.81
387.138	748.81
387.363	766.81
387.588	771.81
387.813	762.81
388.038	757.81
388.263	755.81
388.488	791.81
388.713	771.81
388.938	746.81
389.163	742.81
389.387	733.81
389.612	757.81
389.837	737.81
390.062	736.81
390.287	754.81
390.512	764.81
390.736	755.81
390.961	799.81
391.186	791.81
391.411	799.81
391.636	858.81
391.86	861.81
392.085	852.81
392.31	884.81
392.534	842.81
392.759	819.81
392.984	806.81
393.208	807.81
393.433	812.81
393.658	839.81
393.882	824.81
394.107	804.81
394.331	801.81
394.556	823.81
394.78	831.81
395.005	810.81
395.229	859.81
395.454	870.81
395.678	873.81
395.903	900.81
396.127	851.81
396.352	845.81
396.576	821.81
396.801	808.81
397.025	822.81
397.249	853.81
397.474	870.81
397.698	872.81
397.922	898.81
398.147	890.81
398.371	906.81
398.595	916.81
398.82	936.81
399.044	1026.81
399.268	1151.81
399.492	1301.81
399.717	1472.81
399.941	1468.81
400.165	1295.81
400.389	1171.81
400.613	1082.81
400.837	1041.81
401.062	1009.81
401.286	984.81
401.51	952.81
401.734	972.81
401.958	975.81
402.182	971.81
402.406	949.81
402.63	1017.81
402.854	1021.81
403.078	1028.81
403.302	1041.81
403.526	1063.81
403.75	1123.81
403.974	1102.81
404.198	1085.81
404.422	1135.81
404.645	1157.81
404.869	1084.81
405.093	1084.81
405.317	1064.81
405.541	1077.81
405.765	1060.81
405.988	1065.81
406.212	1081.81
406.436	1051.81
406.66	1084.81
406.883	1114.81
407.107	1179.81
407.331	1258.81
407.555	1279.81
407.778	1280.81
408.002	1232.81
408.226	1178.81
408.449	1172.81
408.673	1155.81
408.896	1107.81
409.12	1083.81
409.344	1109.81
409.567	1117.81
409.791	1092.81
410.014	1052.81
410.238	1071.81
410.461	1064.81
410.685	1054.81
410.908	1017.81
411.132	1010.81
411.355	1007.81
411.578	1012.81
411.802	996.81
412.025	1034.81
412.249	1037.81
412.472	1012.81
412.695	998.81
412.919	972.81
413.142	955.81
413.365	968.81
413.589	1001.81
413.812	965.81
414.035	959.81
414.258	963.81
414.482	946.81
414.705	995.81
414.928	1020.81
415.151	993.81
415.374	958.81
415.597	962.81
415.821	965.81
416.044	945.81
416.267	927.81
416.49	978.81
416.713	961.81
416.936	983.81
417.159	945.81
417.382	952.81
417.605	928.81
417.828	948.81
418.051	972.81
418.274	968.81
418.497	959.81
418.72	983.81
418.943	988.81
419.166	1053.81
419.389	1100.81
419.611	1075.81
419.834	1013.81
420.057	990.81
420.28	956.81
420.503	927.81
420.726	939.81
420.948	947.81
421.171	959.81
421.394	930.81
421.617	945.81
421.839	945.81
422.062	947.81
422.285	968.81
422.507	986.81
422.73	971.81
422.953	966.81
423.175	998.81
423.398	1031.81
423.621	1006.81
423.843	1010.81
424.066	1035.81
424.288	997.81
424.511	1010.81
424.733	996.81
424.956	979.81
425.178	942.81
425.401	944.81
425.623	933.81
425.846	925.81
426.068	929.81
426.291	960.81
426.513	909.81
426.735	904.81
426.958	896.81
427.18	871.81
427.402	905.81
427.625	900.81
427.847	861.81
428.069	850.81
428.292	880.81
428.514	860.81
428.736	858.81
428.958	859.81
429.181	834.81
429.403	831.81
429.625	806.81
429.847	811.81
430.069	819.81
430.292	849.81
430.514	823.81
430.736	835.81
430.958	839.81
431.18	845.81
431.402	841.81
431.624	846.81
431.846	825.81
432.068	853.81
432.29	877.81
432.512	847.81
432.734	851.81
432.956	832.81
433.178	860.81
433.4	853.81
433.622	888.81
433.844	871.81
434.066	879.81
434.287	863.81
434.509	917.81
434.731	921.81
434.953	967.81
435.175	949.81
435.397	956.81
435.618	887.81
435.84	888.81
436.062	845.81
436.284	859.81
436.505	854.81
436.727	857.81
436.949	852.81
437.17	859.81
437.392	849.81
437.614	825.81
437.835	818.81
438.057	827.81
438.278	810.81
438.5	817.81
438.721	797.81
438.943	807.81
439.165	810.81
439.386	820.81
439.608	815.81
439.829	840.81
440.05	858.81
440.272	865.81
440.493	858.81
440.715	860.81
440.936	861.81
441.158	877.81
441.379	905.81
441.6	955.81
441.822	949.81
442.043	935.81
442.264	951.81
442.486	928.81
442.707	917.81
442.928	905.81
443.149	920.81
443.371	937.81
443.592	938.81
443.813	966.81
444.034	959.81
444.255	988.81
444.476	1017.81
444.698	1099.81
444.919	1143.81
445.14	1236.81
445.361	1062.81
445.582	993.81
445.803	914.81
446.024	925.81
446.245	900.81
446.466	855.81
446.687	828.81
446.908	830.81
447.129	812.81
447.35	819.81
447.571	815.81
447.792	804.81
448.013	805.81
448.234	792.81
448.455	778.81
448.675	789.81
448.896	776.81
449.117	771.81
449.338	744.81
449.559	767.81
449.779	776.81
450	771.81
450.221	743.81
450.442	784.81
450.662	776.81
450.883	813.81
451.104	805.81
451.324	787.81
451.545	815.81
451.766	799.81
451.986	763.81
452.207	761.81
452.428	745.81
452.648	780.81
452.869	774.81
453.089	745.81
453.31	761.81
453.53	737.81
453.751	752.81
453.971	729.81
454.192	751.81
454.412	729.81
454.633	715.81
454.853	739.81
455.073	710.81
455.294	748.81
455.514	741.81
455.734	732.81
455.955	715.81
456.175	690.81
456.395	723.81
456.616	720.81
456.836	708.81
457.056	746.81
457.276	703.81
457.497	720.81
457.717	723.81
457.937	739.81
458.157	765.81
458.377	737.81
458.598	751.81
458.818	791.81
459.038	775.81
459.258	811.81
459.478	850.81
459.698	876.81
459.918	901.81
460.138	960.81
460.358	996.81
460.578	997.81
460.798	1009.81
461.018	1029.81
461.238	984.81
461.458	993.81
461.678	995.81
461.898	1024.81
462.118	1029.81
462.338	1071.81
462.558	1105.81
462.777	1121.81
462.997	1236.81
463.217	1336.81
463.437	1375.81
463.657	1227.81
463.876	1201.81
464.096	1184.81
464.316	1170.81
464.536	1161.81
464.755	1141.81
464.975	1100.81
465.195	1032.81
465.414	944.81
465.634	932.81
465.854	909.81
466.073	860.81
466.293	886.81
466.512	799.81
466.732	820.81
466.951	800.81
467.171	821.81
467.391	824.81
467.61	804.81
467.829	807.81
468.049	809.81
468.268	812.81
468.488	733.81
468.707	785.81
468.927	756.81
469.146	767.81
469.365	797.81
469.585	798.81
469.804	821.81
470.023	812.81
470.243	825.81
470.462	850.81
470.681	863.81
470.901	829.81
471.12	851.81
471.339	829.81
471.558	828.81
471.777	795.81
471.997	794.81
472.216	769.81
472.435	797.81
472.654	777.81
472.873	763.81
473.092	757.81
473.311	745.81
473.53	757.81
473.749	761.81
473.968	768.81
474.187	749.81
474.406	751.81
474.625	755.81
474.844	780.81
475.063	770.81
475.282	752.81
475.501	772.81
475.72	760.81
475.939	793.81
476.158	786.81
476.377	787.81
476.596	799.81
476.814	813.81
477.033	800.81
477.252	844.81
477.471	838.81
477.69	831.81
477.908	874.81
478.127	903.81
478.346	918.81
478.564	918.81
478.783	944.81
479.002	970.81
479.22	947.81
479.439	947.81
479.658	954.81
479.876	930.81
480.095	980.81
480.313	1022.81
480.532	1023.81
480.751	1017.81
480.969	976.81
481.188	956.81
481.406	906.81
481.624	910.81
481.843	871.81
482.061	887.81
482.28	863.81
482.498	856.81
482.717	880.81
482.935	905.81
483.153	859.81
483.372	877.81
483.59	904.81
483.808	861.81
484.027	886.81
484.245	844.81
484.463	880.81
484.681	888.81
484.9	910.81
485.118	883.81
485.336	909.81
485.554	905.81
485.772	892.81
485.99	923.81
486.209	929.81
486.427	944.81
486.645	922.81
486.863	922.81
487.081	896.81
487.299	921.81
487.517	931.81
487.735	917.81
487.953	951.81
488.171	887.81
488.389	921.81
488.607	904.81
488.825	939.81
489.043	898.81
489.261	907.81
489.479	920.81
489.696	905.81
489.914	927.81
490.132	902.81
490.35	903.81
490.568	898.81
490.786	931.81
491.003	947.81
491.221	937.81
491.439	955.81
491.657	925.81
491.874	905.81
492.092	934.81
492.31	947.81
492.527	960.81
492.745	930.81
492.963	904.81
493.18	971.81
493.398	977.81
493.615	962.81
493.833	951.81
494.05	962.81
494.268	984.81
494.485	952.81
494.703	979.81
494.92	1008.81
495.138	958.81
495.355	984.81
495.573	985.81
495.79	961.81
496.008	978.81
496.225	993.81
496.442	1031.81
496.66	1020.81
496.877	1061.81
497.094	1063.81
497.312	1067.81
497.529	1112.81
497.746	1119.81
497.963	1137.81
498.181	1203.81
498.398	1242.81
498.615	1310.81
498.832	1443.81
499.049	1515.81
499.267	1631.81
499.484	1808.81
499.701	2010.81
499.918	2177.81
500.135	2525.81
