Data from NiCl2@0.25M.TitratingCurve.Agarose3%dH2O.NegLispCup.LampEnergy10.LIBS07252019_HRD10591_18-23-18-572.txt Node
Date: Thu Jul 25 18:23:18 EDT 2019
User: cochatt
Spectrometer: HR+D1059
Trigger mode: 1
Integration Time (sec): 1.000000E-1
Scans to average: 1
Electric dark correction enabled: true
Nonlinearity correction enabled: false
Boxcar width: 0
XAxis mode: Wavelengths
Number of Pixels in Spectrum: 2048
>>>>>Begin Spectral Data<<<<<
223.165	-27.75
223.4	-27.75
223.635	-27.75
223.869	-24.75
224.104	-10.75
224.338	-9.75
224.573	-13.75
224.808	-14.75
225.042	-2.75
225.277	-15.75
225.511	-8.75
225.746	-2.75
225.98	11.25
226.215	5.25
226.449	24.25
226.683	16.25
226.918	27.25
227.152	47.25
227.387	17.25
227.621	32.25
227.856	45.25
228.09	36.25
228.324	37.25
228.559	53.25
228.793	51.25
229.027	88.25
229.262	97.25
229.496	103.25
229.73	110.25
229.964	119.25
230.199	117.25
230.433	116.25
230.667	123.25
230.901	118.25
231.136	109.25
231.37	125.25
231.604	130.25
231.838	125.25
232.072	138.25
232.306	150.25
232.541	127.25
232.775	130.25
233.009	135.25
233.243	139.25
233.477	139.25
233.711	140.25
233.945	147.25
234.179	143.25
234.413	153.25
234.647	150.25
234.881	137.25
235.115	145.25
235.349	140.25
235.583	149.25
235.817	142.25
236.051	132.25
236.285	149.25
236.519	162.25
236.753	147.25
236.987	129.25
237.221	138.25
237.455	154.25
237.689	143.25
237.922	156.25
238.156	146.25
238.39	147.25
238.624	162.25
238.858	153.25
239.091	172.25
239.325	150.25
239.559	148.25
239.793	167.25
240.027	168.25
240.26	156.25
240.494	152.25
240.728	163.25
240.961	168.25
241.195	146.25
241.429	169.25
241.662	172.25
241.896	184.25
242.13	182.25
242.363	168.25
242.597	175.25
242.83	175.25
243.064	180.25
243.298	168.25
243.531	176.25
243.765	188.25
243.998	184.25
244.232	194.25
244.465	196.25
244.699	190.25
244.932	193.25
245.166	189.25
245.399	206.25
245.633	185.25
245.866	192.25
246.099	205.25
246.333	198.25
246.566	198.25
246.8	196.25
247.033	211.25
247.266	203.25
247.5	217.25
247.733	206.25
247.966	208.25
248.2	218.25
248.433	204.25
248.666	239.25
248.899	215.25
249.133	204.25
249.366	243.25
249.599	224.25
249.832	224.25
250.066	232.25
250.299	211.25
250.532	238.25
250.765	233.25
250.998	235.25
251.231	225.25
251.465	231.25
251.698	243.25
251.931	223.25
252.164	229.25
252.397	235.25
252.63	239.25
252.863	240.25
253.096	243.25
253.329	241.25
253.562	253.25
253.795	252.25
254.028	253.25
254.261	239.25
254.494	247.25
254.727	255.25
254.96	251.25
255.193	247.25
255.426	256.25
255.659	264.25
255.892	260.25
256.124	255.25
256.357	247.25
256.59	263.25
256.823	270.25
257.056	265.25
257.289	256.25
257.521	270.25
257.754	299.25
257.987	271.25
258.22	256.25
258.452	283.25
258.685	265.25
258.918	268.25
259.151	266.25
259.383	283.25
259.616	272.25
259.849	266.25
260.081	284.25
260.314	292.25
260.547	274.25
260.779	276.25
261.012	292.25
261.244	294.25
261.477	281.25
261.71	295.25
261.942	272.25
262.175	310.25
262.407	272.25
262.64	288.25
262.872	306.25
263.105	293.25
263.337	313.25
263.57	312.25
263.802	306.25
264.035	295.25
264.267	305.25
264.499	303.25
264.732	297.25
264.964	324.25
265.197	307.25
265.429	315.25
265.661	296.25
265.894	307.25
266.126	324.25
266.358	311.25
266.591	318.25
266.823	313.25
267.055	331.25
267.287	344.25
267.52	317.25
267.752	307.25
267.984	330.25
268.216	336.25
268.448	345.25
268.681	335.25
268.913	349.25
269.145	335.25
269.377	326.25
269.609	336.25
269.841	327.25
270.073	354.25
270.306	352.25
270.538	348.25
270.77	327.25
271.002	354.25
271.234	355.25
271.466	364.25
271.698	342.25
271.93	370.25
272.162	355.25
272.394	367.25
272.626	336.25
272.858	366.25
273.09	371.25
273.322	368.25
273.553	355.25
273.785	356.25
274.017	367.25
274.249	371.25
274.481	363.25
274.713	363.25
274.945	368.25
275.176	380.25
275.408	358.25
275.64	379.25
275.872	386.25
276.104	391.25
276.335	373.25
276.567	387.25
276.799	379.25
277.031	378.25
277.262	394.25
277.494	375.25
277.726	396.25
277.957	392.25
278.189	388.25
278.421	404.25
278.652	379.25
278.884	424.25
279.115	411.25
279.347	401.25
279.579	404.25
279.81	401.25
280.042	414.25
280.273	428.25
280.505	401.25
280.736	421.25
280.968	416.25
281.199	427.25
281.431	429.25
281.662	428.25
281.894	407.25
282.125	411.25
282.356	429.25
282.588	424.25
282.819	414.25
283.051	420.25
283.282	413.25
283.513	413.25
283.745	445.25
283.976	430.25
284.207	430.25
284.439	421.25
284.67	432.25
284.901	462.25
285.132	457.25
285.364	436.25
285.595	439.25
285.826	448.25
286.057	457.25
286.288	439.25
286.52	458.25
286.751	459.25
286.982	468.25
287.213	461.25
287.444	454.25
287.675	472.25
287.906	473.25
288.138	435.25
288.369	451.25
288.6	460.25
288.831	467.25
289.062	473.25
289.293	466.25
289.524	454.25
289.755	480.25
289.986	469.25
290.217	465.25
290.448	455.25
290.679	485.25
290.91	469.25
291.141	464.25
291.371	477.25
291.602	476.25
291.833	453.25
292.064	461.25
292.295	481.25
292.526	492.25
292.757	463.25
292.987	481.25
293.218	474.25
293.449	501.25
293.68	496.25
293.91	493.25
294.141	480.25
294.372	481.25
294.603	492.25
294.833	477.25
295.064	517.25
295.295	501.25
295.525	488.25
295.756	480.25
295.987	501.25
296.217	487.25
296.448	481.25
296.679	523.25
296.909	488.25
297.14	501.25
297.37	521.25
297.601	515.25
297.831	523.25
298.062	519.25
298.292	502.25
298.523	548.25
298.753	529.25
298.984	523.25
299.214	518.25
299.445	516.25
299.675	535.25
299.905	520.25
300.136	502.25
300.366	517.25
300.597	507.25
300.827	520.25
301.057	539.25
301.288	544.25
301.518	539.25
301.748	551.25
301.979	565.25
302.209	534.25
302.439	559.25
302.669	542.25
302.9	545.25
303.13	549.25
303.36	543.25
303.59	561.25
303.82	556.25
304.051	534.25
304.281	531.25
304.511	561.25
304.741	549.25
304.971	543.25
305.201	543.25
305.431	559.25
305.661	569.25
305.891	545.25
306.121	541.25
306.352	551.25
306.582	541.25
306.812	540.25
307.042	555.25
307.272	525.25
307.502	532.25
307.731	542.25
307.961	539.25
308.191	533.25
308.421	535.25
308.651	537.25
308.881	541.25
309.111	538.25
309.341	529.25
309.571	525.25
309.8	547.25
310.03	553.25
310.26	540.25
310.49	544.25
310.72	553.25
310.949	552.25
311.179	560.25
311.409	553.25
311.639	547.25
311.868	535.25
312.098	585.25
312.328	557.25
312.557	555.25
312.787	584.25
313.017	565.25
313.246	566.25
313.476	599.25
313.706	601.25
313.935	582.25
314.165	601.25
314.394	580.25
314.624	592.25
314.853	589.25
315.083	590.25
315.312	582.25
315.542	571.25
315.771	574.25
316.001	575.25
316.23	577.25
316.46	561.25
316.689	587.25
316.919	589.25
317.148	573.25
317.377	588.25
317.607	580.25
317.836	556.25
318.065	575.25
318.295	571.25
318.524	572.25
318.753	553.25
318.983	586.25
319.212	571.25
319.441	571.25
319.67	603.25
319.9	589.25
320.129	575.25
320.358	567.25
320.587	565.25
320.816	597.25
321.046	586.25
321.275	575.25
321.504	566.25
321.733	558.25
321.962	579.25
322.191	576.25
322.42	574.25
322.649	597.25
322.878	591.25
323.108	583.25
323.337	601.25
323.566	564.25
323.795	596.25
324.024	588.25
324.253	590.25
324.482	587.25
324.71	608.25
324.939	615.25
325.168	614.25
325.397	603.25
325.626	605.25
325.855	616.25
326.084	605.25
326.313	640.25
326.542	623.25
326.77	661.25
326.999	628.25
327.228	606.25
327.457	635.25
327.686	648.25
327.914	632.25
328.143	631.25
328.372	631.25
328.6	630.25
328.829	611.25
329.058	628.25
329.287	630.25
329.515	625.25
329.744	644.25
329.972	613.25
330.201	655.25
330.43	644.25
330.658	653.25
330.887	652.25
331.115	659.25
331.344	672.25
331.572	681.25
331.801	679.25
332.03	690.25
332.258	717.25
332.486	721.25
332.715	717.25
332.943	778.25
333.172	787.25
333.4	795.25
333.629	823.25
333.857	828.25
334.085	851.25
334.314	835.25
334.542	813.25
334.771	812.25
334.999	778.25
335.227	807.25
335.455	796.25
335.684	798.25
335.912	799.25
336.14	754.25
336.369	767.25
336.597	765.25
336.825	757.25
337.053	756.25
337.281	735.25
337.51	717.25
337.738	727.25
337.966	717.25
338.194	696.25
338.422	716.25
338.65	691.25
338.878	683.25
339.106	696.25
339.334	715.25
339.562	688.25
339.79	652.25
340.018	648.25
340.246	645.25
340.474	673.25
340.702	661.25
340.93	673.25
341.158	685.25
341.386	660.25
341.614	675.25
341.842	672.25
342.07	657.25
342.298	676.25
342.526	678.25
342.754	690.25
342.981	676.25
343.209	674.25
343.437	702.25
343.665	730.25
343.893	791.25
344.12	834.25
344.348	782.25
344.576	746.25
344.804	735.25
345.031	695.25
345.259	686.25
345.487	655.25
345.714	673.25
345.942	683.25
346.17	664.25
346.397	659.25
346.625	655.25
346.853	649.25
347.08	653.25
347.308	667.25
347.535	653.25
347.763	665.25
347.99	629.25
348.218	647.25
348.445	638.25
348.673	651.25
348.9	630.25
349.128	642.25
349.355	655.25
349.583	671.25
349.81	662.25
350.037	644.25
350.265	631.25
350.492	625.25
350.72	629.25
350.947	621.25
351.174	600.25
351.402	640.25
351.629	635.25
351.856	626.25
352.083	619.25
352.311	629.25
352.538	630.25
352.765	633.25
352.992	632.25
353.22	609.25
353.447	610.25
353.674	616.25
353.901	620.25
354.128	635.25
354.355	623.25
354.583	598.25
354.81	610.25
355.037	628.25
355.264	611.25
355.491	622.25
355.718	619.25
355.945	643.25
356.172	631.25
356.399	630.25
356.626	631.25
356.853	631.25
357.08	619.25
357.307	624.25
357.534	619.25
357.761	613.25
357.988	631.25
358.215	623.25
358.441	638.25
358.668	629.25
358.895	629.25
359.122	644.25
359.349	621.25
359.576	614.25
359.802	617.25
360.029	614.25
360.256	632.25
360.483	610.25
360.709	623.25
360.936	612.25
361.163	637.25
361.39	614.25
361.616	638.25
361.843	636.25
362.07	641.25
362.296	665.25
362.523	641.25
362.749	628.25
362.976	619.25
363.203	622.25
363.429	624.25
363.656	632.25
363.882	642.25
364.109	642.25
364.335	620.25
364.562	617.25
364.788	621.25
365.015	635.25
365.241	612.25
365.468	615.25
365.694	605.25
365.92	632.25
366.147	624.25
366.373	643.25
366.599	608.25
366.826	604.25
367.052	639.25
367.278	633.25
367.505	641.25
367.731	641.25
367.957	611.25
368.184	617.25
368.41	655.25
368.636	649.25
368.862	646.25
369.089	650.25
369.315	649.25
369.541	665.25
369.767	636.25
369.993	652.25
370.219	656.25
370.445	689.25
370.672	620.25
370.898	655.25
371.124	681.25
371.35	670.25
371.576	673.25
371.802	697.25
372.028	668.25
372.254	681.25
372.48	683.25
372.706	680.25
372.932	701.25
373.158	697.25
373.384	702.25
373.61	664.25
373.835	694.25
374.061	700.25
374.287	701.25
374.513	701.25
374.739	728.25
374.965	727.25
375.191	734.25
375.416	730.25
375.642	716.25
375.868	699.25
376.094	720.25
376.319	696.25
376.545	694.25
376.771	690.25
376.997	687.25
377.222	685.25
377.448	664.25
377.674	695.25
377.899	675.25
378.125	672.25
378.35	649.25
378.576	675.25
378.802	669.25
379.027	670.25
379.253	677.25
379.478	681.25
379.704	660.25
379.929	690.25
380.155	684.25
380.38	668.25
380.606	661.25
380.831	669.25
381.057	693.25
381.282	681.25
381.507	679.25
381.733	687.25
381.958	665.25
382.184	692.25
382.409	720.25
382.634	708.25
382.86	726.25
383.085	723.25
383.31	728.25
383.535	754.25
383.761	731.25
383.986	747.25
384.211	767.25
384.436	772.25
384.662	801.25
384.887	819.25
385.112	803.25
385.337	814.25
385.562	811.25
385.787	811.25
386.013	817.25
386.238	837.25
386.463	803.25
386.688	807.25
386.913	805.25
387.138	838.25
387.363	834.25
387.588	776.25
387.813	781.25
388.038	805.25
388.263	784.25
388.488	797.25
388.713	786.25
388.938	798.25
389.163	818.25
389.387	791.25
389.612	783.25
389.837	776.25
390.062	769.25
390.287	794.25
390.512	772.25
390.736	791.25
390.961	817.25
391.186	831.25
391.411	836.25
391.636	859.25
391.86	928.25
392.085	923.25
392.31	882.25
392.534	900.25
392.759	877.25
392.984	867.25
393.208	843.25
393.433	848.25
393.658	851.25
393.882	841.25
394.107	853.25
394.331	866.25
394.556	848.25
394.78	878.25
395.005	871.25
395.229	864.25
395.454	899.25
395.678	897.25
395.903	920.25
396.127	887.25
396.352	877.25
396.576	834.25
396.801	843.25
397.025	872.25
397.249	891.25
397.474	895.25
397.698	911.25
397.922	940.25
398.147	913.25
398.371	948.25
398.595	965.25
398.82	1014.25
399.044	1046.25
399.268	1164.25
399.492	1336.25
399.717	1439.25
399.941	1428.25
400.165	1279.25
400.389	1207.25
400.613	1132.25
400.837	1048.25
401.062	1021.25
401.286	1029.25
401.51	1015.25
401.734	982.25
401.958	1023.25
402.182	1033.25
402.406	1039.25
402.63	1045.25
402.854	1047.25
403.078	1099.25
403.302	1095.25
403.526	1097.25
403.75	1125.25
403.974	1113.25
404.198	1091.25
404.422	1130.25
404.645	1092.25
404.869	1104.25
405.093	1114.25
405.317	1088.25
405.541	1087.25
405.765	1082.25
405.988	1064.25
406.212	1097.25
406.436	1119.25
406.66	1134.25
406.883	1108.25
407.107	1187.25
407.331	1243.25
407.555	1296.25
407.778	1257.25
408.002	1228.25
408.226	1220.25
408.449	1195.25
408.673	1175.25
408.896	1143.25
409.12	1109.25
409.344	1140.25
409.567	1139.25
409.791	1124.25
410.014	1115.25
410.238	1152.25
410.461	1116.25
410.685	1110.25
410.908	1084.25
411.132	1085.25
411.355	1048.25
411.578	1085.25
411.802	1039.25
412.025	1062.25
412.249	1040.25
412.472	1068.25
412.695	1031.25
412.919	1010.25
413.142	1019.25
413.365	1024.25
413.589	1019.25
413.812	997.25
414.035	969.25
414.258	968.25
414.482	1009.25
414.705	1040.25
414.928	1025.25
415.151	1019.25
415.374	961.25
415.597	984.25
415.821	982.25
416.044	965.25
416.267	971.25
416.49	960.25
416.713	943.25
416.936	972.25
417.159	948.25
417.382	957.25
417.605	968.25
417.828	998.25
418.051	974.25
418.274	980.25
418.497	985.25
418.72	1010.25
418.943	994.25
419.166	1067.25
419.389	1107.25
419.611	1084.25
419.834	1071.25
420.057	1018.25
420.28	1038.25
420.503	980.25
420.726	964.25
420.948	967.25
421.171	961.25
421.394	989.25
421.617	982.25
421.839	988.25
422.062	988.25
422.285	958.25
422.507	1008.25
422.73	999.25
422.953	987.25
423.175	1015.25
423.398	1043.25
423.621	1021.25
423.843	1035.25
424.066	1019.25
424.288	1014.25
424.511	998.25
424.733	1007.25
424.956	985.25
425.178	978.25
425.401	988.25
425.623	1017.25
425.846	981.25
426.068	960.25
426.291	945.25
426.513	942.25
426.735	921.25
426.958	938.25
427.18	912.25
427.402	913.25
427.625	885.25
427.847	890.25
428.069	912.25
428.292	882.25
428.514	912.25
428.736	888.25
428.958	860.25
429.181	882.25
429.403	874.25
429.625	870.25
429.847	884.25
430.069	877.25
430.292	892.25
430.514	876.25
430.736	859.25
430.958	856.25
431.18	845.25
431.402	879.25
431.624	881.25
431.846	875.25
432.068	894.25
432.29	905.25
432.512	881.25
432.734	892.25
432.956	920.25
433.178	901.25
433.4	893.25
433.622	909.25
433.844	920.25
434.066	881.25
434.287	897.25
434.509	955.25
434.731	945.25
434.953	957.25
435.175	965.25
435.397	1001.25
435.618	926.25
435.84	902.25
436.062	914.25
436.284	881.25
436.505	883.25
436.727	889.25
436.949	883.25
437.17	865.25
437.392	862.25
437.614	854.25
437.835	847.25
438.057	857.25
438.278	821.25
438.5	841.25
438.721	845.25
438.943	861.25
439.165	870.25
439.386	860.25
439.608	885.25
439.829	867.25
440.05	881.25
440.272	869.25
440.493	869.25
440.715	891.25
440.936	897.25
441.158	895.25
441.379	921.25
441.6	962.25
441.822	990.25
442.043	985.25
442.264	958.25
442.486	930.25
442.707	955.25
442.928	974.25
443.149	970.25
443.371	980.25
443.592	976.25
443.813	955.25
444.034	983.25
444.255	1009.25
444.476	1059.25
444.698	1097.25
444.919	1120.25
445.14	1236.25
445.361	1080.25
445.582	1008.25
445.803	998.25
446.024	932.25
446.245	916.25
446.466	891.25
446.687	881.25
446.908	896.25
447.129	890.25
447.35	833.25
447.571	841.25
447.792	789.25
448.013	817.25
448.234	832.25
448.455	826.25
448.675	812.25
448.896	840.25
449.117	813.25
449.338	807.25
449.559	798.25
449.779	805.25
450	773.25
450.221	785.25
450.442	823.25
450.662	801.25
450.883	819.25
451.104	808.25
451.324	819.25
451.545	787.25
451.766	831.25
451.986	828.25
452.207	822.25
452.428	796.25
452.648	808.25
452.869	773.25
453.089	755.25
453.31	785.25
453.53	812.25
453.751	778.25
453.971	793.25
454.192	778.25
454.412	752.25
454.633	756.25
454.853	763.25
455.073	751.25
455.294	753.25
455.514	743.25
455.734	752.25
455.955	765.25
456.175	780.25
456.395	736.25
456.616	759.25
456.836	761.25
457.056	747.25
457.276	749.25
457.497	803.25
457.717	767.25
457.937	778.25
458.157	763.25
458.377	776.25
458.598	783.25
458.818	807.25
459.038	828.25
459.258	859.25
459.478	867.25
459.698	920.25
459.918	928.25
460.138	955.25
460.358	991.25
460.578	1009.25
460.798	1023.25
461.018	1034.25
461.238	1005.25
461.458	992.25
461.678	996.25
461.898	1015.25
462.118	1053.25
462.338	1110.25
462.558	1125.25
462.777	1164.25
462.997	1234.25
463.217	1317.25
463.437	1347.25
463.657	1247.25
463.876	1181.25
464.096	1155.25
464.316	1178.25
464.536	1208.25
464.755	1134.25
464.975	1103.25
465.195	1043.25
465.414	1006.25
465.634	937.25
465.854	909.25
466.073	901.25
466.293	903.25
466.512	841.25
466.732	886.25
466.951	849.25
467.171	864.25
467.391	867.25
467.61	849.25
467.829	862.25
468.049	827.25
468.268	834.25
468.488	794.25
468.707	806.25
468.927	815.25
469.146	799.25
469.365	836.25
469.585	849.25
469.804	866.25
470.023	851.25
470.243	870.25
470.462	853.25
470.681	880.25
470.901	859.25
471.12	859.25
471.339	865.25
471.558	845.25
471.777	816.25
471.997	802.25
472.216	815.25
472.435	813.25
472.654	787.25
472.873	801.25
473.092	808.25
473.311	796.25
473.53	821.25
473.749	783.25
473.968	807.25
474.187	786.25
474.406	789.25
474.625	806.25
474.844	797.25
475.063	830.25
475.282	789.25
475.501	797.25
475.72	815.25
475.939	789.25
476.158	837.25
476.377	834.25
476.596	855.25
476.814	844.25
477.033	859.25
477.252	861.25
477.471	891.25
477.69	877.25
477.908	905.25
478.127	937.25
478.346	971.25
478.564	968.25
478.783	949.25
479.002	1019.25
479.22	1009.25
479.439	1025.25
479.658	990.25
479.876	977.25
480.095	1011.25
480.313	1053.25
480.532	1051.25
480.751	1048.25
480.969	999.25
481.188	957.25
481.406	946.25
481.624	941.25
481.843	912.25
482.061	924.25
482.28	952.25
482.498	933.25
482.717	925.25
482.935	899.25
483.153	932.25
483.372	926.25
483.59	953.25
483.808	887.25
484.027	909.25
484.245	905.25
484.463	915.25
484.681	954.25
484.9	924.25
485.118	918.25
485.336	915.25
485.554	927.25
485.772	961.25
485.99	959.25
486.209	962.25
486.427	959.25
486.645	956.25
486.863	941.25
487.081	952.25
487.299	959.25
487.517	955.25
487.735	952.25
487.953	983.25
488.171	933.25
488.389	941.25
488.607	952.25
488.825	945.25
489.043	954.25
489.261	959.25
489.479	946.25
489.696	941.25
489.914	964.25
490.132	956.25
490.35	968.25
490.568	944.25
490.786	986.25
491.003	1012.25
491.221	985.25
491.439	979.25
491.657	979.25
491.874	970.25
492.092	994.25
492.31	994.25
492.527	979.25
492.745	1009.25
492.963	981.25
493.18	979.25
493.398	1019.25
493.615	1006.25
493.833	979.25
494.05	1000.25
494.268	1015.25
494.485	1054.25
494.703	1008.25
494.92	1041.25
495.138	1028.25
495.355	1023.25
495.573	1025.25
495.79	1024.25
496.008	1059.25
496.225	1076.25
496.442	1072.25
496.66	1054.25
496.877	1108.25
497.094	1112.25
497.312	1127.25
497.529	1159.25
497.746	1152.25
497.963	1169.25
498.181	1247.25
498.398	1319.25
498.615	1391.25
498.832	1421.25
499.049	1536.25
499.267	1668.25
499.484	1808.25
