Data from NiCl2@0.5M.TitratingCurve.Agarose3%dH2O.NegLispCup.LampEnergy10.LIBS07252019_HRD10591_18-18-36-571.txt Node
Date: Thu Jul 25 18:18:36 EDT 2019
User: cochatt
Spectrometer: HR+D1059
Trigger mode: 1
Integration Time (sec): 1.000000E-1
Scans to average: 1
Electric dark correction enabled: true
Nonlinearity correction enabled: false
Boxcar width: 0
XAxis mode: Wavelengths
Number of Pixels in Spectrum: 2048
>>>>>Begin Spectral Data<<<<<
223.165	-15.94
223.4	-15.94
223.635	-15.94
223.869	-17.94
224.104	-21.94
224.338	-13.94
224.573	-22.94
224.808	-20.94
225.042	-15.94
225.277	-16.94
225.511	3.06
225.746	8.06
225.98	17.06
226.215	22.06
226.449	18.06
226.683	20.06
226.918	20.06
227.152	38.06
227.387	33.06
227.621	36.06
227.856	43.06
228.09	34.06
228.324	36.06
228.559	43.06
228.793	81.06
229.027	154.06
229.262	177.06
229.496	176.06
229.73	185.06
229.964	191.06
230.199	246.06
230.433	232.06
230.667	225.06
230.901	217.06
231.136	199.06
231.37	201.06
231.604	224.06
231.838	241.06
232.072	235.06
232.306	238.06
232.541	209.06
232.775	214.06
233.009	227.06
233.243	231.06
233.477	227.06
233.711	204.06
233.945	211.06
234.179	216.06
234.413	221.06
234.647	233.06
234.881	230.06
235.115	233.06
235.349	227.06
235.583	229.06
235.817	220.06
236.051	223.06
236.285	233.06
236.519	228.06
236.753	220.06
236.987	220.06
237.221	234.06
237.455	241.06
237.689	242.06
237.922	249.06
238.156	260.06
238.39	243.06
238.624	259.06
238.858	269.06
239.091	259.06
239.325	278.06
239.559	284.06
239.793	299.06
240.027	299.06
240.26	280.06
240.494	281.06
240.728	283.06
240.961	281.06
241.195	295.06
241.429	275.06
241.662	306.06
241.896	331.06
242.13	336.06
242.363	307.06
242.597	305.06
242.83	311.06
243.064	308.06
243.298	316.06
243.531	297.06
243.765	322.06
243.998	335.06
244.232	356.06
244.465	333.06
244.699	332.06
244.932	336.06
245.166	351.06
245.399	327.06
245.633	344.06
245.866	357.06
246.099	332.06
246.333	337.06
246.566	348.06
246.8	338.06
247.033	371.06
247.266	350.06
247.5	361.06
247.733	354.06
247.966	375.06
248.2	382.06
248.433	381.06
248.666	366.06
248.899	387.06
249.133	400.06
249.366	386.06
249.599	390.06
249.832	410.06
250.066	418.06
250.299	422.06
250.532	411.06
250.765	419.06
250.998	432.06
251.231	439.06
251.465	454.06
251.698	451.06
251.931	441.06
252.164	441.06
252.397	428.06
252.63	441.06
252.863	432.06
253.096	439.06
253.329	452.06
253.562	448.06
253.795	450.06
254.028	439.06
254.261	460.06
254.494	432.06
254.727	471.06
254.96	477.06
255.193	484.06
255.426	468.06
255.659	468.06
255.892	475.06
256.124	508.06
256.357	488.06
256.59	479.06
256.823	477.06
257.056	498.06
257.289	494.06
257.521	499.06
257.754	514.06
257.987	479.06
258.22	489.06
258.452	505.06
258.685	510.06
258.918	528.06
259.151	506.06
259.383	520.06
259.616	534.06
259.849	523.06
260.081	523.06
260.314	529.06
260.547	542.06
260.779	571.06
261.012	517.06
261.244	533.06
261.477	568.06
261.71	577.06
261.942	556.06
262.175	553.06
262.407	534.06
262.64	567.06
262.872	557.06
263.105	562.06
263.337	571.06
263.57	570.06
263.802	582.06
264.035	586.06
264.267	584.06
264.499	599.06
264.732	572.06
264.964	595.06
265.197	586.06
265.429	601.06
265.661	593.06
265.894	598.06
266.126	614.06
266.358	605.06
266.591	596.06
266.823	613.06
267.055	615.06
267.287	631.06
267.52	630.06
267.752	609.06
267.984	614.06
268.216	619.06
268.448	607.06
268.681	637.06
268.913	654.06
269.145	631.06
269.377	652.06
269.609	664.06
269.841	643.06
270.073	640.06
270.306	650.06
270.538	676.06
270.77	660.06
271.002	671.06
271.234	659.06
271.466	645.06
271.698	679.06
271.93	682.06
272.162	694.06
272.394	683.06
272.626	702.06
272.858	670.06
273.09	689.06
273.322	674.06
273.553	729.06
273.785	714.06
274.017	693.06
274.249	716.06
274.481	713.06
274.713	715.06
274.945	727.06
275.176	733.06
275.408	723.06
275.64	734.06
275.872	733.06
276.104	731.06
276.335	733.06
276.567	752.06
276.799	748.06
277.031	742.06
277.262	759.06
277.494	756.06
277.726	721.06
277.957	748.06
278.189	745.06
278.421	758.06
278.652	754.06
278.884	783.06
279.115	788.06
279.347	798.06
279.579	791.06
279.81	790.06
280.042	786.06
280.273	838.06
280.505	784.06
280.736	798.06
280.968	780.06
281.199	815.06
281.431	809.06
281.662	824.06
281.894	829.06
282.125	830.06
282.356	801.06
282.588	810.06
282.819	844.06
283.051	821.06
283.282	818.06
283.513	831.06
283.745	856.06
283.976	837.06
284.207	837.06
284.439	843.06
284.67	849.06
284.901	835.06
285.132	855.06
285.364	863.06
285.595	847.06
285.826	843.06
286.057	880.06
286.288	892.06
286.52	896.06
286.751	877.06
286.982	885.06
287.213	878.06
287.444	840.06
287.675	872.06
287.906	895.06
288.138	885.06
288.369	894.06
288.6	906.06
288.831	893.06
289.062	911.06
289.293	894.06
289.524	900.06
289.755	912.06
289.986	922.06
290.217	921.06
290.448	926.06
290.679	948.06
290.91	925.06
291.141	898.06
291.371	929.06
291.602	927.06
291.833	912.06
292.064	918.06
292.295	926.06
292.526	932.06
292.757	931.06
292.987	912.06
293.218	906.06
293.449	923.06
293.68	956.06
293.91	937.06
294.141	908.06
294.372	902.06
294.603	936.06
294.833	948.06
295.064	946.06
295.295	945.06
295.525	930.06
295.756	938.06
295.987	958.06
296.217	975.06
296.448	950.06
296.679	949.06
296.909	934.06
297.14	980.06
297.37	995.06
297.601	987.06
297.831	952.06
298.062	975.06
298.292	988.06
298.523	1001.06
298.753	1016.06
298.984	982.06
299.214	1002.06
299.445	995.06
299.675	1014.06
299.905	1024.06
300.136	1004.06
300.366	1034.06
300.597	1033.06
300.827	1039.06
301.057	1034.06
301.288	1035.06
301.518	1044.06
301.748	1074.06
301.979	1044.06
302.209	1044.06
302.439	1055.06
302.669	1049.06
302.9	1027.06
303.13	1032.06
303.36	1075.06
303.59	1059.06
303.82	1090.06
304.051	1075.06
304.281	1075.06
304.511	1087.06
304.741	1072.06
304.971	1101.06
305.201	1066.06
305.431	1091.06
305.661	1112.06
305.891	1110.06
306.121	1077.06
306.352	1077.06
306.582	1062.06
306.812	1042.06
307.042	1027.06
307.272	1063.06
307.502	1059.06
307.731	1080.06
307.961	1055.06
308.191	1070.06
308.421	1042.06
308.651	1082.06
308.881	1073.06
309.111	1052.06
309.341	1039.06
309.571	1078.06
309.8	1067.06
310.03	1093.06
310.26	1158.06
310.49	1121.06
310.72	1096.06
310.949	1082.06
311.179	1103.06
311.409	1106.06
311.639	1120.06
311.868	1100.06
312.098	1097.06
312.328	1127.06
312.557	1122.06
312.787	1106.06
313.017	1108.06
313.246	1139.06
313.476	1136.06
313.706	1160.06
313.935	1157.06
314.165	1154.06
314.394	1124.06
314.624	1168.06
314.853	1108.06
315.083	1164.06
315.312	1178.06
315.542	1162.06
315.771	1139.06
316.001	1139.06
316.23	1155.06
316.46	1129.06
316.689	1174.06
316.919	1147.06
317.148	1123.06
317.377	1154.06
317.607	1147.06
317.836	1142.06
318.065	1126.06
318.295	1154.06
318.524	1150.06
318.753	1163.06
318.983	1166.06
319.212	1136.06
319.441	1176.06
319.67	1175.06
319.9	1139.06
320.129	1148.06
320.358	1187.06
320.587	1164.06
320.816	1169.06
321.046	1170.06
321.275	1188.06
321.504	1177.06
321.733	1180.06
321.962	1176.06
322.191	1189.06
322.42	1206.06
322.649	1163.06
322.878	1183.06
323.108	1168.06
323.337	1209.06
323.566	1186.06
323.795	1233.06
324.024	1234.06
324.253	1211.06
324.482	1227.06
324.71	1234.06
324.939	1200.06
325.168	1228.06
325.397	1214.06
325.626	1221.06
325.855	1246.06
326.084	1256.06
326.313	1254.06
326.542	1241.06
326.77	1287.06
326.999	1266.06
327.228	1272.06
327.457	1243.06
327.686	1233.06
327.914	1273.06
328.143	1274.06
328.372	1248.06
328.6	1251.06
328.829	1243.06
329.058	1256.06
329.287	1258.06
329.515	1251.06
329.744	1278.06
329.972	1262.06
330.201	1263.06
330.43	1291.06
330.658	1263.06
330.887	1311.06
331.115	1296.06
331.344	1300.06
331.572	1291.06
331.801	1350.06
332.03	1332.06
332.258	1322.06
332.486	1361.06
332.715	1378.06
332.943	1377.06
333.172	1415.06
333.4	1444.06
333.629	1450.06
333.857	1443.06
334.085	1497.06
334.314	1489.06
334.542	1464.06
334.771	1504.06
334.999	1462.06
335.227	1465.06
335.455	1495.06
335.684	1496.06
335.912	1483.06
336.14	1474.06
336.369	1480.06
336.597	1495.06
336.825	1485.06
337.053	1468.06
337.281	1492.06
337.51	1440.06
337.738	1443.06
337.966	1435.06
338.194	1459.06
338.422	1423.06
338.65	1360.06
338.878	1351.06
339.106	1385.06
339.334	1411.06
339.562	1384.06
339.79	1381.06
340.018	1316.06
340.246	1340.06
340.474	1319.06
340.702	1336.06
340.93	1334.06
341.158	1359.06
341.386	1352.06
341.614	1395.06
341.842	1350.06
342.07	1330.06
342.298	1323.06
342.526	1360.06
342.754	1345.06
342.981	1320.06
343.209	1337.06
343.437	1387.06
343.665	1418.06
343.893	1425.06
344.12	1438.06
344.348	1404.06
344.576	1399.06
344.804	1432.06
345.031	1370.06
345.259	1390.06
345.487	1356.06
345.714	1369.06
345.942	1354.06
346.17	1370.06
346.397	1361.06
346.625	1322.06
346.853	1315.06
347.08	1247.06
347.308	1311.06
347.535	1282.06
347.763	1298.06
347.99	1290.06
348.218	1278.06
348.445	1244.06
348.673	1266.06
348.9	1235.06
349.128	1283.06
349.355	1295.06
349.583	1305.06
349.81	1273.06
350.037	1202.06
350.265	1255.06
350.492	1243.06
350.72	1232.06
350.947	1239.06
351.174	1271.06
351.402	1318.06
351.629	1296.06
351.856	1284.06
352.083	1247.06
352.311	1251.06
352.538	1282.06
352.765	1318.06
352.992	1232.06
353.22	1168.06
353.447	1219.06
353.674	1216.06
353.901	1187.06
354.128	1198.06
354.355	1216.06
354.583	1172.06
354.81	1207.06
355.037	1208.06
355.264	1206.06
355.491	1217.06
355.718	1200.06
355.945	1214.06
356.172	1243.06
356.399	1204.06
356.626	1245.06
356.853	1285.06
357.08	1239.06
357.307	1268.06
357.534	1242.06
357.761	1224.06
357.988	1226.06
358.215	1209.06
358.441	1214.06
358.668	1164.06
358.895	1177.06
359.122	1217.06
359.349	1216.06
359.576	1186.06
359.802	1232.06
360.029	1204.06
360.256	1232.06
360.483	1202.06
360.709	1235.06
360.936	1187.06
361.163	1231.06
361.39	1225.06
361.616	1210.06
361.843	1291.06
362.07	1285.06
362.296	1271.06
362.523	1230.06
362.749	1206.06
362.976	1211.06
363.203	1204.06
363.429	1201.06
363.656	1227.06
363.882	1176.06
364.109	1221.06
364.335	1214.06
364.562	1259.06
364.788	1227.06
365.015	1210.06
365.241	1196.06
365.468	1193.06
365.694	1235.06
365.92	1192.06
366.147	1190.06
366.373	1227.06
366.599	1206.06
366.826	1199.06
367.052	1203.06
367.278	1224.06
367.505	1235.06
367.731	1241.06
367.957	1217.06
368.184	1210.06
368.41	1225.06
368.636	1195.06
368.862	1214.06
369.089	1245.06
369.315	1232.06
369.541	1246.06
369.767	1230.06
369.993	1222.06
370.219	1228.06
370.445	1268.06
370.672	1251.06
370.898	1243.06
371.124	1248.06
371.35	1256.06
371.576	1293.06
371.802	1305.06
372.028	1269.06
372.254	1271.06
372.48	1297.06
372.706	1281.06
372.932	1315.06
373.158	1281.06
373.384	1272.06
373.61	1281.06
373.835	1291.06
374.061	1257.06
374.287	1267.06
374.513	1298.06
374.739	1271.06
374.965	1323.06
375.191	1341.06
375.416	1363.06
375.642	1288.06
375.868	1306.06
376.094	1272.06
376.319	1290.06
376.545	1298.06
376.771	1286.06
376.997	1237.06
377.222	1249.06
377.448	1243.06
377.674	1271.06
377.899	1238.06
378.125	1255.06
378.35	1284.06
378.576	1266.06
378.802	1234.06
379.027	1233.06
379.253	1212.06
379.478	1217.06
379.704	1258.06
379.929	1226.06
380.155	1205.06
380.38	1258.06
380.606	1253.06
380.831	1258.06
381.057	1265.06
381.282	1243.06
381.507	1255.06
381.733	1262.06
381.958	1263.06
382.184	1275.06
382.409	1292.06
382.634	1296.06
382.86	1268.06
383.085	1277.06
383.31	1314.06
383.535	1343.06
383.761	1327.06
383.986	1332.06
384.211	1354.06
384.436	1368.06
384.662	1349.06
384.887	1369.06
385.112	1344.06
385.337	1365.06
385.562	1418.06
385.787	1405.06
386.013	1427.06
386.238	1419.06
386.463	1420.06
386.688	1463.06
386.913	1412.06
387.138	1449.06
387.363	1398.06
387.588	1414.06
387.813	1436.06
388.038	1443.06
388.263	1428.06
388.488	1447.06
388.713	1430.06
388.938	1400.06
389.163	1439.06
389.387	1445.06
389.612	1428.06
389.837	1422.06
390.062	1449.06
390.287	1460.06
390.512	1449.06
390.736	1455.06
390.961	1458.06
391.186	1463.06
391.411	1469.06
391.636	1501.06
391.86	1530.06
392.085	1523.06
392.31	1556.06
392.534	1500.06
392.759	1561.06
392.984	1511.06
393.208	1490.06
393.433	1512.06
393.658	1514.06
393.882	1505.06
394.107	1452.06
394.331	1467.06
394.556	1484.06
394.78	1493.06
395.005	1544.06
395.229	1503.06
395.454	1497.06
395.678	1527.06
395.903	1527.06
396.127	1563.06
396.352	1522.06
396.576	1531.06
396.801	1542.06
397.025	1548.06
397.249	1569.06
397.474	1607.06
397.698	1589.06
397.922	1624.06
398.147	1631.06
398.371	1651.06
398.595	1666.06
398.82	1707.06
399.044	1777.06
399.268	1868.06
399.492	1939.06
399.717	2021.06
399.941	2054.06
400.165	2031.06
400.389	1939.06
400.613	1881.06
400.837	1843.06
401.062	1775.06
401.286	1747.06
401.51	1744.06
401.734	1718.06
401.958	1750.06
402.182	1675.06
402.406	1728.06
402.63	1729.06
402.854	1752.06
403.078	1722.06
403.302	1754.06
403.526	1765.06
403.75	1754.06
403.974	1784.06
404.198	1754.06
404.422	1793.06
404.645	1759.06
404.869	1776.06
405.093	1815.06
405.317	1802.06
405.541	1819.06
405.765	1818.06
405.988	1780.06
406.212	1874.06
406.436	1852.06
406.66	1892.06
406.883	1884.06
407.107	1928.06
407.331	1904.06
407.555	1962.06
407.778	2059.06
408.002	1995.06
408.226	1975.06
408.449	1973.06
408.673	1921.06
408.896	1898.06
409.12	1904.06
409.344	1891.06
409.567	1829.06
409.791	1862.06
410.014	1854.06
410.238	1810.06
410.461	1834.06
410.685	1809.06
410.908	1845.06
411.132	1808.06
411.355	1765.06
411.578	1763.06
411.802	1778.06
412.025	1835.06
412.249	1768.06
412.472	1794.06
412.695	1751.06
412.919	1743.06
413.142	1752.06
413.365	1779.06
413.589	1796.06
413.812	1731.06
414.035	1767.06
414.258	1723.06
414.482	1708.06
414.705	1735.06
414.928	1728.06
415.151	1698.06
415.374	1722.06
415.597	1698.06
415.821	1719.06
416.044	1676.06
416.267	1670.06
416.49	1688.06
416.713	1653.06
416.936	1686.06
417.159	1666.06
417.382	1656.06
417.605	1659.06
417.828	1606.06
418.051	1685.06
418.274	1648.06
418.497	1644.06
418.72	1657.06
418.943	1652.06
419.166	1774.06
419.389	1882.06
419.611	1884.06
419.834	1786.06
420.057	1759.06
420.28	1706.06
420.503	1636.06
420.726	1657.06
420.948	1632.06
421.171	1660.06
421.394	1663.06
421.617	1662.06
421.839	1680.06
422.062	1667.06
422.285	1632.06
422.507	1674.06
422.73	1700.06
422.953	1686.06
423.175	1684.06
423.398	1679.06
423.621	1652.06
423.843	1697.06
424.066	1687.06
424.288	1653.06
424.511	1663.06
424.733	1635.06
424.956	1667.06
425.178	1649.06
425.401	1659.06
425.623	1689.06
425.846	1630.06
426.068	1663.06
426.291	1643.06
426.513	1653.06
426.735	1652.06
426.958	1644.06
427.18	1572.06
427.402	1630.06
427.625	1638.06
427.847	1577.06
428.069	1606.06
428.292	1616.06
428.514	1596.06
428.736	1598.06
428.958	1579.06
429.181	1545.06
429.403	1584.06
429.625	1579.06
429.847	1572.06
430.069	1558.06
430.292	1599.06
430.514	1578.06
430.736	1570.06
430.958	1577.06
431.18	1610.06
431.402	1621.06
431.624	1608.06
431.846	1597.06
432.068	1575.06
432.29	1589.06
432.512	1627.06
432.734	1626.06
432.956	1627.06
433.178	1640.06
433.4	1660.06
433.622	1635.06
433.844	1691.06
434.066	1644.06
434.287	1652.06
434.509	1657.06
434.731	1666.06
434.953	1697.06
435.175	1740.06
435.397	1767.06
435.618	1695.06
435.84	1635.06
436.062	1619.06
436.284	1662.06
436.505	1602.06
436.727	1577.06
436.949	1627.06
437.17	1646.06
437.392	1582.06
437.614	1573.06
437.835	1538.06
438.057	1565.06
438.278	1506.06
438.5	1564.06
438.721	1541.06
438.943	1596.06
439.165	1562.06
439.386	1550.06
439.608	1547.06
439.829	1590.06
440.05	1575.06
440.272	1587.06
440.493	1641.06
440.715	1632.06
440.936	1644.06
441.158	1645.06
441.379	1682.06
441.6	1732.06
441.822	1730.06
442.043	1677.06
442.264	1654.06
442.486	1690.06
442.707	1663.06
442.928	1684.06
443.149	1693.06
443.371	1724.06
443.592	1792.06
443.813	1756.06
444.034	1724.06
444.255	1729.06
444.476	1775.06
444.698	1825.06
444.919	1844.06
445.14	1941.06
445.361	1800.06
445.582	1808.06
445.803	1736.06
446.024	1699.06
446.245	1693.06
446.466	1619.06
446.687	1642.06
446.908	1618.06
447.129	1570.06
447.35	1566.06
447.571	1548.06
447.792	1536.06
448.013	1556.06
448.234	1520.06
448.455	1508.06
448.675	1500.06
448.896	1514.06
449.117	1466.06
449.338	1507.06
449.559	1482.06
449.779	1443.06
450	1458.06
450.221	1484.06
450.442	1442.06
450.662	1464.06
450.883	1500.06
451.104	1497.06
451.324	1496.06
451.545	1471.06
451.766	1469.06
451.986	1468.06
452.207	1484.06
452.428	1459.06
452.648	1442.06
452.869	1429.06
453.089	1485.06
453.31	1471.06
453.53	1463.06
453.751	1432.06
453.971	1421.06
454.192	1450.06
454.412	1454.06
454.633	1450.06
454.853	1442.06
455.073	1397.06
455.294	1450.06
455.514	1419.06
455.734	1456.06
455.955	1464.06
456.175	1456.06
456.395	1446.06
456.616	1387.06
456.836	1409.06
457.056	1429.06
457.276	1415.06
457.497	1446.06
457.717	1491.06
457.937	1443.06
458.157	1452.06
458.377	1467.06
458.598	1504.06
458.818	1530.06
459.038	1534.06
459.258	1587.06
459.478	1687.06
459.698	1739.06
459.918	1767.06
460.138	1742.06
460.358	1767.06
460.578	1773.06
460.798	1808.06
461.018	1889.06
461.238	1822.06
461.458	1777.06
461.678	1740.06
461.898	1800.06
462.118	1803.06
462.338	1814.06
462.558	1912.06
462.777	1986.06
462.997	2005.06
463.217	2106.06
463.437	2161.06
463.657	2088.06
463.876	2015.06
464.096	2023.06
464.316	1992.06
464.536	1959.06
464.755	1907.06
464.975	1854.06
465.195	1846.06
465.414	1794.06
465.634	1720.06
465.854	1710.06
466.073	1648.06
466.293	1662.06
466.512	1591.06
466.732	1577.06
466.951	1607.06
467.171	1599.06
467.391	1587.06
467.61	1582.06
467.829	1582.06
468.049	1575.06
468.268	1564.06
468.488	1512.06
468.707	1516.06
468.927	1584.06
469.146	1576.06
469.365	1598.06
469.585	1554.06
469.804	1594.06
470.023	1592.06
470.243	1608.06
470.462	1576.06
470.681	1607.06
470.901	1601.06
471.12	1577.06
471.339	1568.06
471.558	1556.06
471.777	1603.06
471.997	1569.06
472.216	1565.06
472.435	1562.06
472.654	1532.06
472.873	1524.06
473.092	1562.06
473.311	1553.06
473.53	1548.06
473.749	1578.06
473.968	1540.06
474.187	1540.06
474.406	1552.06
474.625	1542.06
474.844	1534.06
475.063	1559.06
475.282	1570.06
475.501	1603.06
475.72	1604.06
475.939	1603.06
476.158	1598.06
476.377	1672.06
476.596	1649.06
476.814	1660.06
477.033	1637.06
477.252	1675.06
477.471	1746.06
477.69	1723.06
477.908	1751.06
478.127	1792.06
478.346	1796.06
478.564	1873.06
478.783	1803.06
479.002	1900.06
479.22	1938.06
479.439	1902.06
479.658	1876.06
479.876	1916.06
480.095	1878.06
480.313	1974.06
480.532	1955.06
480.751	1928.06
480.969	1922.06
481.188	1912.06
481.406	1872.06
481.624	1892.06
481.843	1893.06
482.061	1902.06
482.28	1903.06
482.498	1856.06
482.717	1841.06
482.935	1864.06
483.153	1892.06
483.372	1940.06
483.59	1913.06
483.808	1896.06
484.027	1840.06
484.245	1908.06
484.463	1872.06
484.681	1934.06
484.9	1879.06
485.118	1908.06
485.336	1873.06
485.554	1907.06
485.772	1938.06
485.99	1881.06
486.209	1932.06
486.427	1908.06
486.645	1929.06
486.863	1921.06
487.081	1962.06
487.299	1928.06
487.517	1952.06
487.735	1974.06
487.953	1984.06
488.171	1933.06
488.389	1947.06
488.607	1950.06
488.825	1884.06
489.043	1887.06
489.261	1888.06
489.479	1926.06
489.696	1964.06
489.914	1920.06
