Data from NiCl2@0.25M.TitratingCurve.Agarose3%dH2O.NegLispCup.LampEnergy10.LIBS07252019_HRD10591_18-25-05-573.txt Node
Date: Thu Jul 25 18:25:05 EDT 2019
User: cochatt
Spectrometer: HR+D1059
Trigger mode: 1
Integration Time (sec): 1.000000E-1
Scans to average: 1
Electric dark correction enabled: true
Nonlinearity correction enabled: false
Boxcar width: 0
XAxis mode: Wavelengths
Number of Pixels in Spectrum: 2048
>>>>>Begin Spectral Data<<<<<
223.165	-7.88
223.4	-7.88
223.635	-7.88
223.869	-0.88
224.104	-7.88
224.338	-14.88
224.573	-23.88
224.808	-7.88
225.042	-1.88
225.277	-11.88
225.511	-15.88
225.746	-7.88
225.98	14.12
226.215	-0.88
226.449	20.12
226.683	10.12
226.918	26.12
227.152	31.12
227.387	42.12
227.621	34.12
227.856	43.12
228.09	58.12
228.324	40.12
228.559	50.12
228.793	74.12
229.027	122.12
229.262	122.12
229.496	129.12
229.73	128.12
229.964	144.12
230.199	148.12
230.433	158.12
230.667	150.12
230.901	148.12
231.136	154.12
231.37	153.12
231.604	155.12
231.838	154.12
232.072	167.12
232.306	164.12
232.541	187.12
232.775	140.12
233.009	164.12
233.243	167.12
233.477	163.12
233.711	171.12
233.945	176.12
234.179	162.12
234.413	173.12
234.647	172.12
234.881	176.12
235.115	176.12
235.349	186.12
235.583	178.12
235.817	194.12
236.051	185.12
236.285	195.12
236.519	174.12
236.753	186.12
236.987	193.12
237.221	207.12
237.455	185.12
237.689	198.12
237.922	177.12
238.156	190.12
238.39	189.12
238.624	199.12
238.858	178.12
239.091	189.12
239.325	205.12
239.559	202.12
239.793	203.12
240.027	230.12
240.26	230.12
240.494	222.12
240.728	218.12
240.961	224.12
241.195	225.12
241.429	226.12
241.662	221.12
241.896	240.12
242.13	221.12
242.363	228.12
242.597	217.12
242.83	228.12
243.064	236.12
243.298	230.12
243.531	243.12
243.765	255.12
243.998	272.12
244.232	255.12
244.465	258.12
244.699	250.12
244.932	266.12
245.166	277.12
245.399	277.12
245.633	255.12
245.866	267.12
246.099	284.12
246.333	286.12
246.566	298.12
246.8	271.12
247.033	293.12
247.266	279.12
247.5	302.12
247.733	281.12
247.966	282.12
248.2	276.12
248.433	292.12
248.666	290.12
248.899	288.12
249.133	298.12
249.366	306.12
249.599	310.12
249.832	294.12
250.066	311.12
250.299	322.12
250.532	312.12
250.765	304.12
250.998	310.12
251.231	295.12
251.465	310.12
251.698	318.12
251.931	308.12
252.164	326.12
252.397	330.12
252.63	339.12
252.863	350.12
253.096	332.12
253.329	341.12
253.562	327.12
253.795	350.12
254.028	351.12
254.261	351.12
254.494	328.12
254.727	360.12
254.96	340.12
255.193	360.12
255.426	346.12
255.659	362.12
255.892	343.12
256.124	338.12
256.357	354.12
256.59	351.12
256.823	363.12
257.056	368.12
257.289	363.12
257.521	380.12
257.754	374.12
257.987	385.12
258.22	379.12
258.452	382.12
258.685	382.12
258.918	374.12
259.151	388.12
259.383	378.12
259.616	358.12
259.849	378.12
260.081	382.12
260.314	402.12
260.547	410.12
260.779	382.12
261.012	386.12
261.244	401.12
261.477	392.12
261.71	397.12
261.942	397.12
262.175	408.12
262.407	372.12
262.64	384.12
262.872	420.12
263.105	412.12
263.337	415.12
263.57	422.12
263.802	434.12
264.035	419.12
264.267	408.12
264.499	413.12
264.732	432.12
264.964	423.12
265.197	442.12
265.429	423.12
265.661	463.12
265.894	452.12
266.126	464.12
266.358	423.12
266.591	448.12
266.823	444.12
267.055	449.12
267.287	448.12
267.52	453.12
267.752	464.12
267.984	444.12
268.216	468.12
268.448	444.12
268.681	458.12
268.913	455.12
269.145	465.12
269.377	466.12
269.609	470.12
269.841	464.12
270.073	476.12
270.306	477.12
270.538	485.12
270.77	470.12
271.002	478.12
271.234	471.12
271.466	503.12
271.698	494.12
271.93	458.12
272.162	465.12
272.394	467.12
272.626	498.12
272.858	485.12
273.09	487.12
273.322	516.12
273.553	494.12
273.785	499.12
274.017	500.12
274.249	500.12
274.481	511.12
274.713	506.12
274.945	509.12
275.176	504.12
275.408	522.12
275.64	525.12
275.872	498.12
276.104	542.12
276.335	520.12
276.567	544.12
276.799	542.12
277.031	549.12
277.262	528.12
277.494	528.12
277.726	524.12
277.957	540.12
278.189	536.12
278.421	541.12
278.652	552.12
278.884	565.12
279.115	562.12
279.347	546.12
279.579	538.12
279.81	571.12
280.042	567.12
280.273	558.12
280.505	532.12
280.736	565.12
280.968	569.12
281.199	554.12
281.431	578.12
281.662	578.12
281.894	555.12
282.125	603.12
282.356	582.12
282.588	596.12
282.819	590.12
283.051	582.12
283.282	583.12
283.513	587.12
283.745	614.12
283.976	601.12
284.207	600.12
284.439	606.12
284.67	606.12
284.901	621.12
285.132	595.12
285.364	606.12
285.595	612.12
285.826	621.12
286.057	632.12
286.288	615.12
286.52	616.12
286.751	634.12
286.982	658.12
287.213	636.12
287.444	617.12
287.675	638.12
287.906	648.12
288.138	650.12
288.369	649.12
288.6	645.12
288.831	632.12
289.062	655.12
289.293	652.12
289.524	621.12
289.755	666.12
289.986	653.12
290.217	648.12
290.448	654.12
290.679	651.12
290.91	650.12
291.141	669.12
291.371	662.12
291.602	646.12
291.833	646.12
292.064	677.12
292.295	670.12
292.526	669.12
292.757	670.12
292.987	650.12
293.218	644.12
293.449	670.12
293.68	660.12
293.91	665.12
294.141	653.12
294.372	666.12
294.603	672.12
294.833	674.12
295.064	666.12
295.295	680.12
295.525	678.12
295.756	659.12
295.987	679.12
296.217	678.12
296.448	694.12
296.679	685.12
296.909	701.12
297.14	682.12
297.37	712.12
297.601	702.12
297.831	712.12
298.062	696.12
298.292	733.12
298.523	740.12
298.753	715.12
298.984	718.12
299.214	697.12
299.445	717.12
299.675	699.12
299.905	716.12
300.136	724.12
300.366	725.12
300.597	718.12
300.827	744.12
301.057	749.12
301.288	747.12
301.518	742.12
301.748	791.12
301.979	758.12
302.209	761.12
302.439	746.12
302.669	766.12
302.9	716.12
303.13	734.12
303.36	727.12
303.59	730.12
303.82	755.12
304.051	744.12
304.281	734.12
304.511	733.12
304.741	738.12
304.971	741.12
305.201	727.12
305.431	735.12
305.661	739.12
305.891	735.12
306.121	729.12
306.352	757.12
306.582	734.12
306.812	714.12
307.042	720.12
307.272	711.12
307.502	738.12
307.731	748.12
307.961	742.12
308.191	712.12
308.421	718.12
308.651	747.12
308.881	726.12
309.111	747.12
309.341	711.12
309.571	740.12
309.8	728.12
310.03	743.12
310.26	737.12
310.49	730.12
310.72	749.12
310.949	726.12
311.179	731.12
311.409	733.12
311.639	742.12
311.868	760.12
312.098	745.12
312.328	758.12
312.557	729.12
312.787	771.12
313.017	770.12
313.246	790.12
313.476	779.12
313.706	782.12
313.935	788.12
314.165	774.12
314.394	774.12
314.624	799.12
314.853	777.12
315.083	780.12
315.312	763.12
315.542	804.12
315.771	792.12
316.001	758.12
316.23	784.12
316.46	790.12
316.689	765.12
316.919	783.12
317.148	791.12
317.377	781.12
317.607	778.12
317.836	739.12
318.065	770.12
318.295	770.12
318.524	775.12
318.753	754.12
318.983	778.12
319.212	755.12
319.441	755.12
319.67	773.12
319.9	782.12
320.129	790.12
320.358	775.12
320.587	758.12
320.816	766.12
321.046	771.12
321.275	749.12
321.504	777.12
321.733	771.12
321.962	772.12
322.191	757.12
322.42	784.12
322.649	782.12
322.878	783.12
323.108	752.12
323.337	796.12
323.566	785.12
323.795	809.12
324.024	825.12
324.253	808.12
324.482	779.12
324.71	783.12
324.939	824.12
325.168	827.12
325.397	800.12
325.626	823.12
325.855	820.12
326.084	858.12
326.313	835.12
326.542	877.12
326.77	850.12
326.999	845.12
327.228	831.12
327.457	824.12
327.686	832.12
327.914	840.12
328.143	862.12
328.372	874.12
328.6	875.12
328.829	829.12
329.058	880.12
329.287	841.12
329.515	856.12
329.744	843.12
329.972	853.12
330.201	858.12
330.43	874.12
330.658	864.12
330.887	888.12
331.115	897.12
331.344	884.12
331.572	916.12
331.801	934.12
332.03	943.12
332.258	922.12
332.486	987.12
332.715	1023.12
332.943	1053.12
333.172	1065.12
333.4	1117.12
333.629	1156.12
333.857	1186.12
334.085	1136.12
334.314	1152.12
334.542	1102.12
334.771	1063.12
334.999	1051.12
335.227	1065.12
335.455	1041.12
335.684	1049.12
335.912	1053.12
336.14	1034.12
336.369	1010.12
336.597	1015.12
336.825	1037.12
337.053	997.12
337.281	999.12
337.51	990.12
337.738	1002.12
337.966	973.12
338.194	926.12
338.422	966.12
338.65	920.12
338.878	918.12
339.106	930.12
339.334	942.12
339.562	912.12
339.79	931.12
340.018	875.12
340.246	858.12
340.474	916.12
340.702	907.12
340.93	906.12
341.158	920.12
341.386	908.12
341.614	895.12
341.842	896.12
342.07	895.12
342.298	903.12
342.526	876.12
342.754	894.12
342.981	877.12
343.209	920.12
343.437	972.12
343.665	1008.12
343.893	1059.12
344.12	1107.12
344.348	1060.12
344.576	1004.12
344.804	981.12
345.031	943.12
345.259	936.12
345.487	902.12
345.714	891.12
345.942	883.12
346.17	894.12
346.397	873.12
346.625	864.12
346.853	876.12
347.08	847.12
347.308	853.12
347.535	873.12
347.763	869.12
347.99	861.12
348.218	864.12
348.445	832.12
348.673	858.12
348.9	874.12
349.128	862.12
349.355	872.12
349.583	872.12
349.81	849.12
350.037	830.12
350.265	838.12
350.492	853.12
350.72	806.12
350.947	829.12
351.174	830.12
351.402	860.12
351.629	826.12
351.856	820.12
352.083	820.12
352.311	819.12
352.538	850.12
352.765	820.12
352.992	796.12
353.22	812.12
353.447	791.12
353.674	796.12
353.901	825.12
354.128	816.12
354.355	808.12
354.583	814.12
354.81	806.12
355.037	801.12
355.264	804.12
355.491	808.12
355.718	807.12
355.945	822.12
356.172	826.12
356.399	805.12
356.626	852.12
356.853	843.12
357.08	814.12
357.307	822.12
357.534	808.12
357.761	824.12
357.988	828.12
358.215	826.12
358.441	826.12
358.668	810.12
358.895	826.12
359.122	824.12
359.349	818.12
359.576	850.12
359.802	819.12
360.029	816.12
360.256	849.12
360.483	846.12
360.709	853.12
360.936	848.12
361.163	835.12
361.39	846.12
361.616	830.12
361.843	841.12
362.07	836.12
362.296	799.12
362.523	802.12
362.749	847.12
362.976	836.12
363.203	806.12
363.429	826.12
363.656	818.12
363.882	819.12
364.109	837.12
364.335	828.12
364.562	824.12
364.788	853.12
365.015	848.12
365.241	825.12
365.468	822.12
365.694	825.12
365.92	807.12
366.147	814.12
366.373	803.12
366.599	833.12
366.826	847.12
367.052	805.12
367.278	822.12
367.505	820.12
367.731	821.12
367.957	847.12
368.184	850.12
368.41	822.12
368.636	837.12
368.862	841.12
369.089	862.12
369.315	852.12
369.541	852.12
369.767	852.12
369.993	846.12
370.219	867.12
370.445	878.12
370.672	866.12
370.898	875.12
371.124	868.12
371.35	894.12
371.576	902.12
371.802	887.12
372.028	928.12
372.254	889.12
372.48	892.12
372.706	930.12
372.932	928.12
373.158	928.12
373.384	891.12
373.61	879.12
373.835	889.12
374.061	918.12
374.287	927.12
374.513	909.12
374.739	940.12
374.965	978.12
375.191	1012.12
375.416	999.12
375.642	982.12
375.868	943.12
376.094	932.12
376.319	906.12
376.545	924.12
376.771	920.12
376.997	886.12
377.222	873.12
377.448	918.12
377.674	895.12
377.899	889.12
378.125	879.12
378.35	900.12
378.576	898.12
378.802	895.12
379.027	886.12
379.253	884.12
379.478	901.12
379.704	902.12
379.929	910.12
380.155	875.12
380.38	878.12
380.606	876.12
380.831	910.12
381.057	905.12
381.282	900.12
381.507	904.12
381.733	908.12
381.958	907.12
382.184	915.12
382.409	938.12
382.634	916.12
382.86	928.12
383.085	947.12
383.31	930.12
383.535	986.12
383.761	1012.12
383.986	999.12
384.211	1020.12
384.436	1048.12
384.662	1058.12
384.887	1096.12
385.112	1089.12
385.337	1058.12
385.562	1111.12
385.787	1088.12
386.013	1112.12
386.238	1096.12
386.463	1058.12
386.688	1080.12
386.913	1085.12
387.138	1082.12
387.363	1083.12
387.588	1064.12
387.813	1064.12
388.038	1052.12
388.263	1056.12
388.488	1066.12
388.713	1096.12
388.938	1039.12
389.163	1024.12
389.387	1007.12
389.612	1055.12
389.837	1055.12
390.062	1054.12
390.287	1069.12
390.512	1045.12
390.736	1101.12
390.961	1093.12
391.186	1110.12
391.411	1140.12
391.636	1160.12
391.86	1209.12
392.085	1212.12
392.31	1262.12
392.534	1206.12
392.759	1172.12
392.984	1165.12
393.208	1103.12
393.433	1115.12
393.658	1143.12
393.882	1137.12
394.107	1164.12
394.331	1158.12
394.556	1154.12
394.78	1145.12
395.005	1164.12
395.229	1134.12
395.454	1194.12
395.678	1213.12
395.903	1234.12
396.127	1195.12
396.352	1182.12
396.576	1141.12
396.801	1134.12
397.025	1158.12
397.249	1183.12
397.474	1212.12
397.698	1180.12
397.922	1228.12
398.147	1232.12
398.371	1260.12
398.595	1261.12
398.82	1310.12
399.044	1448.12
399.268	1564.12
399.492	1833.12
399.717	2036.12
399.941	2080.12
400.165	1859.12
400.389	1616.12
400.613	1502.12
400.837	1451.12
401.062	1408.12
401.286	1344.12
401.51	1383.12
401.734	1397.12
401.958	1371.12
402.182	1403.12
402.406	1396.12
402.63	1431.12
402.854	1465.12
403.078	1455.12
403.302	1516.12
403.526	1517.12
403.75	1580.12
403.974	1607.12
404.198	1576.12
404.422	1608.12
404.645	1546.12
404.869	1574.12
405.093	1533.12
405.317	1490.12
405.541	1509.12
405.765	1453.12
405.988	1465.12
406.212	1466.12
406.436	1500.12
406.66	1555.12
406.883	1529.12
407.107	1641.12
407.331	1723.12
407.555	1785.12
407.778	1752.12
408.002	1707.12
408.226	1690.12
408.449	1651.12
408.673	1545.12
408.896	1524.12
409.12	1538.12
409.344	1547.12
409.567	1522.12
409.791	1537.12
410.014	1555.12
410.238	1485.12
410.461	1480.12
410.685	1461.12
410.908	1495.12
411.132	1435.12
411.355	1389.12
411.578	1396.12
411.802	1400.12
412.025	1454.12
412.249	1459.12
412.472	1444.12
412.695	1405.12
412.919	1355.12
413.142	1331.12
413.365	1341.12
413.589	1370.12
413.812	1332.12
414.035	1315.12
414.258	1338.12
414.482	1332.12
414.705	1383.12
414.928	1382.12
415.151	1370.12
415.374	1371.12
415.597	1347.12
415.821	1272.12
416.044	1326.12
416.267	1327.12
416.49	1306.12
416.713	1322.12
416.936	1330.12
417.159	1310.12
417.382	1334.12
417.605	1291.12
417.828	1317.12
418.051	1333.12
418.274	1330.12
418.497	1302.12
418.72	1360.12
418.943	1385.12
419.166	1423.12
419.389	1572.12
419.611	1475.12
419.834	1433.12
420.057	1409.12
420.28	1383.12
420.503	1325.12
420.726	1345.12
420.948	1342.12
421.171	1340.12
421.394	1342.12
421.617	1315.12
421.839	1346.12
422.062	1315.12
422.285	1334.12
422.507	1343.12
422.73	1359.12
422.953	1347.12
423.175	1379.12
423.398	1394.12
423.621	1396.12
423.843	1428.12
424.066	1399.12
424.288	1419.12
424.511	1389.12
424.733	1401.12
424.956	1356.12
425.178	1365.12
425.401	1355.12
425.623	1314.12
425.846	1290.12
426.068	1262.12
426.291	1298.12
426.513	1288.12
426.735	1245.12
426.958	1249.12
427.18	1222.12
427.402	1210.12
427.625	1218.12
427.847	1193.12
428.069	1165.12
428.292	1193.12
428.514	1208.12
428.736	1158.12
428.958	1186.12
429.181	1153.12
429.403	1149.12
429.625	1164.12
429.847	1126.12
430.069	1190.12
430.292	1158.12
430.514	1122.12
430.736	1150.12
430.958	1162.12
431.18	1166.12
431.402	1140.12
431.624	1176.12
431.846	1188.12
432.068	1221.12
432.29	1230.12
432.512	1173.12
432.734	1189.12
432.956	1170.12
433.178	1176.12
433.4	1171.12
433.622	1186.12
433.844	1210.12
434.066	1214.12
434.287	1211.12
434.509	1246.12
434.731	1302.12
434.953	1340.12
435.175	1338.12
435.397	1321.12
435.618	1254.12
435.84	1224.12
436.062	1176.12
436.284	1176.12
436.505	1180.12
436.727	1183.12
436.949	1194.12
437.17	1162.12
437.392	1153.12
437.614	1166.12
437.835	1130.12
438.057	1118.12
438.278	1121.12
438.5	1117.12
438.721	1112.12
438.943	1141.12
439.165	1125.12
439.386	1161.12
439.608	1161.12
439.829	1161.12
440.05	1156.12
440.272	1170.12
440.493	1193.12
440.715	1182.12
440.936	1207.12
441.158	1236.12
441.379	1255.12
441.6	1307.12
441.822	1310.12
442.043	1326.12
442.264	1296.12
442.486	1274.12
442.707	1275.12
442.928	1293.12
443.149	1293.12
443.371	1293.12
443.592	1306.12
443.813	1290.12
444.034	1307.12
444.255	1368.12
444.476	1425.12
444.698	1548.12
444.919	1583.12
445.14	1632.12
445.361	1480.12
445.582	1378.12
445.803	1284.12
446.024	1257.12
446.245	1216.12
446.466	1207.12
446.687	1171.12
446.908	1177.12
447.129	1154.12
447.35	1123.12
447.571	1102.12
447.792	1108.12
448.013	1110.12
448.234	1123.12
448.455	1118.12
448.675	1076.12
448.896	1050.12
449.117	1084.12
449.338	1094.12
449.559	1069.12
449.779	1035.12
450	1051.12
450.221	1061.12
450.442	1090.12
450.662	1069.12
450.883	1068.12
451.104	1095.12
451.324	1103.12
451.545	1081.12
451.766	1088.12
451.986	1063.12
452.207	1055.12
452.428	1065.12
452.648	1055.12
452.869	1031.12
453.089	1040.12
453.31	1074.12
453.53	1063.12
453.751	1030.12
453.971	1066.12
454.192	1018.12
454.412	1008.12
454.633	1025.12
454.853	1019.12
455.073	1016.12
455.294	1002.12
455.514	998.12
455.734	1022.12
455.955	993.12
456.175	998.12
456.395	981.12
456.616	965.12
456.836	1016.12
457.056	1016.12
457.276	966.12
457.497	1003.12
457.717	998.12
457.937	999.12
458.157	1029.12
458.377	1029.12
458.598	1039.12
458.818	1076.12
459.038	1080.12
459.258	1153.12
459.478	1181.12
459.698	1225.12
459.918	1286.12
460.138	1322.12
460.358	1337.12
460.578	1377.12
460.798	1388.12
461.018	1416.12
461.238	1355.12
461.458	1400.12
461.678	1359.12
461.898	1388.12
462.118	1390.12
462.338	1462.12
462.558	1473.12
462.777	1586.12
462.997	1701.12
463.217	1884.12
463.437	1883.12
463.657	1702.12
463.876	1616.12
464.096	1663.12
464.316	1621.12
464.536	1618.12
464.755	1575.12
464.975	1490.12
465.195	1438.12
465.414	1365.12
465.634	1280.12
465.854	1194.12
466.073	1180.12
466.293	1176.12
466.512	1157.12
466.732	1148.12
466.951	1150.12
467.171	1093.12
467.391	1135.12
467.61	1118.12
467.829	1140.12
468.049	1072.12
468.268	1101.12
468.488	1074.12
468.707	1080.12
468.927	1088.12
469.146	1074.12
469.365	1100.12
469.585	1069.12
469.804	1138.12
470.023	1144.12
470.243	1160.12
470.462	1146.12
470.681	1160.12
470.901	1174.12
471.12	1152.12
471.339	1148.12
471.558	1103.12
471.777	1110.12
471.997	1093.12
472.216	1091.12
472.435	1076.12
472.654	1060.12
472.873	1040.12
473.092	1064.12
473.311	1025.12
473.53	1079.12
473.749	1055.12
473.968	1024.12
474.187	1030.12
474.406	1040.12
474.625	1078.12
474.844	1070.12
475.063	1091.12
475.282	1048.12
475.501	1047.12
475.72	1096.12
475.939	1105.12
476.158	1082.12
476.377	1101.12
476.596	1107.12
476.814	1104.12
477.033	1122.12
477.252	1130.12
477.471	1154.12
477.69	1162.12
477.908	1191.12
478.127	1236.12
478.346	1272.12
478.564	1260.12
478.783	1314.12
479.002	1336.12
479.22	1316.12
479.439	1314.12
479.658	1305.12
479.876	1320.12
480.095	1316.12
480.313	1412.12
480.532	1430.12
480.751	1446.12
480.969	1395.12
481.188	1338.12
481.406	1294.12
481.624	1242.12
481.843	1237.12
482.061	1218.12
482.28	1222.12
482.498	1206.12
482.717	1183.12
482.935	1216.12
483.153	1190.12
483.372	1214.12
483.59	1220.12
483.808	1209.12
484.027	1193.12
484.245	1210.12
484.463	1231.12
484.681	1247.12
484.9	1240.12
485.118	1250.12
485.336	1229.12
485.554	1280.12
485.772	1267.12
485.99	1294.12
486.209	1286.12
486.427	1319.12
486.645	1267.12
486.863	1288.12
487.081	1270.12
487.299	1308.12
487.517	1278.12
487.735	1231.12
487.953	1253.12
488.171	1291.12
488.389	1277.12
488.607	1231.12
488.825	1257.12
489.043	1229.12
489.261	1254.12
489.479	1272.12
489.696	1245.12
489.914	1268.12
490.132	1296.12
490.35	1290.12
490.568	1292.12
490.786	1283.12
491.003	1269.12
491.221	1288.12
491.439	1276.12
491.657	1298.12
491.874	1282.12
492.092	1298.12
492.31	1307.12
492.527	1302.12
492.745	1297.12
492.963	1308.12
493.18	1328.12
493.398	1322.12
493.615	1320.12
493.833	1334.12
494.05	1342.12
494.268	1321.12
494.485	1345.12
