Data from NiCl2@0.0625M.TitratingCurve.Agarose3%dH2O.NegLispCup.LampEnergy10.LIBS07252019_HRD10591_18-32-44-577.txt Node
Date: Thu Jul 25 18:32:44 EDT 2019
User: cochatt
Spectrometer: HR+D1059
Trigger mode: 1
Integration Time (sec): 1.000000E-1
Scans to average: 1
Electric dark correction enabled: true
Nonlinearity correction enabled: false
Boxcar width: 0
XAxis mode: Wavelengths
Number of Pixels in Spectrum: 2048
>>>>>Begin Spectral Data<<<<<
223.165	-24.69
223.4	-24.69
223.635	-24.69
223.869	-25.69
224.104	-26.69
224.338	-14.69
224.573	-8.69
224.808	-23.69
225.042	-14.69
225.277	-10.69
225.511	-0.69
225.746	4.31
225.98	23.31
226.215	9.31
226.449	23.31
226.683	17.31
226.918	37.31
227.152	35.31
227.387	39.31
227.621	35.31
227.856	31.31
228.09	42.31
228.324	57.31
228.559	51.31
228.793	83.31
229.027	168.31
229.262	156.31
229.496	155.31
229.73	182.31
229.964	165.31
230.199	193.31
230.433	189.31
230.667	189.31
230.901	194.31
231.136	205.31
231.37	193.31
231.604	212.31
231.838	202.31
232.072	225.31
232.306	218.31
232.541	225.31
232.775	229.31
233.009	230.31
233.243	222.31
233.477	219.31
233.711	231.31
233.945	245.31
234.179	217.31
234.413	220.31
234.647	219.31
234.881	241.31
235.115	234.31
235.349	225.31
235.583	214.31
235.817	244.31
236.051	243.31
236.285	250.31
236.519	226.31
236.753	245.31
236.987	252.31
237.221	268.31
237.455	260.31
237.689	255.31
237.922	261.31
238.156	276.31
238.39	264.31
238.624	273.31
238.858	285.31
239.091	289.31
239.325	287.31
239.559	308.31
239.793	300.31
240.027	281.31
240.26	305.31
240.494	275.31
240.728	302.31
240.961	291.31
241.195	308.31
241.429	321.31
241.662	307.31
241.896	322.31
242.13	332.31
242.363	307.31
242.597	325.31
242.83	306.31
243.064	333.31
243.298	331.31
243.531	340.31
243.765	357.31
243.998	374.31
244.232	351.31
244.465	354.31
244.699	360.31
244.932	365.31
245.166	377.31
245.399	389.31
245.633	372.31
245.866	371.31
246.099	375.31
246.333	383.31
246.566	372.31
246.8	376.31
247.033	380.31
247.266	380.31
247.5	385.31
247.733	405.31
247.966	402.31
248.2	393.31
248.433	409.31
248.666	409.31
248.899	408.31
249.133	411.31
249.366	407.31
249.599	414.31
249.832	425.31
250.066	423.31
250.299	429.31
250.532	450.31
250.765	436.31
250.998	429.31
251.231	439.31
251.465	451.31
251.698	450.31
251.931	474.31
252.164	439.31
252.397	455.31
252.63	426.31
252.863	489.31
253.096	458.31
253.329	470.31
253.562	475.31
253.795	490.31
254.028	499.31
254.261	489.31
254.494	487.31
254.727	479.31
254.96	484.31
255.193	503.31
255.426	492.31
255.659	491.31
255.892	515.31
256.124	503.31
256.357	510.31
256.59	491.31
256.823	535.31
257.056	528.31
257.289	505.31
257.521	543.31
257.754	539.31
257.987	513.31
258.22	521.31
258.452	548.31
258.685	542.31
258.918	555.31
259.151	567.31
259.383	555.31
259.616	551.31
259.849	556.31
260.081	573.31
260.314	571.31
260.547	568.31
260.779	553.31
261.012	578.31
261.244	576.31
261.477	583.31
261.71	596.31
261.942	583.31
262.175	607.31
262.407	593.31
262.64	588.31
262.872	577.31
263.105	598.31
263.337	610.31
263.57	604.31
263.802	608.31
264.035	612.31
264.267	603.31
264.499	601.31
264.732	615.31
264.964	632.31
265.197	627.31
265.429	648.31
265.661	626.31
265.894	636.31
266.126	662.31
266.358	628.31
266.591	645.31
266.823	649.31
267.055	646.31
267.287	647.31
267.52	659.31
267.752	657.31
267.984	662.31
268.216	670.31
268.448	682.31
268.681	685.31
268.913	678.31
269.145	667.31
269.377	697.31
269.609	683.31
269.841	685.31
270.073	674.31
270.306	685.31
270.538	703.31
270.77	658.31
271.002	685.31
271.234	683.31
271.466	708.31
271.698	702.31
271.93	699.31
272.162	719.31
272.394	706.31
272.626	733.31
272.858	731.31
273.09	718.31
273.322	719.31
273.553	728.31
273.785	730.31
274.017	738.31
274.249	774.31
274.481	778.31
274.713	773.31
274.945	754.31
275.176	763.31
275.408	780.31
275.64	787.31
275.872	783.31
276.104	765.31
276.335	760.31
276.567	751.31
276.799	765.31
277.031	798.31
277.262	778.31
277.494	790.31
277.726	804.31
277.957	785.31
278.189	801.31
278.421	786.31
278.652	798.31
278.884	798.31
279.115	801.31
279.347	819.31
279.579	833.31
279.81	831.31
280.042	813.31
280.273	828.31
280.505	850.31
280.736	838.31
280.968	850.31
281.199	842.31
281.431	832.31
281.662	851.31
281.894	865.31
282.125	862.31
282.356	866.31
282.588	861.31
282.819	876.31
283.051	873.31
283.282	878.31
283.513	887.31
283.745	868.31
283.976	862.31
284.207	891.31
284.439	875.31
284.67	882.31
284.901	901.31
285.132	875.31
285.364	903.31
285.595	903.31
285.826	883.31
286.057	913.31
286.288	913.31
286.52	914.31
286.751	940.31
286.982	918.31
287.213	892.31
287.444	937.31
287.675	937.31
287.906	941.31
288.138	966.31
288.369	968.31
288.6	984.31
288.831	959.31
289.062	911.31
289.293	945.31
289.524	929.31
289.755	947.31
289.986	941.31
290.217	958.31
290.448	971.31
290.679	949.31
290.91	985.31
291.141	942.31
291.371	935.31
291.602	954.31
291.833	958.31
292.064	954.31
292.295	988.31
292.526	965.31
292.757	967.31
292.987	971.31
293.218	958.31
293.449	958.31
293.68	955.31
293.91	981.31
294.141	942.31
294.372	987.31
294.603	980.31
294.833	960.31
295.064	992.31
295.295	998.31
295.525	1001.31
295.756	966.31
295.987	963.31
296.217	999.31
296.448	997.31
296.679	1012.31
296.909	1023.31
297.14	1012.31
297.37	1009.31
297.601	1029.31
297.831	1034.31
298.062	1021.31
298.292	1023.31
298.523	1097.31
298.753	1063.31
298.984	1045.31
299.214	1041.31
299.445	1073.31
299.675	1050.31
299.905	1066.31
300.136	1071.31
300.366	1043.31
300.597	1100.31
300.827	1091.31
301.057	1113.31
301.288	1082.31
301.518	1085.31
301.748	1112.31
301.979	1130.31
302.209	1148.31
302.439	1122.31
302.669	1116.31
302.9	1089.31
303.13	1092.31
303.36	1096.31
303.59	1108.31
303.82	1097.31
304.051	1090.31
304.281	1127.31
304.511	1085.31
304.741	1088.31
304.971	1114.31
305.201	1105.31
305.431	1104.31
305.661	1090.31
305.891	1097.31
306.121	1070.31
306.352	1081.31
306.582	1122.31
306.812	1057.31
307.042	1108.31
307.272	1120.31
307.502	1087.31
307.731	1085.31
307.961	1065.31
308.191	1094.31
308.421	1067.31
308.651	1085.31
308.881	1098.31
309.111	1089.31
309.341	1091.31
309.571	1122.31
309.8	1110.31
310.03	1119.31
310.26	1118.31
310.49	1110.31
310.72	1123.31
310.949	1129.31
311.179	1141.31
311.409	1109.31
311.639	1129.31
311.868	1107.31
312.098	1130.31
312.328	1130.31
312.557	1156.31
312.787	1153.31
313.017	1137.31
313.246	1183.31
313.476	1179.31
313.706	1173.31
313.935	1189.31
314.165	1210.31
314.394	1177.31
314.624	1205.31
314.853	1165.31
315.083	1165.31
315.312	1183.31
315.542	1210.31
315.771	1175.31
316.001	1156.31
316.23	1201.31
316.46	1153.31
316.689	1165.31
316.919	1198.31
317.148	1203.31
317.377	1170.31
317.607	1176.31
317.836	1171.31
318.065	1168.31
318.295	1147.31
318.524	1181.31
318.753	1175.31
318.983	1183.31
319.212	1150.31
319.441	1187.31
319.67	1171.31
319.9	1146.31
320.129	1186.31
320.358	1176.31
320.587	1211.31
320.816	1155.31
321.046	1152.31
321.275	1176.31
321.504	1185.31
321.733	1171.31
321.962	1202.31
322.191	1193.31
322.42	1201.31
322.649	1180.31
322.878	1194.31
323.108	1175.31
323.337	1221.31
323.566	1201.31
323.795	1205.31
324.024	1223.31
324.253	1204.31
324.482	1215.31
324.71	1223.31
324.939	1201.31
325.168	1219.31
325.397	1239.31
325.626	1249.31
325.855	1266.31
326.084	1279.31
326.313	1263.31
326.542	1269.31
326.77	1303.31
326.999	1279.31
327.228	1306.31
327.457	1250.31
327.686	1259.31
327.914	1273.31
328.143	1268.31
328.372	1243.31
328.6	1259.31
328.829	1288.31
329.058	1305.31
329.287	1280.31
329.515	1305.31
329.744	1289.31
329.972	1302.31
330.201	1321.31
330.43	1326.31
330.658	1360.31
330.887	1313.31
331.115	1336.31
331.344	1348.31
331.572	1362.31
331.801	1403.31
332.03	1418.31
332.258	1391.31
332.486	1454.31
332.715	1468.31
332.943	1539.31
333.172	1551.31
333.4	1604.31
333.629	1623.31
333.857	1662.31
334.085	1645.31
334.314	1635.31
334.542	1630.31
334.771	1622.31
334.999	1613.31
335.227	1576.31
335.455	1598.31
335.684	1597.31
335.912	1549.31
336.14	1550.31
336.369	1551.31
336.597	1574.31
336.825	1531.31
337.053	1543.31
337.281	1509.31
337.51	1478.31
337.738	1466.31
337.966	1443.31
338.194	1451.31
338.422	1422.31
338.65	1388.31
338.878	1413.31
339.106	1390.31
339.334	1395.31
339.562	1389.31
339.79	1366.31
340.018	1346.31
340.246	1372.31
340.474	1363.31
340.702	1342.31
340.93	1316.31
341.158	1366.31
341.386	1362.31
341.614	1381.31
341.842	1359.31
342.07	1331.31
342.298	1307.31
342.526	1347.31
342.754	1347.31
342.981	1329.31
343.209	1352.31
343.437	1404.31
343.665	1483.31
343.893	1552.31
344.12	1595.31
344.348	1567.31
344.576	1514.31
344.804	1498.31
345.031	1402.31
345.259	1380.31
345.487	1377.31
345.714	1345.31
345.942	1363.31
346.17	1341.31
346.397	1293.31
346.625	1309.31
346.853	1327.31
347.08	1306.31
347.308	1306.31
347.535	1304.31
347.763	1299.31
347.99	1319.31
348.218	1325.31
348.445	1345.31
348.673	1281.31
348.9	1270.31
349.128	1280.31
349.355	1269.31
349.583	1286.31
349.81	1253.31
350.037	1251.31
350.265	1275.31
350.492	1257.31
350.72	1265.31
350.947	1235.31
351.174	1251.31
351.402	1252.31
351.629	1259.31
351.856	1255.31
352.083	1265.31
352.311	1252.31
352.538	1257.31
352.765	1257.31
352.992	1239.31
353.22	1223.31
353.447	1255.31
353.674	1253.31
353.901	1223.31
354.128	1245.31
354.355	1227.31
354.583	1236.31
354.81	1207.31
355.037	1238.31
355.264	1226.31
355.491	1247.31
355.718	1232.31
355.945	1226.31
356.172	1262.31
356.399	1232.31
356.626	1235.31
356.853	1275.31
357.08	1252.31
357.307	1241.31
357.534	1250.31
357.761	1257.31
357.988	1273.31
358.215	1249.31
358.441	1234.31
358.668	1234.31
358.895	1235.31
359.122	1251.31
359.349	1212.31
359.576	1238.31
359.802	1249.31
360.029	1236.31
360.256	1251.31
360.483	1266.31
360.709	1256.31
360.936	1245.31
361.163	1267.31
361.39	1228.31
361.616	1258.31
361.843	1256.31
362.07	1256.31
362.296	1246.31
362.523	1291.31
362.749	1253.31
362.976	1253.31
363.203	1274.31
363.429	1231.31
363.656	1268.31
363.882	1253.31
364.109	1241.31
364.335	1210.31
364.562	1216.31
364.788	1226.31
365.015	1225.31
365.241	1245.31
365.468	1234.31
365.694	1244.31
365.92	1225.31
366.147	1247.31
366.373	1254.31
366.599	1252.31
366.826	1241.31
367.052	1241.31
367.278	1241.31
367.505	1246.31
367.731	1283.31
367.957	1239.31
368.184	1252.31
368.41	1274.31
368.636	1269.31
368.862	1288.31
369.089	1291.31
369.315	1284.31
369.541	1250.31
369.767	1319.31
369.993	1321.31
370.219	1291.31
370.445	1286.31
370.672	1305.31
370.898	1367.31
371.124	1338.31
371.35	1381.31
371.576	1347.31
371.802	1354.31
372.028	1379.31
372.254	1358.31
372.48	1358.31
372.706	1416.31
372.932	1401.31
373.158	1393.31
373.384	1368.31
373.61	1365.31
373.835	1362.31
374.061	1354.31
374.287	1388.31
374.513	1415.31
374.739	1415.31
374.965	1425.31
375.191	1478.31
375.416	1467.31
375.642	1438.31
375.868	1437.31
376.094	1427.31
376.319	1356.31
376.545	1386.31
376.771	1356.31
376.997	1365.31
377.222	1366.31
377.448	1342.31
377.674	1389.31
377.899	1342.31
378.125	1333.31
378.35	1331.31
378.576	1327.31
378.802	1318.31
379.027	1337.31
379.253	1352.31
379.478	1331.31
379.704	1294.31
379.929	1365.31
380.155	1336.31
380.38	1319.31
380.606	1361.31
380.831	1333.31
381.057	1362.31
381.282	1309.31
381.507	1369.31
381.733	1388.31
381.958	1393.31
382.184	1398.31
382.409	1367.31
382.634	1375.31
382.86	1433.31
383.085	1441.31
383.31	1430.31
383.535	1455.31
383.761	1471.31
383.986	1484.31
384.211	1499.31
384.436	1534.31
384.662	1526.31
384.887	1595.31
385.112	1589.31
385.337	1608.31
385.562	1551.31
385.787	1592.31
386.013	1677.31
386.238	1629.31
386.463	1625.31
386.688	1650.31
386.913	1613.31
387.138	1591.31
387.363	1607.31
387.588	1594.31
387.813	1585.31
388.038	1585.31
388.263	1610.31
388.488	1629.31
388.713	1590.31
388.938	1607.31
389.163	1605.31
389.387	1566.31
389.612	1589.31
389.837	1569.31
390.062	1570.31
390.287	1607.31
390.512	1580.31
390.736	1621.31
390.961	1662.31
391.186	1650.31
391.411	1637.31
391.636	1715.31
391.86	1793.31
392.085	1814.31
392.31	1792.31
392.534	1762.31
392.759	1725.31
392.984	1689.31
393.208	1694.31
393.433	1806.31
393.658	1815.31
393.882	1729.31
394.107	1688.31
394.331	1693.31
394.556	1723.31
394.78	1750.31
395.005	1708.31
395.229	1751.31
395.454	1797.31
395.678	1801.31
395.903	1826.31
396.127	1784.31
396.352	1771.31
396.576	1730.31
396.801	1749.31
397.025	1748.31
397.249	1811.31
397.474	1835.31
397.698	1821.31
397.922	1825.31
398.147	1788.31
398.371	1841.31
398.595	1947.31
398.82	1995.31
399.044	2136.31
399.268	2259.31
399.492	2560.31
399.717	2760.31
399.941	2807.31
400.165	2628.31
400.389	2409.31
400.613	2267.31
400.837	2146.31
401.062	2075.31
401.286	2052.31
401.51	2052.31
401.734	2004.31
401.958	2048.31
402.182	2023.31
402.406	2053.31
402.63	2099.31
402.854	2063.31
403.078	2129.31
403.302	2126.31
403.526	2166.31
403.75	2179.31
403.974	2210.31
404.198	2166.31
404.422	2225.31
404.645	2180.31
404.869	2156.31
405.093	2182.31
405.317	2156.31
405.541	2121.31
405.765	2153.31
405.988	2163.31
406.212	2221.31
406.436	2158.31
406.66	2219.31
406.883	2238.31
407.107	2403.31
407.331	2444.31
407.555	2510.31
407.778	2469.31
408.002	2509.31
408.226	2442.31
408.449	2395.31
408.673	2323.31
408.896	2293.31
409.12	2198.31
409.344	2222.31
409.567	2237.31
409.791	2208.31
410.014	2216.31
410.238	2206.31
410.461	2226.31
410.685	2180.31
410.908	2126.31
411.132	2134.31
411.355	2076.31
411.578	2135.31
411.802	2073.31
412.025	2081.31
412.249	2125.31
412.472	2103.31
412.695	2050.31
412.919	1993.31
413.142	2011.31
413.365	1978.31
413.589	2008.31
413.812	1997.31
414.035	1977.31
414.258	1981.31
414.482	2008.31
414.705	2013.31
414.928	2007.31
415.151	2009.31
415.374	1983.31
415.597	1985.31
415.821	1917.31
416.044	1899.31
416.267	1919.31
416.49	1931.31
416.713	1943.31
416.936	1939.31
417.159	1918.31
417.382	1921.31
417.605	1873.31
417.828	1920.31
418.051	1923.31
418.274	1898.31
418.497	1935.31
418.72	2007.31
418.943	1965.31
419.166	2085.31
419.389	2227.31
419.611	2174.31
419.834	2130.31
420.057	2023.31
420.28	1988.31
420.503	1912.31
420.726	1898.31
420.948	1926.31
421.171	1917.31
421.394	1936.31
421.617	1898.31
421.839	1925.31
422.062	1901.31
422.285	1869.31
422.507	1932.31
422.73	1945.31
422.953	1947.31
423.175	1956.31
423.398	1995.31
423.621	1973.31
423.843	1978.31
424.066	1996.31
424.288	2004.31
424.511	1946.31
424.733	1954.31
424.956	1944.31
425.178	1955.31
425.401	1898.31
425.623	1967.31
425.846	1923.31
426.068	1906.31
426.291	1879.31
426.513	1875.31
426.735	1858.31
426.958	1879.31
427.18	1823.31
427.402	1815.31
427.625	1800.31
427.847	1779.31
428.069	1760.31
428.292	1784.31
428.514	1747.31
428.736	1743.31
428.958	1813.31
429.181	1695.31
429.403	1717.31
429.625	1699.31
429.847	1673.31
430.069	1710.31
430.292	1722.31
430.514	1740.31
430.736	1748.31
430.958	1758.31
431.18	1720.31
431.402	1729.31
431.624	1745.31
431.846	1787.31
432.068	1754.31
432.29	1781.31
432.512	1725.31
432.734	1762.31
432.956	1751.31
433.178	1764.31
433.4	1795.31
433.622	1797.31
433.844	1812.31
434.066	1808.31
434.287	1783.31
434.509	1825.31
434.731	1907.31
434.953	1925.31
435.175	1995.31
435.397	1948.31
435.618	1890.31
435.84	1830.31
436.062	1781.31
436.284	1746.31
436.505	1742.31
436.727	1773.31
436.949	1836.31
437.17	1759.31
437.392	1764.31
437.614	1710.31
437.835	1690.31
438.057	1698.31
438.278	1673.31
438.5	1673.31
438.721	1680.31
438.943	1685.31
439.165	1697.31
439.386	1682.31
439.608	1734.31
439.829	1711.31
440.05	1718.31
440.272	1693.31
440.493	1765.31
440.715	1751.31
440.936	1788.31
441.158	1814.31
441.379	1787.31
441.6	1930.31
441.822	1876.31
442.043	1923.31
442.264	1906.31
442.486	1841.31
442.707	1900.31
442.928	1866.31
443.149	1883.31
443.371	1883.31
443.592	1882.31
443.813	1921.31
444.034	1942.31
444.255	2005.31
444.476	2035.31
444.698	2115.31
444.919	2115.31
445.14	2259.31
445.361	2067.31
445.582	1969.31
445.803	1873.31
446.024	1798.31
446.245	1830.31
446.466	1816.31
446.687	1746.31
446.908	1756.31
447.129	1680.31
447.35	1622.31
447.571	1653.31
447.792	1619.31
448.013	1608.31
448.234	1598.31
448.455	1629.31
448.675	1592.31
448.896	1595.31
449.117	1570.31
449.338	1555.31
449.559	1569.31
449.779	1559.31
450	1569.31
450.221	1589.31
450.442	1559.31
450.662	1560.31
450.883	1565.31
451.104	1623.31
451.324	1563.31
451.545	1566.31
451.766	1550.31
451.986	1578.31
452.207	1576.31
452.428	1500.31
452.648	1545.31
452.869	1493.31
453.089	1510.31
453.31	1547.31
453.53	1521.31
453.751	1473.31
453.971	1523.31
454.192	1505.31
454.412	1448.31
454.633	1478.31
454.853	1482.31
455.073	1477.31
455.294	1471.31
455.514	1414.31
455.734	1505.31
455.955	1443.31
456.175	1458.31
456.395	1462.31
456.616	1435.31
456.836	1445.31
457.056	1480.31
457.276	1435.31
457.497	1494.31
457.717	1489.31
457.937	1519.31
458.157	1509.31
458.377	1517.31
458.598	1571.31
458.818	1591.31
459.038	1647.31
459.258	1664.31
459.478	1781.31
459.698	1761.31
459.918	1818.31
460.138	1892.31
460.358	1935.31
460.578	1945.31
460.798	1991.31
461.018	2046.31
461.238	1979.31
461.458	2022.31
461.678	1957.31
461.898	2034.31
462.118	2024.31
462.338	2069.31
462.558	2129.31
462.777	2211.31
462.997	2372.31
463.217	2493.31
463.437	2513.31
463.657	2413.31
463.876	2232.31
464.096	2277.31
464.316	2250.31
464.536	2307.31
464.755	2206.31
464.975	2156.31
465.195	2007.31
465.414	1966.31
465.634	1820.31
465.854	1791.31
466.073	1764.31
466.293	1756.31
466.512	1662.31
466.732	1686.31
466.951	1653.31
467.171	1612.31
467.391	1654.31
467.61	1616.31
467.829	1639.31
468.049	1649.31
468.268	1587.31
468.488	1582.31
468.707	1585.31
468.927	1601.31
469.146	1607.31
469.365	1585.31
469.585	1574.31
469.804	1645.31
470.023	1657.31
470.243	1689.31
470.462	1649.31
470.681	1666.31
470.901	1702.31
471.12	1692.31
471.339	1678.31
471.558	1643.31
471.777	1625.31
471.997	1634.31
472.216	1620.31
472.435	1602.31
472.654	1601.31
472.873	1575.31
473.092	1571.31
473.311	1597.31
473.53	1604.31
473.749	1567.31
473.968	1607.31
474.187	1553.31
474.406	1541.31
474.625	1591.31
474.844	1582.31
475.063	1579.31
475.282	1587.31
475.501	1586.31
475.72	1629.31
475.939	1609.31
476.158	1647.31
476.377	1658.31
476.596	1679.31
476.814	1697.31
477.033	1657.31
477.252	1713.31
477.471	1763.31
477.69	1766.31
477.908	1837.31
478.127	1865.31
478.346	1860.31
478.564	1867.31
478.783	1933.31
479.002	1969.31
479.22	1966.31
479.439	1972.31
479.658	1955.31
479.876	1963.31
480.095	2016.31
480.313	2055.31
480.532	2042.31
480.751	2066.31
480.969	2060.31
481.188	1977.31
481.406	1939.31
481.624	1921.31
481.843	1927.31
482.061	1918.31
482.28	1891.31
482.498	1911.31
482.717	1881.31
482.935	1901.31
483.153	1923.31
483.372	1927.31
483.59	1887.31
483.808	1961.31
484.027	1937.31
484.245	1965.31
484.463	1959.31
484.681	1970.31
484.9	2011.31
485.118	2010.31
485.336	1972.31
485.554	2019.31
485.772	2035.31
485.99	2010.31
486.209	2016.31
486.427	2020.31
486.645	1993.31
486.863	1971.31
487.081	2033.31
487.299	2002.31
487.517	2003.31
487.735	2016.31
487.953	1994.31
488.171	1966.31
488.389	1984.31
488.607	2012.31
488.825	1969.31
489.043	1967.31
489.261	1944.31
489.479	1988.31
489.696	1973.31
