Data from NiCl2@0.5M.TitratingCurve.Agarose3%dH2O.NegLispCup.LampEnergy10.LIBS07252019_HRD10591_18-19-40-571.txt Node
Date: Thu Jul 25 18:19:40 EDT 2019
User: cochatt
Spectrometer: HR+D1059
Trigger mode: 1
Integration Time (sec): 1.000000E-1
Scans to average: 1
Electric dark correction enabled: true
Nonlinearity correction enabled: false
Boxcar width: 0
XAxis mode: Wavelengths
Number of Pixels in Spectrum: 2048
>>>>>Begin Spectral Data<<<<<
223.165	-4.81
223.4	-4.81
223.635	-4.81
223.869	-21.81
224.104	-30.81
224.338	-17.81
224.573	-19.81
224.808	-17.81
225.042	6.19
225.277	-16.81
225.511	-6.81
225.746	11.19
225.98	15.19
226.215	14.19
226.449	25.19
226.683	23.19
226.918	23.19
227.152	18.19
227.387	39.19
227.621	45.19
227.856	31.19
228.09	46.19
228.324	55.19
228.559	52.19
228.793	58.19
229.027	90.19
229.262	100.19
229.496	97.19
229.73	86.19
229.964	101.19
230.199	133.19
230.433	122.19
230.667	114.19
230.901	123.19
231.136	102.19
231.37	113.19
231.604	122.19
231.838	133.19
232.072	108.19
232.306	125.19
232.541	122.19
232.775	131.19
233.009	108.19
233.243	122.19
233.477	130.19
233.711	114.19
233.945	125.19
234.179	147.19
234.413	133.19
234.647	137.19
234.881	127.19
235.115	125.19
235.349	117.19
235.583	123.19
235.817	130.19
236.051	132.19
236.285	122.19
236.519	130.19
236.753	125.19
236.987	132.19
237.221	139.19
237.455	145.19
237.689	140.19
237.922	145.19
238.156	139.19
238.39	137.19
238.624	156.19
238.858	142.19
239.091	139.19
239.325	157.19
239.559	141.19
239.793	130.19
240.027	154.19
240.26	130.19
240.494	143.19
240.728	150.19
240.961	158.19
241.195	149.19
241.429	154.19
241.662	168.19
241.896	150.19
242.13	165.19
242.363	153.19
242.597	155.19
242.83	177.19
243.064	141.19
243.298	156.19
243.531	148.19
243.765	165.19
243.998	163.19
244.232	167.19
244.465	162.19
244.699	166.19
244.932	169.19
245.166	165.19
245.399	146.19
245.633	180.19
245.866	170.19
246.099	163.19
246.333	171.19
246.566	166.19
246.8	173.19
247.033	181.19
247.266	187.19
247.5	171.19
247.733	187.19
247.966	182.19
248.2	176.19
248.433	188.19
248.666	194.19
248.899	186.19
249.133	186.19
249.366	202.19
249.599	194.19
249.832	195.19
250.066	202.19
250.299	181.19
250.532	209.19
250.765	198.19
250.998	173.19
251.231	206.19
251.465	218.19
251.698	208.19
251.931	204.19
252.164	212.19
252.397	206.19
252.63	211.19
252.863	196.19
253.096	200.19
253.329	210.19
253.562	222.19
253.795	191.19
254.028	212.19
254.261	204.19
254.494	214.19
254.727	214.19
254.96	197.19
255.193	196.19
255.426	207.19
255.659	221.19
255.892	223.19
256.124	214.19
256.357	238.19
256.59	227.19
256.823	222.19
257.056	217.19
257.289	233.19
257.521	216.19
257.754	218.19
257.987	230.19
258.22	230.19
258.452	235.19
258.685	213.19
258.918	229.19
259.151	235.19
259.383	225.19
259.616	224.19
259.849	258.19
260.081	245.19
260.314	255.19
260.547	229.19
260.779	248.19
261.012	235.19
261.244	242.19
261.477	244.19
261.71	262.19
261.942	253.19
262.175	253.19
262.407	251.19
262.64	260.19
262.872	257.19
263.105	246.19
263.337	261.19
263.57	254.19
263.802	260.19
264.035	269.19
264.267	246.19
264.499	264.19
264.732	281.19
264.964	264.19
265.197	251.19
265.429	272.19
265.661	268.19
265.894	278.19
266.126	277.19
266.358	280.19
266.591	263.19
266.823	279.19
267.055	283.19
267.287	269.19
267.52	266.19
267.752	294.19
267.984	288.19
268.216	279.19
268.448	282.19
268.681	284.19
268.913	279.19
269.145	288.19
269.377	280.19
269.609	285.19
269.841	293.19
270.073	285.19
270.306	278.19
270.538	296.19
270.77	287.19
271.002	289.19
271.234	281.19
271.466	292.19
271.698	295.19
271.93	297.19
272.162	298.19
272.394	310.19
272.626	314.19
272.858	293.19
273.09	306.19
273.322	293.19
273.553	293.19
273.785	310.19
274.017	289.19
274.249	308.19
274.481	302.19
274.713	303.19
274.945	298.19
275.176	311.19
275.408	327.19
275.64	323.19
275.872	325.19
276.104	323.19
276.335	318.19
276.567	323.19
276.799	311.19
277.031	321.19
277.262	320.19
277.494	319.19
277.726	316.19
277.957	329.19
278.189	332.19
278.421	317.19
278.652	335.19
278.884	321.19
279.115	339.19
279.347	329.19
279.579	354.19
279.81	329.19
280.042	333.19
280.273	325.19
280.505	346.19
280.736	335.19
280.968	352.19
281.199	351.19
281.431	345.19
281.662	333.19
281.894	345.19
282.125	348.19
282.356	355.19
282.588	336.19
282.819	348.19
283.051	358.19
283.282	357.19
283.513	367.19
283.745	350.19
283.976	358.19
284.207	350.19
284.439	359.19
284.67	353.19
284.901	350.19
285.132	352.19
285.364	355.19
285.595	371.19
285.826	377.19
286.057	386.19
286.288	382.19
286.52	378.19
286.751	377.19
286.982	365.19
287.213	380.19
287.444	377.19
287.675	381.19
287.906	372.19
288.138	377.19
288.369	372.19
288.6	379.19
288.831	375.19
289.062	381.19
289.293	387.19
289.524	402.19
289.755	370.19
289.986	390.19
290.217	399.19
290.448	392.19
290.679	393.19
290.91	386.19
291.141	383.19
291.371	414.19
291.602	396.19
291.833	382.19
292.064	401.19
292.295	397.19
292.526	379.19
292.757	386.19
292.987	377.19
293.218	386.19
293.449	383.19
293.68	404.19
293.91	403.19
294.141	397.19
294.372	395.19
294.603	404.19
294.833	412.19
295.064	419.19
295.295	417.19
295.525	416.19
295.756	396.19
295.987	416.19
296.217	422.19
296.448	394.19
296.679	441.19
296.909	426.19
297.14	395.19
297.37	381.19
297.601	421.19
297.831	414.19
298.062	440.19
298.292	435.19
298.523	434.19
298.753	427.19
298.984	444.19
299.214	417.19
299.445	445.19
299.675	409.19
299.905	424.19
300.136	431.19
300.366	425.19
300.597	456.19
300.827	462.19
301.057	458.19
301.288	447.19
301.518	456.19
301.748	463.19
301.979	441.19
302.209	459.19
302.439	462.19
302.669	435.19
302.9	439.19
303.13	435.19
303.36	462.19
303.59	443.19
303.82	475.19
304.051	460.19
304.281	462.19
304.511	431.19
304.741	465.19
304.971	446.19
305.201	450.19
305.431	465.19
305.661	476.19
305.891	447.19
306.121	459.19
306.352	448.19
306.582	439.19
306.812	457.19
307.042	442.19
307.272	455.19
307.502	437.19
307.731	434.19
307.961	438.19
308.191	453.19
308.421	449.19
308.651	452.19
308.881	461.19
309.111	440.19
309.341	449.19
309.571	465.19
309.8	439.19
310.03	454.19
310.26	452.19
310.49	466.19
310.72	445.19
310.949	455.19
311.179	465.19
311.409	456.19
311.639	458.19
311.868	458.19
312.098	471.19
312.328	475.19
312.557	469.19
312.787	458.19
313.017	469.19
313.246	472.19
313.476	494.19
313.706	509.19
313.935	475.19
314.165	485.19
314.394	482.19
314.624	463.19
314.853	499.19
315.083	486.19
315.312	473.19
315.542	478.19
315.771	493.19
316.001	482.19
316.23	493.19
316.46	506.19
316.689	486.19
316.919	499.19
317.148	483.19
317.377	494.19
317.607	479.19
317.836	469.19
318.065	478.19
318.295	484.19
318.524	492.19
318.753	526.19
318.983	494.19
319.212	483.19
319.441	471.19
319.67	484.19
319.9	483.19
320.129	478.19
320.358	471.19
320.587	469.19
320.816	497.19
321.046	493.19
321.275	464.19
321.504	477.19
321.733	498.19
321.962	489.19
322.191	497.19
322.42	497.19
322.649	487.19
322.878	476.19
323.108	505.19
323.337	507.19
323.566	491.19
323.795	479.19
324.024	506.19
324.253	497.19
324.482	511.19
324.71	491.19
324.939	502.19
325.168	489.19
325.397	503.19
325.626	505.19
325.855	519.19
326.084	505.19
326.313	546.19
326.542	535.19
326.77	536.19
326.999	521.19
327.228	512.19
327.457	537.19
327.686	511.19
327.914	532.19
328.143	506.19
328.372	531.19
328.6	535.19
328.829	538.19
329.058	514.19
329.287	525.19
329.515	522.19
329.744	533.19
329.972	527.19
330.201	537.19
330.43	542.19
330.658	547.19
330.887	517.19
331.115	541.19
331.344	555.19
331.572	566.19
331.801	565.19
332.03	565.19
332.258	575.19
332.486	572.19
332.715	601.19
332.943	629.19
333.172	607.19
333.4	622.19
333.629	639.19
333.857	628.19
334.085	661.19
334.314	633.19
334.542	619.19
334.771	649.19
334.999	636.19
335.227	638.19
335.455	648.19
335.684	633.19
335.912	624.19
336.14	622.19
336.369	631.19
336.597	634.19
336.825	615.19
337.053	637.19
337.281	605.19
337.51	609.19
337.738	580.19
337.966	605.19
338.194	603.19
338.422	580.19
338.65	577.19
338.878	575.19
339.106	557.19
339.334	591.19
339.562	572.19
339.79	558.19
340.018	549.19
340.246	535.19
340.474	556.19
340.702	543.19
340.93	560.19
341.158	563.19
341.386	571.19
341.614	584.19
341.842	568.19
342.07	558.19
342.298	544.19
342.526	547.19
342.754	546.19
342.981	568.19
343.209	554.19
343.437	586.19
343.665	591.19
343.893	607.19
344.12	646.19
344.348	651.19
344.576	601.19
344.804	598.19
345.031	590.19
345.259	559.19
345.487	561.19
345.714	550.19
345.942	555.19
346.17	580.19
346.397	556.19
346.625	553.19
346.853	546.19
347.08	543.19
347.308	539.19
347.535	549.19
347.763	558.19
347.99	533.19
348.218	530.19
348.445	510.19
348.673	523.19
348.9	501.19
349.128	534.19
349.355	553.19
349.583	539.19
349.81	523.19
350.037	489.19
350.265	531.19
350.492	498.19
350.72	508.19
350.947	514.19
351.174	523.19
351.402	531.19
351.629	538.19
351.856	533.19
352.083	512.19
352.311	523.19
352.538	522.19
352.765	508.19
352.992	499.19
353.22	498.19
353.447	495.19
353.674	493.19
353.901	509.19
354.128	501.19
354.355	505.19
354.583	494.19
354.81	492.19
355.037	485.19
355.264	501.19
355.491	507.19
355.718	490.19
355.945	519.19
356.172	483.19
356.399	487.19
356.626	501.19
356.853	512.19
357.08	515.19
357.307	521.19
357.534	515.19
357.761	499.19
357.988	502.19
358.215	497.19
358.441	508.19
358.668	481.19
358.895	490.19
359.122	497.19
359.349	531.19
359.576	524.19
359.802	517.19
360.029	501.19
360.256	486.19
360.483	493.19
360.709	494.19
360.936	494.19
361.163	499.19
361.39	497.19
361.616	486.19
361.843	491.19
362.07	527.19
362.296	546.19
362.523	505.19
362.749	489.19
362.976	493.19
363.203	519.19
363.429	490.19
363.656	501.19
363.882	491.19
364.109	502.19
364.335	491.19
364.562	472.19
364.788	476.19
365.015	486.19
365.241	472.19
365.468	486.19
365.694	471.19
365.92	485.19
366.147	495.19
366.373	483.19
366.599	505.19
366.826	493.19
367.052	473.19
367.278	505.19
367.505	499.19
367.731	482.19
367.957	481.19
368.184	491.19
368.41	492.19
368.636	505.19
368.862	493.19
369.089	495.19
369.315	494.19
369.541	494.19
369.767	510.19
369.993	502.19
370.219	502.19
370.445	510.19
370.672	539.19
370.898	539.19
371.124	511.19
371.35	517.19
371.576	524.19
371.802	524.19
372.028	514.19
372.254	513.19
372.48	524.19
372.706	545.19
372.932	538.19
373.158	535.19
373.384	516.19
373.61	531.19
373.835	517.19
374.061	527.19
374.287	531.19
374.513	533.19
374.739	550.19
374.965	565.19
375.191	567.19
375.416	541.19
375.642	527.19
375.868	527.19
376.094	513.19
376.319	506.19
376.545	537.19
376.771	499.19
376.997	500.19
377.222	517.19
377.448	532.19
377.674	527.19
377.899	507.19
378.125	534.19
378.35	515.19
378.576	516.19
378.802	505.19
379.027	511.19
379.253	524.19
379.478	506.19
379.704	516.19
379.929	497.19
380.155	501.19
380.38	492.19
380.606	501.19
380.831	505.19
381.057	524.19
381.282	521.19
381.507	514.19
381.733	507.19
381.958	515.19
382.184	500.19
382.409	529.19
382.634	521.19
382.86	531.19
383.085	521.19
383.31	561.19
383.535	540.19
383.761	545.19
383.986	557.19
384.211	557.19
384.436	564.19
384.662	561.19
384.887	564.19
385.112	573.19
385.337	603.19
385.562	586.19
385.787	609.19
386.013	601.19
386.238	601.19
386.463	587.19
386.688	595.19
386.913	599.19
387.138	582.19
387.363	594.19
387.588	576.19
387.813	594.19
388.038	576.19
388.263	591.19
388.488	564.19
388.713	583.19
388.938	580.19
389.163	583.19
389.387	579.19
389.612	567.19
389.837	577.19
390.062	581.19
390.287	545.19
390.512	580.19
390.736	581.19
390.961	603.19
391.186	615.19
391.411	625.19
391.636	633.19
391.86	642.19
392.085	643.19
392.31	644.19
392.534	622.19
392.759	601.19
392.984	629.19
393.208	586.19
393.433	617.19
393.658	626.19
393.882	615.19
394.107	623.19
394.331	612.19
394.556	614.19
394.78	637.19
395.005	612.19
395.229	643.19
395.454	630.19
395.678	653.19
395.903	634.19
396.127	639.19
396.352	630.19
396.576	617.19
396.801	645.19
397.025	634.19
397.249	647.19
397.474	684.19
397.698	638.19
397.922	663.19
398.147	647.19
398.371	677.19
398.595	689.19
398.82	706.19
399.044	759.19
399.268	813.19
399.492	914.19
399.717	975.19
399.941	963.19
400.165	908.19
400.389	838.19
400.613	806.19
400.837	737.19
401.062	707.19
401.286	732.19
401.51	723.19
401.734	705.19
401.958	720.19
402.182	726.19
402.406	716.19
402.63	737.19
402.854	747.19
403.078	757.19
403.302	752.19
403.526	778.19
403.75	804.19
403.974	787.19
404.198	794.19
404.422	802.19
404.645	785.19
404.869	791.19
405.093	806.19
405.317	757.19
405.541	790.19
405.765	789.19
405.988	771.19
406.212	763.19
406.436	801.19
406.66	800.19
406.883	829.19
407.107	847.19
407.331	889.19
407.555	890.19
407.778	874.19
408.002	876.19
408.226	865.19
408.449	833.19
408.673	850.19
408.896	811.19
409.12	826.19
409.344	806.19
409.567	813.19
409.791	831.19
410.014	798.19
410.238	799.19
410.461	805.19
410.685	759.19
410.908	766.19
411.132	754.19
411.355	761.19
411.578	771.19
411.802	762.19
412.025	748.19
412.249	777.19
412.472	764.19
412.695	737.19
412.919	749.19
413.142	723.19
413.365	747.19
413.589	738.19
413.812	727.19
414.035	733.19
414.258	720.19
414.482	714.19
414.705	741.19
414.928	775.19
415.151	749.19
415.374	735.19
415.597	735.19
415.821	701.19
416.044	725.19
416.267	726.19
416.49	742.19
416.713	725.19
416.936	707.19
417.159	706.19
417.382	728.19
417.605	693.19
417.828	729.19
418.051	718.19
418.274	724.19
418.497	714.19
418.72	745.19
418.943	747.19
419.166	797.19
419.389	813.19
419.611	800.19
419.834	752.19
420.057	790.19
420.28	750.19
420.503	714.19
420.726	733.19
420.948	741.19
421.171	759.19
421.394	737.19
421.617	734.19
421.839	730.19
422.062	747.19
422.285	720.19
422.507	746.19
422.73	726.19
422.953	757.19
423.175	735.19
423.398	748.19
423.621	735.19
423.843	788.19
424.066	748.19
424.288	773.19
424.511	784.19
424.733	757.19
424.956	755.19
425.178	754.19
425.401	743.19
425.623	761.19
425.846	727.19
426.068	737.19
426.291	710.19
426.513	710.19
426.735	711.19
426.958	705.19
427.18	703.19
427.402	692.19
427.625	681.19
427.847	666.19
428.069	701.19
428.292	689.19
428.514	711.19
428.736	657.19
428.958	667.19
429.181	703.19
429.403	672.19
429.625	679.19
429.847	679.19
430.069	665.19
430.292	681.19
430.514	691.19
430.736	687.19
430.958	680.19
431.18	696.19
431.402	687.19
431.624	659.19
431.846	707.19
432.068	681.19
432.29	696.19
432.512	695.19
432.734	713.19
432.956	709.19
433.178	722.19
433.4	698.19
433.622	711.19
433.844	701.19
434.066	697.19
434.287	702.19
434.509	721.19
434.731	750.19
434.953	747.19
435.175	747.19
435.397	769.19
435.618	693.19
435.84	724.19
436.062	710.19
436.284	682.19
436.505	691.19
436.727	717.19
436.949	716.19
437.17	717.19
437.392	682.19
437.614	670.19
437.835	672.19
438.057	683.19
438.278	685.19
438.5	676.19
438.721	689.19
438.943	693.19
439.165	675.19
439.386	671.19
439.608	691.19
439.829	710.19
440.05	718.19
440.272	712.19
440.493	699.19
440.715	714.19
440.936	738.19
441.158	733.19
441.379	755.19
441.6	775.19
441.822	796.19
442.043	761.19
442.264	759.19
442.486	753.19
442.707	759.19
442.928	770.19
443.149	767.19
443.371	753.19
443.592	777.19
443.813	777.19
444.034	790.19
444.255	821.19
444.476	830.19
444.698	886.19
444.919	869.19
445.14	1009.19
445.361	873.19
445.582	819.19
445.803	774.19
446.024	767.19
446.245	745.19
446.466	751.19
446.687	719.19
446.908	726.19
447.129	717.19
447.35	693.19
447.571	702.19
447.792	684.19
448.013	686.19
448.234	675.19
448.455	659.19
448.675	669.19
448.896	651.19
449.117	651.19
449.338	645.19
449.559	688.19
449.779	661.19
450	652.19
450.221	677.19
450.442	690.19
450.662	657.19
450.883	691.19
451.104	690.19
451.324	677.19
451.545	664.19
451.766	675.19
451.986	676.19
452.207	667.19
452.428	658.19
452.648	648.19
452.869	617.19
453.089	649.19
453.31	683.19
453.53	636.19
453.751	645.19
453.971	645.19
454.192	652.19
454.412	634.19
454.633	642.19
454.853	646.19
455.073	621.19
455.294	622.19
455.514	604.19
455.734	625.19
455.955	633.19
456.175	642.19
456.395	623.19
456.616	627.19
456.836	626.19
457.056	628.19
457.276	630.19
457.497	649.19
457.717	638.19
457.937	637.19
458.157	632.19
458.377	667.19
458.598	658.19
458.818	660.19
459.038	681.19
459.258	681.19
459.478	727.19
459.698	738.19
459.918	781.19
460.138	785.19
460.358	810.19
460.578	812.19
460.798	821.19
461.018	809.19
461.238	829.19
461.458	788.19
461.678	829.19
461.898	847.19
462.118	830.19
462.338	853.19
462.558	892.19
462.777	903.19
462.997	972.19
463.217	1046.19
463.437	1049.19
463.657	985.19
463.876	934.19
464.096	952.19
464.316	929.19
464.536	932.19
464.755	918.19
464.975	890.19
465.195	850.19
465.414	815.19
465.634	773.19
465.854	747.19
466.073	725.19
466.293	723.19
466.512	695.19
466.732	706.19
466.951	708.19
467.171	686.19
467.391	686.19
467.61	711.19
467.829	664.19
468.049	699.19
468.268	689.19
468.488	683.19
468.707	698.19
468.927	703.19
469.146	673.19
469.365	692.19
469.585	702.19
469.804	731.19
470.023	719.19
470.243	714.19
470.462	714.19
470.681	695.19
470.901	707.19
471.12	695.19
471.339	720.19
471.558	707.19
471.777	695.19
471.997	691.19
472.216	669.19
472.435	719.19
472.654	709.19
472.873	663.19
473.092	666.19
473.311	646.19
473.53	653.19
473.749	680.19
473.968	683.19
474.187	648.19
474.406	670.19
474.625	661.19
474.844	651.19
475.063	697.19
475.282	683.19
475.501	693.19
475.72	670.19
475.939	718.19
476.158	693.19
476.377	702.19
476.596	697.19
476.814	704.19
477.033	730.19
477.252	708.19
477.471	751.19
477.69	743.19
477.908	772.19
478.127	791.19
478.346	775.19
478.564	808.19
478.783	796.19
479.002	815.19
479.22	826.19
479.439	827.19
479.658	782.19
479.876	794.19
480.095	815.19
480.313	871.19
480.532	857.19
480.751	861.19
480.969	819.19
481.188	787.19
481.406	776.19
481.624	794.19
481.843	787.19
482.061	775.19
482.28	774.19
482.498	776.19
482.717	762.19
482.935	774.19
483.153	782.19
483.372	786.19
483.59	803.19
483.808	778.19
484.027	753.19
484.245	788.19
484.463	811.19
484.681	830.19
484.9	804.19
485.118	790.19
485.336	797.19
485.554	782.19
485.772	803.19
485.99	820.19
486.209	785.19
486.427	791.19
486.645	799.19
486.863	822.19
487.081	805.19
487.299	803.19
487.517	798.19
487.735	826.19
487.953	841.19
488.171	846.19
488.389	833.19
488.607	794.19
488.825	789.19
489.043	777.19
489.261	796.19
489.479	812.19
489.696	814.19
489.914	802.19
490.132	810.19
490.35	819.19
490.568	819.19
490.786	832.19
491.003	855.19
491.221	837.19
491.439	852.19
491.657	843.19
491.874	849.19
492.092	852.19
492.31	871.19
492.527	863.19
492.745	862.19
492.963	858.19
493.18	865.19
493.398	886.19
493.615	871.19
493.833	851.19
494.05	876.19
494.268	868.19
494.485	861.19
494.703	883.19
494.92	849.19
495.138	882.19
495.355	861.19
495.573	881.19
495.79	881.19
496.008	869.19
496.225	884.19
496.442	907.19
496.66	903.19
496.877	936.19
497.094	928.19
497.312	941.19
497.529	938.19
497.746	978.19
497.963	1000.19
498.181	1038.19
498.398	1066.19
498.615	1123.19
498.832	1151.19
499.049	1239.19
499.267	1279.19
499.484	1405.19
499.701	1523.19
499.918	1647.19
500.135	1832.19
500.352	2072.19
500.569	2057.19
500.786	2078.19
501.003	1942.19
501.22	1817.19
501.437	1619.19
