Data from NiCl2@0.25M.TitratingCurve.Agarose3%dH2O.NegLispCup.LampEnergy10.LIBS07252019_HRD10591_18-23-58-573.txt Node
Date: Thu Jul 25 18:23:58 EDT 2019
User: cochatt
Spectrometer: HR+D1059
Trigger mode: 1
Integration Time (sec): 1.000000E-1
Scans to average: 1
Electric dark correction enabled: true
Nonlinearity correction enabled: false
Boxcar width: 0
XAxis mode: Wavelengths
Number of Pixels in Spectrum: 2048
>>>>>Begin Spectral Data<<<<<
223.165	-15.75
223.4	-15.75
223.635	-15.75
223.869	-19.75
224.104	-33.75
224.338	-16.75
224.573	-11.75
224.808	-7.75
225.042	-8.75
225.277	-0.75
225.511	-1.75
225.746	10.25
225.98	7.25
226.215	10.25
226.449	26.25
226.683	21.25
226.918	11.25
227.152	30.25
227.387	44.25
227.621	40.25
227.856	58.25
228.09	60.25
228.324	53.25
228.559	61.25
228.793	69.25
229.027	107.25
229.262	101.25
229.496	110.25
229.73	127.25
229.964	109.25
230.199	124.25
230.433	132.25
230.667	125.25
230.901	134.25
231.136	124.25
231.37	136.25
231.604	140.25
231.838	148.25
232.072	152.25
232.306	156.25
232.541	141.25
232.775	148.25
233.009	157.25
233.243	138.25
233.477	154.25
233.711	146.25
233.945	136.25
234.179	134.25
234.413	159.25
234.647	167.25
234.881	150.25
235.115	152.25
235.349	140.25
235.583	140.25
235.817	168.25
236.051	152.25
236.285	142.25
236.519	163.25
236.753	152.25
236.987	150.25
237.221	140.25
237.455	141.25
237.689	164.25
237.922	173.25
238.156	160.25
238.39	163.25
238.624	168.25
238.858	167.25
239.091	148.25
239.325	161.25
239.559	164.25
239.793	155.25
240.027	173.25
240.26	181.25
240.494	173.25
240.728	183.25
240.961	169.25
241.195	181.25
241.429	186.25
241.662	159.25
241.896	180.25
242.13	182.25
242.363	183.25
242.597	187.25
242.83	190.25
243.064	191.25
243.298	192.25
243.531	190.25
243.765	187.25
243.998	197.25
244.232	192.25
244.465	186.25
244.699	207.25
244.932	212.25
245.166	189.25
245.399	211.25
245.633	202.25
245.866	202.25
246.099	200.25
246.333	206.25
246.566	204.25
246.8	219.25
247.033	219.25
247.266	204.25
247.5	247.25
247.733	229.25
247.966	222.25
248.2	223.25
248.433	225.25
248.666	236.25
248.899	228.25
249.133	230.25
249.366	223.25
249.599	240.25
249.832	255.25
250.066	219.25
250.299	228.25
250.532	217.25
250.765	226.25
250.998	236.25
251.231	230.25
251.465	253.25
251.698	235.25
251.931	250.25
252.164	238.25
252.397	254.25
252.63	248.25
252.863	278.25
253.096	265.25
253.329	253.25
253.562	234.25
253.795	230.25
254.028	264.25
254.261	270.25
254.494	262.25
254.727	264.25
254.96	256.25
255.193	270.25
255.426	259.25
255.659	266.25
255.892	256.25
256.124	263.25
256.357	264.25
256.59	266.25
256.823	260.25
257.056	275.25
257.289	274.25
257.521	279.25
257.754	291.25
257.987	273.25
258.22	274.25
258.452	267.25
258.685	280.25
258.918	292.25
259.151	297.25
259.383	272.25
259.616	293.25
259.849	307.25
260.081	280.25
260.314	287.25
260.547	321.25
260.779	312.25
261.012	296.25
261.244	294.25
261.477	302.25
261.71	313.25
261.942	295.25
262.175	314.25
262.407	305.25
262.64	313.25
262.872	295.25
263.105	327.25
263.337	314.25
263.57	321.25
263.802	313.25
264.035	306.25
264.267	316.25
264.499	308.25
264.732	326.25
264.964	312.25
265.197	312.25
265.429	325.25
265.661	326.25
265.894	333.25
266.126	343.25
266.358	308.25
266.591	320.25
266.823	339.25
267.055	342.25
267.287	332.25
267.52	328.25
267.752	343.25
267.984	327.25
268.216	331.25
268.448	343.25
268.681	333.25
268.913	336.25
269.145	340.25
269.377	343.25
269.609	355.25
269.841	348.25
270.073	336.25
270.306	358.25
270.538	342.25
270.77	357.25
271.002	350.25
271.234	346.25
271.466	353.25
271.698	363.25
271.93	346.25
272.162	349.25
272.394	348.25
272.626	358.25
272.858	366.25
273.09	363.25
273.322	386.25
273.553	376.25
273.785	375.25
274.017	358.25
274.249	380.25
274.481	366.25
274.713	362.25
274.945	372.25
275.176	388.25
275.408	371.25
275.64	387.25
275.872	381.25
276.104	399.25
276.335	370.25
276.567	377.25
276.799	373.25
277.031	401.25
277.262	401.25
277.494	405.25
277.726	401.25
277.957	388.25
278.189	396.25
278.421	400.25
278.652	404.25
278.884	400.25
279.115	405.25
279.347	428.25
279.579	402.25
279.81	412.25
280.042	409.25
280.273	415.25
280.505	411.25
280.736	404.25
280.968	421.25
281.199	410.25
281.431	390.25
281.662	429.25
281.894	426.25
282.125	417.25
282.356	422.25
282.588	432.25
282.819	431.25
283.051	428.25
283.282	430.25
283.513	456.25
283.745	444.25
283.976	446.25
284.207	443.25
284.439	438.25
284.67	456.25
284.901	475.25
285.132	443.25
285.364	454.25
285.595	449.25
285.826	447.25
286.057	447.25
286.288	454.25
286.52	452.25
286.751	447.25
286.982	464.25
287.213	459.25
287.444	455.25
287.675	446.25
287.906	459.25
288.138	477.25
288.369	462.25
288.6	484.25
288.831	475.25
289.062	468.25
289.293	472.25
289.524	489.25
289.755	488.25
289.986	478.25
290.217	469.25
290.448	476.25
290.679	479.25
290.91	477.25
291.141	470.25
291.371	480.25
291.602	487.25
291.833	474.25
292.064	491.25
292.295	469.25
292.526	475.25
292.757	484.25
292.987	466.25
293.218	476.25
293.449	502.25
293.68	481.25
293.91	486.25
294.141	497.25
294.372	462.25
294.603	504.25
294.833	505.25
295.064	499.25
295.295	490.25
295.525	491.25
295.756	495.25
295.987	505.25
296.217	514.25
296.448	499.25
296.679	509.25
296.909	492.25
297.14	518.25
297.37	536.25
297.601	528.25
297.831	526.25
298.062	514.25
298.292	521.25
298.523	526.25
298.753	546.25
298.984	516.25
299.214	517.25
299.445	509.25
299.675	548.25
299.905	549.25
300.136	540.25
300.366	578.25
300.597	528.25
300.827	564.25
301.057	533.25
301.288	555.25
301.518	566.25
301.748	563.25
301.979	564.25
302.209	585.25
302.439	564.25
302.669	542.25
302.9	526.25
303.13	539.25
303.36	540.25
303.59	546.25
303.82	543.25
304.051	551.25
304.281	560.25
304.511	538.25
304.741	568.25
304.971	559.25
305.201	533.25
305.431	551.25
305.661	548.25
305.891	559.25
306.121	558.25
306.352	546.25
306.582	534.25
306.812	524.25
307.042	530.25
307.272	537.25
307.502	524.25
307.731	563.25
307.961	549.25
308.191	574.25
308.421	557.25
308.651	536.25
308.881	550.25
309.111	548.25
309.341	525.25
309.571	525.25
309.8	547.25
310.03	524.25
310.26	539.25
310.49	526.25
310.72	552.25
310.949	542.25
311.179	552.25
311.409	566.25
311.639	576.25
311.868	554.25
312.098	543.25
312.328	562.25
312.557	550.25
312.787	576.25
313.017	569.25
313.246	575.25
313.476	568.25
313.706	585.25
313.935	602.25
314.165	588.25
314.394	595.25
314.624	598.25
314.853	580.25
315.083	562.25
315.312	595.25
315.542	581.25
315.771	549.25
316.001	562.25
316.23	565.25
316.46	587.25
316.689	590.25
316.919	559.25
317.148	564.25
317.377	571.25
317.607	583.25
317.836	547.25
318.065	582.25
318.295	559.25
318.524	577.25
318.753	575.25
318.983	575.25
319.212	558.25
319.441	566.25
319.67	567.25
319.9	567.25
320.129	544.25
320.358	564.25
320.587	566.25
320.816	574.25
321.046	585.25
321.275	562.25
321.504	584.25
321.733	555.25
321.962	575.25
322.191	582.25
322.42	574.25
322.649	568.25
322.878	597.25
323.108	566.25
323.337	597.25
323.566	591.25
323.795	587.25
324.024	580.25
324.253	599.25
324.482	601.25
324.71	598.25
324.939	578.25
325.168	589.25
325.397	602.25
325.626	620.25
325.855	626.25
326.084	618.25
326.313	623.25
326.542	657.25
326.77	630.25
326.999	613.25
327.228	602.25
327.457	603.25
327.686	628.25
327.914	623.25
328.143	627.25
328.372	628.25
328.6	645.25
328.829	632.25
329.058	639.25
329.287	622.25
329.515	626.25
329.744	648.25
329.972	627.25
330.201	644.25
330.43	628.25
330.658	647.25
330.887	648.25
331.115	661.25
331.344	662.25
331.572	661.25
331.801	683.25
332.03	713.25
332.258	708.25
332.486	723.25
332.715	717.25
332.943	746.25
333.172	794.25
333.4	829.25
333.629	860.25
333.857	835.25
334.085	841.25
334.314	809.25
334.542	800.25
334.771	791.25
334.999	793.25
335.227	780.25
335.455	790.25
335.684	772.25
335.912	786.25
336.14	742.25
336.369	743.25
336.597	746.25
336.825	761.25
337.053	745.25
337.281	731.25
337.51	708.25
337.738	708.25
337.966	711.25
338.194	695.25
338.422	670.25
338.65	709.25
338.878	671.25
339.106	672.25
339.334	697.25
339.562	662.25
339.79	655.25
340.018	650.25
340.246	670.25
340.474	666.25
340.702	668.25
340.93	677.25
341.158	667.25
341.386	660.25
341.614	677.25
341.842	655.25
342.07	680.25
342.298	644.25
342.526	671.25
342.754	658.25
342.981	652.25
343.209	668.25
343.437	698.25
343.665	722.25
343.893	795.25
344.12	815.25
344.348	787.25
344.576	702.25
344.804	710.25
345.031	697.25
345.259	672.25
345.487	661.25
345.714	646.25
345.942	648.25
346.17	646.25
346.397	649.25
346.625	636.25
346.853	634.25
347.08	635.25
347.308	648.25
347.535	631.25
347.763	648.25
347.99	650.25
348.218	624.25
348.445	633.25
348.673	630.25
348.9	633.25
349.128	622.25
349.355	619.25
349.583	648.25
349.81	627.25
350.037	631.25
350.265	618.25
350.492	634.25
350.72	596.25
350.947	592.25
351.174	617.25
351.402	618.25
351.629	631.25
351.856	622.25
352.083	594.25
352.311	622.25
352.538	606.25
352.765	650.25
352.992	612.25
353.22	602.25
353.447	603.25
353.674	613.25
353.901	627.25
354.128	604.25
354.355	630.25
354.583	619.25
354.81	605.25
355.037	624.25
355.264	605.25
355.491	608.25
355.718	618.25
355.945	635.25
356.172	636.25
356.399	616.25
356.626	606.25
356.853	621.25
357.08	626.25
357.307	620.25
357.534	599.25
357.761	602.25
357.988	608.25
358.215	605.25
358.441	628.25
358.668	612.25
358.895	626.25
359.122	591.25
359.349	615.25
359.576	609.25
359.802	615.25
360.029	609.25
360.256	622.25
360.483	637.25
360.709	592.25
360.936	615.25
361.163	606.25
361.39	618.25
361.616	609.25
361.843	604.25
362.07	626.25
362.296	621.25
362.523	601.25
362.749	611.25
362.976	590.25
363.203	605.25
363.429	601.25
363.656	621.25
363.882	597.25
364.109	619.25
364.335	595.25
364.562	601.25
364.788	611.25
365.015	600.25
365.241	623.25
365.468	623.25
365.694	591.25
365.92	591.25
366.147	596.25
366.373	627.25
366.599	606.25
366.826	588.25
367.052	626.25
367.278	626.25
367.505	623.25
367.731	638.25
367.957	594.25
368.184	628.25
368.41	616.25
368.636	614.25
368.862	627.25
369.089	625.25
369.315	618.25
369.541	634.25
369.767	648.25
369.993	640.25
370.219	678.25
370.445	632.25
370.672	666.25
370.898	652.25
371.124	661.25
371.35	661.25
371.576	656.25
371.802	671.25
372.028	668.25
372.254	646.25
372.48	679.25
372.706	687.25
372.932	723.25
373.158	688.25
373.384	688.25
373.61	679.25
373.835	670.25
374.061	677.25
374.287	679.25
374.513	697.25
374.739	708.25
374.965	718.25
375.191	740.25
375.416	725.25
375.642	698.25
375.868	710.25
376.094	673.25
376.319	677.25
376.545	665.25
376.771	678.25
376.997	674.25
377.222	672.25
377.448	679.25
377.674	654.25
377.899	661.25
378.125	653.25
378.35	649.25
378.576	662.25
378.802	651.25
379.027	649.25
379.253	667.25
379.478	645.25
379.704	653.25
379.929	646.25
380.155	654.25
380.38	644.25
380.606	647.25
380.831	665.25
381.057	678.25
381.282	652.25
381.507	674.25
381.733	661.25
381.958	644.25
382.184	667.25
382.409	694.25
382.634	695.25
382.86	698.25
383.085	721.25
383.31	720.25
383.535	731.25
383.761	732.25
383.986	744.25
384.211	758.25
384.436	762.25
384.662	774.25
384.887	794.25
385.112	808.25
385.337	817.25
385.562	804.25
385.787	802.25
386.013	824.25
386.238	812.25
386.463	814.25
386.688	830.25
386.913	792.25
387.138	772.25
387.363	783.25
387.588	742.25
387.813	780.25
388.038	783.25
388.263	785.25
388.488	794.25
388.713	786.25
388.938	803.25
389.163	751.25
389.387	788.25
389.612	758.25
389.837	796.25
390.062	746.25
390.287	784.25
390.512	800.25
390.736	782.25
390.961	775.25
391.186	799.25
391.411	834.25
391.636	836.25
391.86	885.25
392.085	902.25
392.31	886.25
392.534	907.25
392.759	872.25
392.984	850.25
393.208	832.25
393.433	832.25
393.658	865.25
393.882	843.25
394.107	868.25
394.331	850.25
394.556	843.25
394.78	871.25
395.005	852.25
395.229	853.25
395.454	893.25
395.678	920.25
395.903	917.25
396.127	895.25
396.352	858.25
396.576	858.25
396.801	852.25
397.025	868.25
397.249	865.25
397.474	891.25
397.698	890.25
397.922	927.25
398.147	887.25
398.371	909.25
398.595	942.25
398.82	994.25
399.044	1051.25
399.268	1172.25
399.492	1402.25
399.717	1567.25
399.941	1514.25
400.165	1308.25
400.389	1246.25
400.613	1132.25
400.837	1042.25
401.062	1035.25
401.286	1013.25
401.51	1000.25
401.734	991.25
401.958	1038.25
402.182	1028.25
402.406	1022.25
402.63	1049.25
402.854	1088.25
403.078	1070.25
403.302	1108.25
403.526	1119.25
403.75	1145.25
403.974	1186.25
404.198	1179.25
404.422	1174.25
404.645	1157.25
404.869	1158.25
405.093	1132.25
405.317	1131.25
405.541	1097.25
405.765	1118.25
405.988	1089.25
406.212	1096.25
406.436	1064.25
406.66	1138.25
406.883	1126.25
407.107	1208.25
407.331	1267.25
407.555	1309.25
407.778	1332.25
408.002	1287.25
408.226	1253.25
408.449	1239.25
408.673	1159.25
408.896	1158.25
409.12	1099.25
409.344	1147.25
409.567	1143.25
409.791	1155.25
410.014	1161.25
410.238	1102.25
410.461	1115.25
410.685	1117.25
410.908	1083.25
411.132	1107.25
411.355	1032.25
411.578	1053.25
411.802	1031.25
412.025	1046.25
412.249	1085.25
412.472	1050.25
412.695	1019.25
412.919	1033.25
413.142	1002.25
413.365	987.25
413.589	1034.25
413.812	1018.25
414.035	978.25
414.258	992.25
414.482	1011.25
414.705	1048.25
414.928	1019.25
415.151	1020.25
415.374	1002.25
415.597	1019.25
415.821	992.25
416.044	971.25
416.267	1001.25
416.49	978.25
416.713	958.25
416.936	971.25
417.159	979.25
417.382	995.25
417.605	1000.25
417.828	998.25
418.051	1001.25
418.274	997.25
418.497	996.25
418.72	1017.25
418.943	1010.25
419.166	1084.25
419.389	1147.25
419.611	1124.25
419.834	1108.25
420.057	1063.25
420.28	1013.25
420.503	979.25
420.726	1010.25
420.948	990.25
421.171	995.25
421.394	994.25
421.617	968.25
421.839	1000.25
422.062	1002.25
422.285	990.25
422.507	1028.25
422.73	1016.25
422.953	1042.25
423.175	1033.25
423.398	1036.25
423.621	1043.25
423.843	1066.25
424.066	1079.25
424.288	1043.25
424.511	1036.25
424.733	1037.25
424.956	1006.25
425.178	1007.25
425.401	989.25
425.623	974.25
425.846	975.25
426.068	956.25
426.291	947.25
426.513	952.25
426.735	939.25
426.958	935.25
427.18	895.25
427.402	924.25
427.625	894.25
427.847	878.25
428.069	869.25
428.292	911.25
428.514	870.25
428.736	876.25
428.958	890.25
429.181	860.25
429.403	861.25
429.625	884.25
429.847	864.25
430.069	856.25
430.292	842.25
430.514	834.25
430.736	870.25
430.958	852.25
431.18	853.25
431.402	847.25
431.624	865.25
431.846	866.25
432.068	893.25
432.29	890.25
432.512	858.25
432.734	873.25
432.956	863.25
433.178	855.25
433.4	860.25
433.622	875.25
433.844	898.25
434.066	902.25
434.287	878.25
434.509	913.25
434.731	950.25
434.953	1015.25
435.175	998.25
435.397	970.25
435.618	920.25
435.84	907.25
436.062	878.25
436.284	862.25
436.505	865.25
436.727	890.25
436.949	868.25
437.17	882.25
437.392	841.25
437.614	831.25
437.835	836.25
438.057	818.25
438.278	838.25
438.5	862.25
438.721	866.25
438.943	832.25
439.165	841.25
439.386	875.25
439.608	862.25
439.829	832.25
440.05	884.25
440.272	886.25
440.493	890.25
440.715	891.25
440.936	894.25
441.158	926.25
441.379	933.25
441.6	1002.25
441.822	986.25
442.043	984.25
442.264	962.25
442.486	965.25
442.707	966.25
442.928	971.25
443.149	992.25
443.371	953.25
443.592	983.25
443.813	997.25
444.034	998.25
444.255	1043.25
444.476	1056.25
444.698	1164.25
444.919	1205.25
445.14	1232.25
445.361	1110.25
445.582	1019.25
445.803	948.25
446.024	972.25
446.245	907.25
446.466	877.25
446.687	891.25
446.908	876.25
447.129	869.25
447.35	858.25
447.571	816.25
447.792	837.25
448.013	836.25
448.234	794.25
448.455	796.25
448.675	803.25
448.896	786.25
449.117	783.25
449.338	820.25
449.559	812.25
449.779	788.25
450	810.25
450.221	782.25
450.442	838.25
450.662	830.25
450.883	824.25
451.104	807.25
451.324	815.25
451.545	792.25
451.766	806.25
451.986	805.25
452.207	795.25
452.428	798.25
452.648	820.25
452.869	809.25
453.089	790.25
453.31	788.25
453.53	769.25
453.751	786.25
453.971	781.25
454.192	779.25
454.412	758.25
454.633	778.25
454.853	765.25
455.073	737.25
455.294	749.25
455.514	743.25
455.734	741.25
455.955	703.25
456.175	747.25
456.395	766.25
456.616	757.25
456.836	741.25
457.056	747.25
457.276	745.25
457.497	768.25
457.717	746.25
457.937	748.25
458.157	798.25
458.377	784.25
458.598	795.25
458.818	806.25
459.038	831.25
459.258	848.25
459.478	911.25
459.698	929.25
459.918	895.25
460.138	953.25
460.358	997.25
460.578	1032.25
460.798	1036.25
461.018	1048.25
461.238	1065.25
461.458	1060.25
461.678	1046.25
461.898	1037.25
462.118	1068.25
462.338	1127.25
462.558	1129.25
462.777	1173.25
462.997	1270.25
463.217	1416.25
463.437	1410.25
463.657	1290.25
463.876	1246.25
464.096	1226.25
464.316	1202.25
464.536	1236.25
464.755	1214.25
464.975	1120.25
465.195	1066.25
465.414	1029.25
465.634	937.25
465.854	957.25
466.073	932.25
466.293	899.25
466.512	895.25
466.732	856.25
466.951	878.25
467.171	868.25
467.391	828.25
467.61	842.25
467.829	857.25
468.049	858.25
468.268	812.25
468.488	808.25
468.707	804.25
468.927	796.25
469.146	811.25
469.365	835.25
469.585	847.25
469.804	841.25
470.023	860.25
470.243	872.25
470.462	871.25
470.681	865.25
470.901	883.25
471.12	869.25
471.339	847.25
471.558	841.25
471.777	831.25
471.997	825.25
472.216	788.25
472.435	808.25
472.654	788.25
472.873	790.25
473.092	810.25
473.311	812.25
473.53	794.25
473.749	758.25
473.968	761.25
474.187	790.25
474.406	790.25
474.625	792.25
474.844	788.25
475.063	774.25
475.282	784.25
475.501	792.25
475.72	786.25
475.939	806.25
476.158	805.25
476.377	822.25
476.596	852.25
476.814	826.25
477.033	825.25
477.252	826.25
477.471	880.25
477.69	901.25
477.908	920.25
478.127	949.25
478.346	943.25
478.564	969.25
478.783	932.25
479.002	988.25
479.22	1020.25
479.439	1011.25
479.658	971.25
479.876	985.25
480.095	994.25
480.313	1062.25
480.532	1068.25
480.751	1060.25
480.969	996.25
481.188	988.25
481.406	947.25
481.624	917.25
481.843	916.25
482.061	910.25
482.28	901.25
482.498	910.25
482.717	878.25
482.935	887.25
483.153	893.25
483.372	898.25
483.59	895.25
483.808	915.25
484.027	889.25
484.245	930.25
484.463	906.25
484.681	938.25
484.9	942.25
485.118	925.25
485.336	940.25
485.554	934.25
485.772	952.25
485.99	931.25
486.209	958.25
486.427	939.25
486.645	934.25
486.863	938.25
487.081	946.25
487.299	950.25
487.517	934.25
487.735	932.25
487.953	955.25
488.171	966.25
488.389	913.25
488.607	935.25
488.825	925.25
489.043	927.25
489.261	931.25
489.479	949.25
489.696	930.25
489.914	956.25
490.132	967.25
490.35	959.25
490.568	966.25
490.786	940.25
491.003	985.25
491.221	942.25
491.439	975.25
491.657	934.25
491.874	950.25
492.092	973.25
492.31	979.25
492.527	971.25
492.745	994.25
492.963	994.25
493.18	1007.25
493.398	984.25
493.615	1022.25
493.833	974.25
494.05	995.25
494.268	989.25
494.485	1012.25
494.703	995.25
494.92	1030.25
495.138	1014.25
495.355	1043.25
495.573	1026.25
495.79	1017.25
496.008	1045.25
496.225	1007.25
496.442	1043.25
496.66	1044.25
496.877	1068.25
497.094	1098.25
497.312	1102.25
497.529	1120.25
497.746	1146.25
497.963	1177.25
498.181	1220.25
498.398	1282.25
498.615	1412.25
498.832	1432.25
499.049	1573.25
499.267	1679.25
499.484	1844.25
