Data from NiCl2@0.125M.TitratingCurve.Agarose3%dH2O.NegLispCup.LampEnergy10.LIBS07252019_HRD10591_18-30-13-575.txt Node
Date: Thu Jul 25 18:30:13 EDT 2019
User: cochatt
Spectrometer: HR+D1059
Trigger mode: 1
Integration Time (sec): 1.000000E-1
Scans to average: 1
Electric dark correction enabled: true
Nonlinearity correction enabled: false
Boxcar width: 0
XAxis mode: Wavelengths
Number of Pixels in Spectrum: 2048
>>>>>Begin Spectral Data<<<<<
223.165	-20.88
223.4	-20.88
223.635	-20.88
223.869	-1.88
224.104	-18.88
224.338	-21.88
224.573	-23.88
224.808	-13.88
225.042	-19.88
225.277	-14.88
225.511	11.12
225.746	7.12
225.98	7.12
226.215	18.12
226.449	26.12
226.683	27.12
226.918	30.12
227.152	9.12
227.387	25.12
227.621	38.12
227.856	38.12
228.09	48.12
228.324	47.12
228.559	55.12
228.793	71.12
229.027	107.12
229.262	107.12
229.496	108.12
229.73	131.12
229.964	135.12
230.199	125.12
230.433	138.12
230.667	118.12
230.901	132.12
231.136	134.12
231.37	119.12
231.604	142.12
231.838	136.12
232.072	148.12
232.306	140.12
232.541	140.12
232.775	139.12
233.009	148.12
233.243	158.12
233.477	141.12
233.711	153.12
233.945	147.12
234.179	135.12
234.413	150.12
234.647	152.12
234.881	151.12
235.115	170.12
235.349	151.12
235.583	164.12
235.817	151.12
236.051	144.12
236.285	143.12
236.519	157.12
236.753	171.12
236.987	154.12
237.221	167.12
237.455	164.12
237.689	149.12
237.922	158.12
238.156	164.12
238.39	164.12
238.624	167.12
238.858	163.12
239.091	171.12
239.325	172.12
239.559	196.12
239.793	187.12
240.027	174.12
240.26	166.12
240.494	182.12
240.728	186.12
240.961	187.12
241.195	184.12
241.429	192.12
241.662	183.12
241.896	166.12
242.13	202.12
242.363	185.12
242.597	183.12
242.83	193.12
243.064	206.12
243.298	202.12
243.531	198.12
243.765	190.12
243.998	207.12
244.232	204.12
244.465	207.12
244.699	192.12
244.932	217.12
245.166	196.12
245.399	226.12
245.633	226.12
245.866	224.12
246.099	226.12
246.333	225.12
246.566	233.12
246.8	219.12
247.033	232.12
247.266	227.12
247.5	233.12
247.733	229.12
247.966	253.12
248.2	240.12
248.433	238.12
248.666	229.12
248.899	242.12
249.133	244.12
249.366	254.12
249.599	242.12
249.832	242.12
250.066	249.12
250.299	233.12
250.532	247.12
250.765	240.12
250.998	238.12
251.231	256.12
251.465	278.12
251.698	258.12
251.931	280.12
252.164	247.12
252.397	268.12
252.63	271.12
252.863	263.12
253.096	279.12
253.329	268.12
253.562	280.12
253.795	274.12
254.028	275.12
254.261	285.12
254.494	278.12
254.727	262.12
254.96	288.12
255.193	281.12
255.426	278.12
255.659	262.12
255.892	275.12
256.124	276.12
256.357	292.12
256.59	299.12
256.823	272.12
257.056	287.12
257.289	282.12
257.521	286.12
257.754	295.12
257.987	295.12
258.22	323.12
258.452	307.12
258.685	302.12
258.918	274.12
259.151	297.12
259.383	332.12
259.616	310.12
259.849	307.12
260.081	313.12
260.314	303.12
260.547	300.12
260.779	317.12
261.012	317.12
261.244	339.12
261.477	331.12
261.71	329.12
261.942	322.12
262.175	324.12
262.407	329.12
262.64	312.12
262.872	325.12
263.105	313.12
263.337	353.12
263.57	313.12
263.802	329.12
264.035	352.12
264.267	338.12
264.499	348.12
264.732	350.12
264.964	355.12
265.197	355.12
265.429	345.12
265.661	372.12
265.894	369.12
266.126	352.12
266.358	350.12
266.591	368.12
266.823	346.12
267.055	364.12
267.287	355.12
267.52	362.12
267.752	364.12
267.984	377.12
268.216	384.12
268.448	363.12
268.681	378.12
268.913	358.12
269.145	377.12
269.377	373.12
269.609	355.12
269.841	374.12
270.073	361.12
270.306	384.12
270.538	363.12
270.77	370.12
271.002	378.12
271.234	368.12
271.466	366.12
271.698	368.12
271.93	389.12
272.162	387.12
272.394	378.12
272.626	378.12
272.858	382.12
273.09	385.12
273.322	391.12
273.553	395.12
273.785	382.12
274.017	396.12
274.249	387.12
274.481	422.12
274.713	407.12
274.945	399.12
275.176	385.12
275.408	412.12
275.64	416.12
275.872	425.12
276.104	405.12
276.335	421.12
276.567	400.12
276.799	396.12
277.031	422.12
277.262	417.12
277.494	422.12
277.726	419.12
277.957	424.12
278.189	428.12
278.421	428.12
278.652	421.12
278.884	420.12
279.115	438.12
279.347	447.12
279.579	436.12
279.81	440.12
280.042	446.12
280.273	440.12
280.505	462.12
280.736	452.12
280.968	452.12
281.199	444.12
281.431	456.12
281.662	443.12
281.894	467.12
282.125	461.12
282.356	460.12
282.588	458.12
282.819	480.12
283.051	462.12
283.282	477.12
283.513	450.12
283.745	452.12
283.976	475.12
284.207	474.12
284.439	467.12
284.67	478.12
284.901	475.12
285.132	492.12
285.364	478.12
285.595	470.12
285.826	473.12
286.057	478.12
286.288	479.12
286.52	487.12
286.751	498.12
286.982	486.12
287.213	484.12
287.444	512.12
287.675	512.12
287.906	500.12
288.138	510.12
288.369	517.12
288.6	530.12
288.831	508.12
289.062	517.12
289.293	518.12
289.524	490.12
289.755	513.12
289.986	498.12
290.217	532.12
290.448	532.12
290.679	534.12
290.91	536.12
291.141	523.12
291.371	538.12
291.602	522.12
291.833	509.12
292.064	524.12
292.295	554.12
292.526	546.12
292.757	523.12
292.987	510.12
293.218	532.12
293.449	519.12
293.68	533.12
293.91	550.12
294.141	520.12
294.372	522.12
294.603	541.12
294.833	539.12
295.064	531.12
295.295	525.12
295.525	524.12
295.756	555.12
295.987	543.12
296.217	532.12
296.448	526.12
296.679	558.12
296.909	564.12
297.14	547.12
297.37	544.12
297.601	571.12
297.831	566.12
298.062	579.12
298.292	567.12
298.523	592.12
298.753	607.12
298.984	587.12
299.214	581.12
299.445	567.12
299.675	565.12
299.905	571.12
300.136	582.12
300.366	582.12
300.597	607.12
300.827	596.12
301.057	607.12
301.288	587.12
301.518	595.12
301.748	618.12
301.979	597.12
302.209	588.12
302.439	610.12
302.669	613.12
302.9	587.12
303.13	606.12
303.36	605.12
303.59	589.12
303.82	573.12
304.051	574.12
304.281	591.12
304.511	606.12
304.741	596.12
304.971	597.12
305.201	589.12
305.431	584.12
305.661	578.12
305.891	575.12
306.121	568.12
306.352	590.12
306.582	565.12
306.812	570.12
307.042	562.12
307.272	566.12
307.502	585.12
307.731	591.12
307.961	577.12
308.191	559.12
308.421	574.12
308.651	575.12
308.881	567.12
309.111	565.12
309.341	587.12
309.571	568.12
309.8	564.12
310.03	582.12
310.26	581.12
310.49	577.12
310.72	581.12
310.949	592.12
311.179	610.12
311.409	591.12
311.639	578.12
311.868	579.12
312.098	567.12
312.328	604.12
312.557	608.12
312.787	614.12
313.017	611.12
313.246	612.12
313.476	604.12
313.706	608.12
313.935	635.12
314.165	636.12
314.394	617.12
314.624	617.12
314.853	592.12
315.083	611.12
315.312	614.12
315.542	630.12
315.771	599.12
316.001	619.12
316.23	610.12
316.46	603.12
316.689	608.12
316.919	610.12
317.148	594.12
317.377	597.12
317.607	607.12
317.836	572.12
318.065	596.12
318.295	604.12
318.524	602.12
318.753	604.12
318.983	593.12
319.212	604.12
319.441	600.12
319.67	615.12
319.9	606.12
320.129	594.12
320.358	603.12
320.587	592.12
320.816	601.12
321.046	587.12
321.275	577.12
321.504	598.12
321.733	578.12
321.962	589.12
322.191	600.12
322.42	604.12
322.649	614.12
322.878	618.12
323.108	624.12
323.337	626.12
323.566	623.12
323.795	621.12
324.024	595.12
324.253	638.12
324.482	614.12
324.71	641.12
324.939	634.12
325.168	632.12
325.397	626.12
325.626	618.12
325.855	660.12
326.084	649.12
326.313	654.12
326.542	679.12
326.77	660.12
326.999	651.12
327.228	659.12
327.457	658.12
327.686	666.12
327.914	636.12
328.143	645.12
328.372	661.12
328.6	647.12
328.829	665.12
329.058	676.12
329.287	642.12
329.515	662.12
329.744	666.12
329.972	662.12
330.201	660.12
330.43	664.12
330.658	696.12
330.887	680.12
331.115	691.12
331.344	680.12
331.572	706.12
331.801	702.12
332.03	725.12
332.258	715.12
332.486	750.12
332.715	755.12
332.943	815.12
333.172	826.12
333.4	893.12
333.629	878.12
333.857	911.12
334.085	902.12
334.314	880.12
334.542	852.12
334.771	842.12
334.999	832.12
335.227	819.12
335.455	817.12
335.684	827.12
335.912	834.12
336.14	789.12
336.369	786.12
336.597	811.12
336.825	807.12
337.053	802.12
337.281	788.12
337.51	742.12
337.738	746.12
337.966	726.12
338.194	728.12
338.422	695.12
338.65	698.12
338.878	726.12
339.106	724.12
339.334	714.12
339.562	723.12
339.79	694.12
340.018	681.12
340.246	659.12
340.474	683.12
340.702	694.12
340.93	670.12
341.158	696.12
341.386	707.12
341.614	718.12
341.842	689.12
342.07	672.12
342.298	687.12
342.526	656.12
342.754	669.12
342.981	697.12
343.209	699.12
343.437	709.12
343.665	766.12
343.893	842.12
344.12	872.12
344.348	842.12
344.576	790.12
344.804	755.12
345.031	743.12
345.259	713.12
345.487	714.12
345.714	692.12
345.942	674.12
346.17	704.12
346.397	680.12
346.625	676.12
346.853	690.12
347.08	676.12
347.308	660.12
347.535	675.12
347.763	690.12
347.99	674.12
348.218	686.12
348.445	690.12
348.673	680.12
348.9	668.12
349.128	683.12
349.355	648.12
349.583	648.12
349.81	659.12
350.037	640.12
350.265	651.12
350.492	645.12
350.72	612.12
350.947	643.12
351.174	632.12
351.402	649.12
351.629	656.12
351.856	661.12
352.083	650.12
352.311	641.12
352.538	648.12
352.765	677.12
352.992	644.12
353.22	635.12
353.447	615.12
353.674	623.12
353.901	633.12
354.128	655.12
354.355	644.12
354.583	620.12
354.81	648.12
355.037	644.12
355.264	652.12
355.491	663.12
355.718	646.12
355.945	649.12
356.172	640.12
356.399	646.12
356.626	646.12
356.853	664.12
357.08	655.12
357.307	630.12
357.534	652.12
357.761	649.12
357.988	651.12
358.215	653.12
358.441	658.12
358.668	620.12
358.895	642.12
359.122	632.12
359.349	640.12
359.576	648.12
359.802	629.12
360.029	644.12
360.256	651.12
360.483	639.12
360.709	660.12
360.936	644.12
361.163	635.12
361.39	664.12
361.616	652.12
361.843	649.12
362.07	634.12
362.296	677.12
362.523	657.12
362.749	644.12
362.976	655.12
363.203	630.12
363.429	628.12
363.656	652.12
363.882	629.12
364.109	623.12
364.335	638.12
364.562	652.12
364.788	662.12
365.015	633.12
365.241	649.12
365.468	642.12
365.694	652.12
365.92	644.12
366.147	643.12
366.373	635.12
366.599	658.12
366.826	658.12
367.052	628.12
367.278	644.12
367.505	629.12
367.731	656.12
367.957	643.12
368.184	639.12
368.41	652.12
368.636	670.12
368.862	662.12
369.089	666.12
369.315	682.12
369.541	668.12
369.767	656.12
369.993	673.12
370.219	662.12
370.445	702.12
370.672	689.12
370.898	708.12
371.124	676.12
371.35	709.12
371.576	712.12
371.802	702.12
372.028	683.12
372.254	702.12
372.48	710.12
372.706	716.12
372.932	737.12
373.158	715.12
373.384	707.12
373.61	710.12
373.835	704.12
374.061	708.12
374.287	691.12
374.513	722.12
374.739	731.12
374.965	747.12
375.191	788.12
375.416	776.12
375.642	759.12
375.868	766.12
376.094	745.12
376.319	718.12
376.545	722.12
376.771	712.12
376.997	696.12
377.222	718.12
377.448	694.12
377.674	725.12
377.899	699.12
378.125	691.12
378.35	690.12
378.576	684.12
378.802	693.12
379.027	667.12
379.253	693.12
379.478	681.12
379.704	709.12
379.929	690.12
380.155	676.12
380.38	706.12
380.606	687.12
380.831	730.12
381.057	702.12
381.282	702.12
381.507	707.12
381.733	704.12
381.958	698.12
382.184	704.12
382.409	715.12
382.634	752.12
382.86	738.12
383.085	748.12
383.31	758.12
383.535	795.12
383.761	787.12
383.986	781.12
384.211	812.12
384.436	797.12
384.662	835.12
384.887	885.12
385.112	864.12
385.337	856.12
385.562	854.12
385.787	840.12
386.013	846.12
386.238	876.12
386.463	835.12
386.688	866.12
386.913	824.12
387.138	848.12
387.363	840.12
387.588	820.12
387.813	810.12
388.038	830.12
388.263	830.12
388.488	822.12
388.713	851.12
388.938	807.12
389.163	826.12
389.387	816.12
389.612	832.12
389.837	825.12
390.062	831.12
390.287	835.12
390.512	823.12
390.736	832.12
390.961	856.12
391.186	835.12
391.411	914.12
391.636	900.12
391.86	914.12
392.085	959.12
392.31	982.12
392.534	909.12
392.759	930.12
392.984	913.12
393.208	882.12
393.433	901.12
393.658	891.12
393.882	871.12
394.107	878.12
394.331	914.12
394.556	889.12
394.78	924.12
395.005	908.12
395.229	880.12
395.454	915.12
395.678	923.12
395.903	960.12
396.127	912.12
396.352	911.12
396.576	881.12
396.801	864.12
397.025	879.12
397.249	898.12
397.474	954.12
397.698	954.12
397.922	932.12
398.147	934.12
398.371	958.12
398.595	989.12
398.82	1020.12
399.044	1114.12
399.268	1202.12
399.492	1400.12
399.717	1598.12
399.941	1668.12
400.165	1440.12
400.389	1254.12
400.613	1186.12
400.837	1122.12
401.062	1092.12
401.286	1091.12
401.51	1073.12
401.734	1042.12
401.958	1066.12
402.182	1074.12
402.406	1104.12
402.63	1087.12
402.854	1136.12
403.078	1159.12
403.302	1195.12
403.526	1201.12
403.75	1223.12
403.974	1250.12
404.198	1234.12
404.422	1249.12
404.645	1241.12
404.869	1221.12
405.093	1208.12
405.317	1160.12
405.541	1153.12
405.765	1152.12
405.988	1143.12
406.212	1175.12
406.436	1168.12
406.66	1198.12
406.883	1187.12
407.107	1269.12
407.331	1338.12
407.555	1413.12
407.778	1414.12
408.002	1386.12
408.226	1302.12
408.449	1271.12
408.673	1252.12
408.896	1212.12
409.12	1190.12
409.344	1206.12
409.567	1268.12
409.791	1244.12
410.014	1207.12
410.238	1220.12
410.461	1179.12
410.685	1192.12
410.908	1168.12
411.132	1144.12
411.355	1103.12
411.578	1082.12
411.802	1100.12
412.025	1106.12
412.249	1131.12
412.472	1102.12
412.695	1097.12
412.919	1042.12
413.142	1063.12
413.365	1076.12
413.589	1062.12
413.812	1064.12
414.035	1049.12
414.258	1061.12
414.482	1068.12
414.705	1086.12
414.928	1106.12
415.151	1067.12
415.374	1074.12
415.597	1072.12
415.821	1038.12
416.044	1012.12
416.267	1018.12
416.49	1042.12
416.713	1037.12
416.936	1040.12
417.159	1071.12
417.382	1036.12
417.605	1022.12
417.828	1031.12
418.051	1057.12
418.274	1043.12
418.497	1064.12
418.72	1078.12
418.943	1104.12
419.166	1174.12
419.389	1223.12
419.611	1196.12
419.834	1142.12
420.057	1090.12
420.28	1074.12
420.503	1050.12
420.726	1050.12
420.948	1028.12
421.171	1025.12
421.394	1040.12
421.617	1046.12
421.839	1060.12
422.062	1077.12
422.285	1043.12
422.507	1087.12
422.73	1072.12
422.953	1065.12
423.175	1103.12
423.398	1121.12
423.621	1132.12
423.843	1127.12
424.066	1147.12
424.288	1108.12
424.511	1105.12
424.733	1123.12
424.956	1099.12
425.178	1055.12
425.401	1063.12
425.623	1047.12
425.846	1024.12
426.068	1035.12
426.291	1012.12
426.513	1034.12
426.735	995.12
426.958	1002.12
427.18	979.12
427.402	969.12
427.625	949.12
427.847	953.12
428.069	957.12
428.292	949.12
428.514	928.12
428.736	919.12
428.958	935.12
429.181	922.12
429.403	895.12
429.625	921.12
429.847	940.12
430.069	930.12
430.292	940.12
430.514	913.12
430.736	926.12
430.958	934.12
431.18	922.12
431.402	921.12
431.624	947.12
431.846	951.12
432.068	970.12
432.29	975.12
432.512	953.12
432.734	933.12
432.956	923.12
433.178	939.12
433.4	956.12
433.622	936.12
433.844	988.12
434.066	970.12
434.287	1003.12
434.509	983.12
434.731	1062.12
434.953	1082.12
435.175	1075.12
435.397	1066.12
435.618	1002.12
435.84	1001.12
436.062	962.12
436.284	966.12
436.505	933.12
436.727	958.12
436.949	940.12
437.17	922.12
437.392	932.12
437.614	928.12
437.835	898.12
438.057	929.12
438.278	897.12
438.5	917.12
438.721	896.12
438.943	929.12
439.165	924.12
439.386	927.12
439.608	958.12
439.829	936.12
440.05	950.12
440.272	954.12
440.493	953.12
440.715	981.12
440.936	988.12
441.158	983.12
441.379	1027.12
441.6	1118.12
441.822	1088.12
442.043	1124.12
442.264	1063.12
442.486	1039.12
442.707	1048.12
442.928	1039.12
443.149	1067.12
443.371	1054.12
443.592	1066.12
443.813	1075.12
444.034	1109.12
444.255	1115.12
444.476	1154.12
444.698	1228.12
444.919	1318.12
445.14	1400.12
445.361	1228.12
445.582	1110.12
445.803	1066.12
446.024	1001.12
446.245	988.12
446.466	1000.12
446.687	975.12
446.908	970.12
447.129	931.12
447.35	918.12
447.571	905.12
447.792	882.12
448.013	899.12
448.234	914.12
448.455	890.12
448.675	878.12
448.896	872.12
449.117	837.12
449.338	874.12
449.559	873.12
449.779	882.12
450	885.12
450.221	835.12
450.442	909.12
450.662	900.12
450.883	907.12
451.104	920.12
451.324	911.12
451.545	909.12
451.766	914.12
451.986	889.12
452.207	888.12
452.428	880.12
452.648	866.12
452.869	856.12
453.089	853.12
453.31	867.12
453.53	870.12
453.751	847.12
453.971	855.12
454.192	844.12
454.412	827.12
454.633	849.12
454.853	848.12
455.073	859.12
455.294	852.12
455.514	839.12
455.734	826.12
455.955	832.12
456.175	824.12
456.395	835.12
456.616	816.12
456.836	812.12
457.056	821.12
457.276	817.12
457.497	831.12
457.717	837.12
457.937	828.12
458.157	821.12
458.377	863.12
458.598	843.12
458.818	871.12
459.038	887.12
459.258	949.12
459.478	950.12
459.698	1022.12
459.918	1043.12
460.138	1058.12
460.358	1115.12
460.578	1138.12
460.798	1136.12
461.018	1184.12
461.238	1128.12
461.458	1121.12
461.678	1128.12
461.898	1143.12
462.118	1158.12
462.338	1174.12
462.558	1283.12
462.777	1309.12
462.997	1372.12
463.217	1538.12
463.437	1564.12
463.657	1409.12
463.876	1349.12
464.096	1368.12
464.316	1330.12
464.536	1365.12
464.755	1278.12
464.975	1229.12
465.195	1156.12
465.414	1101.12
465.634	1058.12
465.854	994.12
466.073	972.12
466.293	970.12
466.512	943.12
466.732	920.12
466.951	931.12
467.171	904.12
467.391	937.12
467.61	914.12
467.829	902.12
468.049	910.12
468.268	872.12
468.488	864.12
468.707	891.12
468.927	886.12
469.146	887.12
469.365	908.12
469.585	898.12
469.804	908.12
470.023	948.12
470.243	950.12
470.462	938.12
470.681	952.12
470.901	961.12
471.12	958.12
471.339	926.12
471.558	912.12
471.777	912.12
471.997	876.12
472.216	885.12
472.435	894.12
472.654	866.12
472.873	866.12
473.092	871.12
473.311	861.12
473.53	867.12
473.749	876.12
473.968	858.12
474.187	837.12
474.406	841.12
474.625	887.12
474.844	875.12
475.063	877.12
475.282	864.12
475.501	880.12
475.72	888.12
475.939	891.12
476.158	887.12
476.377	905.12
476.596	931.12
476.814	914.12
477.033	914.12
477.252	939.12
477.471	951.12
477.69	979.12
477.908	1002.12
478.127	1036.12
478.346	1027.12
478.564	1039.12
478.783	1057.12
479.002	1105.12
479.22	1107.12
479.439	1091.12
479.658	1063.12
479.876	1083.12
480.095	1095.12
480.313	1127.12
480.532	1169.12
480.751	1173.12
480.969	1127.12
481.188	1105.12
481.406	1065.12
481.624	1020.12
481.843	1013.12
482.061	990.12
482.28	1006.12
482.498	1032.12
482.717	999.12
482.935	1008.12
483.153	1023.12
483.372	1003.12
483.59	1041.12
483.808	1014.12
484.027	1025.12
484.245	1024.12
484.463	1018.12
484.681	1022.12
484.9	1047.12
485.118	1066.12
485.336	1044.12
485.554	1073.12
485.772	1077.12
485.99	1060.12
486.209	1091.12
486.427	1044.12
486.645	1084.12
486.863	1097.12
487.081	1089.12
487.299	1056.12
487.517	1050.12
487.735	1049.12
487.953	1031.12
488.171	1065.12
488.389	1013.12
488.607	1050.12
488.825	1042.12
489.043	1011.12
489.261	1036.12
489.479	1069.12
489.696	1038.12
489.914	1039.12
490.132	1024.12
490.35	1055.12
490.568	1019.12
490.786	1042.12
491.003	1066.12
491.221	1042.12
491.439	1048.12
491.657	1068.12
491.874	1083.12
492.092	1034.12
492.31	1086.12
492.527	1082.12
492.745	1107.12
492.963	1084.12
493.18	1064.12
493.398	1072.12
493.615	1086.12
493.833	1087.12
494.05	1103.12
494.268	1100.12
494.485	1121.12
494.703	1119.12
494.92	1120.12
495.138	1088.12
495.355	1077.12
495.573	1114.12
495.79	1076.12
496.008	1128.12
496.225	1107.12
496.442	1103.12
496.66	1120.12
496.877	1152.12
497.094	1164.12
497.312	1167.12
497.529	1212.12
497.746	1207.12
