Data from NiCl2@0.25M.TitratingCurve.Agarose3%dH2O.NegLispCup.LampEnergy10.LIBS07252019_HRD10591_18-23-32-572.txt Node
Date: Thu Jul 25 18:23:32 EDT 2019
User: cochatt
Spectrometer: HR+D1059
Trigger mode: 1
Integration Time (sec): 1.000000E-1
Scans to average: 1
Electric dark correction enabled: true
Nonlinearity correction enabled: false
Boxcar width: 0
XAxis mode: Wavelengths
Number of Pixels in Spectrum: 2048
>>>>>Begin Spectral Data<<<<<
223.165	-15.44
223.4	-15.44
223.635	-15.44
223.869	-29.44
224.104	-23.44
224.338	-9.44
224.573	-18.44
224.808	-9.44
225.042	-2.44
225.277	-14.44
225.511	-6.44
225.746	0.56
225.98	14.56
226.215	20.56
226.449	9.56
226.683	27.56
226.918	22.56
227.152	33.56
227.387	28.56
227.621	36.56
227.856	37.56
228.09	35.56
228.324	45.56
228.559	45.56
228.793	72.56
229.027	88.56
229.262	102.56
229.496	104.56
229.73	104.56
229.964	117.56
230.199	122.56
230.433	134.56
230.667	118.56
230.901	125.56
231.136	126.56
231.37	122.56
231.604	120.56
231.838	126.56
232.072	123.56
232.306	118.56
232.541	135.56
232.775	142.56
233.009	134.56
233.243	134.56
233.477	146.56
233.711	130.56
233.945	138.56
234.179	136.56
234.413	144.56
234.647	139.56
234.881	134.56
235.115	150.56
235.349	132.56
235.583	148.56
235.817	124.56
236.051	146.56
236.285	128.56
236.519	153.56
236.753	134.56
236.987	137.56
237.221	133.56
237.455	157.56
237.689	160.56
237.922	134.56
238.156	145.56
238.39	151.56
238.624	150.56
238.858	137.56
239.091	146.56
239.325	148.56
239.559	154.56
239.793	150.56
240.027	170.56
240.26	154.56
240.494	160.56
240.728	169.56
240.961	160.56
241.195	169.56
241.429	166.56
241.662	145.56
241.896	167.56
242.13	155.56
242.363	179.56
242.597	170.56
242.83	164.56
243.064	184.56
243.298	158.56
243.531	170.56
243.765	162.56
243.998	173.56
244.232	158.56
244.465	180.56
244.699	163.56
244.932	164.56
245.166	167.56
245.399	192.56
245.633	184.56
245.866	185.56
246.099	184.56
246.333	188.56
246.566	189.56
246.8	203.56
247.033	187.56
247.266	189.56
247.5	183.56
247.733	197.56
247.966	180.56
248.2	196.56
248.433	211.56
248.666	202.56
248.899	201.56
249.133	207.56
249.366	190.56
249.599	204.56
249.832	197.56
250.066	211.56
250.299	190.56
250.532	210.56
250.765	204.56
250.998	209.56
251.231	219.56
251.465	230.56
251.698	217.56
251.931	235.56
252.164	225.56
252.397	223.56
252.63	222.56
252.863	225.56
253.096	227.56
253.329	210.56
253.562	234.56
253.795	243.56
254.028	231.56
254.261	224.56
254.494	247.56
254.727	235.56
254.96	222.56
255.193	246.56
255.426	221.56
255.659	228.56
255.892	238.56
256.124	245.56
256.357	242.56
256.59	232.56
256.823	243.56
257.056	232.56
257.289	233.56
257.521	263.56
257.754	251.56
257.987	258.56
258.22	236.56
258.452	258.56
258.685	254.56
258.918	258.56
259.151	244.56
259.383	233.56
259.616	246.56
259.849	269.56
260.081	269.56
260.314	275.56
260.547	246.56
260.779	259.56
261.012	264.56
261.244	258.56
261.477	270.56
261.71	267.56
261.942	256.56
262.175	254.56
262.407	264.56
262.64	255.56
262.872	253.56
263.105	271.56
263.337	266.56
263.57	271.56
263.802	277.56
264.035	280.56
264.267	270.56
264.499	284.56
264.732	261.56
264.964	285.56
265.197	304.56
265.429	294.56
265.661	302.56
265.894	315.56
266.126	300.56
266.358	303.56
266.591	300.56
266.823	299.56
267.055	296.56
267.287	301.56
267.52	297.56
267.752	285.56
267.984	320.56
268.216	293.56
268.448	308.56
268.681	291.56
268.913	293.56
269.145	305.56
269.377	297.56
269.609	286.56
269.841	298.56
270.073	324.56
270.306	305.56
270.538	297.56
270.77	314.56
271.002	318.56
271.234	316.56
271.466	322.56
271.698	321.56
271.93	310.56
272.162	330.56
272.394	304.56
272.626	330.56
272.858	315.56
273.09	326.56
273.322	338.56
273.553	324.56
273.785	338.56
274.017	312.56
274.249	336.56
274.481	324.56
274.713	319.56
274.945	340.56
275.176	330.56
275.408	347.56
275.64	325.56
275.872	355.56
276.104	312.56
276.335	324.56
276.567	333.56
276.799	350.56
277.031	339.56
277.262	358.56
277.494	342.56
277.726	346.56
277.957	335.56
278.189	349.56
278.421	358.56
278.652	350.56
278.884	343.56
279.115	372.56
279.347	345.56
279.579	370.56
279.81	361.56
280.042	372.56
280.273	358.56
280.505	345.56
280.736	384.56
280.968	359.56
281.199	365.56
281.431	375.56
281.662	363.56
281.894	362.56
282.125	396.56
282.356	392.56
282.588	402.56
282.819	378.56
283.051	396.56
283.282	397.56
283.513	363.56
283.745	375.56
283.976	388.56
284.207	374.56
284.439	389.56
284.67	391.56
284.901	397.56
285.132	414.56
285.364	407.56
285.595	390.56
285.826	402.56
286.057	408.56
286.288	393.56
286.52	389.56
286.751	409.56
286.982	404.56
287.213	387.56
287.444	380.56
287.675	409.56
287.906	404.56
288.138	394.56
288.369	399.56
288.6	431.56
288.831	413.56
289.062	428.56
289.293	432.56
289.524	438.56
289.755	409.56
289.986	417.56
290.217	435.56
290.448	425.56
290.679	426.56
290.91	421.56
291.141	425.56
291.371	423.56
291.602	420.56
291.833	420.56
292.064	432.56
292.295	429.56
292.526	421.56
292.757	449.56
292.987	434.56
293.218	421.56
293.449	436.56
293.68	414.56
293.91	432.56
294.141	436.56
294.372	420.56
294.603	422.56
294.833	420.56
295.064	444.56
295.295	438.56
295.525	423.56
295.756	455.56
295.987	446.56
296.217	436.56
296.448	446.56
296.679	439.56
296.909	471.56
297.14	440.56
297.37	462.56
297.601	451.56
297.831	459.56
298.062	441.56
298.292	466.56
298.523	456.56
298.753	465.56
298.984	485.56
299.214	476.56
299.445	468.56
299.675	498.56
299.905	496.56
300.136	467.56
300.366	475.56
300.597	477.56
300.827	485.56
301.057	480.56
301.288	487.56
301.518	489.56
301.748	502.56
301.979	508.56
302.209	493.56
302.439	483.56
302.669	481.56
302.9	486.56
303.13	461.56
303.36	482.56
303.59	478.56
303.82	476.56
304.051	481.56
304.281	471.56
304.511	492.56
304.741	485.56
304.971	493.56
305.201	495.56
305.431	489.56
305.661	479.56
305.891	470.56
306.121	469.56
306.352	476.56
306.582	473.56
306.812	473.56
307.042	464.56
307.272	471.56
307.502	500.56
307.731	484.56
307.961	482.56
308.191	484.56
308.421	465.56
308.651	481.56
308.881	474.56
309.111	462.56
309.341	467.56
309.571	478.56
309.8	466.56
310.03	486.56
310.26	467.56
310.49	476.56
310.72	476.56
310.949	469.56
311.179	496.56
311.409	495.56
311.639	500.56
311.868	496.56
312.098	470.56
312.328	489.56
312.557	492.56
312.787	495.56
313.017	499.56
313.246	511.56
313.476	523.56
313.706	516.56
313.935	503.56
314.165	540.56
314.394	493.56
314.624	532.56
314.853	517.56
315.083	524.56
315.312	512.56
315.542	512.56
315.771	514.56
316.001	506.56
316.23	508.56
316.46	493.56
316.689	498.56
316.919	496.56
317.148	517.56
317.377	516.56
317.607	507.56
317.836	505.56
318.065	465.56
318.295	498.56
318.524	499.56
318.753	510.56
318.983	521.56
319.212	485.56
319.441	496.56
319.67	496.56
319.9	493.56
320.129	493.56
320.358	510.56
320.587	514.56
320.816	510.56
321.046	506.56
321.275	489.56
321.504	497.56
321.733	498.56
321.962	516.56
322.191	512.56
322.42	504.56
322.649	531.56
322.878	512.56
323.108	529.56
323.337	513.56
323.566	512.56
323.795	524.56
324.024	522.56
324.253	533.56
324.482	520.56
324.71	504.56
324.939	533.56
325.168	528.56
325.397	520.56
325.626	533.56
325.855	548.56
326.084	572.56
326.313	561.56
326.542	576.56
326.77	603.56
326.999	559.56
327.228	545.56
327.457	566.56
327.686	552.56
327.914	550.56
328.143	584.56
328.372	554.56
328.6	553.56
328.829	537.56
329.058	573.56
329.287	544.56
329.515	558.56
329.744	554.56
329.972	580.56
330.201	565.56
330.43	581.56
330.658	589.56
330.887	595.56
331.115	572.56
331.344	586.56
331.572	582.56
331.801	596.56
332.03	597.56
332.258	620.56
332.486	650.56
332.715	653.56
332.943	686.56
333.172	712.56
333.4	705.56
333.629	777.56
333.857	732.56
334.085	704.56
334.314	704.56
334.542	727.56
334.771	686.56
334.999	694.56
335.227	696.56
335.455	695.56
335.684	700.56
335.912	708.56
336.14	673.56
336.369	674.56
336.597	653.56
336.825	702.56
337.053	656.56
337.281	648.56
337.51	663.56
337.738	657.56
337.966	642.56
338.194	625.56
338.422	618.56
338.65	629.56
338.878	606.56
339.106	606.56
339.334	633.56
339.562	615.56
339.79	574.56
340.018	566.56
340.246	588.56
340.474	570.56
340.702	594.56
340.93	565.56
341.158	580.56
341.386	588.56
341.614	616.56
341.842	578.56
342.07	581.56
342.298	577.56
342.526	584.56
342.754	583.56
342.981	596.56
343.209	576.56
343.437	644.56
343.665	681.56
343.893	704.56
344.12	732.56
344.348	680.56
344.576	630.56
344.804	648.56
345.031	629.56
345.259	607.56
345.487	584.56
345.714	588.56
345.942	578.56
346.17	574.56
346.397	567.56
346.625	573.56
346.853	565.56
347.08	572.56
347.308	569.56
347.535	569.56
347.763	595.56
347.99	584.56
348.218	584.56
348.445	566.56
348.673	568.56
348.9	572.56
349.128	563.56
349.355	562.56
349.583	570.56
349.81	547.56
350.037	567.56
350.265	530.56
350.492	533.56
350.72	540.56
350.947	527.56
351.174	564.56
351.402	552.56
351.629	550.56
351.856	546.56
352.083	537.56
352.311	536.56
352.538	541.56
352.765	548.56
352.992	541.56
353.22	555.56
353.447	536.56
353.674	533.56
353.901	527.56
354.128	539.56
354.355	530.56
354.583	538.56
354.81	557.56
355.037	546.56
355.264	550.56
355.491	555.56
355.718	556.56
355.945	543.56
356.172	556.56
356.399	534.56
356.626	561.56
356.853	553.56
357.08	561.56
357.307	543.56
357.534	555.56
357.761	550.56
357.988	552.56
358.215	541.56
358.441	566.56
358.668	549.56
358.895	550.56
359.122	555.56
359.349	550.56
359.576	533.56
359.802	537.56
360.029	533.56
360.256	532.56
360.483	547.56
360.709	554.56
360.936	541.56
361.163	552.56
361.39	552.56
361.616	535.56
361.843	539.56
362.07	543.56
362.296	538.56
362.523	530.56
362.749	566.56
362.976	548.56
363.203	548.56
363.429	568.56
363.656	578.56
363.882	533.56
364.109	554.56
364.335	546.56
364.562	530.56
364.788	550.56
365.015	536.56
365.241	536.56
365.468	548.56
365.694	553.56
365.92	528.56
366.147	546.56
366.373	530.56
366.599	531.56
366.826	525.56
367.052	553.56
367.278	543.56
367.505	547.56
367.731	546.56
367.957	546.56
368.184	541.56
368.41	563.56
368.636	557.56
368.862	548.56
369.089	533.56
369.315	551.56
369.541	558.56
369.767	569.56
369.993	568.56
370.219	584.56
370.445	577.56
370.672	590.56
370.898	574.56
371.124	582.56
371.35	614.56
371.576	591.56
371.802	584.56
372.028	598.56
372.254	589.56
372.48	598.56
372.706	614.56
372.932	594.56
373.158	615.56
373.384	605.56
373.61	591.56
373.835	594.56
374.061	590.56
374.287	581.56
374.513	601.56
374.739	610.56
374.965	628.56
375.191	670.56
375.416	661.56
375.642	612.56
375.868	642.56
376.094	636.56
376.319	589.56
376.545	605.56
376.771	587.56
376.997	570.56
377.222	596.56
377.448	605.56
377.674	586.56
377.899	605.56
378.125	589.56
378.35	583.56
378.576	596.56
378.802	578.56
379.027	599.56
379.253	571.56
379.478	563.56
379.704	581.56
379.929	593.56
380.155	568.56
380.38	558.56
380.606	609.56
380.831	592.56
381.057	594.56
381.282	593.56
381.507	574.56
381.733	586.56
381.958	584.56
382.184	588.56
382.409	603.56
382.634	598.56
382.86	635.56
383.085	618.56
383.31	634.56
383.535	656.56
383.761	644.56
383.986	664.56
384.211	666.56
384.436	650.56
384.662	694.56
384.887	685.56
385.112	688.56
385.337	708.56
385.562	689.56
385.787	699.56
386.013	733.56
386.238	688.56
386.463	690.56
386.688	710.56
386.913	695.56
387.138	666.56
387.363	689.56
387.588	688.56
387.813	698.56
388.038	706.56
388.263	692.56
388.488	693.56
388.713	708.56
388.938	689.56
389.163	677.56
389.387	673.56
389.612	658.56
389.837	669.56
390.062	671.56
390.287	698.56
390.512	668.56
390.736	680.56
390.961	709.56
391.186	718.56
391.411	739.56
391.636	774.56
391.86	779.56
392.085	819.56
392.31	799.56
392.534	772.56
392.759	748.56
392.984	727.56
393.208	755.56
393.433	751.56
393.658	746.56
393.882	726.56
394.107	767.56
394.331	737.56
394.556	771.56
394.78	787.56
395.005	774.56
395.229	761.56
395.454	786.56
395.678	790.56
395.903	808.56
396.127	760.56
396.352	752.56
396.576	759.56
396.801	748.56
397.025	755.56
397.249	782.56
397.474	789.56
397.698	808.56
397.922	806.56
398.147	788.56
398.371	817.56
398.595	832.56
398.82	838.56
399.044	922.56
399.268	1020.56
399.492	1165.56
399.717	1314.56
399.941	1344.56
400.165	1172.56
400.389	1080.56
400.613	998.56
400.837	922.56
401.062	886.56
401.286	871.56
401.51	856.56
401.734	863.56
401.958	902.56
402.182	895.56
402.406	880.56
402.63	894.56
402.854	924.56
403.078	931.56
403.302	944.56
403.526	987.56
403.75	1004.56
403.974	1038.56
404.198	1009.56
404.422	1042.56
404.645	1032.56
404.869	1019.56
405.093	989.56
405.317	968.56
405.541	990.56
405.765	982.56
405.988	950.56
406.212	944.56
406.436	993.56
406.66	991.56
406.883	1001.56
407.107	1056.56
407.331	1119.56
407.555	1160.56
407.778	1144.56
408.002	1094.56
408.226	1080.56
408.449	1044.56
408.673	999.56
408.896	1005.56
409.12	1021.56
409.344	966.56
409.567	1032.56
409.791	1005.56
410.014	985.56
410.238	996.56
410.461	984.56
410.685	965.56
410.908	936.56
411.132	971.56
411.355	890.56
411.578	905.56
411.802	916.56
412.025	928.56
412.249	945.56
412.472	918.56
412.695	911.56
412.919	902.56
413.142	870.56
413.365	886.56
413.589	902.56
413.812	877.56
414.035	867.56
414.258	868.56
414.482	875.56
414.705	881.56
414.928	910.56
415.151	873.56
415.374	874.56
415.597	855.56
415.821	850.56
416.044	854.56
416.267	849.56
416.49	841.56
416.713	857.56
416.936	863.56
417.159	861.56
417.382	853.56
417.605	848.56
417.828	867.56
418.051	864.56
418.274	898.56
418.497	877.56
418.72	930.56
418.943	926.56
419.166	935.56
419.389	1006.56
419.611	977.56
419.834	932.56
420.057	911.56
420.28	894.56
420.503	864.56
420.726	887.56
420.948	835.56
421.171	839.56
421.394	857.56
421.617	850.56
421.839	874.56
422.062	875.56
422.285	882.56
422.507	900.56
422.73	897.56
422.953	884.56
423.175	904.56
423.398	924.56
423.621	876.56
423.843	922.56
424.066	886.56
424.288	926.56
424.511	924.56
424.733	916.56
424.956	893.56
425.178	859.56
425.401	902.56
425.623	880.56
425.846	844.56
426.068	829.56
426.291	817.56
426.513	841.56
426.735	835.56
426.958	821.56
427.18	789.56
427.402	781.56
427.625	802.56
427.847	783.56
428.069	792.56
428.292	782.56
428.514	769.56
428.736	746.56
428.958	806.56
429.181	753.56
429.403	730.56
429.625	736.56
429.847	759.56
430.069	752.56
430.292	765.56
430.514	765.56
430.736	769.56
430.958	776.56
431.18	738.56
431.402	763.56
431.624	772.56
431.846	777.56
432.068	784.56
432.29	823.56
432.512	777.56
432.734	793.56
432.956	744.56
433.178	779.56
433.4	800.56
433.622	796.56
433.844	786.56
434.066	786.56
434.287	780.56
434.509	828.56
434.731	845.56
434.953	887.56
435.175	889.56
435.397	864.56
435.618	816.56
435.84	798.56
436.062	794.56
436.284	812.56
436.505	761.56
436.727	790.56
436.949	776.56
437.17	788.56
437.392	748.56
437.614	768.56
437.835	736.56
438.057	755.56
438.278	744.56
438.5	741.56
438.721	746.56
438.943	765.56
439.165	738.56
439.386	746.56
439.608	755.56
439.829	770.56
440.05	758.56
440.272	786.56
440.493	783.56
440.715	802.56
440.936	792.56
441.158	809.56
441.379	829.56
441.6	846.56
441.822	898.56
442.043	875.56
442.264	862.56
442.486	844.56
442.707	860.56
442.928	838.56
443.149	858.56
443.371	836.56
443.592	832.56
443.813	860.56
444.034	884.56
444.255	930.56
444.476	937.56
444.698	981.56
444.919	1036.56
445.14	1115.56
445.361	960.56
445.582	897.56
445.803	850.56
446.024	797.56
446.245	812.56
446.466	809.56
446.687	761.56
446.908	786.56
447.129	752.56
447.35	764.56
447.571	739.56
447.792	756.56
448.013	722.56
448.234	717.56
448.455	741.56
448.675	717.56
448.896	710.56
449.117	701.56
449.338	705.56
449.559	689.56
449.779	684.56
450	707.56
450.221	710.56
450.442	684.56
450.662	716.56
450.883	721.56
451.104	745.56
451.324	736.56
451.545	743.56
451.766	729.56
451.986	711.56
452.207	694.56
452.428	707.56
452.648	694.56
452.869	690.56
453.089	703.56
453.31	690.56
453.53	710.56
453.751	689.56
453.971	676.56
454.192	666.56
454.412	689.56
454.633	660.56
454.853	656.56
455.073	674.56
455.294	645.56
455.514	651.56
455.734	665.56
455.955	657.56
456.175	688.56
456.395	668.56
456.616	658.56
456.836	659.56
457.056	678.56
457.276	650.56
457.497	664.56
457.717	644.56
457.937	675.56
458.157	692.56
458.377	681.56
458.598	706.56
458.818	707.56
459.038	739.56
459.258	731.56
459.478	765.56
459.698	805.56
459.918	828.56
460.138	825.56
460.358	878.56
460.578	897.56
460.798	924.56
461.018	924.56
461.238	921.56
461.458	872.56
461.678	904.56
461.898	902.56
462.118	914.56
462.338	932.56
462.558	979.56
462.777	1015.56
462.997	1129.56
463.217	1221.56
463.437	1214.56
463.657	1140.56
463.876	1053.56
464.096	1031.56
464.316	1067.56
464.536	1061.56
464.755	1008.56
464.975	1008.56
465.195	940.56
465.414	892.56
465.634	857.56
465.854	806.56
466.073	788.56
466.293	791.56
466.512	756.56
466.732	728.56
466.951	727.56
467.171	733.56
467.391	742.56
467.61	742.56
467.829	755.56
468.049	746.56
468.268	717.56
468.488	716.56
468.707	692.56
468.927	682.56
469.146	721.56
469.365	709.56
469.585	734.56
469.804	760.56
470.023	756.56
470.243	768.56
470.462	727.56
470.681	788.56
470.901	772.56
471.12	770.56
471.339	772.56
471.558	742.56
471.777	712.56
471.997	736.56
472.216	708.56
472.435	703.56
472.654	679.56
472.873	708.56
473.092	688.56
473.311	698.56
473.53	696.56
473.749	690.56
473.968	688.56
474.187	662.56
474.406	663.56
474.625	682.56
474.844	692.56
475.063	709.56
475.282	729.56
475.501	705.56
475.72	694.56
475.939	706.56
476.158	727.56
476.377	719.56
476.596	727.56
476.814	732.56
477.033	718.56
477.252	745.56
477.471	762.56
477.69	772.56
477.908	779.56
478.127	856.56
478.346	823.56
478.564	833.56
478.783	870.56
479.002	916.56
479.22	852.56
479.439	880.56
479.658	858.56
479.876	888.56
480.095	856.56
480.313	892.56
480.532	940.56
480.751	929.56
480.969	897.56
481.188	856.56
481.406	852.56
481.624	845.56
481.843	784.56
482.061	790.56
482.28	803.56
482.498	795.56
482.717	781.56
482.935	816.56
483.153	822.56
483.372	801.56
483.59	782.56
483.808	794.56
484.027	787.56
484.245	786.56
484.463	802.56
484.681	813.56
484.9	828.56
485.118	833.56
485.336	849.56
485.554	819.56
485.772	846.56
485.99	836.56
486.209	848.56
486.427	827.56
486.645	828.56
486.863	858.56
487.081	842.56
487.299	854.56
487.517	840.56
487.735	856.56
487.953	860.56
488.171	820.56
488.389	824.56
488.607	795.56
488.825	816.56
489.043	812.56
489.261	821.56
489.479	859.56
489.696	853.56
489.914	819.56
490.132	861.56
490.35	839.56
490.568	826.56
490.786	842.56
491.003	868.56
491.221	877.56
491.439	866.56
491.657	840.56
491.874	857.56
492.092	884.56
492.31	844.56
492.527	852.56
492.745	878.56
492.963	870.56
493.18	854.56
493.398	883.56
493.615	872.56
493.833	901.56
494.05	916.56
494.268	922.56
494.485	896.56
494.703	921.56
494.92	921.56
495.138	891.56
495.355	906.56
495.573	898.56
495.79	885.56
496.008	906.56
496.225	910.56
496.442	912.56
496.66	915.56
496.877	945.56
497.094	960.56
497.312	967.56
497.529	1005.56
497.746	1001.56
497.963	1025.56
498.181	1081.56
498.398	1150.56
498.615	1183.56
498.832	1266.56
499.049	1367.56
499.267	1466.56
499.484	1594.56
499.701	1781.56
499.918	1961.56
500.135	2246.56
500.352	2572.56
500.569	2674.56
500.786	2631.56
