Data from NiCl2@0.125M.TitratingCurve.Agarose3%dH2O.NegLispCup.LampEnergy10.LIBS07252019_HRD10591_18-27-22-574.txt Node
Date: Thu Jul 25 18:27:22 EDT 2019
User: cochatt
Spectrometer: HR+D1059
Trigger mode: 1
Integration Time (sec): 1.000000E-1
Scans to average: 1
Electric dark correction enabled: true
Nonlinearity correction enabled: false
Boxcar width: 0
XAxis mode: Wavelengths
Number of Pixels in Spectrum: 2048
>>>>>Begin Spectral Data<<<<<
223.165	-4.88
223.4	-4.88
223.635	-4.88
223.869	-20.88
224.104	-23.88
224.338	-12.88
224.573	-18.88
224.808	-10.88
225.042	-3.88
225.277	-3.88
225.511	3.12
225.746	8.12
225.98	-3.88
226.215	14.12
226.449	16.12
226.683	20.12
226.918	13.12
227.152	29.12
227.387	33.12
227.621	28.12
227.856	42.12
228.09	47.12
228.324	53.12
228.559	61.12
228.793	82.12
229.027	119.12
229.262	128.12
229.496	136.12
229.73	145.12
229.964	133.12
230.199	136.12
230.433	129.12
230.667	147.12
230.901	136.12
231.136	163.12
231.37	147.12
231.604	152.12
231.838	167.12
232.072	161.12
232.306	172.12
232.541	150.12
232.775	151.12
233.009	165.12
233.243	153.12
233.477	158.12
233.711	165.12
233.945	160.12
234.179	171.12
234.413	155.12
234.647	166.12
234.881	165.12
235.115	176.12
235.349	166.12
235.583	180.12
235.817	166.12
236.051	166.12
236.285	167.12
236.519	197.12
236.753	173.12
236.987	186.12
237.221	175.12
237.455	181.12
237.689	174.12
237.922	183.12
238.156	196.12
238.39	187.12
238.624	176.12
238.858	190.12
239.091	195.12
239.325	195.12
239.559	198.12
239.793	193.12
240.027	197.12
240.26	214.12
240.494	197.12
240.728	219.12
240.961	212.12
241.195	216.12
241.429	206.12
241.662	216.12
241.896	199.12
242.13	214.12
242.363	215.12
242.597	222.12
242.83	221.12
243.064	233.12
243.298	231.12
243.531	249.12
243.765	225.12
243.998	224.12
244.232	228.12
244.465	254.12
244.699	248.12
244.932	240.12
245.166	233.12
245.399	267.12
245.633	239.12
245.866	242.12
246.099	228.12
246.333	245.12
246.566	248.12
246.8	257.12
247.033	261.12
247.266	238.12
247.5	251.12
247.733	261.12
247.966	262.12
248.2	276.12
248.433	266.12
248.666	279.12
248.899	279.12
249.133	279.12
249.366	268.12
249.599	285.12
249.832	281.12
250.066	288.12
250.299	287.12
250.532	287.12
250.765	277.12
250.998	289.12
251.231	302.12
251.465	299.12
251.698	303.12
251.931	302.12
252.164	318.12
252.397	319.12
252.63	329.12
252.863	312.12
253.096	310.12
253.329	325.12
253.562	313.12
253.795	323.12
254.028	325.12
254.261	300.12
254.494	311.12
254.727	329.12
254.96	326.12
255.193	330.12
255.426	331.12
255.659	331.12
255.892	321.12
256.124	333.12
256.357	330.12
256.59	334.12
256.823	341.12
257.056	346.12
257.289	336.12
257.521	354.12
257.754	337.12
257.987	350.12
258.22	350.12
258.452	347.12
258.685	378.12
258.918	355.12
259.151	348.12
259.383	367.12
259.616	355.12
259.849	368.12
260.081	373.12
260.314	377.12
260.547	364.12
260.779	381.12
261.012	368.12
261.244	375.12
261.477	387.12
261.71	385.12
261.942	381.12
262.175	378.12
262.407	375.12
262.64	373.12
262.872	392.12
263.105	396.12
263.337	397.12
263.57	376.12
263.802	391.12
264.035	418.12
264.267	380.12
264.499	389.12
264.732	381.12
264.964	427.12
265.197	423.12
265.429	399.12
265.661	395.12
265.894	416.12
266.126	401.12
266.358	392.12
266.591	407.12
266.823	420.12
267.055	436.12
267.287	414.12
267.52	421.12
267.752	409.12
267.984	421.12
268.216	425.12
268.448	432.12
268.681	432.12
268.913	437.12
269.145	435.12
269.377	448.12
269.609	421.12
269.841	445.12
270.073	443.12
270.306	440.12
270.538	420.12
270.77	439.12
271.002	429.12
271.234	442.12
271.466	448.12
271.698	434.12
271.93	426.12
272.162	447.12
272.394	450.12
272.626	469.12
272.858	449.12
273.09	459.12
273.322	452.12
273.553	441.12
273.785	475.12
274.017	464.12
274.249	460.12
274.481	465.12
274.713	478.12
274.945	490.12
275.176	470.12
275.408	455.12
275.64	487.12
275.872	481.12
276.104	487.12
276.335	503.12
276.567	522.12
276.799	493.12
277.031	492.12
277.262	491.12
277.494	503.12
277.726	487.12
277.957	489.12
278.189	494.12
278.421	498.12
278.652	524.12
278.884	516.12
279.115	508.12
279.347	519.12
279.579	532.12
279.81	538.12
280.042	515.12
280.273	544.12
280.505	535.12
280.736	540.12
280.968	540.12
281.199	536.12
281.431	547.12
281.662	540.12
281.894	548.12
282.125	563.12
282.356	587.12
282.588	564.12
282.819	549.12
283.051	559.12
283.282	561.12
283.513	568.12
283.745	579.12
283.976	569.12
284.207	551.12
284.439	548.12
284.67	581.12
284.901	560.12
285.132	569.12
285.364	585.12
285.595	560.12
285.826	588.12
286.057	584.12
286.288	575.12
286.52	582.12
286.751	592.12
286.982	586.12
287.213	591.12
287.444	608.12
287.675	579.12
287.906	573.12
288.138	601.12
288.369	611.12
288.6	597.12
288.831	604.12
289.062	608.12
289.293	606.12
289.524	605.12
289.755	582.12
289.986	594.12
290.217	628.12
290.448	605.12
290.679	589.12
290.91	638.12
291.141	609.12
291.371	619.12
291.602	614.12
291.833	597.12
292.064	607.12
292.295	615.12
292.526	629.12
292.757	605.12
292.987	606.12
293.218	623.12
293.449	630.12
293.68	631.12
293.91	642.12
294.141	604.12
294.372	621.12
294.603	620.12
294.833	609.12
295.064	638.12
295.295	635.12
295.525	629.12
295.756	627.12
295.987	604.12
296.217	643.12
296.448	616.12
296.679	629.12
296.909	612.12
297.14	655.12
297.37	661.12
297.601	642.12
297.831	645.12
298.062	655.12
298.292	683.12
298.523	667.12
298.753	682.12
298.984	677.12
299.214	639.12
299.445	686.12
299.675	653.12
299.905	674.12
300.136	683.12
300.366	641.12
300.597	655.12
300.827	713.12
301.057	685.12
301.288	680.12
301.518	686.12
301.748	701.12
301.979	715.12
302.209	714.12
302.439	703.12
302.669	704.12
302.9	679.12
303.13	697.12
303.36	696.12
303.59	688.12
303.82	701.12
304.051	702.12
304.281	684.12
304.511	695.12
304.741	701.12
304.971	696.12
305.201	703.12
305.431	696.12
305.661	699.12
305.891	680.12
306.121	713.12
306.352	679.12
306.582	689.12
306.812	681.12
307.042	693.12
307.272	686.12
307.502	678.12
307.731	686.12
307.961	692.12
308.191	677.12
308.421	671.12
308.651	664.12
308.881	713.12
309.111	688.12
309.341	663.12
309.571	699.12
309.8	687.12
310.03	679.12
310.26	695.12
310.49	687.12
310.72	694.12
310.949	697.12
311.179	725.12
311.409	716.12
311.639	687.12
311.868	686.12
312.098	723.12
312.328	705.12
312.557	716.12
312.787	737.12
313.017	725.12
313.246	749.12
313.476	716.12
313.706	723.12
313.935	718.12
314.165	731.12
314.394	763.12
314.624	765.12
314.853	741.12
315.083	734.12
315.312	752.12
315.542	741.12
315.771	720.12
316.001	765.12
316.23	748.12
316.46	721.12
316.689	711.12
316.919	750.12
317.148	752.12
317.377	735.12
317.607	747.12
317.836	705.12
318.065	710.12
318.295	736.12
318.524	724.12
318.753	726.12
318.983	723.12
319.212	719.12
319.441	700.12
319.67	715.12
319.9	720.12
320.129	724.12
320.358	734.12
320.587	720.12
320.816	733.12
321.046	721.12
321.275	724.12
321.504	745.12
321.733	734.12
321.962	746.12
322.191	750.12
322.42	728.12
322.649	733.12
322.878	721.12
323.108	742.12
323.337	763.12
323.566	751.12
323.795	764.12
324.024	749.12
324.253	765.12
324.482	725.12
324.71	729.12
324.939	778.12
325.168	761.12
325.397	780.12
325.626	762.12
325.855	793.12
326.084	808.12
326.313	822.12
326.542	799.12
326.77	800.12
326.999	803.12
327.228	801.12
327.457	785.12
327.686	799.12
327.914	779.12
328.143	797.12
328.372	797.12
328.6	792.12
328.829	827.12
329.058	777.12
329.287	790.12
329.515	794.12
329.744	804.12
329.972	800.12
330.201	829.12
330.43	796.12
330.658	820.12
330.887	791.12
331.115	822.12
331.344	842.12
331.572	855.12
331.801	843.12
332.03	880.12
332.258	893.12
332.486	905.12
332.715	931.12
332.943	968.12
333.172	1006.12
333.4	1054.12
333.629	1099.12
333.857	1073.12
334.085	1075.12
334.314	1050.12
334.542	1060.12
334.771	1040.12
334.999	1000.12
335.227	1037.12
335.455	996.12
335.684	1021.12
335.912	992.12
336.14	971.12
336.369	943.12
336.597	1001.12
336.825	933.12
337.053	953.12
337.281	938.12
337.51	909.12
337.738	901.12
337.966	896.12
338.194	902.12
338.422	862.12
338.65	896.12
338.878	860.12
339.106	874.12
339.334	863.12
339.562	868.12
339.79	837.12
340.018	843.12
340.246	835.12
340.474	839.12
340.702	843.12
340.93	831.12
341.158	854.12
341.386	855.12
341.614	837.12
341.842	838.12
342.07	842.12
342.298	847.12
342.526	838.12
342.754	846.12
342.981	844.12
343.209	861.12
343.437	908.12
343.665	942.12
343.893	993.12
344.12	1050.12
344.348	1004.12
344.576	926.12
344.804	925.12
345.031	895.12
345.259	833.12
345.487	846.12
345.714	861.12
345.942	843.12
346.17	846.12
346.397	838.12
346.625	811.12
346.853	807.12
347.08	804.12
347.308	781.12
347.535	781.12
347.763	802.12
347.99	807.12
348.218	816.12
348.445	832.12
348.673	824.12
348.9	794.12
349.128	785.12
349.355	802.12
349.583	768.12
349.81	800.12
350.037	769.12
350.265	795.12
350.492	779.12
350.72	777.12
350.947	783.12
351.174	763.12
351.402	792.12
351.629	793.12
351.856	766.12
352.083	767.12
352.311	747.12
352.538	763.12
352.765	761.12
352.992	770.12
353.22	742.12
353.447	790.12
353.674	775.12
353.901	792.12
354.128	773.12
354.355	748.12
354.583	750.12
354.81	797.12
355.037	785.12
355.264	772.12
355.491	763.12
355.718	791.12
355.945	758.12
356.172	779.12
356.399	790.12
356.626	819.12
356.853	820.12
357.08	788.12
357.307	791.12
357.534	789.12
357.761	770.12
357.988	789.12
358.215	753.12
358.441	740.12
358.668	790.12
358.895	808.12
359.122	800.12
359.349	775.12
359.576	794.12
359.802	764.12
360.029	769.12
360.256	760.12
360.483	785.12
360.709	761.12
360.936	794.12
361.163	775.12
361.39	756.12
361.616	781.12
361.843	780.12
362.07	790.12
362.296	793.12
362.523	782.12
362.749	800.12
362.976	783.12
363.203	773.12
363.429	775.12
363.656	767.12
363.882	780.12
364.109	776.12
364.335	741.12
364.562	756.12
364.788	793.12
365.015	791.12
365.241	768.12
365.468	751.12
365.694	777.12
365.92	775.12
366.147	770.12
366.373	773.12
366.599	773.12
366.826	783.12
367.052	764.12
367.278	773.12
367.505	778.12
367.731	776.12
367.957	789.12
368.184	791.12
368.41	791.12
368.636	795.12
368.862	789.12
369.089	765.12
369.315	807.12
369.541	811.12
369.767	825.12
369.993	812.12
370.219	816.12
370.445	810.12
370.672	838.12
370.898	826.12
371.124	840.12
371.35	850.12
371.576	846.12
371.802	855.12
372.028	846.12
372.254	841.12
372.48	833.12
372.706	866.12
372.932	907.12
373.158	896.12
373.384	866.12
373.61	852.12
373.835	847.12
374.061	847.12
374.287	871.12
374.513	868.12
374.739	902.12
374.965	917.12
375.191	926.12
375.416	940.12
375.642	910.12
375.868	884.12
376.094	877.12
376.319	888.12
376.545	856.12
376.771	838.12
376.997	845.12
377.222	821.12
377.448	840.12
377.674	841.12
377.899	843.12
378.125	825.12
378.35	824.12
378.576	846.12
378.802	807.12
379.027	820.12
379.253	852.12
379.478	832.12
379.704	845.12
379.929	835.12
380.155	844.12
380.38	833.12
380.606	841.12
380.831	824.12
381.057	855.12
381.282	842.12
381.507	881.12
381.733	845.12
381.958	852.12
382.184	862.12
382.409	876.12
382.634	876.12
382.86	878.12
383.085	889.12
383.31	910.12
383.535	910.12
383.761	890.12
383.986	940.12
384.211	943.12
384.436	971.12
384.662	996.12
384.887	1004.12
385.112	1012.12
385.337	1019.12
385.562	1019.12
385.787	1036.12
386.013	1067.12
386.238	1043.12
386.463	1035.12
386.688	1039.12
386.913	998.12
387.138	1018.12
387.363	1035.12
387.588	1019.12
387.813	1019.12
388.038	1019.12
388.263	1017.12
388.488	1043.12
388.713	1035.12
388.938	1006.12
389.163	1011.12
389.387	1017.12
389.612	977.12
389.837	1027.12
390.062	987.12
390.287	998.12
390.512	983.12
390.736	1014.12
390.961	1057.12
391.186	1089.12
391.411	1067.12
391.636	1100.12
391.86	1118.12
392.085	1175.12
392.31	1150.12
392.534	1147.12
392.759	1147.12
392.984	1103.12
393.208	1095.12
393.433	1080.12
393.658	1079.12
393.882	1087.12
394.107	1091.12
394.331	1089.12
394.556	1121.12
394.78	1107.12
395.005	1133.12
395.229	1111.12
395.454	1147.12
395.678	1178.12
395.903	1167.12
396.127	1159.12
396.352	1114.12
396.576	1085.12
396.801	1093.12
397.025	1132.12
397.249	1166.12
397.474	1185.12
397.698	1180.12
397.922	1158.12
398.147	1149.12
398.371	1180.12
398.595	1233.12
398.82	1272.12
399.044	1352.12
399.268	1503.12
399.492	1713.12
399.717	1919.12
399.941	1933.12
400.165	1767.12
400.389	1581.12
400.613	1458.12
400.837	1390.12
401.062	1344.12
401.286	1335.12
401.51	1315.12
401.734	1277.12
401.958	1311.12
402.182	1345.12
402.406	1332.12
402.63	1400.12
402.854	1362.12
403.078	1395.12
403.302	1419.12
403.526	1484.12
403.75	1484.12
403.974	1504.12
404.198	1462.12
404.422	1505.12
404.645	1488.12
404.869	1437.12
405.093	1477.12
405.317	1433.12
405.541	1457.12
405.765	1430.12
405.988	1425.12
406.212	1444.12
406.436	1379.12
406.66	1447.12
406.883	1491.12
407.107	1545.12
407.331	1651.12
407.555	1652.12
407.778	1648.12
408.002	1653.12
408.226	1579.12
408.449	1563.12
408.673	1479.12
408.896	1481.12
409.12	1478.12
409.344	1506.12
409.567	1421.12
409.791	1454.12
410.014	1431.12
410.238	1424.12
410.461	1419.12
410.685	1362.12
410.908	1356.12
411.132	1381.12
411.355	1322.12
411.578	1347.12
411.802	1379.12
412.025	1325.12
412.249	1366.12
412.472	1335.12
412.695	1289.12
412.919	1307.12
413.142	1308.12
413.365	1287.12
413.589	1314.12
413.812	1275.12
414.035	1303.12
414.258	1262.12
414.482	1262.12
414.705	1300.12
414.928	1319.12
415.151	1340.12
415.374	1285.12
415.597	1310.12
415.821	1245.12
416.044	1239.12
416.267	1282.12
416.49	1263.12
416.713	1260.12
416.936	1273.12
417.159	1238.12
417.382	1255.12
417.605	1267.12
417.828	1258.12
418.051	1245.12
418.274	1283.12
418.497	1278.12
418.72	1305.12
418.943	1319.12
419.166	1380.12
419.389	1488.12
419.611	1462.12
419.834	1388.12
420.057	1350.12
420.28	1288.12
420.503	1275.12
420.726	1251.12
420.948	1223.12
421.171	1257.12
421.394	1275.12
421.617	1280.12
421.839	1290.12
422.062	1260.12
422.285	1257.12
422.507	1291.12
422.73	1298.12
422.953	1296.12
423.175	1320.12
423.398	1327.12
423.621	1369.12
423.843	1334.12
424.066	1307.12
424.288	1332.12
424.511	1351.12
424.733	1317.12
424.956	1356.12
425.178	1277.12
425.401	1250.12
425.623	1315.12
425.846	1251.12
426.068	1221.12
426.291	1220.12
426.513	1187.12
426.735	1197.12
426.958	1203.12
427.18	1197.12
427.402	1175.12
427.625	1170.12
427.847	1152.12
428.069	1170.12
428.292	1162.12
428.514	1135.12
428.736	1134.12
428.958	1140.12
429.181	1111.12
429.403	1113.12
429.625	1131.12
429.847	1072.12
430.069	1084.12
430.292	1130.12
430.514	1118.12
430.736	1110.12
430.958	1132.12
431.18	1138.12
431.402	1097.12
431.624	1131.12
431.846	1097.12
432.068	1130.12
432.29	1170.12
432.512	1123.12
432.734	1157.12
432.956	1142.12
433.178	1177.12
433.4	1127.12
433.622	1147.12
433.844	1171.12
434.066	1148.12
434.287	1139.12
434.509	1203.12
434.731	1215.12
434.953	1269.12
435.175	1279.12
435.397	1261.12
435.618	1212.12
435.84	1184.12
436.062	1148.12
436.284	1166.12
436.505	1158.12
436.727	1146.12
436.949	1109.12
437.17	1108.12
437.392	1116.12
437.614	1129.12
437.835	1091.12
438.057	1117.12
438.278	1088.12
438.5	1102.12
438.721	1093.12
438.943	1093.12
439.165	1126.12
439.386	1102.12
439.608	1079.12
439.829	1155.12
440.05	1146.12
440.272	1154.12
440.493	1110.12
440.715	1145.12
440.936	1169.12
441.158	1191.12
441.379	1228.12
441.6	1275.12
441.822	1290.12
442.043	1286.12
442.264	1269.12
442.486	1251.12
442.707	1234.12
442.928	1254.12
443.149	1252.12
443.371	1260.12
443.592	1221.12
443.813	1271.12
444.034	1304.12
444.255	1344.12
444.476	1408.12
444.698	1482.12
444.919	1503.12
445.14	1619.12
445.361	1455.12
445.582	1292.12
445.803	1269.12
446.024	1258.12
446.245	1205.12
446.466	1210.12
446.687	1143.12
446.908	1153.12
447.129	1127.12
447.35	1120.12
447.571	1076.12
447.792	1056.12
448.013	1095.12
448.234	1055.12
448.455	1030.12
448.675	1042.12
448.896	1049.12
449.117	1011.12
449.338	1076.12
449.559	1037.12
449.779	1012.12
450	1000.12
450.221	1007.12
450.442	1017.12
450.662	1013.12
450.883	1004.12
451.104	1071.12
451.324	1053.12
451.545	1047.12
451.766	1058.12
451.986	1041.12
452.207	1035.12
452.428	1011.12
452.648	1015.12
452.869	980.12
453.089	997.12
453.31	1023.12
453.53	1000.12
453.751	1010.12
453.971	977.12
454.192	1022.12
454.412	992.12
454.633	1001.12
454.853	977.12
455.073	984.12
455.294	981.12
455.514	942.12
455.734	974.12
455.955	938.12
456.175	971.12
456.395	953.12
456.616	948.12
456.836	975.12
457.056	959.12
457.276	956.12
457.497	959.12
457.717	984.12
457.937	974.12
458.157	1012.12
458.377	991.12
458.598	1011.12
458.818	1027.12
459.038	1082.12
459.258	1111.12
459.478	1150.12
459.698	1187.12
459.918	1158.12
460.138	1267.12
460.358	1316.12
460.578	1297.12
460.798	1334.12
461.018	1342.12
461.238	1337.12
461.458	1343.12
461.678	1344.12
461.898	1353.12
462.118	1372.12
462.338	1441.12
462.558	1471.12
462.777	1557.12
462.997	1621.12
463.217	1749.12
463.437	1741.12
463.657	1625.12
463.876	1627.12
464.096	1554.12
464.316	1544.12
464.536	1576.12
464.755	1521.12
464.975	1441.12
465.195	1372.12
465.414	1280.12
465.634	1242.12
465.854	1199.12
466.073	1151.12
466.293	1134.12
466.512	1111.12
466.732	1071.12
466.951	1085.12
467.171	1084.12
467.391	1082.12
467.61	1076.12
467.829	1060.12
468.049	1074.12
468.268	1053.12
468.488	1077.12
468.707	1061.12
468.927	1049.12
469.146	1056.12
469.365	1077.12
469.585	1077.12
469.804	1065.12
470.023	1096.12
470.243	1124.12
470.462	1141.12
470.681	1110.12
470.901	1133.12
471.12	1122.12
471.339	1091.12
471.558	1044.12
471.777	1093.12
471.997	1051.12
472.216	1049.12
472.435	1054.12
472.654	1052.12
472.873	993.12
473.092	1023.12
473.311	999.12
473.53	1001.12
473.749	993.12
473.968	1015.12
474.187	1028.12
474.406	995.12
474.625	1028.12
474.844	1001.12
475.063	1007.12
475.282	1028.12
475.501	1027.12
475.72	1049.12
475.939	1047.12
476.158	1073.12
476.377	1087.12
476.596	1065.12
476.814	1054.12
477.033	1058.12
477.252	1085.12
477.471	1116.12
477.69	1163.12
477.908	1191.12
478.127	1211.12
478.346	1232.12
478.564	1231.12
478.783	1282.12
479.002	1278.12
479.22	1287.12
479.439	1235.12
479.658	1255.12
479.876	1259.12
480.095	1297.12
480.313	1299.12
480.532	1354.12
480.751	1333.12
480.969	1289.12
481.188	1271.12
481.406	1248.12
481.624	1193.12
481.843	1178.12
482.061	1155.12
482.28	1168.12
482.498	1165.12
482.717	1169.12
482.935	1173.12
483.153	1139.12
483.372	1146.12
483.59	1179.12
483.808	1190.12
484.027	1150.12
484.245	1186.12
484.463	1164.12
484.681	1190.12
484.9	1184.12
485.118	1214.12
485.336	1209.12
485.554	1191.12
485.772	1201.12
485.99	1182.12
486.209	1213.12
486.427	1232.12
486.645	1221.12
486.863	1200.12
487.081	1215.12
487.299	1215.12
487.517	1221.12
487.735	1243.12
487.953	1224.12
488.171	1203.12
488.389	1194.12
488.607	1207.12
488.825	1200.12
489.043	1196.12
489.261	1191.12
489.479	1175.12
489.696	1203.12
489.914	1192.12
490.132	1198.12
490.35	1194.12
490.568	1206.12
490.786	1249.12
491.003	1210.12
491.221	1259.12
491.439	1241.12
491.657	1230.12
491.874	1228.12
492.092	1249.12
492.31	1210.12
492.527	1235.12
492.745	1239.12
492.963	1248.12
493.18	1238.12
493.398	1263.12
493.615	1269.12
493.833	1244.12
494.05	1270.12
494.268	1263.12
494.485	1300.12
494.703	1289.12
494.92	1312.12
