Data from NiCl2@0.25M.TitratingCurve.Agarose3%dH2O.NegLispCup.LampEnergy10.LIBS07252019_HRD10591_18-26-13-574.txt Node
Date: Thu Jul 25 18:26:13 EDT 2019
User: cochatt
Spectrometer: HR+D1059
Trigger mode: 1
Integration Time (sec): 1.000000E-1
Scans to average: 1
Electric dark correction enabled: true
Nonlinearity correction enabled: false
Boxcar width: 0
XAxis mode: Wavelengths
Number of Pixels in Spectrum: 2048
>>>>>Begin Spectral Data<<<<<
223.165	-20.5
223.4	-20.5
223.635	-20.5
223.869	-21.5
224.104	-17.5
224.338	-24.5
224.573	-17.5
224.808	-12.5
225.042	4.5
225.277	-11.5
225.511	6.5
225.746	5.5
225.98	1.5
226.215	6.5
226.449	16.5
226.683	16.5
226.918	33.5
227.152	34.5
227.387	41.5
227.621	47.5
227.856	41.5
228.09	39.5
228.324	52.5
228.559	54.5
228.793	65.5
229.027	121.5
229.262	132.5
229.496	122.5
229.73	124.5
229.964	135.5
230.199	144.5
230.433	138.5
230.667	138.5
230.901	159.5
231.136	152.5
231.37	142.5
231.604	145.5
231.838	176.5
232.072	148.5
232.306	169.5
232.541	164.5
232.775	167.5
233.009	162.5
233.243	161.5
233.477	159.5
233.711	179.5
233.945	183.5
234.179	171.5
234.413	162.5
234.647	162.5
234.881	179.5
235.115	174.5
235.349	179.5
235.583	167.5
235.817	170.5
236.051	169.5
236.285	182.5
236.519	176.5
236.753	172.5
236.987	185.5
237.221	171.5
237.455	179.5
237.689	176.5
237.922	201.5
238.156	197.5
238.39	195.5
238.624	179.5
238.858	205.5
239.091	202.5
239.325	202.5
239.559	192.5
239.793	212.5
240.027	224.5
240.26	204.5
240.494	218.5
240.728	213.5
240.961	221.5
241.195	212.5
241.429	221.5
241.662	231.5
241.896	232.5
242.13	226.5
242.363	223.5
242.597	221.5
242.83	227.5
243.064	244.5
243.298	239.5
243.531	242.5
243.765	244.5
243.998	252.5
244.232	218.5
244.465	240.5
244.699	254.5
244.932	247.5
245.166	255.5
245.399	243.5
245.633	238.5
245.866	262.5
246.099	266.5
246.333	258.5
246.566	247.5
246.8	272.5
247.033	248.5
247.266	282.5
247.5	283.5
247.733	281.5
247.966	272.5
248.2	293.5
248.433	294.5
248.666	287.5
248.899	293.5
249.133	289.5
249.366	293.5
249.599	291.5
249.832	297.5
250.066	292.5
250.299	295.5
250.532	289.5
250.765	302.5
250.998	302.5
251.231	310.5
251.465	307.5
251.698	295.5
251.931	311.5
252.164	327.5
252.397	321.5
252.63	305.5
252.863	315.5
253.096	337.5
253.329	326.5
253.562	330.5
253.795	314.5
254.028	329.5
254.261	327.5
254.494	327.5
254.727	343.5
254.96	343.5
255.193	329.5
255.426	338.5
255.659	359.5
255.892	338.5
256.124	351.5
256.357	335.5
256.59	356.5
256.823	353.5
257.056	348.5
257.289	382.5
257.521	363.5
257.754	354.5
257.987	359.5
258.22	376.5
258.452	355.5
258.685	344.5
258.918	376.5
259.151	356.5
259.383	371.5
259.616	368.5
259.849	391.5
260.081	384.5
260.314	391.5
260.547	386.5
260.779	374.5
261.012	372.5
261.244	374.5
261.477	382.5
261.71	401.5
261.942	404.5
262.175	411.5
262.407	419.5
262.64	386.5
262.872	392.5
263.105	408.5
263.337	366.5
263.57	400.5
263.802	412.5
264.035	407.5
264.267	422.5
264.499	393.5
264.732	414.5
264.964	436.5
265.197	410.5
265.429	406.5
265.661	433.5
265.894	434.5
266.126	420.5
266.358	423.5
266.591	408.5
266.823	448.5
267.055	410.5
267.287	447.5
267.52	422.5
267.752	418.5
267.984	464.5
268.216	434.5
268.448	462.5
268.681	429.5
268.913	449.5
269.145	440.5
269.377	456.5
269.609	450.5
269.841	474.5
270.073	466.5
270.306	452.5
270.538	446.5
270.77	459.5
271.002	461.5
271.234	450.5
271.466	463.5
271.698	466.5
271.93	478.5
272.162	475.5
272.394	482.5
272.626	454.5
272.858	472.5
273.09	483.5
273.322	476.5
273.553	475.5
273.785	487.5
274.017	490.5
274.249	502.5
274.481	507.5
274.713	481.5
274.945	502.5
275.176	514.5
275.408	508.5
275.64	511.5
275.872	511.5
276.104	517.5
276.335	476.5
276.567	530.5
276.799	497.5
277.031	516.5
277.262	535.5
277.494	539.5
277.726	524.5
277.957	497.5
278.189	500.5
278.421	549.5
278.652	508.5
278.884	556.5
279.115	541.5
279.347	545.5
279.579	535.5
279.81	544.5
280.042	553.5
280.273	539.5
280.505	544.5
280.736	545.5
280.968	541.5
281.199	546.5
281.431	569.5
281.662	568.5
281.894	577.5
282.125	560.5
282.356	560.5
282.588	588.5
282.819	560.5
283.051	601.5
283.282	591.5
283.513	607.5
283.745	577.5
283.976	588.5
284.207	584.5
284.439	575.5
284.67	603.5
284.901	586.5
285.132	594.5
285.364	586.5
285.595	612.5
285.826	588.5
286.057	598.5
286.288	590.5
286.52	608.5
286.751	600.5
286.982	603.5
287.213	606.5
287.444	602.5
287.675	622.5
287.906	620.5
288.138	608.5
288.369	623.5
288.6	614.5
288.831	634.5
289.062	651.5
289.293	626.5
289.524	627.5
289.755	634.5
289.986	625.5
290.217	619.5
290.448	638.5
290.679	620.5
290.91	662.5
291.141	650.5
291.371	636.5
291.602	642.5
291.833	638.5
292.064	630.5
292.295	625.5
292.526	649.5
292.757	635.5
292.987	647.5
293.218	639.5
293.449	643.5
293.68	643.5
293.91	638.5
294.141	677.5
294.372	639.5
294.603	624.5
294.833	655.5
295.064	636.5
295.295	684.5
295.525	642.5
295.756	640.5
295.987	628.5
296.217	678.5
296.448	662.5
296.679	668.5
296.909	673.5
297.14	681.5
297.37	692.5
297.601	698.5
297.831	667.5
298.062	697.5
298.292	702.5
298.523	708.5
298.753	722.5
298.984	722.5
299.214	719.5
299.445	711.5
299.675	690.5
299.905	698.5
300.136	701.5
300.366	684.5
300.597	701.5
300.827	708.5
301.057	715.5
301.288	738.5
301.518	743.5
301.748	740.5
301.979	723.5
302.209	750.5
302.439	736.5
302.669	750.5
302.9	740.5
303.13	725.5
303.36	735.5
303.59	734.5
303.82	721.5
304.051	773.5
304.281	747.5
304.511	734.5
304.741	712.5
304.971	716.5
305.201	734.5
305.431	703.5
305.661	726.5
305.891	732.5
306.121	712.5
306.352	750.5
306.582	712.5
306.812	706.5
307.042	708.5
307.272	723.5
307.502	688.5
307.731	718.5
307.961	724.5
308.191	712.5
308.421	729.5
308.651	716.5
308.881	685.5
309.111	700.5
309.341	711.5
309.571	728.5
309.8	730.5
310.03	737.5
310.26	709.5
310.49	704.5
310.72	726.5
310.949	705.5
311.179	728.5
311.409	722.5
311.639	727.5
311.868	752.5
312.098	728.5
312.328	762.5
312.557	735.5
312.787	721.5
313.017	753.5
313.246	756.5
313.476	743.5
313.706	752.5
313.935	772.5
314.165	767.5
314.394	758.5
314.624	758.5
314.853	743.5
315.083	754.5
315.312	745.5
315.542	767.5
315.771	755.5
316.001	762.5
316.23	755.5
316.46	744.5
316.689	761.5
316.919	731.5
317.148	767.5
317.377	748.5
317.607	737.5
317.836	736.5
318.065	745.5
318.295	742.5
318.524	734.5
318.753	737.5
318.983	741.5
319.212	727.5
319.441	740.5
319.67	755.5
319.9	728.5
320.129	753.5
320.358	731.5
320.587	753.5
320.816	743.5
321.046	746.5
321.275	762.5
321.504	743.5
321.733	774.5
321.962	768.5
322.191	775.5
322.42	786.5
322.649	750.5
322.878	773.5
323.108	750.5
323.337	768.5
323.566	762.5
323.795	773.5
324.024	776.5
324.253	767.5
324.482	746.5
324.71	784.5
324.939	805.5
325.168	786.5
325.397	754.5
325.626	809.5
325.855	812.5
326.084	798.5
326.313	840.5
326.542	796.5
326.77	838.5
326.999	824.5
327.228	806.5
327.457	824.5
327.686	809.5
327.914	809.5
328.143	841.5
328.372	831.5
328.6	804.5
328.829	823.5
329.058	810.5
329.287	827.5
329.515	833.5
329.744	846.5
329.972	855.5
330.201	849.5
330.43	870.5
330.658	863.5
330.887	830.5
331.115	851.5
331.344	874.5
331.572	868.5
331.801	891.5
332.03	900.5
332.258	935.5
332.486	947.5
332.715	994.5
332.943	997.5
333.172	1051.5
333.4	1095.5
333.629	1123.5
333.857	1154.5
334.085	1152.5
334.314	1099.5
334.542	1063.5
334.771	1109.5
334.999	1046.5
335.227	1067.5
335.455	1044.5
335.684	1043.5
335.912	1050.5
336.14	1030.5
336.369	994.5
336.597	1003.5
336.825	1003.5
337.053	998.5
337.281	995.5
337.51	961.5
337.738	937.5
337.966	942.5
338.194	916.5
338.422	901.5
338.65	875.5
338.878	894.5
339.106	906.5
339.334	892.5
339.562	903.5
339.79	862.5
340.018	857.5
340.246	874.5
340.474	858.5
340.702	850.5
340.93	879.5
341.158	882.5
341.386	894.5
341.614	873.5
341.842	870.5
342.07	866.5
342.298	871.5
342.526	842.5
342.754	863.5
342.981	850.5
343.209	892.5
343.437	910.5
343.665	975.5
343.893	1043.5
344.12	1062.5
344.348	1028.5
344.576	992.5
344.804	931.5
345.031	907.5
345.259	878.5
345.487	882.5
345.714	853.5
345.942	843.5
346.17	850.5
346.397	852.5
346.625	841.5
346.853	841.5
347.08	831.5
347.308	856.5
347.535	846.5
347.763	852.5
347.99	848.5
348.218	863.5
348.445	857.5
348.673	841.5
348.9	826.5
349.128	822.5
349.355	806.5
349.583	815.5
349.81	792.5
350.037	807.5
350.265	823.5
350.492	830.5
350.72	820.5
350.947	806.5
351.174	803.5
351.402	823.5
351.629	805.5
351.856	803.5
352.083	815.5
352.311	807.5
352.538	803.5
352.765	812.5
352.992	781.5
353.22	776.5
353.447	794.5
353.674	766.5
353.901	786.5
354.128	786.5
354.355	779.5
354.583	780.5
354.81	777.5
355.037	824.5
355.264	789.5
355.491	789.5
355.718	799.5
355.945	831.5
356.172	806.5
356.399	816.5
356.626	818.5
356.853	826.5
357.08	814.5
357.307	816.5
357.534	802.5
357.761	825.5
357.988	816.5
358.215	814.5
358.441	783.5
358.668	790.5
358.895	803.5
359.122	784.5
359.349	772.5
359.576	810.5
359.802	804.5
360.029	793.5
360.256	809.5
360.483	806.5
360.709	787.5
360.936	822.5
361.163	821.5
361.39	822.5
361.616	781.5
361.843	816.5
362.07	793.5
362.296	808.5
362.523	793.5
362.749	834.5
362.976	789.5
363.203	791.5
363.429	792.5
363.656	801.5
363.882	800.5
364.109	804.5
364.335	804.5
364.562	807.5
364.788	758.5
365.015	807.5
365.241	792.5
365.468	806.5
365.694	783.5
365.92	814.5
366.147	788.5
366.373	785.5
366.599	786.5
366.826	796.5
367.052	796.5
367.278	796.5
367.505	807.5
367.731	812.5
367.957	807.5
368.184	815.5
368.41	804.5
368.636	802.5
368.862	819.5
369.089	847.5
369.315	804.5
369.541	842.5
369.767	827.5
369.993	816.5
370.219	839.5
370.445	834.5
370.672	844.5
370.898	843.5
371.124	853.5
371.35	862.5
371.576	894.5
371.802	876.5
372.028	855.5
372.254	878.5
372.48	869.5
372.706	905.5
372.932	913.5
373.158	909.5
373.384	891.5
373.61	899.5
373.835	888.5
374.061	886.5
374.287	901.5
374.513	887.5
374.739	906.5
374.965	959.5
375.191	969.5
375.416	969.5
375.642	914.5
375.868	939.5
376.094	942.5
376.319	906.5
376.545	920.5
376.771	886.5
376.997	849.5
377.222	896.5
377.448	871.5
377.674	861.5
377.899	888.5
378.125	880.5
378.35	844.5
378.576	856.5
378.802	869.5
379.027	850.5
379.253	870.5
379.478	848.5
379.704	856.5
379.929	860.5
380.155	870.5
380.38	861.5
380.606	875.5
380.831	848.5
381.057	887.5
381.282	887.5
381.507	864.5
381.733	870.5
381.958	871.5
382.184	901.5
382.409	901.5
382.634	920.5
382.86	896.5
383.085	927.5
383.31	932.5
383.535	930.5
383.761	951.5
383.986	986.5
384.211	1003.5
384.436	1028.5
384.662	1014.5
384.887	1056.5
385.112	1027.5
385.337	1053.5
385.562	1078.5
385.787	1075.5
386.013	1081.5
386.238	1069.5
386.463	1051.5
386.688	1064.5
386.913	1046.5
387.138	1051.5
387.363	1031.5
387.588	1012.5
387.813	1009.5
388.038	1040.5
388.263	1036.5
388.488	1042.5
388.713	1027.5
388.938	1075.5
389.163	1031.5
389.387	1012.5
389.612	1027.5
389.837	1023.5
390.062	1011.5
390.287	1054.5
390.512	1015.5
390.736	1029.5
390.961	1071.5
391.186	1094.5
391.411	1112.5
391.636	1160.5
391.86	1206.5
392.085	1191.5
392.31	1187.5
392.534	1161.5
392.759	1132.5
392.984	1108.5
393.208	1112.5
393.433	1146.5
393.658	1104.5
393.882	1110.5
394.107	1139.5
394.331	1140.5
394.556	1109.5
394.78	1126.5
395.005	1145.5
395.229	1150.5
395.454	1179.5
395.678	1195.5
395.903	1189.5
396.127	1194.5
396.352	1155.5
396.576	1136.5
396.801	1136.5
397.025	1146.5
397.249	1162.5
397.474	1201.5
397.698	1177.5
397.922	1198.5
398.147	1213.5
398.371	1216.5
398.595	1266.5
398.82	1330.5
399.044	1407.5
399.268	1565.5
399.492	1795.5
399.717	2009.5
399.941	2027.5
400.165	1837.5
400.389	1662.5
400.613	1537.5
400.837	1417.5
401.062	1396.5
401.286	1369.5
401.51	1360.5
401.734	1322.5
401.958	1336.5
402.182	1350.5
402.406	1390.5
402.63	1384.5
402.854	1407.5
403.078	1456.5
403.302	1486.5
403.526	1510.5
403.75	1556.5
403.974	1551.5
404.198	1573.5
404.422	1570.5
404.645	1520.5
404.869	1512.5
405.093	1532.5
405.317	1502.5
405.541	1454.5
405.765	1469.5
405.988	1466.5
406.212	1515.5
406.436	1487.5
406.66	1488.5
406.883	1513.5
407.107	1593.5
407.331	1704.5
407.555	1713.5
407.778	1709.5
408.002	1688.5
408.226	1644.5
408.449	1590.5
408.673	1564.5
408.896	1501.5
409.12	1544.5
409.344	1524.5
409.567	1511.5
409.791	1506.5
410.014	1473.5
410.238	1476.5
410.461	1482.5
410.685	1468.5
410.908	1461.5
411.132	1416.5
411.355	1380.5
411.578	1415.5
411.802	1352.5
412.025	1372.5
412.249	1406.5
412.472	1412.5
412.695	1361.5
412.919	1298.5
413.142	1304.5
413.365	1336.5
413.589	1339.5
413.812	1279.5
414.035	1296.5
414.258	1327.5
414.482	1316.5
414.705	1335.5
414.928	1314.5
415.151	1358.5
415.374	1317.5
415.597	1332.5
415.821	1300.5
416.044	1303.5
416.267	1312.5
416.49	1290.5
416.713	1277.5
416.936	1290.5
417.159	1270.5
417.382	1285.5
417.605	1296.5
417.828	1298.5
418.051	1330.5
418.274	1287.5
418.497	1329.5
418.72	1353.5
418.943	1355.5
419.166	1445.5
419.389	1516.5
419.611	1478.5
419.834	1440.5
420.057	1393.5
420.28	1343.5
420.503	1319.5
420.726	1319.5
420.948	1287.5
421.171	1293.5
421.394	1284.5
421.617	1284.5
421.839	1311.5
422.062	1304.5
422.285	1286.5
422.507	1362.5
422.73	1332.5
422.953	1334.5
423.175	1342.5
423.398	1368.5
423.621	1373.5
423.843	1351.5
424.066	1390.5
424.288	1385.5
424.511	1369.5
424.733	1331.5
424.956	1321.5
425.178	1348.5
425.401	1314.5
425.623	1312.5
425.846	1282.5
426.068	1303.5
426.291	1268.5
426.513	1246.5
426.735	1202.5
426.958	1227.5
427.18	1186.5
427.402	1183.5
427.625	1195.5
427.847	1189.5
428.069	1164.5
428.292	1154.5
428.514	1153.5
428.736	1143.5
428.958	1145.5
429.181	1132.5
429.403	1136.5
429.625	1124.5
429.847	1144.5
430.069	1126.5
430.292	1108.5
430.514	1108.5
430.736	1129.5
430.958	1094.5
431.18	1155.5
431.402	1165.5
431.624	1138.5
431.846	1196.5
432.068	1150.5
432.29	1205.5
432.512	1163.5
432.734	1162.5
432.956	1151.5
433.178	1144.5
433.4	1153.5
433.622	1150.5
433.844	1141.5
434.066	1151.5
434.287	1168.5
434.509	1224.5
434.731	1244.5
434.953	1300.5
435.175	1314.5
435.397	1318.5
435.618	1239.5
435.84	1196.5
436.062	1151.5
436.284	1158.5
436.505	1161.5
436.727	1174.5
436.949	1170.5
437.17	1155.5
437.392	1147.5
437.614	1102.5
437.835	1082.5
438.057	1115.5
438.278	1077.5
438.5	1101.5
438.721	1092.5
438.943	1081.5
439.165	1080.5
439.386	1114.5
439.608	1130.5
439.829	1107.5
440.05	1131.5
440.272	1157.5
440.493	1147.5
440.715	1194.5
440.936	1182.5
441.158	1208.5
441.379	1258.5
441.6	1304.5
441.822	1316.5
442.043	1292.5
442.264	1308.5
442.486	1253.5
442.707	1287.5
442.928	1273.5
443.149	1228.5
443.371	1249.5
443.592	1288.5
443.813	1288.5
444.034	1279.5
444.255	1335.5
444.476	1407.5
444.698	1485.5
444.919	1568.5
445.14	1602.5
445.361	1467.5
445.582	1378.5
445.803	1284.5
446.024	1226.5
446.245	1219.5
446.466	1162.5
446.687	1170.5
446.908	1174.5
447.129	1123.5
447.35	1108.5
447.571	1100.5
447.792	1073.5
448.013	1074.5
448.234	1104.5
448.455	1051.5
448.675	1055.5
448.896	1058.5
449.117	1028.5
449.338	1047.5
449.559	1036.5
449.779	1019.5
450	1009.5
450.221	1004.5
450.442	1047.5
450.662	1042.5
450.883	1050.5
451.104	1057.5
451.324	1088.5
451.545	1066.5
451.766	1076.5
451.986	1040.5
452.207	1067.5
452.428	1048.5
452.648	1030.5
452.869	1028.5
453.089	1023.5
453.31	1040.5
453.53	1007.5
453.751	1026.5
453.971	1027.5
454.192	1022.5
454.412	985.5
454.633	992.5
454.853	986.5
455.073	977.5
455.294	991.5
455.514	948.5
455.734	956.5
455.955	981.5
456.175	993.5
456.395	986.5
456.616	938.5
456.836	978.5
457.056	978.5
457.276	948.5
457.497	1010.5
457.717	983.5
457.937	983.5
458.157	996.5
458.377	1032.5
458.598	1048.5
458.818	1066.5
459.038	1108.5
459.258	1129.5
459.478	1186.5
459.698	1218.5
459.918	1228.5
460.138	1267.5
460.358	1308.5
460.578	1365.5
460.798	1379.5
461.018	1385.5
461.238	1384.5
461.458	1399.5
461.678	1360.5
461.898	1401.5
462.118	1420.5
462.338	1479.5
462.558	1511.5
462.777	1609.5
462.997	1732.5
463.217	1850.5
463.437	1835.5
463.657	1726.5
463.876	1651.5
464.096	1624.5
464.316	1625.5
464.536	1648.5
464.755	1539.5
464.975	1501.5
465.195	1449.5
465.414	1358.5
465.634	1257.5
465.854	1228.5
466.073	1218.5
466.293	1182.5
466.512	1159.5
466.732	1128.5
466.951	1107.5
467.171	1113.5
467.391	1108.5
467.61	1109.5
467.829	1088.5
468.049	1095.5
468.268	1081.5
468.488	1052.5
468.707	1065.5
468.927	1061.5
469.146	1033.5
469.365	1061.5
469.585	1072.5
469.804	1109.5
470.023	1127.5
470.243	1132.5
470.462	1148.5
470.681	1152.5
470.901	1150.5
471.12	1136.5
471.339	1114.5
471.558	1080.5
471.777	1079.5
471.997	1090.5
472.216	1038.5
472.435	1052.5
472.654	1037.5
472.873	1034.5
473.092	1013.5
473.311	1041.5
473.53	1001.5
473.749	1019.5
473.968	1021.5
474.187	1023.5
474.406	1023.5
474.625	1065.5
474.844	1024.5
475.063	1040.5
475.282	1050.5
475.501	1074.5
475.72	1084.5
475.939	1077.5
476.158	1109.5
476.377	1119.5
476.596	1082.5
476.814	1097.5
477.033	1109.5
477.252	1152.5
477.471	1145.5
477.69	1146.5
477.908	1191.5
478.127	1234.5
478.346	1247.5
478.564	1304.5
478.783	1275.5
479.002	1309.5
479.22	1311.5
479.439	1307.5
479.658	1307.5
479.876	1287.5
480.095	1337.5
480.313	1377.5
480.532	1367.5
480.751	1402.5
480.969	1350.5
481.188	1302.5
481.406	1272.5
481.624	1239.5
481.843	1230.5
482.061	1202.5
482.28	1189.5
482.498	1203.5
482.717	1186.5
482.935	1196.5
483.153	1158.5
483.372	1185.5
483.59	1188.5
483.808	1183.5
484.027	1212.5
484.245	1228.5
484.463	1214.5
484.681	1236.5
484.9	1235.5
485.118	1236.5
485.336	1243.5
485.554	1258.5
485.772	1244.5
485.99	1279.5
486.209	1267.5
486.427	1257.5
486.645	1273.5
486.863	1266.5
487.081	1244.5
487.299	1257.5
487.517	1255.5
487.735	1254.5
487.953	1278.5
488.171	1242.5
488.389	1234.5
488.607	1236.5
488.825	1237.5
489.043	1222.5
489.261	1283.5
489.479	1226.5
489.696	1235.5
489.914	1239.5
490.132	1252.5
490.35	1234.5
490.568	1232.5
490.786	1266.5
491.003	1234.5
491.221	1268.5
491.439	1275.5
491.657	1265.5
491.874	1250.5
492.092	1278.5
492.31	1280.5
492.527	1261.5
492.745	1299.5
492.963	1299.5
493.18	1307.5
493.398	1256.5
493.615	1269.5
493.833	1287.5
494.05	1311.5
494.268	1303.5
494.485	1374.5
494.703	1357.5
494.92	1329.5
495.138	1344.5
495.355	1356.5
495.573	1331.5
495.79	1371.5
496.008	1353.5
496.225	1362.5
496.442	1384.5
496.66	1395.5
496.877	1358.5
497.094	1406.5
497.312	1466.5
497.529	1458.5
497.746	1547.5
497.963	1637.5
498.181	1656.5
498.398	1713.5
498.615	1817.5
498.832	1947.5
499.049	2097.5
499.267	2294.5
499.484	2479.5
499.701	2814.5
499.918	3069.5
500.135	3541.5
500.352	3942.5
500.569	4203.5
500.786	4146.5
501.003	3860.5
501.22	3500.5
501.437	3071.5
501.654	2695.5
501.871	2495.5
502.088	2229.5
502.305	2073.5
502.522	1983.5
502.739	1895.5
502.956	1803.5
503.172	1739.5
503.389	1664.5
503.606	1613.5
503.823	1599.5
504.04	1552.5
504.256	1573.5
504.473	1619.5
504.69	1611.5
504.907	1627.5
505.123	1466.5
505.34	1393.5
505.557	1345.5
505.773	1320.5
505.99	1294.5
506.207	1272.5
506.423	1232.5
506.64	1232.5
506.856	1208.5
507.073	1231.5
507.289	1194.5
507.506	1162.5
507.722	1171.5
507.939	1184.5
508.155	1116.5
508.372	1147.5
508.588	1149.5
508.805	1128.5
509.021	1092.5
509.238	1131.5
509.454	1112.5
509.67	1087.5
509.887	1092.5
510.103	1071.5
510.319	1067.5
510.536	1120.5
510.752	1088.5
510.968	1043.5
511.184	1068.5
