Data from NiCl2@0.0625M.TitratingCurve.Agarose3%dH2O.NegLispCup.LampEnergy10.LIBS07252019_HRD10591_18-34-07-577.txt Node
Date: Thu Jul 25 18:34:07 EDT 2019
User: cochatt
Spectrometer: HR+D1059
Trigger mode: 1
Integration Time (sec): 1.000000E-1
Scans to average: 1
Electric dark correction enabled: true
Nonlinearity correction enabled: false
Boxcar width: 0
XAxis mode: Wavelengths
Number of Pixels in Spectrum: 2048
>>>>>Begin Spectral Data<<<<<
223.165	-10.44
223.4	-10.44
223.635	-10.44
223.869	-20.44
224.104	-9.44
224.338	-13.44
224.573	-8.44
224.808	-22.44
225.042	-21.44
225.277	-14.44
225.511	-2.44
225.746	-5.44
225.98	0.56
226.215	7.56
226.449	14.56
226.683	32.56
226.918	31.56
227.152	41.56
227.387	27.56
227.621	32.56
227.856	50.56
228.09	47.56
228.324	64.56
228.559	53.56
228.793	66.56
229.027	132.56
229.262	156.56
229.496	140.56
229.73	153.56
229.964	174.56
230.199	182.56
230.433	166.56
230.667	174.56
230.901	166.56
231.136	174.56
231.37	179.56
231.604	190.56
231.838	194.56
232.072	175.56
232.306	202.56
232.541	198.56
232.775	188.56
233.009	199.56
233.243	197.56
233.477	206.56
233.711	202.56
233.945	202.56
234.179	208.56
234.413	199.56
234.647	218.56
234.881	215.56
235.115	219.56
235.349	204.56
235.583	218.56
235.817	207.56
236.051	216.56
236.285	224.56
236.519	210.56
236.753	200.56
236.987	225.56
237.221	218.56
237.455	225.56
237.689	242.56
237.922	233.56
238.156	259.56
238.39	240.56
238.624	234.56
238.858	240.56
239.091	245.56
239.325	222.56
239.559	238.56
239.793	265.56
240.027	254.56
240.26	257.56
240.494	260.56
240.728	262.56
240.961	263.56
241.195	271.56
241.429	267.56
241.662	260.56
241.896	283.56
242.13	275.56
242.363	284.56
242.597	301.56
242.83	292.56
243.064	276.56
243.298	301.56
243.531	299.56
243.765	293.56
243.998	288.56
244.232	310.56
244.465	316.56
244.699	314.56
244.932	310.56
245.166	327.56
245.399	340.56
245.633	340.56
245.866	327.56
246.099	319.56
246.333	339.56
246.566	330.56
246.8	327.56
247.033	346.56
247.266	328.56
247.5	330.56
247.733	338.56
247.966	355.56
248.2	360.56
248.433	375.56
248.666	349.56
248.899	356.56
249.133	363.56
249.366	356.56
249.599	380.56
249.832	366.56
250.066	384.56
250.299	377.56
250.532	381.56
250.765	379.56
250.998	394.56
251.231	404.56
251.465	410.56
251.698	414.56
251.931	393.56
252.164	410.56
252.397	397.56
252.63	404.56
252.863	415.56
253.096	419.56
253.329	425.56
253.562	435.56
253.795	419.56
254.028	437.56
254.261	434.56
254.494	436.56
254.727	428.56
254.96	433.56
255.193	440.56
255.426	448.56
255.659	439.56
255.892	440.56
256.124	484.56
256.357	448.56
256.59	455.56
256.823	472.56
257.056	475.56
257.289	428.56
257.521	441.56
257.754	466.56
257.987	477.56
258.22	494.56
258.452	499.56
258.685	485.56
258.918	489.56
259.151	469.56
259.383	499.56
259.616	500.56
259.849	499.56
260.081	487.56
260.314	508.56
260.547	512.56
260.779	514.56
261.012	517.56
261.244	500.56
261.477	499.56
261.71	512.56
261.942	519.56
262.175	510.56
262.407	540.56
262.64	502.56
262.872	528.56
263.105	534.56
263.337	542.56
263.57	536.56
263.802	531.56
264.035	531.56
264.267	550.56
264.499	560.56
264.732	538.56
264.964	535.56
265.197	555.56
265.429	544.56
265.661	561.56
265.894	558.56
266.126	575.56
266.358	558.56
266.591	571.56
266.823	586.56
267.055	546.56
267.287	590.56
267.52	572.56
267.752	588.56
267.984	584.56
268.216	593.56
268.448	580.56
268.681	600.56
268.913	561.56
269.145	595.56
269.377	591.56
269.609	601.56
269.841	614.56
270.073	585.56
270.306	594.56
270.538	611.56
270.77	614.56
271.002	604.56
271.234	623.56
271.466	610.56
271.698	600.56
271.93	628.56
272.162	621.56
272.394	629.56
272.626	631.56
272.858	642.56
273.09	640.56
273.322	664.56
273.553	656.56
273.785	654.56
274.017	666.56
274.249	647.56
274.481	648.56
274.713	647.56
274.945	691.56
275.176	694.56
275.408	674.56
275.64	674.56
275.872	666.56
276.104	712.56
276.335	691.56
276.567	674.56
276.799	707.56
277.031	681.56
277.262	698.56
277.494	676.56
277.726	676.56
277.957	704.56
278.189	674.56
278.421	676.56
278.652	704.56
278.884	723.56
279.115	730.56
279.347	702.56
279.579	734.56
279.81	719.56
280.042	726.56
280.273	731.56
280.505	746.56
280.736	732.56
280.968	736.56
281.199	743.56
281.431	767.56
281.662	744.56
281.894	753.56
282.125	734.56
282.356	740.56
282.588	777.56
282.819	752.56
283.051	768.56
283.282	758.56
283.513	770.56
283.745	769.56
283.976	764.56
284.207	796.56
284.439	775.56
284.67	805.56
284.901	789.56
285.132	790.56
285.364	796.56
285.595	793.56
285.826	782.56
286.057	806.56
286.288	818.56
286.52	820.56
286.751	799.56
286.982	802.56
287.213	816.56
287.444	818.56
287.675	831.56
287.906	826.56
288.138	818.56
288.369	805.56
288.6	844.56
288.831	832.56
289.062	860.56
289.293	805.56
289.524	851.56
289.755	844.56
289.986	851.56
290.217	856.56
290.448	818.56
290.679	838.56
290.91	868.56
291.141	852.56
291.371	848.56
291.602	841.56
291.833	852.56
292.064	862.56
292.295	843.56
292.526	861.56
292.757	840.56
292.987	834.56
293.218	822.56
293.449	881.56
293.68	859.56
293.91	867.56
294.141	855.56
294.372	836.56
294.603	870.56
294.833	857.56
295.064	865.56
295.295	868.56
295.525	860.56
295.756	880.56
295.987	841.56
296.217	877.56
296.448	896.56
296.679	900.56
296.909	855.56
297.14	886.56
297.37	894.56
297.601	923.56
297.831	920.56
298.062	899.56
298.292	908.56
298.523	947.56
298.753	910.56
298.984	931.56
299.214	922.56
299.445	898.56
299.675	924.56
299.905	961.56
300.136	928.56
300.366	933.56
300.597	950.56
300.827	962.56
301.057	982.56
301.288	975.56
301.518	971.56
301.748	971.56
301.979	1007.56
302.209	977.56
302.439	974.56
302.669	941.56
302.9	980.56
303.13	993.56
303.36	972.56
303.59	976.56
303.82	983.56
304.051	1003.56
304.281	960.56
304.511	969.56
304.741	988.56
304.971	994.56
305.201	982.56
305.431	1000.56
305.661	983.56
305.891	966.56
306.121	978.56
306.352	980.56
306.582	987.56
306.812	942.56
307.042	960.56
307.272	947.56
307.502	960.56
307.731	978.56
307.961	982.56
308.191	947.56
308.421	960.56
308.651	934.56
308.881	953.56
309.111	998.56
309.341	994.56
309.571	997.56
309.8	969.56
310.03	975.56
310.26	963.56
310.49	979.56
310.72	961.56
310.949	972.56
311.179	968.56
311.409	987.56
311.639	973.56
311.868	983.56
312.098	1013.56
312.328	1002.56
312.557	1022.56
312.787	1032.56
313.017	1026.56
313.246	1019.56
313.476	995.56
313.706	1039.56
313.935	1040.56
314.165	1046.56
314.394	1037.56
314.624	1067.56
314.853	1024.56
315.083	1059.56
315.312	1053.56
315.542	1018.56
315.771	1039.56
316.001	1046.56
316.23	1026.56
316.46	1067.56
316.689	1052.56
316.919	998.56
317.148	1028.56
317.377	1040.56
317.607	1011.56
317.836	1036.56
318.065	1055.56
318.295	1031.56
318.524	1028.56
318.753	1034.56
318.983	1037.56
319.212	1005.56
319.441	1036.56
319.67	1031.56
319.9	1018.56
320.129	1046.56
320.358	1039.56
320.587	1033.56
320.816	1051.56
321.046	1045.56
321.275	1057.56
321.504	1045.56
321.733	1047.56
321.962	1051.56
322.191	1042.56
322.42	1044.56
322.649	1054.56
322.878	1040.56
323.108	1058.56
323.337	1072.56
323.566	1070.56
323.795	1076.56
324.024	1078.56
324.253	1086.56
324.482	1074.56
324.71	1054.56
324.939	1087.56
325.168	1078.56
325.397	1060.56
325.626	1105.56
325.855	1097.56
326.084	1121.56
326.313	1130.56
326.542	1094.56
326.77	1147.56
326.999	1154.56
327.228	1130.56
327.457	1112.56
327.686	1099.56
327.914	1126.56
328.143	1129.56
328.372	1135.56
328.6	1140.56
328.829	1148.56
329.058	1138.56
329.287	1134.56
329.515	1121.56
329.744	1162.56
329.972	1152.56
330.201	1141.56
330.43	1160.56
330.658	1163.56
330.887	1176.56
331.115	1192.56
331.344	1210.56
331.572	1193.56
331.801	1184.56
332.03	1234.56
332.258	1270.56
332.486	1280.56
332.715	1267.56
332.943	1340.56
333.172	1358.56
333.4	1385.56
333.629	1402.56
333.857	1438.56
334.085	1449.56
334.314	1438.56
334.542	1414.56
334.771	1420.56
334.999	1397.56
335.227	1399.56
335.455	1392.56
335.684	1420.56
335.912	1373.56
336.14	1354.56
336.369	1355.56
336.597	1352.56
336.825	1332.56
337.053	1354.56
337.281	1331.56
337.51	1307.56
337.738	1269.56
337.966	1270.56
338.194	1253.56
338.422	1243.56
338.65	1221.56
338.878	1228.56
339.106	1237.56
339.334	1218.56
339.562	1214.56
339.79	1204.56
340.018	1196.56
340.246	1210.56
340.474	1176.56
340.702	1167.56
340.93	1164.56
341.158	1185.56
341.386	1191.56
341.614	1184.56
341.842	1177.56
342.07	1143.56
342.298	1165.56
342.526	1170.56
342.754	1182.56
342.981	1205.56
343.209	1198.56
343.437	1257.56
343.665	1292.56
343.893	1355.56
344.12	1431.56
344.348	1386.56
344.576	1340.56
344.804	1266.56
345.031	1221.56
345.259	1228.56
345.487	1209.56
345.714	1235.56
345.942	1177.56
346.17	1185.56
346.397	1169.56
346.625	1155.56
346.853	1161.56
347.08	1121.56
347.308	1112.56
347.535	1116.56
347.763	1141.56
347.99	1128.56
348.218	1141.56
348.445	1129.56
348.673	1123.56
348.9	1145.56
349.128	1129.56
349.355	1118.56
349.583	1138.56
349.81	1116.56
350.037	1108.56
350.265	1133.56
350.492	1113.56
350.72	1125.56
350.947	1079.56
351.174	1134.56
351.402	1094.56
351.629	1098.56
351.856	1085.56
352.083	1113.56
352.311	1098.56
352.538	1092.56
352.765	1085.56
352.992	1088.56
353.22	1109.56
353.447	1096.56
353.674	1108.56
353.901	1094.56
354.128	1102.56
354.355	1100.56
354.583	1094.56
354.81	1084.56
355.037	1108.56
355.264	1105.56
355.491	1093.56
355.718	1106.56
355.945	1118.56
356.172	1106.56
356.399	1112.56
356.626	1106.56
356.853	1145.56
357.08	1106.56
357.307	1118.56
357.534	1098.56
357.761	1098.56
357.988	1102.56
358.215	1095.56
358.441	1105.56
358.668	1090.56
358.895	1090.56
359.122	1094.56
359.349	1122.56
359.576	1113.56
359.802	1076.56
360.029	1086.56
360.256	1081.56
360.483	1111.56
360.709	1096.56
360.936	1099.56
361.163	1076.56
361.39	1099.56
361.616	1095.56
361.843	1124.56
362.07	1116.56
362.296	1100.56
362.523	1110.56
362.749	1095.56
362.976	1091.56
363.203	1098.56
363.429	1107.56
363.656	1122.56
363.882	1100.56
364.109	1093.56
364.335	1110.56
364.562	1110.56
364.788	1091.56
365.015	1103.56
365.241	1097.56
365.468	1106.56
365.694	1129.56
365.92	1083.56
366.147	1111.56
366.373	1086.56
366.599	1095.56
366.826	1096.56
367.052	1077.56
367.278	1138.56
367.505	1104.56
367.731	1100.56
367.957	1122.56
368.184	1102.56
368.41	1126.56
368.636	1143.56
368.862	1136.56
369.089	1142.56
369.315	1139.56
369.541	1144.56
369.767	1178.56
369.993	1140.56
370.219	1144.56
370.445	1142.56
370.672	1169.56
370.898	1176.56
371.124	1162.56
371.35	1199.56
371.576	1233.56
371.802	1189.56
372.028	1174.56
372.254	1192.56
372.48	1233.56
372.706	1220.56
372.932	1230.56
373.158	1226.56
373.384	1189.56
373.61	1202.56
373.835	1191.56
374.061	1173.56
374.287	1214.56
374.513	1223.56
374.739	1278.56
374.965	1282.56
375.191	1291.56
375.416	1317.56
375.642	1291.56
375.868	1266.56
376.094	1221.56
376.319	1224.56
376.545	1216.56
376.771	1216.56
376.997	1201.56
377.222	1194.56
377.448	1158.56
377.674	1199.56
377.899	1178.56
378.125	1190.56
378.35	1171.56
378.576	1182.56
378.802	1168.56
379.027	1162.56
379.253	1183.56
379.478	1154.56
379.704	1169.56
379.929	1180.56
380.155	1180.56
380.38	1175.56
380.606	1184.56
380.831	1171.56
381.057	1166.56
381.282	1190.56
381.507	1195.56
381.733	1154.56
381.958	1200.56
382.184	1243.56
382.409	1227.56
382.634	1282.56
382.86	1228.56
383.085	1225.56
383.31	1281.56
383.535	1271.56
383.761	1268.56
383.986	1331.56
384.211	1327.56
384.436	1343.56
384.662	1359.56
384.887	1382.56
385.112	1377.56
385.337	1393.56
385.562	1373.56
385.787	1418.56
386.013	1424.56
386.238	1407.56
386.463	1438.56
386.688	1417.56
386.913	1363.56
387.138	1378.56
387.363	1394.56
387.588	1381.56
387.813	1406.56
388.038	1396.56
388.263	1408.56
388.488	1431.56
388.713	1444.56
388.938	1419.56
389.163	1395.56
389.387	1409.56
389.612	1401.56
389.837	1398.56
390.062	1407.56
390.287	1388.56
390.512	1398.56
390.736	1426.56
390.961	1461.56
391.186	1460.56
391.411	1484.56
391.636	1508.56
391.86	1526.56
392.085	1595.56
392.31	1549.56
392.534	1513.56
392.759	1530.56
392.984	1500.56
393.208	1478.56
393.433	1483.56
393.658	1495.56
393.882	1474.56
394.107	1458.56
394.331	1518.56
394.556	1487.56
394.78	1519.56
395.005	1539.56
395.229	1542.56
395.454	1545.56
395.678	1545.56
395.903	1575.56
396.127	1554.56
396.352	1496.56
396.576	1503.56
396.801	1489.56
397.025	1531.56
397.249	1556.56
397.474	1552.56
397.698	1587.56
397.922	1600.56
398.147	1625.56
398.371	1618.56
398.595	1653.56
398.82	1739.56
399.044	1846.56
399.268	1996.56
399.492	2159.56
399.717	2418.56
399.941	2418.56
400.165	2232.56
400.389	2102.56
400.613	1920.56
400.837	1864.56
401.062	1811.56
401.286	1770.56
401.51	1771.56
401.734	1758.56
401.958	1789.56
402.182	1766.56
402.406	1800.56
402.63	1757.56
402.854	1819.56
403.078	1865.56
403.302	1844.56
403.526	1822.56
403.75	1871.56
403.974	1884.56
404.198	1863.56
404.422	1864.56
404.645	1896.56
404.869	1888.56
405.093	1909.56
405.317	1869.56
405.541	1901.56
405.765	1892.56
405.988	1892.56
406.212	1929.56
406.436	1937.56
406.66	1942.56
406.883	1974.56
407.107	2078.56
407.331	2136.56
407.555	2246.56
407.778	2194.56
408.002	2167.56
408.226	2103.56
408.449	2090.56
408.673	1990.56
408.896	1989.56
409.12	1958.56
409.344	1996.56
409.567	1955.56
409.791	1973.56
410.014	1927.56
410.238	1906.56
410.461	1886.56
410.685	1879.56
410.908	1871.56
411.132	1844.56
411.355	1812.56
411.578	1838.56
411.802	1796.56
412.025	1811.56
412.249	1847.56
412.472	1840.56
412.695	1834.56
412.919	1786.56
413.142	1765.56
413.365	1760.56
413.589	1764.56
413.812	1734.56
414.035	1740.56
414.258	1768.56
414.482	1751.56
414.705	1759.56
414.928	1751.56
415.151	1782.56
415.374	1767.56
415.597	1747.56
415.821	1704.56
416.044	1703.56
416.267	1675.56
416.49	1653.56
416.713	1692.56
416.936	1710.56
417.159	1700.56
417.382	1667.56
417.605	1657.56
417.828	1659.56
418.051	1688.56
418.274	1699.56
418.497	1707.56
418.72	1766.56
418.943	1703.56
419.166	1842.56
419.389	1951.56
419.611	1914.56
419.834	1845.56
420.057	1768.56
420.28	1753.56
420.503	1635.56
420.726	1664.56
420.948	1656.56
421.171	1644.56
421.394	1659.56
421.617	1650.56
421.839	1683.56
422.062	1701.56
422.285	1664.56
422.507	1698.56
422.73	1683.56
422.953	1706.56
423.175	1706.56
423.398	1724.56
423.621	1674.56
423.843	1731.56
424.066	1744.56
424.288	1685.56
424.511	1730.56
424.733	1717.56
424.956	1730.56
425.178	1641.56
425.401	1673.56
425.623	1704.56
425.846	1657.56
426.068	1674.56
426.291	1650.56
426.513	1592.56
426.735	1582.56
426.958	1585.56
427.18	1565.56
427.402	1576.56
427.625	1572.56
427.847	1567.56
428.069	1568.56
428.292	1594.56
428.514	1527.56
428.736	1507.56
428.958	1545.56
429.181	1507.56
429.403	1514.56
429.625	1521.56
429.847	1497.56
430.069	1497.56
430.292	1518.56
430.514	1495.56
430.736	1548.56
430.958	1558.56
431.18	1504.56
431.402	1536.56
431.624	1534.56
431.846	1535.56
432.068	1555.56
432.29	1603.56
432.512	1522.56
432.734	1532.56
432.956	1526.56
433.178	1539.56
433.4	1568.56
433.622	1583.56
433.844	1583.56
434.066	1618.56
434.287	1598.56
434.509	1663.56
434.731	1714.56
434.953	1681.56
435.175	1740.56
435.397	1677.56
435.618	1634.56
435.84	1620.56
436.062	1573.56
436.284	1553.56
436.505	1516.56
436.727	1524.56
436.949	1572.56
437.17	1521.56
437.392	1495.56
437.614	1511.56
437.835	1482.56
438.057	1484.56
438.278	1442.56
438.5	1491.56
438.721	1472.56
438.943	1470.56
439.165	1452.56
439.386	1501.56
439.608	1474.56
439.829	1515.56
440.05	1514.56
440.272	1506.56
440.493	1555.56
440.715	1557.56
440.936	1554.56
441.158	1558.56
441.379	1635.56
441.6	1648.56
441.822	1641.56
442.043	1676.56
442.264	1677.56
442.486	1619.56
442.707	1643.56
442.928	1608.56
443.149	1666.56
443.371	1595.56
443.592	1628.56
443.813	1658.56
444.034	1685.56
444.255	1735.56
444.476	1763.56
444.698	1830.56
444.919	1878.56
445.14	1985.56
445.361	1804.56
445.582	1725.56
445.803	1590.56
446.024	1583.56
446.245	1577.56
446.466	1531.56
446.687	1521.56
446.908	1529.56
447.129	1488.56
447.35	1435.56
447.571	1455.56
447.792	1455.56
448.013	1485.56
448.234	1412.56
448.455	1409.56
448.675	1371.56
448.896	1378.56
449.117	1360.56
449.338	1392.56
449.559	1352.56
449.779	1368.56
450	1360.56
450.221	1353.56
450.442	1358.56
450.662	1345.56
450.883	1368.56
451.104	1407.56
451.324	1378.56
451.545	1379.56
451.766	1383.56
451.986	1350.56
452.207	1339.56
452.428	1329.56
452.648	1330.56
452.869	1345.56
453.089	1332.56
453.31	1363.56
453.53	1308.56
453.751	1309.56
453.971	1278.56
454.192	1294.56
454.412	1251.56
454.633	1286.56
454.853	1287.56
455.073	1245.56
455.294	1290.56
455.514	1273.56
455.734	1273.56
455.955	1264.56
456.175	1301.56
456.395	1281.56
456.616	1251.56
456.836	1288.56
457.056	1280.56
457.276	1260.56
457.497	1314.56
457.717	1286.56
457.937	1313.56
458.157	1346.56
458.377	1329.56
458.598	1371.56
458.818	1398.56
459.038	1426.56
459.258	1463.56
459.478	1464.56
459.698	1526.56
459.918	1575.56
460.138	1601.56
460.358	1684.56
460.578	1650.56
460.798	1723.56
461.018	1698.56
461.238	1697.56
461.458	1697.56
461.678	1699.56
461.898	1727.56
462.118	1750.56
462.338	1828.56
462.558	1832.56
462.777	1880.56
462.997	2040.56
463.217	2166.56
463.437	2186.56
463.657	2067.56
463.876	2018.56
464.096	1992.56
464.316	1962.56
464.536	1964.56
464.755	1915.56
464.975	1804.56
465.195	1770.56
465.414	1700.56
465.634	1588.56
465.854	1576.56
466.073	1524.56
466.293	1535.56
466.512	1490.56
466.732	1451.56
466.951	1459.56
467.171	1425.56
467.391	1464.56
467.61	1440.56
467.829	1406.56
468.049	1397.56
468.268	1404.56
468.488	1404.56
468.707	1383.56
468.927	1376.56
469.146	1402.56
469.365	1400.56
469.585	1410.56
469.804	1441.56
470.023	1465.56
470.243	1450.56
470.462	1466.56
470.681	1484.56
470.901	1484.56
471.12	1472.56
471.339	1472.56
471.558	1435.56
471.777	1420.56
471.997	1418.56
472.216	1398.56
472.435	1421.56
472.654	1401.56
472.873	1379.56
473.092	1366.56
473.311	1400.56
473.53	1404.56
473.749	1374.56
473.968	1375.56
474.187	1365.56
474.406	1385.56
474.625	1402.56
474.844	1396.56
475.063	1395.56
475.282	1378.56
475.501	1389.56
475.72	1405.56
475.939	1436.56
476.158	1428.56
476.377	1461.56
476.596	1435.56
476.814	1431.56
477.033	1469.56
477.252	1500.56
477.471	1520.56
477.69	1552.56
477.908	1590.56
478.127	1601.56
478.346	1618.56
478.564	1698.56
478.783	1642.56
479.002	1726.56
479.22	1738.56
479.439	1737.56
479.658	1740.56
479.876	1750.56
480.095	1726.56
480.313	1787.56
480.532	1801.56
480.751	1829.56
480.969	1759.56
481.188	1762.56
481.406	1698.56
481.624	1681.56
481.843	1691.56
482.061	1674.56
482.28	1660.56
482.498	1676.56
482.717	1672.56
482.935	1699.56
483.153	1670.56
483.372	1675.56
483.59	1710.56
483.808	1720.56
484.027	1703.56
484.245	1754.56
484.463	1749.56
484.681	1810.56
484.9	1818.56
485.118	1805.56
485.336	1835.56
485.554	1850.56
485.772	1817.56
485.99	1822.56
486.209	1838.56
486.427	1840.56
486.645	1822.56
486.863	1803.56
487.081	1839.56
487.299	1813.56
487.517	1822.56
487.735	1788.56
487.953	1779.56
488.171	1803.56
488.389	1763.56
488.607	1791.56
488.825	1750.56
489.043	1724.56
489.261	1725.56
489.479	1715.56
489.696	1761.56
489.914	1724.56
490.132	1697.56
490.35	1702.56
490.568	1730.56
