Data from NiCl2@0.25M.TitratingCurve.Agarose3%dH2O.NegLispCup.LampEnergy10.LIBS07252019_HRD10591_18-24-36-573.txt Node
Date: Thu Jul 25 18:24:36 EDT 2019
User: cochatt
Spectrometer: HR+D1059
Trigger mode: 1
Integration Time (sec): 1.000000E-1
Scans to average: 1
Electric dark correction enabled: true
Nonlinearity correction enabled: false
Boxcar width: 0
XAxis mode: Wavelengths
Number of Pixels in Spectrum: 2048
>>>>>Begin Spectral Data<<<<<
223.165	-5.06
223.4	-5.06
223.635	-5.06
223.869	-14.06
224.104	-28.06
224.338	-16.06
224.573	-16.06
224.808	-7.06
225.042	0.94
225.277	-16.06
225.511	-5.06
225.746	1.94
225.98	9.94
226.215	25.94
226.449	2.94
226.683	17.94
226.918	18.94
227.152	28.94
227.387	45.94
227.621	33.94
227.856	34.94
228.09	47.94
228.324	46.94
228.559	53.94
228.793	61.94
229.027	90.94
229.262	108.94
229.496	96.94
229.73	111.94
229.964	115.94
230.199	113.94
230.433	118.94
230.667	121.94
230.901	134.94
231.136	129.94
231.37	136.94
231.604	134.94
231.838	132.94
232.072	128.94
232.306	134.94
232.541	136.94
232.775	131.94
233.009	148.94
233.243	139.94
233.477	156.94
233.711	144.94
233.945	155.94
234.179	134.94
234.413	138.94
234.647	136.94
234.881	135.94
235.115	134.94
235.349	146.94
235.583	149.94
235.817	148.94
236.051	147.94
236.285	135.94
236.519	135.94
236.753	137.94
236.987	136.94
237.221	152.94
237.455	150.94
237.689	153.94
237.922	163.94
238.156	157.94
238.39	168.94
238.624	157.94
238.858	168.94
239.091	162.94
239.325	148.94
239.559	161.94
239.793	164.94
240.027	172.94
240.26	166.94
240.494	178.94
240.728	173.94
240.961	176.94
241.195	182.94
241.429	175.94
241.662	170.94
241.896	174.94
242.13	160.94
242.363	179.94
242.597	188.94
242.83	169.94
243.064	188.94
243.298	167.94
243.531	193.94
243.765	190.94
243.998	184.94
244.232	193.94
244.465	207.94
244.699	193.94
244.932	193.94
245.166	199.94
245.399	213.94
245.633	196.94
245.866	207.94
246.099	204.94
246.333	206.94
246.566	197.94
246.8	202.94
247.033	217.94
247.266	218.94
247.5	202.94
247.733	212.94
247.966	205.94
248.2	229.94
248.433	208.94
248.666	220.94
248.899	222.94
249.133	217.94
249.366	216.94
249.599	231.94
249.832	228.94
250.066	236.94
250.299	232.94
250.532	229.94
250.765	232.94
250.998	227.94
251.231	229.94
251.465	228.94
251.698	231.94
251.931	237.94
252.164	252.94
252.397	249.94
252.63	242.94
252.863	245.94
253.096	253.94
253.329	244.94
253.562	263.94
253.795	252.94
254.028	237.94
254.261	255.94
254.494	266.94
254.727	263.94
254.96	258.94
255.193	247.94
255.426	267.94
255.659	261.94
255.892	274.94
256.124	260.94
256.357	261.94
256.59	297.94
256.823	291.94
257.056	275.94
257.289	245.94
257.521	276.94
257.754	273.94
257.987	281.94
258.22	292.94
258.452	286.94
258.685	272.94
258.918	284.94
259.151	280.94
259.383	275.94
259.616	286.94
259.849	285.94
260.081	290.94
260.314	300.94
260.547	297.94
260.779	287.94
261.012	295.94
261.244	297.94
261.477	303.94
261.71	305.94
261.942	296.94
262.175	310.94
262.407	292.94
262.64	312.94
262.872	290.94
263.105	306.94
263.337	305.94
263.57	292.94
263.802	318.94
264.035	288.94
264.267	310.94
264.499	318.94
264.732	318.94
264.964	329.94
265.197	338.94
265.429	323.94
265.661	312.94
265.894	319.94
266.126	328.94
266.358	327.94
266.591	354.94
266.823	345.94
267.055	331.94
267.287	351.94
267.52	327.94
267.752	348.94
267.984	350.94
268.216	342.94
268.448	341.94
268.681	339.94
268.913	364.94
269.145	349.94
269.377	340.94
269.609	342.94
269.841	357.94
270.073	343.94
270.306	358.94
270.538	361.94
270.77	342.94
271.002	350.94
271.234	345.94
271.466	361.94
271.698	344.94
271.93	371.94
272.162	371.94
272.394	365.94
272.626	352.94
272.858	375.94
273.09	349.94
273.322	361.94
273.553	350.94
273.785	371.94
274.017	378.94
274.249	381.94
274.481	363.94
274.713	376.94
274.945	368.94
275.176	367.94
275.408	390.94
275.64	379.94
275.872	382.94
276.104	383.94
276.335	384.94
276.567	401.94
276.799	391.94
277.031	387.94
277.262	412.94
277.494	417.94
277.726	406.94
277.957	383.94
278.189	413.94
278.421	392.94
278.652	388.94
278.884	418.94
279.115	417.94
279.347	402.94
279.579	420.94
279.81	406.94
280.042	408.94
280.273	430.94
280.505	402.94
280.736	388.94
280.968	431.94
281.199	449.94
281.431	428.94
281.662	436.94
281.894	432.94
282.125	412.94
282.356	424.94
282.588	441.94
282.819	418.94
283.051	441.94
283.282	464.94
283.513	432.94
283.745	440.94
283.976	426.94
284.207	436.94
284.439	439.94
284.67	458.94
284.901	446.94
285.132	466.94
285.364	461.94
285.595	454.94
285.826	440.94
286.057	450.94
286.288	445.94
286.52	454.94
286.751	461.94
286.982	464.94
287.213	453.94
287.444	465.94
287.675	474.94
287.906	466.94
288.138	463.94
288.369	476.94
288.6	487.94
288.831	478.94
289.062	477.94
289.293	482.94
289.524	464.94
289.755	468.94
289.986	472.94
290.217	480.94
290.448	470.94
290.679	504.94
290.91	486.94
291.141	504.94
291.371	493.94
291.602	464.94
291.833	484.94
292.064	478.94
292.295	464.94
292.526	486.94
292.757	484.94
292.987	486.94
293.218	472.94
293.449	511.94
293.68	514.94
293.91	495.94
294.141	494.94
294.372	497.94
294.603	503.94
294.833	505.94
295.064	502.94
295.295	503.94
295.525	496.94
295.756	475.94
295.987	506.94
296.217	490.94
296.448	506.94
296.679	505.94
296.909	472.94
297.14	513.94
297.37	521.94
297.601	526.94
297.831	517.94
298.062	545.94
298.292	503.94
298.523	543.94
298.753	547.94
298.984	519.94
299.214	545.94
299.445	513.94
299.675	534.94
299.905	548.94
300.136	530.94
300.366	526.94
300.597	540.94
300.827	533.94
301.057	553.94
301.288	544.94
301.518	568.94
301.748	550.94
301.979	578.94
302.209	575.94
302.439	558.94
302.669	573.94
302.9	558.94
303.13	553.94
303.36	538.94
303.59	558.94
303.82	564.94
304.051	560.94
304.281	566.94
304.511	569.94
304.741	547.94
304.971	551.94
305.201	534.94
305.431	558.94
305.661	551.94
305.891	538.94
306.121	526.94
306.352	555.94
306.582	553.94
306.812	544.94
307.042	546.94
307.272	539.94
307.502	541.94
307.731	548.94
307.961	526.94
308.191	538.94
308.421	541.94
308.651	536.94
308.881	555.94
309.111	549.94
309.341	541.94
309.571	519.94
309.8	544.94
310.03	548.94
310.26	554.94
310.49	534.94
310.72	566.94
310.949	559.94
311.179	572.94
311.409	557.94
311.639	551.94
311.868	575.94
312.098	581.94
312.328	583.94
312.557	570.94
312.787	577.94
313.017	574.94
313.246	569.94
313.476	575.94
313.706	588.94
313.935	594.94
314.165	592.94
314.394	580.94
314.624	604.94
314.853	584.94
315.083	561.94
315.312	583.94
315.542	559.94
315.771	576.94
316.001	569.94
316.23	590.94
316.46	576.94
316.689	571.94
316.919	598.94
317.148	584.94
317.377	592.94
317.607	592.94
317.836	597.94
318.065	569.94
318.295	568.94
318.524	585.94
318.753	572.94
318.983	589.94
319.212	557.94
319.441	591.94
319.67	604.94
319.9	565.94
320.129	585.94
320.358	590.94
320.587	581.94
320.816	583.94
321.046	577.94
321.275	584.94
321.504	577.94
321.733	590.94
321.962	595.94
322.191	595.94
322.42	590.94
322.649	566.94
322.878	564.94
323.108	582.94
323.337	595.94
323.566	617.94
323.795	597.94
324.024	614.94
324.253	604.94
324.482	597.94
324.71	578.94
324.939	593.94
325.168	606.94
325.397	617.94
325.626	633.94
325.855	630.94
326.084	644.94
326.313	645.94
326.542	628.94
326.77	638.94
326.999	627.94
327.228	646.94
327.457	608.94
327.686	653.94
327.914	640.94
328.143	634.94
328.372	648.94
328.6	655.94
328.829	647.94
329.058	639.94
329.287	640.94
329.515	638.94
329.744	643.94
329.972	639.94
330.201	662.94
330.43	668.94
330.658	658.94
330.887	689.94
331.115	669.94
331.344	676.94
331.572	684.94
331.801	700.94
332.03	700.94
332.258	748.94
332.486	743.94
332.715	768.94
332.943	802.94
333.172	842.94
333.4	869.94
333.629	891.94
333.857	890.94
334.085	886.94
334.314	860.94
334.542	844.94
334.771	830.94
334.999	824.94
335.227	813.94
335.455	816.94
335.684	805.94
335.912	774.94
336.14	786.94
336.369	750.94
336.597	782.94
336.825	768.94
337.053	783.94
337.281	752.94
337.51	735.94
337.738	752.94
337.966	697.94
338.194	704.94
338.422	678.94
338.65	694.94
338.878	687.94
339.106	685.94
339.334	715.94
339.562	689.94
339.79	687.94
340.018	676.94
340.246	660.94
340.474	662.94
340.702	674.94
340.93	686.94
341.158	668.94
341.386	662.94
341.614	664.94
341.842	698.94
342.07	650.94
342.298	644.94
342.526	679.94
342.754	678.94
342.981	688.94
343.209	694.94
343.437	726.94
343.665	771.94
343.893	820.94
344.12	858.94
344.348	801.94
344.576	752.94
344.804	744.94
345.031	690.94
345.259	700.94
345.487	671.94
345.714	691.94
345.942	676.94
346.17	678.94
346.397	676.94
346.625	664.94
346.853	622.94
347.08	642.94
347.308	644.94
347.535	665.94
347.763	656.94
347.99	634.94
348.218	663.94
348.445	639.94
348.673	654.94
348.9	645.94
349.128	682.94
349.355	661.94
349.583	660.94
349.81	646.94
350.037	638.94
350.265	646.94
350.492	634.94
350.72	605.94
350.947	626.94
351.174	615.94
351.402	631.94
351.629	622.94
351.856	627.94
352.083	625.94
352.311	602.94
352.538	646.94
352.765	613.94
352.992	616.94
353.22	631.94
353.447	626.94
353.674	617.94
353.901	625.94
354.128	623.94
354.355	624.94
354.583	621.94
354.81	642.94
355.037	635.94
355.264	632.94
355.491	636.94
355.718	640.94
355.945	617.94
356.172	632.94
356.399	644.94
356.626	646.94
356.853	620.94
357.08	648.94
357.307	636.94
357.534	619.94
357.761	632.94
357.988	633.94
358.215	626.94
358.441	648.94
358.668	609.94
358.895	638.94
359.122	626.94
359.349	649.94
359.576	624.94
359.802	629.94
360.029	630.94
360.256	636.94
360.483	618.94
360.709	634.94
360.936	642.94
361.163	621.94
361.39	645.94
361.616	620.94
361.843	626.94
362.07	635.94
362.296	629.94
362.523	643.94
362.749	634.94
362.976	616.94
363.203	614.94
363.429	606.94
363.656	629.94
363.882	612.94
364.109	640.94
364.335	640.94
364.562	620.94
364.788	612.94
365.015	640.94
365.241	630.94
365.468	636.94
365.694	626.94
365.92	600.94
366.147	618.94
366.373	646.94
366.599	640.94
366.826	621.94
367.052	614.94
367.278	638.94
367.505	636.94
367.731	642.94
367.957	639.94
368.184	636.94
368.41	639.94
368.636	632.94
368.862	667.94
369.089	629.94
369.315	640.94
369.541	636.94
369.767	650.94
369.993	640.94
370.219	670.94
370.445	673.94
370.672	653.94
370.898	670.94
371.124	689.94
371.35	681.94
371.576	681.94
371.802	687.94
372.028	696.94
372.254	678.94
372.48	704.94
372.706	706.94
372.932	714.94
373.158	696.94
373.384	676.94
373.61	668.94
373.835	707.94
374.061	676.94
374.287	704.94
374.513	697.94
374.739	722.94
374.965	740.94
375.191	761.94
375.416	772.94
375.642	730.94
375.868	693.94
376.094	691.94
376.319	693.94
376.545	688.94
376.771	679.94
376.997	695.94
377.222	684.94
377.448	692.94
377.674	703.94
377.899	678.94
378.125	688.94
378.35	651.94
378.576	660.94
378.802	667.94
379.027	662.94
379.253	682.94
379.478	671.94
379.704	673.94
379.929	686.94
380.155	684.94
380.38	680.94
380.606	676.94
380.831	692.94
381.057	689.94
381.282	676.94
381.507	709.94
381.733	700.94
381.958	704.94
382.184	712.94
382.409	707.94
382.634	692.94
382.86	728.94
383.085	703.94
383.31	729.94
383.535	753.94
383.761	772.94
383.986	784.94
384.211	790.94
384.436	805.94
384.662	836.94
384.887	837.94
385.112	833.94
385.337	836.94
385.562	825.94
385.787	831.94
386.013	835.94
386.238	834.94
386.463	813.94
386.688	828.94
386.913	816.94
387.138	819.94
387.363	808.94
387.588	793.94
387.813	841.94
388.038	820.94
388.263	837.94
388.488	825.94
388.713	811.94
388.938	804.94
389.163	813.94
389.387	820.94
389.612	807.94
389.837	819.94
390.062	804.94
390.287	804.94
390.512	808.94
390.736	824.94
390.961	864.94
391.186	879.94
391.411	886.94
391.636	928.94
391.86	929.94
392.085	946.94
392.31	941.94
392.534	936.94
392.759	912.94
392.984	870.94
393.208	866.94
393.433	869.94
393.658	855.94
393.882	893.94
394.107	870.94
394.331	889.94
394.556	884.94
394.78	886.94
395.005	893.94
395.229	886.94
395.454	919.94
395.678	923.94
395.903	924.94
396.127	924.94
396.352	882.94
396.576	894.94
396.801	869.94
397.025	877.94
397.249	912.94
397.474	912.94
397.698	944.94
397.922	952.94
398.147	947.94
398.371	956.94
398.595	968.94
398.82	995.94
399.044	1116.94
399.268	1251.94
399.492	1461.94
399.717	1631.94
399.941	1602.94
400.165	1345.94
400.389	1253.94
400.613	1172.94
400.837	1102.94
401.062	1074.94
401.286	1049.94
401.51	1033.94
401.734	1065.94
401.958	1046.94
402.182	1062.94
402.406	1094.94
402.63	1073.94
402.854	1120.94
403.078	1145.94
403.302	1177.94
403.526	1186.94
403.75	1196.94
403.974	1240.94
404.198	1205.94
404.422	1192.94
404.645	1191.94
404.869	1184.94
405.093	1150.94
405.317	1163.94
405.541	1151.94
405.765	1134.94
405.988	1139.94
406.212	1148.94
406.436	1141.94
406.66	1143.94
406.883	1182.94
407.107	1254.94
407.331	1310.94
407.555	1353.94
407.778	1350.94
408.002	1315.94
408.226	1245.94
408.449	1219.94
408.673	1165.94
408.896	1189.94
409.12	1170.94
409.344	1167.94
409.567	1176.94
409.791	1193.94
410.014	1179.94
410.238	1132.94
410.461	1145.94
410.685	1124.94
410.908	1105.94
411.132	1072.94
411.355	1098.94
411.578	1084.94
411.802	1079.94
412.025	1117.94
412.249	1121.94
412.472	1078.94
412.695	1080.94
412.919	1042.94
413.142	1053.94
413.365	1021.94
413.589	1040.94
413.812	1047.94
414.035	1004.94
414.258	1015.94
414.482	1032.94
414.705	1033.94
414.928	1073.94
415.151	1054.94
415.374	1019.94
415.597	1045.94
415.821	1036.94
416.044	1036.94
416.267	989.94
416.49	1002.94
416.713	1034.94
416.936	1040.94
417.159	1007.94
417.382	1022.94
417.605	995.94
417.828	989.94
418.051	1017.94
418.274	1052.94
418.497	1022.94
418.72	1087.94
418.943	1068.94
419.166	1134.94
419.389	1203.94
419.611	1152.94
419.834	1109.94
420.057	1072.94
420.28	1049.94
420.503	997.94
420.726	995.94
420.948	1016.94
421.171	996.94
421.394	1030.94
421.617	1040.94
421.839	1023.94
422.062	1020.94
422.285	999.94
422.507	1022.94
422.73	1074.94
422.953	1078.94
423.175	1097.94
423.398	1095.94
423.621	1080.94
423.843	1133.94
424.066	1107.94
424.288	1101.94
424.511	1071.94
424.733	1074.94
424.956	1061.94
425.178	1056.94
425.401	1036.94
425.623	1032.94
425.846	991.94
426.068	990.94
426.291	945.94
426.513	963.94
426.735	951.94
426.958	946.94
427.18	912.94
427.402	949.94
427.625	901.94
427.847	903.94
428.069	900.94
428.292	938.94
428.514	903.94
428.736	890.94
428.958	916.94
429.181	870.94
429.403	883.94
429.625	873.94
429.847	867.94
430.069	866.94
430.292	879.94
430.514	873.94
430.736	883.94
430.958	896.94
431.18	872.94
431.402	857.94
431.624	879.94
431.846	889.94
432.068	906.94
432.29	959.94
432.512	920.94
432.734	892.94
432.956	888.94
433.178	905.94
433.4	907.94
433.622	897.94
433.844	942.94
434.066	916.94
434.287	947.94
434.509	978.94
434.731	981.94
434.953	1028.94
435.175	1013.94
435.397	990.94
435.618	947.94
435.84	906.94
436.062	926.94
436.284	894.94
436.505	900.94
436.727	899.94
436.949	913.94
437.17	910.94
437.392	904.94
437.614	869.94
437.835	832.94
438.057	883.94
438.278	848.94
438.5	833.94
438.721	852.94
438.943	855.94
439.165	840.94
439.386	850.94
439.608	886.94
439.829	896.94
440.05	878.94
440.272	917.94
440.493	916.94
440.715	903.94
440.936	913.94
441.158	918.94
441.379	946.94
441.6	1001.94
441.822	1001.94
442.043	1038.94
442.264	998.94
442.486	994.94
442.707	972.94
442.928	1015.94
443.149	988.94
443.371	986.94
443.592	1001.94
443.813	1001.94
444.034	1028.94
444.255	1032.94
444.476	1124.94
444.698	1193.94
444.919	1266.94
445.14	1327.94
445.361	1146.94
445.582	1042.94
445.803	969.94
446.024	944.94
446.245	939.94
446.466	919.94
446.687	908.94
446.908	910.94
447.129	869.94
447.35	863.94
447.571	881.94
447.792	856.94
448.013	822.94
448.234	834.94
448.455	828.94
448.675	804.94
448.896	812.94
449.117	796.94
449.338	830.94
449.559	796.94
449.779	790.94
450	817.94
450.221	813.94
450.442	821.94
450.662	832.94
450.883	850.94
451.104	862.94
451.324	833.94
451.545	822.94
451.766	816.94
451.986	810.94
452.207	818.94
452.428	852.94
452.648	801.94
452.869	812.94
453.089	783.94
453.31	820.94
453.53	801.94
453.751	782.94
453.971	779.94
454.192	791.94
454.412	748.94
454.633	769.94
454.853	791.94
455.073	776.94
455.294	754.94
455.514	771.94
455.734	757.94
455.955	753.94
456.175	783.94
456.395	754.94
456.616	787.94
456.836	772.94
457.056	760.94
457.276	740.94
457.497	774.94
457.717	772.94
457.937	761.94
458.157	786.94
458.377	803.94
458.598	800.94
458.818	839.94
459.038	833.94
459.258	888.94
459.478	912.94
459.698	948.94
459.918	969.94
460.138	1021.94
460.358	1044.94
460.578	1092.94
460.798	1095.94
461.018	1102.94
461.238	1066.94
461.458	1063.94
461.678	1032.94
461.898	1094.94
462.118	1094.94
462.338	1129.94
462.558	1149.94
462.777	1209.94
462.997	1321.94
463.217	1454.94
463.437	1448.94
463.657	1313.94
463.876	1222.94
464.096	1217.94
464.316	1265.94
464.536	1263.94
464.755	1178.94
464.975	1171.94
465.195	1128.94
465.414	1016.94
465.634	991.94
465.854	963.94
466.073	900.94
466.293	901.94
466.512	887.94
466.732	863.94
466.951	853.94
467.171	865.94
467.391	873.94
467.61	886.94
467.829	879.94
468.049	846.94
468.268	832.94
468.488	819.94
468.707	804.94
468.927	804.94
469.146	821.94
469.365	834.94
469.585	837.94
469.804	852.94
470.023	860.94
470.243	878.94
470.462	888.94
470.681	895.94
470.901	886.94
471.12	877.94
471.339	843.94
471.558	845.94
471.777	832.94
471.997	807.94
472.216	830.94
472.435	836.94
472.654	815.94
472.873	798.94
473.092	801.94
473.311	797.94
473.53	787.94
473.749	781.94
473.968	804.94
474.187	793.94
474.406	781.94
474.625	795.94
474.844	801.94
475.063	784.94
475.282	815.94
475.501	838.94
475.72	817.94
475.939	829.94
476.158	803.94
476.377	825.94
476.596	829.94
476.814	850.94
477.033	836.94
477.252	873.94
477.471	872.94
477.69	896.94
477.908	926.94
478.127	972.94
478.346	1016.94
478.564	963.94
478.783	990.94
479.002	1004.94
479.22	1029.94
479.439	982.94
479.658	993.94
479.876	988.94
480.095	1009.94
480.313	1044.94
480.532	1059.94
480.751	1101.94
480.969	1048.94
481.188	962.94
481.406	945.94
481.624	956.94
481.843	974.94
482.061	923.94
482.28	930.94
482.498	937.94
482.717	895.94
482.935	913.94
483.153	932.94
483.372	898.94
483.59	901.94
483.808	910.94
484.027	926.94
484.245	933.94
484.463	904.94
484.681	944.94
484.9	958.94
485.118	933.94
485.336	929.94
485.554	941.94
485.772	944.94
485.99	976.94
486.209	959.94
486.427	945.94
486.645	950.94
486.863	965.94
487.081	965.94
487.299	982.94
487.517	951.94
487.735	959.94
487.953	983.94
488.171	979.94
488.389	961.94
488.607	919.94
488.825	930.94
489.043	942.94
489.261	964.94
489.479	983.94
489.696	951.94
489.914	967.94
490.132	991.94
490.35	944.94
490.568	955.94
490.786	962.94
491.003	938.94
491.221	955.94
491.439	993.94
491.657	957.94
491.874	970.94
492.092	996.94
492.31	992.94
492.527	993.94
492.745	985.94
492.963	1011.94
493.18	1021.94
493.398	1034.94
493.615	998.94
493.833	1005.94
494.05	1000.94
494.268	1054.94
494.485	1048.94
494.703	1063.94
494.92	1018.94
495.138	1013.94
495.355	1024.94
495.573	1054.94
495.79	1040.94
496.008	1053.94
496.225	1034.94
496.442	1062.94
496.66	1095.94
496.877	1093.94
497.094	1120.94
497.312	1108.94
497.529	1162.94
497.746	1140.94
497.963	1178.94
498.181	1247.94
498.398	1307.94
498.615	1413.94
498.832	1536.94
499.049	1622.94
