Data from NiCl2@0.125M.TitratingCurve.Agarose3%dH2O.NegLispCup.LampEnergy10.LIBS07252019_HRD10591_18-28-51-574.txt Node
Date: Thu Jul 25 18:28:51 EDT 2019
User: cochatt
Spectrometer: HR+D1059
Trigger mode: 1
Integration Time (sec): 1.000000E-1
Scans to average: 1
Electric dark correction enabled: true
Nonlinearity correction enabled: false
Boxcar width: 0
XAxis mode: Wavelengths
Number of Pixels in Spectrum: 2048
>>>>>Begin Spectral Data<<<<<
223.165	-19.19
223.4	-19.19
223.635	-19.19
223.869	-20.19
224.104	-17.19
224.338	-20.19
224.573	-16.19
224.808	-22.19
225.042	-5.19
225.277	-0.19
225.511	-6.19
225.746	14.81
225.98	6.81
226.215	13.81
226.449	15.81
226.683	26.81
226.918	24.81
227.152	23.81
227.387	51.81
227.621	53.81
227.856	39.81
228.09	41.81
228.324	59.81
228.559	71.81
228.793	57.81
229.027	113.81
229.262	119.81
229.496	117.81
229.73	126.81
229.964	129.81
230.199	141.81
230.433	129.81
230.667	152.81
230.901	147.81
231.136	139.81
231.37	157.81
231.604	143.81
231.838	157.81
232.072	156.81
232.306	151.81
232.541	133.81
232.775	149.81
233.009	153.81
233.243	148.81
233.477	156.81
233.711	146.81
233.945	152.81
234.179	173.81
234.413	167.81
234.647	151.81
234.881	175.81
235.115	173.81
235.349	164.81
235.583	162.81
235.817	169.81
236.051	158.81
236.285	177.81
236.519	167.81
236.753	171.81
236.987	177.81
237.221	168.81
237.455	162.81
237.689	166.81
237.922	186.81
238.156	174.81
238.39	163.81
238.624	184.81
238.858	186.81
239.091	178.81
239.325	180.81
239.559	200.81
239.793	187.81
240.027	201.81
240.26	198.81
240.494	195.81
240.728	189.81
240.961	195.81
241.195	202.81
241.429	208.81
241.662	212.81
241.896	199.81
242.13	214.81
242.363	210.81
242.597	209.81
242.83	209.81
243.064	222.81
243.298	219.81
243.531	197.81
243.765	209.81
243.998	227.81
244.232	226.81
244.465	213.81
244.699	237.81
244.932	250.81
245.166	234.81
245.399	235.81
245.633	230.81
245.866	229.81
246.099	249.81
246.333	243.81
246.566	241.81
246.8	247.81
247.033	233.81
247.266	244.81
247.5	234.81
247.733	261.81
247.966	247.81
248.2	253.81
248.433	262.81
248.666	255.81
248.899	239.81
249.133	261.81
249.366	277.81
249.599	277.81
249.832	263.81
250.066	270.81
250.299	279.81
250.532	296.81
250.765	270.81
250.998	281.81
251.231	284.81
251.465	293.81
251.698	277.81
251.931	285.81
252.164	290.81
252.397	285.81
252.63	304.81
252.863	298.81
253.096	325.81
253.329	303.81
253.562	291.81
253.795	301.81
254.028	289.81
254.261	321.81
254.494	307.81
254.727	299.81
254.96	293.81
255.193	299.81
255.426	305.81
255.659	316.81
255.892	335.81
256.124	306.81
256.357	320.81
256.59	331.81
256.823	318.81
257.056	312.81
257.289	317.81
257.521	323.81
257.754	317.81
257.987	326.81
258.22	335.81
258.452	339.81
258.685	316.81
258.918	342.81
259.151	339.81
259.383	341.81
259.616	343.81
259.849	343.81
260.081	330.81
260.314	329.81
260.547	346.81
260.779	356.81
261.012	343.81
261.244	375.81
261.477	350.81
261.71	362.81
261.942	331.81
262.175	326.81
262.407	358.81
262.64	370.81
262.872	357.81
263.105	354.81
263.337	362.81
263.57	370.81
263.802	385.81
264.035	369.81
264.267	366.81
264.499	382.81
264.732	387.81
264.964	393.81
265.197	387.81
265.429	400.81
265.661	390.81
265.894	384.81
266.126	380.81
266.358	374.81
266.591	384.81
266.823	407.81
267.055	387.81
267.287	392.81
267.52	399.81
267.752	398.81
267.984	418.81
268.216	383.81
268.448	410.81
268.681	399.81
268.913	385.81
269.145	406.81
269.377	391.81
269.609	399.81
269.841	417.81
270.073	425.81
270.306	413.81
270.538	417.81
270.77	414.81
271.002	416.81
271.234	418.81
271.466	426.81
271.698	406.81
271.93	438.81
272.162	415.81
272.394	425.81
272.626	419.81
272.858	421.81
273.09	433.81
273.322	455.81
273.553	435.81
273.785	454.81
274.017	455.81
274.249	440.81
274.481	453.81
274.713	453.81
274.945	467.81
275.176	445.81
275.408	449.81
275.64	462.81
275.872	454.81
276.104	458.81
276.335	473.81
276.567	447.81
276.799	469.81
277.031	456.81
277.262	449.81
277.494	470.81
277.726	476.81
277.957	478.81
278.189	458.81
278.421	476.81
278.652	448.81
278.884	462.81
279.115	478.81
279.347	466.81
279.579	493.81
279.81	484.81
280.042	477.81
280.273	501.81
280.505	486.81
280.736	491.81
280.968	499.81
281.199	490.81
281.431	505.81
281.662	507.81
281.894	500.81
282.125	514.81
282.356	519.81
282.588	505.81
282.819	519.81
283.051	499.81
283.282	518.81
283.513	529.81
283.745	526.81
283.976	513.81
284.207	528.81
284.439	537.81
284.67	527.81
284.901	530.81
285.132	537.81
285.364	547.81
285.595	538.81
285.826	539.81
286.057	536.81
286.288	538.81
286.52	544.81
286.751	567.81
286.982	558.81
287.213	541.81
287.444	549.81
287.675	550.81
287.906	543.81
288.138	557.81
288.369	546.81
288.6	571.81
288.831	571.81
289.062	552.81
289.293	580.81
289.524	556.81
289.755	578.81
289.986	569.81
290.217	580.81
290.448	564.81
290.679	557.81
290.91	585.81
291.141	572.81
291.371	570.81
291.602	571.81
291.833	570.81
292.064	571.81
292.295	617.81
292.526	572.81
292.757	564.81
292.987	545.81
293.218	565.81
293.449	590.81
293.68	585.81
293.91	579.81
294.141	578.81
294.372	569.81
294.603	569.81
294.833	585.81
295.064	563.81
295.295	601.81
295.525	607.81
295.756	591.81
295.987	596.81
296.217	606.81
296.448	600.81
296.679	614.81
296.909	596.81
297.14	611.81
297.37	605.81
297.601	634.81
297.831	611.81
298.062	611.81
298.292	643.81
298.523	631.81
298.753	642.81
298.984	652.81
299.214	644.81
299.445	651.81
299.675	625.81
299.905	638.81
300.136	636.81
300.366	640.81
300.597	663.81
300.827	667.81
301.057	659.81
301.288	648.81
301.518	667.81
301.748	670.81
301.979	695.81
302.209	698.81
302.439	648.81
302.669	664.81
302.9	653.81
303.13	629.81
303.36	649.81
303.59	635.81
303.82	642.81
304.051	662.81
304.281	645.81
304.511	664.81
304.741	617.81
304.971	652.81
305.201	652.81
305.431	661.81
305.661	625.81
305.891	639.81
306.121	651.81
306.352	648.81
306.582	654.81
306.812	631.81
307.042	626.81
307.272	641.81
307.502	631.81
307.731	632.81
307.961	609.81
308.191	625.81
308.421	633.81
308.651	620.81
308.881	627.81
309.111	629.81
309.341	595.81
309.571	615.81
309.8	626.81
310.03	641.81
310.26	648.81
310.49	659.81
310.72	608.81
310.949	623.81
311.179	653.81
311.409	655.81
311.639	656.81
311.868	643.81
312.098	638.81
312.328	655.81
312.557	666.81
312.787	663.81
313.017	684.81
313.246	694.81
313.476	661.81
313.706	694.81
313.935	666.81
314.165	703.81
314.394	692.81
314.624	681.81
314.853	655.81
315.083	657.81
315.312	664.81
315.542	670.81
315.771	660.81
316.001	659.81
316.23	658.81
316.46	677.81
316.689	678.81
316.919	653.81
317.148	663.81
317.377	669.81
317.607	646.81
317.836	655.81
318.065	660.81
318.295	652.81
318.524	683.81
318.753	663.81
318.983	670.81
319.212	635.81
319.441	653.81
319.67	659.81
319.9	666.81
320.129	650.81
320.358	637.81
320.587	654.81
320.816	656.81
321.046	659.81
321.275	658.81
321.504	663.81
321.733	653.81
321.962	638.81
322.191	667.81
322.42	690.81
322.649	680.81
322.878	662.81
323.108	665.81
323.337	679.81
323.566	680.81
323.795	687.81
324.024	686.81
324.253	689.81
324.482	660.81
324.71	675.81
324.939	696.81
325.168	682.81
325.397	671.81
325.626	702.81
325.855	698.81
326.084	737.81
326.313	718.81
326.542	714.81
326.77	735.81
326.999	749.81
327.228	715.81
327.457	727.81
327.686	707.81
327.914	730.81
328.143	726.81
328.372	747.81
328.6	722.81
328.829	761.81
329.058	745.81
329.287	749.81
329.515	738.81
329.744	726.81
329.972	718.81
330.201	711.81
330.43	728.81
330.658	739.81
330.887	758.81
331.115	747.81
331.344	759.81
331.572	761.81
331.801	788.81
332.03	807.81
332.258	803.81
332.486	835.81
332.715	877.81
332.943	882.81
333.172	959.81
333.4	983.81
333.629	997.81
333.857	1012.81
334.085	1016.81
334.314	1001.81
334.542	925.81
334.771	963.81
334.999	910.81
335.227	922.81
335.455	937.81
335.684	906.81
335.912	912.81
336.14	886.81
336.369	859.81
336.597	879.81
336.825	893.81
337.053	855.81
337.281	893.81
337.51	849.81
337.738	839.81
337.966	822.81
338.194	807.81
338.422	774.81
338.65	777.81
338.878	788.81
339.106	776.81
339.334	796.81
339.562	804.81
339.79	763.81
340.018	751.81
340.246	774.81
340.474	737.81
340.702	722.81
340.93	756.81
341.158	770.81
341.386	755.81
341.614	762.81
341.842	767.81
342.07	735.81
342.298	744.81
342.526	747.81
342.754	758.81
342.981	733.81
343.209	763.81
343.437	778.81
343.665	838.81
343.893	886.81
344.12	959.81
344.348	900.81
344.576	886.81
344.804	860.81
345.031	801.81
345.259	797.81
345.487	782.81
345.714	733.81
345.942	757.81
346.17	732.81
346.397	754.81
346.625	733.81
346.853	721.81
347.08	734.81
347.308	739.81
347.535	746.81
347.763	750.81
347.99	769.81
348.218	758.81
348.445	737.81
348.673	722.81
348.9	718.81
349.128	703.81
349.355	724.81
349.583	708.81
349.81	727.81
350.037	725.81
350.265	720.81
350.492	707.81
350.72	697.81
350.947	705.81
351.174	717.81
351.402	711.81
351.629	708.81
351.856	705.81
352.083	709.81
352.311	722.81
352.538	712.81
352.765	707.81
352.992	689.81
353.22	706.81
353.447	689.81
353.674	702.81
353.901	697.81
354.128	675.81
354.355	705.81
354.583	698.81
354.81	707.81
355.037	700.81
355.264	750.81
355.491	697.81
355.718	697.81
355.945	703.81
356.172	693.81
356.399	718.81
356.626	724.81
356.853	727.81
357.08	712.81
357.307	720.81
357.534	691.81
357.761	709.81
357.988	718.81
358.215	723.81
358.441	705.81
358.668	716.81
358.895	722.81
359.122	703.81
359.349	693.81
359.576	702.81
359.802	733.81
360.029	689.81
360.256	717.81
360.483	710.81
360.709	692.81
360.936	721.81
361.163	723.81
361.39	729.81
361.616	741.81
361.843	722.81
362.07	716.81
362.296	706.81
362.523	718.81
362.749	682.81
362.976	684.81
363.203	706.81
363.429	713.81
363.656	710.81
363.882	694.81
364.109	685.81
364.335	698.81
364.562	705.81
364.788	722.81
365.015	695.81
365.241	703.81
365.468	708.81
365.694	697.81
365.92	717.81
366.147	707.81
366.373	703.81
366.599	708.81
366.826	706.81
367.052	699.81
367.278	710.81
367.505	696.81
367.731	711.81
367.957	701.81
368.184	721.81
368.41	709.81
368.636	721.81
368.862	720.81
369.089	724.81
369.315	735.81
369.541	715.81
369.767	707.81
369.993	751.81
370.219	716.81
370.445	746.81
370.672	762.81
370.898	755.81
371.124	760.81
371.35	787.81
371.576	748.81
371.802	767.81
372.028	751.81
372.254	780.81
372.48	787.81
372.706	785.81
372.932	800.81
373.158	807.81
373.384	793.81
373.61	791.81
373.835	800.81
374.061	755.81
374.287	794.81
374.513	787.81
374.739	814.81
374.965	834.81
375.191	859.81
375.416	863.81
375.642	833.81
375.868	817.81
376.094	797.81
376.319	813.81
376.545	804.81
376.771	778.81
376.997	782.81
377.222	772.81
377.448	785.81
377.674	776.81
377.899	747.81
378.125	747.81
378.35	768.81
378.576	750.81
378.802	778.81
379.027	741.81
379.253	788.81
379.478	758.81
379.704	774.81
379.929	757.81
380.155	758.81
380.38	763.81
380.606	793.81
380.831	757.81
381.057	783.81
381.282	789.81
381.507	754.81
381.733	777.81
381.958	771.81
382.184	781.81
382.409	794.81
382.634	808.81
382.86	813.81
383.085	818.81
383.31	842.81
383.535	848.81
383.761	865.81
383.986	867.81
384.211	871.81
384.436	905.81
384.662	921.81
384.887	936.81
385.112	916.81
385.337	951.81
385.562	953.81
385.787	909.81
386.013	969.81
386.238	954.81
386.463	927.81
386.688	957.81
386.913	921.81
387.138	922.81
387.363	929.81
387.588	929.81
387.813	922.81
388.038	919.81
388.263	935.81
388.488	933.81
388.713	941.81
388.938	912.81
389.163	929.81
389.387	931.81
389.612	890.81
389.837	894.81
390.062	917.81
390.287	884.81
390.512	885.81
390.736	926.81
390.961	927.81
391.186	952.81
391.411	961.81
391.636	1032.81
391.86	1055.81
392.085	1045.81
392.31	1071.81
392.534	1041.81
392.759	1014.81
392.984	1002.81
393.208	995.81
393.433	1009.81
393.658	995.81
393.882	967.81
394.107	1020.81
394.331	1024.81
394.556	981.81
394.78	993.81
395.005	1009.81
395.229	1022.81
395.454	1028.81
395.678	1046.81
395.903	1057.81
396.127	1047.81
396.352	1014.81
396.576	1001.81
396.801	996.81
397.025	999.81
397.249	993.81
397.474	1032.81
397.698	1042.81
397.922	1024.81
398.147	1042.81
398.371	1047.81
398.595	1105.81
398.82	1150.81
399.044	1236.81
399.268	1374.81
399.492	1585.81
399.717	1841.81
399.941	1881.81
400.165	1640.81
400.389	1472.81
400.613	1352.81
400.837	1240.81
401.062	1222.81
401.286	1221.81
401.51	1190.81
401.734	1181.81
401.958	1198.81
402.182	1188.81
402.406	1201.81
402.63	1253.81
402.854	1266.81
403.078	1291.81
403.302	1343.81
403.526	1345.81
403.75	1358.81
403.974	1397.81
404.198	1395.81
404.422	1368.81
404.645	1400.81
404.869	1397.81
405.093	1358.81
405.317	1326.81
405.541	1333.81
405.765	1323.81
405.988	1263.81
406.212	1299.81
406.436	1299.81
406.66	1357.81
406.883	1355.81
407.107	1451.81
407.331	1508.81
407.555	1569.81
407.778	1539.81
408.002	1510.81
408.226	1464.81
408.449	1413.81
408.673	1372.81
408.896	1339.81
409.12	1322.81
409.344	1339.81
409.567	1345.81
409.791	1348.81
410.014	1345.81
410.238	1331.81
410.461	1338.81
410.685	1303.81
410.908	1303.81
411.132	1258.81
411.355	1211.81
411.578	1194.81
411.802	1237.81
412.025	1205.81
412.249	1282.81
412.472	1220.81
412.695	1205.81
412.919	1177.81
413.142	1190.81
413.365	1171.81
413.589	1208.81
413.812	1167.81
414.035	1131.81
414.258	1151.81
414.482	1185.81
414.705	1178.81
414.928	1215.81
415.151	1211.81
415.374	1176.81
415.597	1182.81
415.821	1155.81
416.044	1137.81
416.267	1150.81
416.49	1139.81
416.713	1173.81
416.936	1158.81
417.159	1150.81
417.382	1143.81
417.605	1158.81
417.828	1190.81
418.051	1172.81
418.274	1182.81
418.497	1186.81
418.72	1227.81
418.943	1226.81
419.166	1294.81
419.389	1395.81
419.611	1361.81
419.834	1250.81
420.057	1248.81
420.28	1211.81
420.503	1168.81
420.726	1161.81
420.948	1166.81
421.171	1160.81
421.394	1151.81
421.617	1140.81
421.839	1185.81
422.062	1155.81
422.285	1143.81
422.507	1216.81
422.73	1175.81
422.953	1207.81
423.175	1213.81
423.398	1239.81
423.621	1207.81
423.843	1261.81
424.066	1254.81
424.288	1271.81
424.511	1230.81
424.733	1244.81
424.956	1206.81
425.178	1231.81
425.401	1230.81
425.623	1207.81
425.846	1141.81
426.068	1131.81
426.291	1119.81
426.513	1113.81
426.735	1116.81
426.958	1098.81
427.18	1073.81
427.402	1029.81
427.625	1061.81
427.847	1058.81
428.069	1058.81
428.292	1045.81
428.514	1032.81
428.736	1042.81
428.958	1045.81
429.181	1013.81
429.403	1020.81
429.625	1011.81
429.847	1031.81
430.069	992.81
430.292	1031.81
430.514	996.81
430.736	1025.81
430.958	1035.81
431.18	1033.81
431.402	1033.81
431.624	1031.81
431.846	1050.81
432.068	1059.81
432.29	1094.81
432.512	1048.81
432.734	1075.81
432.956	1028.81
433.178	1039.81
433.4	1077.81
433.622	1067.81
433.844	1054.81
434.066	1051.81
434.287	1072.81
434.509	1097.81
434.731	1117.81
434.953	1149.81
435.175	1199.81
435.397	1204.81
435.618	1109.81
435.84	1115.81
436.062	1071.81
436.284	1048.81
436.505	1019.81
436.727	1081.81
436.949	1053.81
437.17	1042.81
437.392	1021.81
437.614	1043.81
437.835	981.81
438.057	1010.81
438.278	1001.81
438.5	1035.81
438.721	996.81
438.943	1015.81
439.165	1015.81
439.386	1026.81
439.608	1043.81
439.829	1046.81
440.05	1038.81
440.272	1053.81
440.493	1077.81
440.715	1115.81
440.936	1091.81
441.158	1127.81
441.379	1151.81
441.6	1198.81
441.822	1209.81
442.043	1189.81
442.264	1169.81
442.486	1155.81
442.707	1149.81
442.928	1145.81
443.149	1128.81
443.371	1133.81
443.592	1142.81
443.813	1187.81
444.034	1185.81
444.255	1228.81
444.476	1283.81
444.698	1400.81
444.919	1453.81
445.14	1557.81
445.361	1374.81
445.582	1253.81
445.803	1187.81
446.024	1137.81
446.245	1125.81
446.466	1103.81
446.687	1092.81
446.908	1062.81
447.129	1045.81
447.35	1014.81
447.571	1039.81
447.792	1001.81
448.013	1004.81
448.234	1021.81
448.455	986.81
448.675	952.81
448.896	959.81
449.117	935.81
449.338	955.81
449.559	963.81
449.779	969.81
450	965.81
450.221	957.81
450.442	986.81
450.662	968.81
450.883	971.81
451.104	990.81
451.324	1015.81
451.545	998.81
451.766	991.81
451.986	985.81
452.207	973.81
452.428	986.81
452.648	996.81
452.869	961.81
453.089	951.81
453.31	980.81
453.53	917.81
453.751	941.81
453.971	937.81
454.192	924.81
454.412	903.81
454.633	919.81
454.853	941.81
455.073	939.81
455.294	949.81
455.514	915.81
455.734	931.81
455.955	885.81
456.175	902.81
456.395	899.81
456.616	900.81
456.836	921.81
457.056	902.81
457.276	865.81
457.497	909.81
457.717	906.81
457.937	933.81
458.157	937.81
458.377	950.81
458.598	953.81
458.818	987.81
459.038	1010.81
459.258	1039.81
459.478	1082.81
459.698	1082.81
459.918	1119.81
460.138	1203.81
460.358	1246.81
460.578	1277.81
460.798	1278.81
461.018	1250.81
461.238	1278.81
461.458	1277.81
461.678	1247.81
461.898	1253.81
462.118	1293.81
462.338	1349.81
462.558	1372.81
462.777	1468.81
462.997	1536.81
463.217	1720.81
463.437	1804.81
463.657	1589.81
463.876	1518.81
464.096	1514.81
464.316	1501.81
464.536	1526.81
464.755	1440.81
464.975	1403.81
465.195	1287.81
465.414	1203.81
465.634	1177.81
465.854	1119.81
466.073	1089.81
466.293	1047.81
466.512	1033.81
466.732	1020.81
466.951	1031.81
467.171	1026.81
467.391	1018.81
467.61	1002.81
467.829	985.81
468.049	998.81
468.268	998.81
468.488	950.81
468.707	972.81
468.927	971.81
469.146	950.81
469.365	993.81
469.585	968.81
469.804	993.81
470.023	1010.81
470.243	1037.81
470.462	1045.81
470.681	1056.81
470.901	1059.81
471.12	1039.81
471.339	1050.81
471.558	975.81
471.777	989.81
471.997	986.81
472.216	971.81
472.435	974.81
472.654	936.81
472.873	941.81
473.092	947.81
473.311	954.81
473.53	922.81
473.749	941.81
473.968	947.81
474.187	929.81
474.406	954.81
474.625	923.81
474.844	945.81
475.063	966.81
475.282	961.81
475.501	991.81
475.72	978.81
475.939	964.81
476.158	1001.81
476.377	972.81
476.596	988.81
476.814	1017.81
477.033	1003.81
477.252	1036.81
477.471	1043.81
477.69	1047.81
477.908	1136.81
478.127	1128.81
478.346	1157.81
478.564	1142.81
478.783	1121.81
479.002	1202.81
479.22	1198.81
479.439	1229.81
479.658	1210.81
479.876	1217.81
480.095	1174.81
480.313	1235.81
480.532	1275.81
480.751	1297.81
480.969	1245.81
481.188	1178.81
481.406	1146.81
481.624	1152.81
481.843	1113.81
482.061	1097.81
482.28	1101.81
482.498	1062.81
482.717	1055.81
482.935	1075.81
483.153	1047.81
483.372	1070.81
483.59	1072.81
483.808	1095.81
484.027	1074.81
484.245	1057.81
484.463	1099.81
484.681	1101.81
484.9	1093.81
485.118	1114.81
485.336	1102.81
485.554	1147.81
485.772	1151.81
485.99	1152.81
486.209	1125.81
486.427	1182.81
486.645	1145.81
486.863	1145.81
487.081	1128.81
487.299	1145.81
487.517	1126.81
487.735	1104.81
487.953	1105.81
488.171	1140.81
488.389	1117.81
488.607	1078.81
488.825	1087.81
489.043	1102.81
489.261	1119.81
489.479	1110.81
489.696	1113.81
489.914	1086.81
490.132	1094.81
490.35	1110.81
490.568	1112.81
490.786	1174.81
491.003	1098.81
491.221	1195.81
491.439	1137.81
491.657	1124.81
491.874	1125.81
492.092	1162.81
492.31	1171.81
492.527	1142.81
492.745	1184.81
492.963	1141.81
493.18	1164.81
493.398	1178.81
493.615	1150.81
493.833	1217.81
494.05	1203.81
494.268	1216.81
494.485	1195.81
494.703	1208.81
494.92	1211.81
495.138	1218.81
495.355	1189.81
495.573	1205.81
495.79	1241.81
496.008	1205.81
496.225	1199.81
