Data from NiCl2@0.0625M.TitratingCurve.Agarose3%dH2O.NegLispCup.LampEnergy10.LIBS07252019_HRD10591_18-32-46-579.txt Node
Date: Thu Jul 25 18:32:46 EDT 2019
User: cochatt
Spectrometer: HR+D1059
Trigger mode: 1
Integration Time (sec): 1.000000E-1
Scans to average: 1
Electric dark correction enabled: true
Nonlinearity correction enabled: false
Boxcar width: 0
XAxis mode: Wavelengths
Number of Pixels in Spectrum: 2048
>>>>>Begin Spectral Data<<<<<
223.165	-8.19
223.4	-8.19
223.635	-8.19
223.869	-16.19
224.104	-30.19
224.338	-8.19
224.573	-12.19
224.808	-17.19
225.042	5.81
225.277	-7.19
225.511	4.81
225.746	4.81
225.98	2.81
226.215	21.81
226.449	13.81
226.683	14.81
226.918	5.81
227.152	24.81
227.387	25.81
227.621	31.81
227.856	33.81
228.09	53.81
228.324	41.81
228.559	51.81
228.793	97.81
229.027	150.81
229.262	165.81
229.496	162.81
229.73	174.81
229.964	195.81
230.199	203.81
230.433	209.81
230.667	196.81
230.901	197.81
231.136	195.81
231.37	197.81
231.604	191.81
231.838	189.81
232.072	207.81
232.306	214.81
232.541	217.81
232.775	212.81
233.009	218.81
233.243	241.81
233.477	230.81
233.711	230.81
233.945	222.81
234.179	227.81
234.413	230.81
234.647	247.81
234.881	272.81
235.115	259.81
235.349	244.81
235.583	238.81
235.817	250.81
236.051	236.81
236.285	269.81
236.519	253.81
236.753	266.81
236.987	262.81
237.221	268.81
237.455	264.81
237.689	286.81
237.922	276.81
238.156	285.81
238.39	317.81
238.624	335.81
238.858	337.81
239.091	281.81
239.325	309.81
239.559	314.81
239.793	302.81
240.027	346.81
240.26	317.81
240.494	327.81
240.728	340.81
240.961	374.81
241.195	341.81
241.429	337.81
241.662	373.81
241.896	325.81
242.13	331.81
242.363	305.81
242.597	323.81
242.83	346.81
243.064	334.81
243.298	352.81
243.531	358.81
243.765	361.81
243.998	376.81
244.232	352.81
244.465	369.81
244.699	380.81
244.932	379.81
245.166	388.81
245.399	372.81
245.633	380.81
245.866	380.81
246.099	392.81
246.333	406.81
246.566	403.81
246.8	394.81
247.033	420.81
247.266	383.81
247.5	394.81
247.733	415.81
247.966	438.81
248.2	441.81
248.433	444.81
248.666	453.81
248.899	452.81
249.133	462.81
249.366	476.81
249.599	481.81
249.832	472.81
250.066	462.81
250.299	443.81
250.532	451.81
250.765	451.81
250.998	442.81
251.231	448.81
251.465	476.81
251.698	479.81
251.931	498.81
252.164	485.81
252.397	478.81
252.63	521.81
252.863	546.81
253.096	529.81
253.329	554.81
253.562	530.81
253.795	521.81
254.028	556.81
254.261	578.81
254.494	547.81
254.727	534.81
254.96	530.81
255.193	539.81
255.426	536.81
255.659	521.81
255.892	519.81
256.124	509.81
256.357	558.81
256.59	580.81
256.823	563.81
257.056	548.81
257.289	525.81
257.521	558.81
257.754	536.81
257.987	562.81
258.22	549.81
258.452	544.81
258.685	569.81
258.918	622.81
259.151	590.81
259.383	569.81
259.616	601.81
259.849	637.81
260.081	693.81
260.314	753.81
260.547	664.81
260.779	631.81
261.012	637.81
261.244	655.81
261.477	695.81
261.71	656.81
261.942	638.81
262.175	605.81
262.407	619.81
262.64	635.81
262.872	676.81
263.105	696.81
263.337	714.81
263.57	712.81
263.802	626.81
264.035	617.81
264.267	604.81
264.499	587.81
264.732	609.81
264.964	605.81
265.197	603.81
265.429	605.81
265.661	629.81
265.894	605.81
266.126	622.81
266.358	645.81
266.591	638.81
266.823	675.81
267.055	677.81
267.287	648.81
267.52	651.81
267.752	620.81
267.984	636.81
268.216	651.81
268.448	652.81
268.681	649.81
268.913	672.81
269.145	649.81
269.377	659.81
269.609	670.81
269.841	693.81
270.073	673.81
270.306	673.81
270.538	663.81
270.77	678.81
271.002	686.81
271.234	687.81
271.466	717.81
271.698	735.81
271.93	699.81
272.162	734.81
272.394	754.81
272.626	719.81
272.858	737.81
273.09	769.81
273.322	767.81
273.553	729.81
273.785	804.81
274.017	825.81
274.249	909.81
274.481	894.81
274.713	922.81
274.945	1022.81
275.176	1042.81
275.408	961.81
275.64	906.81
275.872	931.81
276.104	843.81
276.335	772.81
276.567	774.81
276.799	763.81
277.031	799.81
277.262	792.81
277.494	803.81
277.726	773.81
277.957	795.81
278.189	787.81
278.421	793.81
278.652	777.81
278.884	808.81
279.115	813.81
279.347	841.81
279.579	814.81
279.81	809.81
280.042	827.81
280.273	813.81
280.505	799.81
280.736	814.81
280.968	852.81
281.199	829.81
281.431	819.81
281.662	830.81
281.894	857.81
282.125	814.81
282.356	842.81
282.588	841.81
282.819	821.81
283.051	862.81
283.282	868.81
283.513	869.81
283.745	881.81
283.976	897.81
284.207	880.81
284.439	864.81
284.67	884.81
284.901	878.81
285.132	879.81
285.364	874.81
285.595	907.81
285.826	925.81
286.057	938.81
286.288	895.81
286.52	885.81
286.751	892.81
286.982	921.81
287.213	918.81
287.444	923.81
287.675	906.81
287.906	906.81
288.138	930.81
288.369	910.81
288.6	905.81
288.831	901.81
289.062	926.81
289.293	907.81
289.524	914.81
289.755	920.81
289.986	915.81
290.217	950.81
290.448	922.81
290.679	925.81
290.91	933.81
291.141	919.81
291.371	941.81
291.602	937.81
291.833	956.81
292.064	954.81
292.295	953.81
292.526	946.81
292.757	952.81
292.987	945.81
293.218	943.81
293.449	960.81
293.68	960.81
293.91	959.81
294.141	966.81
294.372	944.81
294.603	945.81
294.833	980.81
295.064	970.81
295.295	958.81
295.525	953.81
295.756	976.81
295.987	955.81
296.217	989.81
296.448	979.81
296.679	988.81
296.909	1011.81
297.14	1026.81
297.37	1027.81
297.601	1047.81
297.831	1027.81
298.062	999.81
298.292	1044.81
298.523	1057.81
298.753	1077.81
298.984	1033.81
299.214	1012.81
299.445	1028.81
299.675	1016.81
299.905	1027.81
300.136	1052.81
300.366	1039.81
300.597	1064.81
300.827	1074.81
301.057	1063.81
301.288	1062.81
301.518	1060.81
301.748	1070.81
301.979	1148.81
302.209	1146.81
302.439	1155.81
302.669	1119.81
302.9	1093.81
303.13	1090.81
303.36	1083.81
303.59	1114.81
303.82	1098.81
304.051	1078.81
304.281	1083.81
304.511	1033.81
304.741	1087.81
304.971	1069.81
305.201	1095.81
305.431	1087.81
305.661	1065.81
305.891	1085.81
306.121	1063.81
306.352	1081.81
306.582	1046.81
306.812	1069.81
307.042	1062.81
307.272	1065.81
307.502	1061.81
307.731	1081.81
307.961	1066.81
308.191	1065.81
308.421	1080.81
308.651	1071.81
308.881	1034.81
309.111	1053.81
309.341	1063.81
309.571	1096.81
309.8	1061.81
310.03	1058.81
310.26	1074.81
310.49	1069.81
310.72	1071.81
310.949	1084.81
311.179	1096.81
311.409	1060.81
311.639	1091.81
311.868	1095.81
312.098	1123.81
312.328	1143.81
312.557	1138.81
312.787	1083.81
313.017	1116.81
313.246	1124.81
313.476	1110.81
313.706	1150.81
313.935	1151.81
314.165	1140.81
314.394	1150.81
314.624	1138.81
314.853	1130.81
315.083	1134.81
315.312	1143.81
315.542	1139.81
315.771	1131.81
316.001	1128.81
316.23	1138.81
316.46	1125.81
316.689	1126.81
316.919	1115.81
317.148	1149.81
317.377	1119.81
317.607	1150.81
317.836	1153.81
318.065	1122.81
318.295	1137.81
318.524	1130.81
318.753	1143.81
318.983	1121.81
319.212	1099.81
319.441	1157.81
319.67	1144.81
319.9	1143.81
320.129	1137.81
320.358	1133.81
320.587	1119.81
320.816	1131.81
321.046	1129.81
321.275	1164.81
321.504	1171.81
321.733	1155.81
321.962	1153.81
322.191	1135.81
322.42	1177.81
322.649	1179.81
322.878	1161.81
323.108	1165.81
323.337	1209.81
323.566	1171.81
323.795	1201.81
324.024	1199.81
324.253	1210.81
324.482	1157.81
324.71	1181.81
324.939	1211.81
325.168	1198.81
325.397	1181.81
325.626	1159.81
325.855	1218.81
326.084	1230.81
326.313	1222.81
326.542	1243.81
326.77	1226.81
326.999	1246.81
327.228	1227.81
327.457	1223.81
327.686	1234.81
327.914	1252.81
328.143	1229.81
328.372	1237.81
328.6	1238.81
328.829	1212.81
329.058	1295.81
329.287	1241.81
329.515	1244.81
329.744	1241.81
329.972	1289.81
330.201	1293.81
330.43	1270.81
330.658	1258.81
330.887	1308.81
331.115	1291.81
331.344	1288.81
331.572	1316.81
331.801	1342.81
332.03	1345.81
332.258	1351.81
332.486	1436.81
332.715	1427.81
332.943	1474.81
333.172	1527.81
333.4	1538.81
333.629	1594.81
333.857	1601.81
334.085	1578.81
334.314	1589.81
334.542	1559.81
334.771	1549.81
334.999	1551.81
335.227	1541.81
335.455	1562.81
335.684	1550.81
335.912	1521.81
336.14	1470.81
336.369	1496.81
336.597	1498.81
336.825	1501.81
337.053	1484.81
337.281	1459.81
337.51	1443.81
337.738	1418.81
337.966	1374.81
338.194	1435.81
338.422	1375.81
338.65	1343.81
338.878	1355.81
339.106	1339.81
339.334	1377.81
339.562	1357.81
339.79	1321.81
340.018	1317.81
340.246	1293.81
340.474	1315.81
340.702	1326.81
340.93	1294.81
341.158	1314.81
341.386	1326.81
341.614	1280.81
341.842	1297.81
342.07	1298.81
342.298	1295.81
342.526	1279.81
342.754	1296.81
342.981	1346.81
343.209	1333.81
343.437	1401.81
343.665	1453.81
343.893	1528.81
344.12	1583.81
344.348	1568.81
344.576	1467.81
344.804	1435.81
345.031	1324.81
345.259	1359.81
345.487	1332.81
345.714	1287.81
345.942	1291.81
346.17	1291.81
346.397	1294.81
346.625	1282.81
346.853	1238.81
347.08	1244.81
347.308	1263.81
347.535	1271.81
347.763	1275.81
347.99	1277.81
348.218	1261.81
348.445	1239.81
348.673	1241.81
348.9	1265.81
349.128	1239.81
349.355	1229.81
349.583	1242.81
349.81	1216.81
350.037	1241.81
350.265	1232.81
350.492	1221.81
350.72	1223.81
350.947	1211.81
351.174	1217.81
351.402	1206.81
351.629	1221.81
351.856	1226.81
352.083	1204.81
352.311	1161.81
352.538	1213.81
352.765	1198.81
352.992	1220.81
353.22	1221.81
353.447	1210.81
353.674	1193.81
353.901	1207.81
354.128	1220.81
354.355	1191.81
354.583	1166.81
354.81	1202.81
355.037	1213.81
355.264	1192.81
355.491	1220.81
355.718	1203.81
355.945	1244.81
356.172	1220.81
356.399	1234.81
356.626	1230.81
356.853	1258.81
357.08	1263.81
357.307	1299.81
357.534	1262.81
357.761	1222.81
357.988	1262.81
358.215	1296.81
358.441	1293.81
358.668	1246.81
358.895	1238.81
359.122	1189.81
359.349	1199.81
359.576	1191.81
359.802	1190.81
360.029	1235.81
360.256	1226.81
360.483	1230.81
360.709	1245.81
360.936	1279.81
361.163	1252.81
361.39	1251.81
361.616	1240.81
361.843	1251.81
362.07	1279.81
362.296	1253.81
362.523	1245.81
362.749	1229.81
362.976	1198.81
363.203	1235.81
363.429	1244.81
363.656	1213.81
363.882	1226.81
364.109	1235.81
364.335	1227.81
364.562	1226.81
364.788	1238.81
365.015	1273.81
365.241	1218.81
365.468	1193.81
365.694	1223.81
365.92	1221.81
366.147	1190.81
366.373	1219.81
366.599	1220.81
366.826	1188.81
367.052	1203.81
367.278	1203.81
367.505	1236.81
367.731	1218.81
367.957	1191.81
368.184	1243.81
368.41	1262.81
368.636	1229.81
368.862	1263.81
369.089	1253.81
369.315	1242.81
369.541	1241.81
369.767	1285.81
369.993	1255.81
370.219	1260.81
370.445	1277.81
370.672	1307.81
370.898	1327.81
371.124	1337.81
371.35	1337.81
371.576	1316.81
371.802	1332.81
372.028	1347.81
372.254	1399.81
372.48	1366.81
372.706	1363.81
372.932	1393.81
373.158	1395.81
373.384	1407.81
373.61	1457.81
373.835	1479.81
374.061	1412.81
374.287	1385.81
374.513	1422.81
374.739	1491.81
374.965	1507.81
375.191	1553.81
375.416	1437.81
375.642	1441.81
375.868	1406.81
376.094	1425.81
376.319	1401.81
376.545	1370.81
376.771	1409.81
376.997	1341.81
377.222	1300.81
377.448	1280.81
377.674	1297.81
377.899	1304.81
378.125	1313.81
378.35	1256.81
378.576	1259.81
378.802	1314.81
379.027	1308.81
379.253	1307.81
379.478	1281.81
379.704	1333.81
379.929	1353.81
380.155	1334.81
380.38	1260.81
380.606	1304.81
380.831	1302.81
381.057	1322.81
381.282	1322.81
381.507	1351.81
381.733	1390.81
381.958	1415.81
382.184	1469.81
382.409	1451.81
382.634	1440.81
382.86	1451.81
383.085	1420.81
383.31	1430.81
383.535	1436.81
383.761	1476.81
383.986	1494.81
384.211	1521.81
384.436	1503.81
384.662	1500.81
384.887	1545.81
385.112	1531.81
385.337	1576.81
385.562	1594.81
385.787	1575.81
386.013	1622.81
386.238	1631.81
386.463	1639.81
386.688	1611.81
386.913	1579.81
387.138	1575.81
387.363	1586.81
387.588	1562.81
387.813	1572.81
388.038	1585.81
388.263	1555.81
388.488	1581.81
388.713	1561.81
388.938	1594.81
389.163	1530.81
389.387	1544.81
389.612	1551.81
389.837	1550.81
390.062	1542.81
390.287	1578.81
390.512	1533.81
390.736	1535.81
390.961	1614.81
391.186	1619.81
391.411	1615.81
391.636	1666.81
391.86	1744.81
392.085	1765.81
392.31	1789.81
392.534	1752.81
392.759	1699.81
392.984	1684.81
393.208	1681.81
393.433	1775.81
393.658	1811.81
393.882	1684.81
394.107	1656.81
394.331	1675.81
394.556	1665.81
394.78	1669.81
395.005	1677.81
395.229	1669.81
395.454	1747.81
395.678	1727.81
395.903	1715.81
396.127	1741.81
396.352	1728.81
396.576	1690.81
396.801	1729.81
397.025	1765.81
397.249	1793.81
397.474	1774.81
397.698	1758.81
397.922	1755.81
398.147	1747.81
398.371	1849.81
398.595	1830.81
398.82	1894.81
399.044	2050.81
399.268	2190.81
399.492	2453.81
399.717	2706.81
399.941	2725.81
400.165	2509.81
400.389	2331.81
400.613	2142.81
400.837	2107.81
401.062	1999.81
401.286	1988.81
401.51	1948.81
401.734	1934.81
401.958	1922.81
402.182	1937.81
402.406	2025.81
402.63	1988.81
402.854	2032.81
403.078	2010.81
403.302	2069.81
403.526	2076.81
403.75	2060.81
403.974	2140.81
404.198	2110.81
404.422	2158.81
404.645	2214.81
404.869	2183.81
405.093	2130.81
405.317	2053.81
405.541	2142.81
405.765	2076.81
405.988	2099.81
406.212	2110.81
406.436	2123.81
406.66	2225.81
406.883	2213.81
407.107	2300.81
407.331	2381.81
407.555	2497.81
407.778	2468.81
408.002	2389.81
408.226	2328.81
408.449	2310.81
408.673	2258.81
408.896	2201.81
409.12	2133.81
409.344	2172.81
409.567	2123.81
409.791	2151.81
410.014	2168.81
410.238	2122.81
410.461	2087.81
410.685	2057.81
410.908	2026.81
411.132	2049.81
411.355	2017.81
411.578	1984.81
411.802	1976.81
412.025	1993.81
412.249	2054.81
412.472	2037.81
412.695	1995.81
412.919	1971.81
413.142	1983.81
413.365	1913.81
413.589	1997.81
413.812	1928.81
414.035	1911.81
414.258	1887.81
414.482	1934.81
414.705	1960.81
414.928	1965.81
415.151	1965.81
415.374	1951.81
415.597	1885.81
415.821	1908.81
416.044	1889.81
416.267	1881.81
416.49	1850.81
416.713	1814.81
416.936	1861.81
417.159	1871.81
417.382	1841.81
417.605	1839.81
417.828	1857.81
418.051	1906.81
418.274	1925.81
418.497	1888.81
418.72	1925.81
418.943	1877.81
419.166	2020.81
419.389	2151.81
419.611	2141.81
419.834	2069.81
420.057	2004.81
420.28	1901.81
420.503	1878.81
420.726	1845.81
420.948	1839.81
421.171	1835.81
421.394	1882.81
421.617	1861.81
421.839	1868.81
422.062	1841.81
422.285	1806.81
422.507	1901.81
422.73	1926.81
422.953	1935.81
423.175	1882.81
423.398	1914.81
423.621	1915.81
423.843	1949.81
424.066	1919.81
424.288	1900.81
424.511	1911.81
424.733	1876.81
424.956	1885.81
425.178	1886.81
425.401	1908.81
425.623	1883.81
425.846	1846.81
426.068	1843.81
426.291	1837.81
426.513	1817.81
426.735	1815.81
426.958	1802.81
427.18	1797.81
427.402	1765.81
427.625	1764.81
427.847	1729.81
428.069	1748.81
428.292	1713.81
428.514	1717.81
428.736	1701.81
428.958	1710.81
429.181	1676.81
429.403	1679.81
429.625	1665.81
429.847	1668.81
430.069	1646.81
430.292	1685.81
430.514	1624.81
430.736	1723.81
430.958	1698.81
431.18	1665.81
431.402	1686.81
431.624	1686.81
431.846	1707.81
432.068	1719.81
432.29	1741.81
432.512	1744.81
432.734	1734.81
432.956	1711.81
433.178	1689.81
433.4	1721.81
433.622	1697.81
433.844	1714.81
434.066	1733.81
434.287	1756.81
434.509	1813.81
434.731	1849.81
434.953	1889.81
435.175	1909.81
435.397	1875.81
435.618	1762.81
435.84	1774.81
436.062	1742.81
436.284	1709.81
436.505	1696.81
436.727	1683.81
436.949	1667.81
437.17	1656.81
437.392	1683.81
437.614	1656.81
437.835	1638.81
438.057	1619.81
438.278	1611.81
438.5	1693.81
438.721	1703.81
438.943	1660.81
439.165	1591.81
439.386	1626.81
439.608	1717.81
439.829	1667.81
440.05	1702.81
440.272	1681.81
440.493	1693.81
440.715	1737.81
440.936	1733.81
441.158	1751.81
441.379	1774.81
441.6	1847.81
441.822	1870.81
442.043	1814.81
442.264	1822.81
442.486	1793.81
442.707	1855.81
442.928	1831.81
443.149	1828.81
443.371	1817.81
443.592	1858.81
443.813	1849.81
444.034	1829.81
444.255	1899.81
444.476	1977.81
444.698	2013.81
444.919	2118.81
445.14	2189.81
445.361	1995.81
445.582	1926.81
445.803	1814.81
446.024	1781.81
446.245	1787.81
446.466	1695.81
446.687	1664.81
446.908	1700.81
447.129	1624.81
447.35	1618.81
447.571	1615.81
447.792	1562.81
448.013	1558.81
448.234	1549.81
448.455	1539.81
448.675	1494.81
448.896	1549.81
449.117	1525.81
449.338	1521.81
449.559	1490.81
449.779	1505.81
450	1486.81
450.221	1514.81
450.442	1491.81
450.662	1487.81
450.883	1534.81
451.104	1525.81
451.324	1521.81
451.545	1549.81
451.766	1520.81
451.986	1517.81
452.207	1500.81
452.428	1451.81
452.648	1500.81
452.869	1465.81
453.089	1451.81
453.31	1495.81
453.53	1453.81
453.751	1424.81
453.971	1456.81
454.192	1460.81
454.412	1450.81
454.633	1448.81
454.853	1429.81
455.073	1441.81
455.294	1430.81
455.514	1420.81
455.734	1443.81
455.955	1403.81
456.175	1417.81
456.395	1384.81
456.616	1427.81
456.836	1479.81
457.056	1443.81
457.276	1389.81
457.497	1461.81
457.717	1454.81
457.937	1459.81
458.157	1450.81
458.377	1476.81
458.598	1540.81
458.818	1550.81
459.038	1560.81
459.258	1628.81
459.478	1683.81
459.698	1741.81
459.918	1764.81
460.138	1767.81
460.358	1850.81
460.578	1884.81
460.798	1964.81
461.018	1933.81
461.238	1910.81
461.458	1913.81
461.678	1879.81
461.898	1965.81
462.118	1932.81
462.338	2040.81
462.558	2085.81
462.777	2185.81
462.997	2290.81
463.217	2421.81
463.437	2423.81
463.657	2328.81
463.876	2204.81
464.096	2203.81
464.316	2192.81
464.536	2191.81
464.755	2117.81
464.975	2063.81
465.195	1970.81
465.414	1904.81
465.634	1809.81
465.854	1779.81
466.073	1716.81
466.293	1677.81
466.512	1636.81
466.732	1629.81
466.951	1653.81
467.171	1618.81
467.391	1573.81
467.61	1600.81
467.829	1571.81
468.049	1610.81
468.268	1550.81
468.488	1538.81
468.707	1555.81
468.927	1566.81
469.146	1604.81
469.365	1564.81
469.585	1581.81
469.804	1609.81
470.023	1657.81
470.243	1654.81
470.462	1667.81
470.681	1650.81
470.901	1671.81
471.12	1624.81
471.339	1605.81
471.558	1580.81
471.777	1551.81
471.997	1597.81
472.216	1558.81
472.435	1577.81
472.654	1512.81
472.873	1555.81
473.092	1561.81
473.311	1503.81
473.53	1545.81
473.749	1502.81
473.968	1561.81
474.187	1509.81
474.406	1512.81
474.625	1534.81
474.844	1548.81
475.063	1540.81
475.282	1546.81
475.501	1556.81
475.72	1545.81
475.939	1579.81
476.158	1605.81
476.377	1603.81
476.596	1701.81
476.814	1739.81
477.033	1663.81
477.252	1679.81
477.471	1656.81
477.69	1691.81
477.908	1794.81
478.127	1805.81
478.346	1807.81
478.564	1862.81
478.783	1892.81
479.002	1903.81
479.22	1969.81
479.439	2013.81
479.658	1950.81
479.876	1938.81
480.095	2014.81
480.313	2021.81
480.532	2046.81
480.751	2057.81
480.969	1985.81
481.188	1991.81
481.406	1969.81
481.624	1929.81
481.843	1858.81
482.061	1827.81
482.28	1861.81
482.498	1859.81
482.717	1849.81
482.935	1886.81
483.153	1853.81
483.372	1866.81
483.59	1845.81
483.808	1871.81
484.027	1892.81
484.245	1891.81
484.463	1898.81
484.681	1951.81
484.9	1971.81
485.118	1983.81
485.336	1955.81
485.554	1934.81
485.772	1997.81
485.99	2005.81
486.209	1959.81
486.427	1973.81
486.645	1947.81
486.863	1963.81
487.081	1999.81
487.299	1981.81
487.517	1971.81
487.735	1945.81
487.953	1923.81
488.171	1934.81
488.389	1931.81
488.607	1916.81
488.825	1879.81
489.043	1917.81
489.261	1937.81
489.479	1927.81
489.696	1910.81
489.914	1896.81
