Data from NiCl2@0.0625M.TitratingCurve.Agarose3%dH2O.NegLispCup.LampEnergy10.LIBS07252019_HRD10591_18-34-03-577.txt Node
Date: Thu Jul 25 18:34:03 EDT 2019
User: cochatt
Spectrometer: HR+D1059
Trigger mode: 1
Integration Time (sec): 1.000000E-1
Scans to average: 1
Electric dark correction enabled: true
Nonlinearity correction enabled: false
Boxcar width: 0
XAxis mode: Wavelengths
Number of Pixels in Spectrum: 2048
>>>>>Begin Spectral Data<<<<<
223.165	-12.88
223.4	-12.88
223.635	-12.88
223.869	-16.88
224.104	-22.88
224.338	-0.88
224.573	-8.88
224.808	-23.88
225.042	0.12
225.277	0.12
225.511	-3.88
225.746	4.12
225.98	-3.88
226.215	9.12
226.449	12.12
226.683	13.12
226.918	23.12
227.152	32.12
227.387	29.12
227.621	46.12
227.856	47.12
228.09	56.12
228.324	46.12
228.559	43.12
228.793	93.12
229.027	130.12
229.262	136.12
229.496	153.12
229.73	148.12
229.964	164.12
230.199	160.12
230.433	169.12
230.667	185.12
230.901	177.12
231.136	182.12
231.37	164.12
231.604	190.12
231.838	196.12
232.072	170.12
232.306	183.12
232.541	192.12
232.775	196.12
233.009	202.12
233.243	194.12
233.477	195.12
233.711	187.12
233.945	197.12
234.179	210.12
234.413	190.12
234.647	200.12
234.881	204.12
235.115	188.12
235.349	203.12
235.583	205.12
235.817	190.12
236.051	208.12
236.285	208.12
236.519	215.12
236.753	208.12
236.987	223.12
237.221	196.12
237.455	229.12
237.689	224.12
237.922	224.12
238.156	240.12
238.39	236.12
238.624	233.12
238.858	230.12
239.091	241.12
239.325	252.12
239.559	257.12
239.793	259.12
240.027	258.12
240.26	254.12
240.494	266.12
240.728	247.12
240.961	258.12
241.195	256.12
241.429	251.12
241.662	262.12
241.896	281.12
242.13	290.12
242.363	265.12
242.597	285.12
242.83	295.12
243.064	295.12
243.298	288.12
243.531	284.12
243.765	301.12
243.998	305.12
244.232	297.12
244.465	316.12
244.699	326.12
244.932	305.12
245.166	314.12
245.399	309.12
245.633	333.12
245.866	318.12
246.099	313.12
246.333	296.12
246.566	336.12
246.8	324.12
247.033	352.12
247.266	336.12
247.5	344.12
247.733	353.12
247.966	362.12
248.2	364.12
248.433	356.12
248.666	334.12
248.899	355.12
249.133	368.12
249.366	362.12
249.599	345.12
249.832	371.12
250.066	376.12
250.299	390.12
250.532	377.12
250.765	377.12
250.998	371.12
251.231	390.12
251.465	382.12
251.698	393.12
251.931	391.12
252.164	409.12
252.397	396.12
252.63	402.12
252.863	410.12
253.096	386.12
253.329	426.12
253.562	419.12
253.795	406.12
254.028	433.12
254.261	406.12
254.494	440.12
254.727	413.12
254.96	438.12
255.193	438.12
255.426	428.12
255.659	413.12
255.892	423.12
256.124	447.12
256.357	441.12
256.59	452.12
256.823	435.12
257.056	456.12
257.289	463.12
257.521	465.12
257.754	441.12
257.987	473.12
258.22	458.12
258.452	469.12
258.685	456.12
258.918	477.12
259.151	481.12
259.383	460.12
259.616	458.12
259.849	457.12
260.081	497.12
260.314	492.12
260.547	473.12
260.779	481.12
261.012	502.12
261.244	499.12
261.477	514.12
261.71	506.12
261.942	503.12
262.175	513.12
262.407	517.12
262.64	522.12
262.872	515.12
263.105	508.12
263.337	515.12
263.57	526.12
263.802	516.12
264.035	522.12
264.267	535.12
264.499	536.12
264.732	542.12
264.964	539.12
265.197	550.12
265.429	537.12
265.661	550.12
265.894	533.12
266.126	556.12
266.358	553.12
266.591	554.12
266.823	563.12
267.055	563.12
267.287	587.12
267.52	558.12
267.752	545.12
267.984	576.12
268.216	573.12
268.448	586.12
268.681	588.12
268.913	562.12
269.145	574.12
269.377	582.12
269.609	570.12
269.841	588.12
270.073	618.12
270.306	604.12
270.538	590.12
270.77	603.12
271.002	602.12
271.234	608.12
271.466	600.12
271.698	618.12
271.93	604.12
272.162	615.12
272.394	624.12
272.626	621.12
272.858	624.12
273.09	630.12
273.322	629.12
273.553	640.12
273.785	613.12
274.017	644.12
274.249	641.12
274.481	675.12
274.713	640.12
274.945	657.12
275.176	660.12
275.408	670.12
275.64	658.12
275.872	655.12
276.104	662.12
276.335	667.12
276.567	678.12
276.799	676.12
277.031	674.12
277.262	659.12
277.494	668.12
277.726	692.12
277.957	698.12
278.189	702.12
278.421	688.12
278.652	707.12
278.884	690.12
279.115	706.12
279.347	712.12
279.579	710.12
279.81	684.12
280.042	690.12
280.273	678.12
280.505	716.12
280.736	710.12
280.968	733.12
281.199	710.12
281.431	745.12
281.662	724.12
281.894	737.12
282.125	730.12
282.356	737.12
282.588	741.12
282.819	732.12
283.051	744.12
283.282	736.12
283.513	754.12
283.745	753.12
283.976	749.12
284.207	746.12
284.439	767.12
284.67	796.12
284.901	766.12
285.132	800.12
285.364	778.12
285.595	782.12
285.826	803.12
286.057	804.12
286.288	792.12
286.52	791.12
286.751	792.12
286.982	789.12
287.213	799.12
287.444	788.12
287.675	800.12
287.906	816.12
288.138	798.12
288.369	800.12
288.6	833.12
288.831	832.12
289.062	804.12
289.293	845.12
289.524	806.12
289.755	808.12
289.986	827.12
290.217	837.12
290.448	840.12
290.679	836.12
290.91	804.12
291.141	809.12
291.371	807.12
291.602	840.12
291.833	807.12
292.064	819.12
292.295	860.12
292.526	834.12
292.757	832.12
292.987	826.12
293.218	822.12
293.449	806.12
293.68	842.12
293.91	847.12
294.141	854.12
294.372	854.12
294.603	858.12
294.833	823.12
295.064	862.12
295.295	849.12
295.525	869.12
295.756	858.12
295.987	852.12
296.217	860.12
296.448	870.12
296.679	860.12
296.909	870.12
297.14	869.12
297.37	875.12
297.601	901.12
297.831	899.12
298.062	924.12
298.292	906.12
298.523	873.12
298.753	938.12
298.984	916.12
299.214	902.12
299.445	922.12
299.675	920.12
299.905	896.12
300.136	926.12
300.366	938.12
300.597	930.12
300.827	934.12
301.057	939.12
301.288	948.12
301.518	937.12
301.748	977.12
301.979	970.12
302.209	988.12
302.439	952.12
302.669	966.12
302.9	970.12
303.13	934.12
303.36	981.12
303.59	960.12
303.82	983.12
304.051	932.12
304.281	965.12
304.511	931.12
304.741	931.12
304.971	965.12
305.201	938.12
305.431	993.12
305.661	990.12
305.891	947.12
306.121	940.12
306.352	948.12
306.582	940.12
306.812	928.12
307.042	962.12
307.272	950.12
307.502	926.12
307.731	938.12
307.961	923.12
308.191	947.12
308.421	948.12
308.651	948.12
308.881	956.12
309.111	953.12
309.341	956.12
309.571	976.12
309.8	956.12
310.03	971.12
310.26	925.12
310.49	972.12
310.72	958.12
310.949	951.12
311.179	969.12
311.409	964.12
311.639	952.12
311.868	995.12
312.098	1001.12
312.328	970.12
312.557	1010.12
312.787	964.12
313.017	989.12
313.246	982.12
313.476	989.12
313.706	1023.12
313.935	989.12
314.165	1019.12
314.394	1001.12
314.624	1038.12
314.853	1006.12
315.083	998.12
315.312	1006.12
315.542	1034.12
315.771	1028.12
316.001	996.12
316.23	987.12
316.46	1004.12
316.689	1021.12
316.919	991.12
317.148	1026.12
317.377	1017.12
317.607	998.12
317.836	1012.12
318.065	970.12
318.295	993.12
318.524	1040.12
318.753	977.12
318.983	990.12
319.212	987.12
319.441	978.12
319.67	999.12
319.9	1014.12
320.129	1016.12
320.358	1010.12
320.587	1019.12
320.816	1011.12
321.046	1039.12
321.275	1017.12
321.504	983.12
321.733	1007.12
321.962	1024.12
322.191	1034.12
322.42	1010.12
322.649	1022.12
322.878	1015.12
323.108	1016.12
323.337	1055.12
323.566	1037.12
323.795	1048.12
324.024	1060.12
324.253	1049.12
324.482	1074.12
324.71	1019.12
324.939	1054.12
325.168	1068.12
325.397	1069.12
325.626	1065.12
325.855	1052.12
326.084	1094.12
326.313	1080.12
326.542	1107.12
326.77	1122.12
326.999	1090.12
327.228	1068.12
327.457	1101.12
327.686	1068.12
327.914	1101.12
328.143	1100.12
328.372	1121.12
328.6	1078.12
328.829	1102.12
329.058	1097.12
329.287	1136.12
329.515	1122.12
329.744	1132.12
329.972	1110.12
330.201	1116.12
330.43	1102.12
330.658	1111.12
330.887	1141.12
331.115	1122.12
331.344	1131.12
331.572	1166.12
331.801	1174.12
332.03	1222.12
332.258	1210.12
332.486	1256.12
332.715	1256.12
332.943	1323.12
333.172	1319.12
333.4	1370.12
333.629	1397.12
333.857	1466.12
334.085	1414.12
334.314	1431.12
334.542	1402.12
334.771	1399.12
334.999	1367.12
335.227	1406.12
335.455	1373.12
335.684	1360.12
335.912	1376.12
336.14	1331.12
336.369	1315.12
336.597	1331.12
336.825	1324.12
337.053	1334.12
337.281	1311.12
337.51	1288.12
337.738	1261.12
337.966	1228.12
338.194	1248.12
338.422	1249.12
338.65	1204.12
338.878	1212.12
339.106	1209.12
339.334	1216.12
339.562	1206.12
339.79	1175.12
340.018	1188.12
340.246	1197.12
340.474	1159.12
340.702	1133.12
340.93	1168.12
341.158	1172.12
341.386	1150.12
341.614	1160.12
341.842	1157.12
342.07	1154.12
342.298	1150.12
342.526	1109.12
342.754	1167.12
342.981	1170.12
343.209	1186.12
343.437	1207.12
343.665	1284.12
343.893	1325.12
344.12	1370.12
344.348	1336.12
344.576	1294.12
344.804	1245.12
345.031	1193.12
345.259	1186.12
345.487	1148.12
345.714	1147.12
345.942	1138.12
346.17	1160.12
346.397	1152.12
346.625	1142.12
346.853	1107.12
347.08	1081.12
347.308	1082.12
347.535	1105.12
347.763	1063.12
347.99	1092.12
348.218	1114.12
348.445	1100.12
348.673	1113.12
348.9	1109.12
349.128	1116.12
349.355	1107.12
349.583	1085.12
349.81	1068.12
350.037	1085.12
350.265	1066.12
350.492	1101.12
350.72	1078.12
350.947	1045.12
351.174	1074.12
351.402	1106.12
351.629	1079.12
351.856	1072.12
352.083	1076.12
352.311	1079.12
352.538	1076.12
352.765	1074.12
352.992	1084.12
353.22	1075.12
353.447	1043.12
353.674	1072.12
353.901	1042.12
354.128	1042.12
354.355	1062.12
354.583	1044.12
354.81	1040.12
355.037	1084.12
355.264	1079.12
355.491	1075.12
355.718	1054.12
355.945	1086.12
356.172	1063.12
356.399	1077.12
356.626	1080.12
356.853	1079.12
357.08	1072.12
357.307	1076.12
357.534	1073.12
357.761	1066.12
357.988	1090.12
358.215	1064.12
358.441	1073.12
358.668	1083.12
358.895	1063.12
359.122	1051.12
359.349	1068.12
359.576	1077.12
359.802	1072.12
360.029	1074.12
360.256	1092.12
360.483	1071.12
360.709	1090.12
360.936	1097.12
361.163	1092.12
361.39	1079.12
361.616	1091.12
361.843	1084.12
362.07	1082.12
362.296	1079.12
362.523	1096.12
362.749	1106.12
362.976	1051.12
363.203	1069.12
363.429	1078.12
363.656	1100.12
363.882	1060.12
364.109	1071.12
364.335	1066.12
364.562	1069.12
364.788	1074.12
365.015	1062.12
365.241	1062.12
365.468	1069.12
365.694	1058.12
365.92	1056.12
366.147	1074.12
366.373	1084.12
366.599	1060.12
366.826	1097.12
367.052	1038.12
367.278	1102.12
367.505	1098.12
367.731	1078.12
367.957	1087.12
368.184	1074.12
368.41	1114.12
368.636	1101.12
368.862	1095.12
369.089	1106.12
369.315	1124.12
369.541	1096.12
369.767	1119.12
369.993	1121.12
370.219	1102.12
370.445	1129.12
370.672	1129.12
370.898	1136.12
371.124	1136.12
371.35	1144.12
371.576	1156.12
371.802	1181.12
372.028	1148.12
372.254	1118.12
372.48	1170.12
372.706	1168.12
372.932	1167.12
373.158	1210.12
373.384	1190.12
373.61	1180.12
373.835	1194.12
374.061	1159.12
374.287	1181.12
374.513	1208.12
374.739	1235.12
374.965	1270.12
375.191	1301.12
375.416	1274.12
375.642	1282.12
375.868	1210.12
376.094	1208.12
376.319	1176.12
376.545	1180.12
376.771	1170.12
376.997	1158.12
377.222	1164.12
377.448	1147.12
377.674	1173.12
377.899	1141.12
378.125	1168.12
378.35	1144.12
378.576	1157.12
378.802	1120.12
379.027	1163.12
379.253	1145.12
379.478	1158.12
379.704	1172.12
379.929	1146.12
380.155	1147.12
380.38	1133.12
380.606	1107.12
380.831	1144.12
381.057	1165.12
381.282	1154.12
381.507	1168.12
381.733	1160.12
381.958	1164.12
382.184	1177.12
382.409	1180.12
382.634	1242.12
382.86	1237.12
383.085	1253.12
383.31	1253.12
383.535	1272.12
383.761	1235.12
383.986	1280.12
384.211	1286.12
384.436	1320.12
384.662	1328.12
384.887	1346.12
385.112	1339.12
385.337	1373.12
385.562	1381.12
385.787	1356.12
386.013	1392.12
386.238	1381.12
386.463	1414.12
386.688	1378.12
386.913	1378.12
387.138	1401.12
387.363	1370.12
387.588	1386.12
387.813	1372.12
388.038	1351.12
388.263	1396.12
388.488	1376.12
388.713	1362.12
388.938	1395.12
389.163	1387.12
389.387	1395.12
389.612	1334.12
389.837	1338.12
390.062	1376.12
390.287	1403.12
390.512	1398.12
390.736	1400.12
390.961	1405.12
391.186	1432.12
391.411	1465.12
391.636	1500.12
391.86	1528.12
392.085	1522.12
392.31	1560.12
392.534	1510.12
392.759	1513.12
392.984	1471.12
393.208	1489.12
393.433	1451.12
393.658	1435.12
393.882	1444.12
394.107	1477.12
394.331	1461.12
394.556	1446.12
394.78	1461.12
395.005	1488.12
395.229	1451.12
395.454	1538.12
395.678	1540.12
395.903	1545.12
396.127	1536.12
396.352	1510.12
396.576	1490.12
396.801	1472.12
397.025	1524.12
397.249	1506.12
397.474	1587.12
397.698	1568.12
397.922	1584.12
398.147	1568.12
398.371	1635.12
398.595	1666.12
398.82	1701.12
399.044	1835.12
399.268	1959.12
399.492	2202.12
399.717	2397.12
399.941	2412.12
400.165	2237.12
400.389	2097.12
400.613	1892.12
400.837	1833.12
401.062	1762.12
401.286	1787.12
401.51	1692.12
401.734	1740.12
401.958	1764.12
402.182	1736.12
402.406	1751.12
402.63	1817.12
402.854	1781.12
403.078	1792.12
403.302	1802.12
403.526	1914.12
403.75	1893.12
403.974	1913.12
404.198	1910.12
404.422	1865.12
404.645	1903.12
404.869	1889.12
405.093	1880.12
405.317	1887.12
405.541	1840.12
405.765	1819.12
405.988	1860.12
406.212	1848.12
406.436	1883.12
406.66	1922.12
406.883	1922.12
407.107	2058.12
407.331	2146.12
407.555	2186.12
407.778	2198.12
408.002	2114.12
408.226	2098.12
408.449	2082.12
408.673	2007.12
408.896	1964.12
409.12	1924.12
409.344	1991.12
409.567	1904.12
409.791	1942.12
410.014	1888.12
410.238	1879.12
410.461	1884.12
410.685	1856.12
410.908	1870.12
411.132	1879.12
411.355	1762.12
411.578	1794.12
411.802	1816.12
412.025	1798.12
412.249	1824.12
412.472	1793.12
412.695	1771.12
412.919	1732.12
413.142	1755.12
413.365	1733.12
413.589	1753.12
413.812	1715.12
414.035	1696.12
414.258	1725.12
414.482	1733.12
414.705	1731.12
414.928	1708.12
415.151	1730.12
415.374	1721.12
415.597	1699.12
415.821	1668.12
416.044	1666.12
416.267	1696.12
416.49	1653.12
416.713	1685.12
416.936	1658.12
417.159	1634.12
417.382	1667.12
417.605	1646.12
417.828	1652.12
418.051	1628.12
418.274	1666.12
418.497	1664.12
418.72	1713.12
418.943	1683.12
419.166	1830.12
419.389	1920.12
419.611	1912.12
419.834	1799.12
420.057	1744.12
420.28	1677.12
420.503	1670.12
420.726	1669.12
420.948	1633.12
421.171	1630.12
421.394	1656.12
421.617	1690.12
421.839	1652.12
422.062	1651.12
422.285	1612.12
422.507	1668.12
422.73	1694.12
422.953	1681.12
423.175	1707.12
423.398	1717.12
423.621	1682.12
423.843	1714.12
424.066	1756.12
424.288	1747.12
424.511	1700.12
424.733	1663.12
424.956	1680.12
425.178	1661.12
425.401	1680.12
425.623	1658.12
425.846	1618.12
426.068	1616.12
426.291	1619.12
426.513	1598.12
426.735	1554.12
426.958	1589.12
427.18	1540.12
427.402	1562.12
427.625	1566.12
427.847	1547.12
428.069	1558.12
428.292	1552.12
428.514	1488.12
428.736	1498.12
428.958	1528.12
429.181	1510.12
429.403	1484.12
429.625	1528.12
429.847	1529.12
430.069	1482.12
430.292	1501.12
430.514	1485.12
430.736	1480.12
430.958	1521.12
431.18	1486.12
431.402	1522.12
431.624	1541.12
431.846	1501.12
432.068	1506.12
432.29	1544.12
432.512	1524.12
432.734	1564.12
432.956	1514.12
433.178	1527.12
433.4	1562.12
433.622	1589.12
433.844	1561.12
434.066	1536.12
434.287	1572.12
434.509	1649.12
434.731	1700.12
434.953	1660.12
435.175	1690.12
435.397	1676.12
435.618	1620.12
435.84	1573.12
436.062	1517.12
436.284	1498.12
436.505	1540.12
436.727	1530.12
436.949	1508.12
437.17	1494.12
437.392	1487.12
437.614	1459.12
437.835	1508.12
438.057	1475.12
438.278	1456.12
438.5	1433.12
438.721	1426.12
438.943	1432.12
439.165	1460.12
439.386	1438.12
439.608	1469.12
439.829	1455.12
440.05	1489.12
440.272	1495.12
440.493	1502.12
440.715	1521.12
440.936	1486.12
441.158	1577.12
441.379	1617.12
441.6	1658.12
441.822	1664.12
442.043	1671.12
442.264	1592.12
442.486	1617.12
442.707	1625.12
442.928	1633.12
443.149	1628.12
443.371	1595.12
443.592	1625.12
443.813	1636.12
444.034	1631.12
444.255	1657.12
444.476	1732.12
444.698	1828.12
444.919	1865.12
445.14	1968.12
445.361	1836.12
445.582	1712.12
445.803	1634.12
446.024	1588.12
446.245	1576.12
446.466	1541.12
446.687	1492.12
446.908	1513.12
447.129	1447.12
447.35	1447.12
447.571	1454.12
447.792	1425.12
448.013	1393.12
448.234	1400.12
448.455	1375.12
448.675	1344.12
448.896	1356.12
449.117	1358.12
449.338	1331.12
449.559	1354.12
449.779	1317.12
450	1341.12
450.221	1316.12
450.442	1358.12
450.662	1314.12
450.883	1372.12
451.104	1374.12
451.324	1387.12
451.545	1369.12
451.766	1356.12
451.986	1368.12
452.207	1397.12
452.428	1326.12
452.648	1332.12
452.869	1345.12
453.089	1275.12
453.31	1318.12
453.53	1278.12
453.751	1292.12
453.971	1300.12
454.192	1295.12
454.412	1261.12
454.633	1258.12
454.853	1282.12
455.073	1225.12
455.294	1274.12
455.514	1282.12
455.734	1242.12
455.955	1215.12
456.175	1243.12
456.395	1254.12
456.616	1245.12
456.836	1274.12
457.056	1280.12
457.276	1241.12
457.497	1297.12
457.717	1274.12
457.937	1261.12
458.157	1319.12
458.377	1292.12
458.598	1355.12
458.818	1409.12
459.038	1394.12
459.258	1433.12
459.478	1492.12
459.698	1533.12
459.918	1543.12
460.138	1607.12
460.358	1674.12
460.578	1684.12
460.798	1732.12
461.018	1676.12
461.238	1718.12
461.458	1706.12
461.678	1720.12
461.898	1756.12
462.118	1708.12
462.338	1807.12
462.558	1873.12
462.777	1913.12
462.997	2020.12
463.217	2165.12
463.437	2143.12
463.657	2061.12
463.876	2016.12
464.096	1974.12
464.316	1956.12
464.536	1934.12
464.755	1899.12
464.975	1870.12
465.195	1777.12
465.414	1668.12
465.634	1581.12
465.854	1535.12
466.073	1504.12
466.293	1478.12
466.512	1463.12
466.732	1462.12
466.951	1431.12
467.171	1396.12
467.391	1439.12
467.61	1412.12
467.829	1419.12
468.049	1435.12
468.268	1352.12
468.488	1374.12
468.707	1353.12
468.927	1355.12
469.146	1358.12
469.365	1370.12
469.585	1401.12
469.804	1426.12
470.023	1463.12
470.243	1438.12
470.462	1440.12
470.681	1472.12
470.901	1477.12
471.12	1442.12
471.339	1424.12
471.558	1389.12
471.777	1441.12
471.997	1346.12
472.216	1387.12
472.435	1382.12
472.654	1378.12
472.873	1364.12
473.092	1359.12
473.311	1355.12
473.53	1364.12
473.749	1347.12
473.968	1349.12
474.187	1335.12
474.406	1332.12
474.625	1365.12
474.844	1362.12
475.063	1375.12
475.282	1369.12
475.501	1418.12
475.72	1421.12
475.939	1359.12
476.158	1411.12
476.377	1422.12
476.596	1408.12
476.814	1475.12
477.033	1428.12
477.252	1472.12
477.471	1494.12
477.69	1521.12
477.908	1565.12
478.127	1587.12
478.346	1593.12
478.564	1640.12
478.783	1680.12
479.002	1714.12
479.22	1713.12
479.439	1698.12
479.658	1674.12
479.876	1705.12
480.095	1740.12
480.313	1805.12
480.532	1813.12
480.751	1805.12
480.969	1749.12
481.188	1681.12
481.406	1693.12
481.624	1675.12
481.843	1668.12
482.061	1670.12
482.28	1643.12
482.498	1612.12
482.717	1654.12
482.935	1656.12
483.153	1660.12
483.372	1648.12
483.59	1660.12
483.808	1666.12
484.027	1716.12
484.245	1713.12
484.463	1726.12
484.681	1784.12
484.9	1753.12
485.118	1768.12
485.336	1800.12
485.554	1762.12
485.772	1802.12
485.99	1825.12
486.209	1843.12
486.427	1828.12
486.645	1795.12
486.863	1825.12
487.081	1817.12
487.299	1757.12
487.517	1804.12
487.735	1757.12
487.953	1790.12
488.171	1775.12
488.389	1796.12
488.607	1741.12
488.825	1714.12
489.043	1716.12
489.261	1719.12
489.479	1715.12
489.696	1725.12
489.914	1700.12
490.132	1718.12
490.35	1722.12
490.568	1727.12
490.786	1716.12
491.003	1721.12
