Data from NiCl2@0.0625M.TitratingCurve.Agarose3%dH2O.NegLispCup.LampEnergy10.LIBS07252019_HRD10591_18-33-15-576.txt Node
Date: Thu Jul 25 18:33:15 EDT 2019
User: cochatt
Spectrometer: HR+D1059
Trigger mode: 1
Integration Time (sec): 1.000000E-1
Scans to average: 1
Electric dark correction enabled: true
Nonlinearity correction enabled: false
Boxcar width: 0
XAxis mode: Wavelengths
Number of Pixels in Spectrum: 2048
>>>>>Begin Spectral Data<<<<<
223.165	-15.38
223.4	-15.38
223.635	-15.38
223.869	-14.38
224.104	-24.38
224.338	-6.38
224.573	-6.38
224.808	-15.38
225.042	-12.38
225.277	0.62
225.511	-8.38
225.746	-1.38
225.98	-2.38
226.215	5.62
226.449	22.62
226.683	17.62
226.918	25.62
227.152	34.62
227.387	30.62
227.621	40.62
227.856	48.62
228.09	52.62
228.324	55.62
228.559	73.62
228.793	74.62
229.027	131.62
229.262	163.62
229.496	167.62
229.73	160.62
229.964	166.62
230.199	178.62
230.433	188.62
230.667	184.62
230.901	196.62
231.136	193.62
231.37	192.62
231.604	201.62
231.838	216.62
232.072	204.62
232.306	212.62
232.541	204.62
232.775	209.62
233.009	205.62
233.243	195.62
233.477	218.62
233.711	224.62
233.945	205.62
234.179	214.62
234.413	221.62
234.647	216.62
234.881	216.62
235.115	226.62
235.349	233.62
235.583	228.62
235.817	218.62
236.051	235.62
236.285	241.62
236.519	227.62
236.753	221.62
236.987	227.62
237.221	239.62
237.455	242.62
237.689	250.62
237.922	248.62
238.156	257.62
238.39	259.62
238.624	263.62
238.858	267.62
239.091	254.62
239.325	277.62
239.559	267.62
239.793	266.62
240.027	277.62
240.26	280.62
240.494	280.62
240.728	280.62
240.961	276.62
241.195	283.62
241.429	300.62
241.662	304.62
241.896	301.62
242.13	304.62
242.363	315.62
242.597	327.62
242.83	315.62
243.064	308.62
243.298	344.62
243.531	326.62
243.765	345.62
243.998	337.62
244.232	351.62
244.465	362.62
244.699	344.62
244.932	347.62
245.166	356.62
245.399	352.62
245.633	358.62
245.866	348.62
246.099	367.62
246.333	371.62
246.566	370.62
246.8	377.62
247.033	349.62
247.266	391.62
247.5	369.62
247.733	378.62
247.966	387.62
248.2	395.62
248.433	417.62
248.666	397.62
248.899	415.62
249.133	405.62
249.366	385.62
249.599	415.62
249.832	430.62
250.066	409.62
250.299	411.62
250.532	410.62
250.765	416.62
250.998	443.62
251.231	427.62
251.465	434.62
251.698	457.62
251.931	439.62
252.164	468.62
252.397	461.62
252.63	436.62
252.863	442.62
253.096	476.62
253.329	473.62
253.562	478.62
253.795	463.62
254.028	467.62
254.261	470.62
254.494	483.62
254.727	465.62
254.96	460.62
255.193	483.62
255.426	480.62
255.659	486.62
255.892	481.62
256.124	489.62
256.357	498.62
256.59	508.62
256.823	491.62
257.056	502.62
257.289	501.62
257.521	500.62
257.754	520.62
257.987	529.62
258.22	510.62
258.452	534.62
258.685	509.62
258.918	532.62
259.151	535.62
259.383	530.62
259.616	543.62
259.849	541.62
260.081	565.62
260.314	550.62
260.547	567.62
260.779	546.62
261.012	555.62
261.244	559.62
261.477	570.62
261.71	551.62
261.942	588.62
262.175	571.62
262.407	575.62
262.64	552.62
262.872	571.62
263.105	580.62
263.337	580.62
263.57	601.62
263.802	589.62
264.035	606.62
264.267	614.62
264.499	610.62
264.732	584.62
264.964	608.62
265.197	633.62
265.429	603.62
265.661	609.62
265.894	636.62
266.126	629.62
266.358	610.62
266.591	623.62
266.823	608.62
267.055	619.62
267.287	619.62
267.52	623.62
267.752	633.62
267.984	623.62
268.216	641.62
268.448	650.62
268.681	631.62
268.913	675.62
269.145	662.62
269.377	655.62
269.609	651.62
269.841	662.62
270.073	650.62
270.306	666.62
270.538	672.62
270.77	672.62
271.002	662.62
271.234	679.62
271.466	657.62
271.698	676.62
271.93	669.62
272.162	704.62
272.394	687.62
272.626	691.62
272.858	700.62
273.09	703.62
273.322	698.62
273.553	713.62
273.785	705.62
274.017	706.62
274.249	746.62
274.481	732.62
274.713	741.62
274.945	735.62
275.176	754.62
275.408	723.62
275.64	731.62
275.872	739.62
276.104	741.62
276.335	740.62
276.567	751.62
276.799	748.62
277.031	778.62
277.262	781.62
277.494	774.62
277.726	761.62
277.957	785.62
278.189	777.62
278.421	779.62
278.652	791.62
278.884	771.62
279.115	774.62
279.347	787.62
279.579	791.62
279.81	820.62
280.042	794.62
280.273	819.62
280.505	809.62
280.736	819.62
280.968	813.62
281.199	821.62
281.431	811.62
281.662	822.62
281.894	844.62
282.125	841.62
282.356	852.62
282.588	837.62
282.819	824.62
283.051	826.62
283.282	851.62
283.513	856.62
283.745	844.62
283.976	841.62
284.207	866.62
284.439	871.62
284.67	874.62
284.901	849.62
285.132	880.62
285.364	876.62
285.595	872.62
285.826	882.62
286.057	892.62
286.288	879.62
286.52	897.62
286.751	896.62
286.982	902.62
287.213	899.62
287.444	918.62
287.675	906.62
287.906	922.62
288.138	898.62
288.369	887.62
288.6	924.62
288.831	934.62
289.062	938.62
289.293	921.62
289.524	915.62
289.755	933.62
289.986	936.62
290.217	888.62
290.448	918.62
290.679	923.62
290.91	943.62
291.141	926.62
291.371	939.62
291.602	920.62
291.833	926.62
292.064	935.62
292.295	929.62
292.526	939.62
292.757	941.62
292.987	936.62
293.218	926.62
293.449	935.62
293.68	919.62
293.91	962.62
294.141	975.62
294.372	914.62
294.603	960.62
294.833	958.62
295.064	962.62
295.295	948.62
295.525	932.62
295.756	948.62
295.987	957.62
296.217	988.62
296.448	967.62
296.679	994.62
296.909	965.62
297.14	979.62
297.37	1025.62
297.601	1015.62
297.831	1016.62
298.062	1011.62
298.292	1006.62
298.523	1052.62
298.753	1031.62
298.984	1012.62
299.214	1027.62
299.445	1016.62
299.675	1022.62
299.905	1045.62
300.136	1028.62
300.366	1009.62
300.597	1027.62
300.827	1037.62
301.057	1069.62
301.288	1055.62
301.518	1051.62
301.748	1080.62
301.979	1089.62
302.209	1095.62
302.439	1075.62
302.669	1059.62
302.9	1084.62
303.13	1075.62
303.36	1053.62
303.59	1064.62
303.82	1063.62
304.051	1078.62
304.281	1072.62
304.511	1061.62
304.741	1077.62
304.971	1090.62
305.201	1091.62
305.431	1087.62
305.661	1053.62
305.891	1045.62
306.121	1073.62
306.352	1053.62
306.582	1058.62
306.812	1039.62
307.042	1068.62
307.272	1063.62
307.502	1062.62
307.731	1059.62
307.961	1055.62
308.191	1049.62
308.421	1093.62
308.651	1095.62
308.881	1028.62
309.111	1062.62
309.341	1045.62
309.571	1081.62
309.8	1063.62
310.03	1054.62
310.26	1095.62
310.49	1040.62
310.72	1095.62
310.949	1079.62
311.179	1048.62
311.409	1089.62
311.639	1099.62
311.868	1057.62
312.098	1103.62
312.328	1111.62
312.557	1119.62
312.787	1128.62
313.017	1106.62
313.246	1132.62
313.476	1151.62
313.706	1142.62
313.935	1120.62
314.165	1147.62
314.394	1170.62
314.624	1165.62
314.853	1147.62
315.083	1148.62
315.312	1131.62
315.542	1148.62
315.771	1163.62
316.001	1128.62
316.23	1124.62
316.46	1148.62
316.689	1145.62
316.919	1137.62
317.148	1163.62
317.377	1112.62
317.607	1099.62
317.836	1132.62
318.065	1144.62
318.295	1119.62
318.524	1129.62
318.753	1102.62
318.983	1165.62
319.212	1143.62
319.441	1126.62
319.67	1115.62
319.9	1132.62
320.129	1102.62
320.358	1125.62
320.587	1127.62
320.816	1134.62
321.046	1156.62
321.275	1154.62
321.504	1157.62
321.733	1187.62
321.962	1145.62
322.191	1147.62
322.42	1130.62
322.649	1164.62
322.878	1167.62
323.108	1135.62
323.337	1181.62
323.566	1171.62
323.795	1155.62
324.024	1179.62
324.253	1203.62
324.482	1201.62
324.71	1185.62
324.939	1186.62
325.168	1172.62
325.397	1193.62
325.626	1227.62
325.855	1216.62
326.084	1259.62
326.313	1232.62
326.542	1242.62
326.77	1266.62
326.999	1203.62
327.228	1202.62
327.457	1204.62
327.686	1247.62
327.914	1267.62
328.143	1268.62
328.372	1239.62
328.6	1246.62
328.829	1224.62
329.058	1246.62
329.287	1236.62
329.515	1266.62
329.744	1235.62
329.972	1274.62
330.201	1274.62
330.43	1277.62
330.658	1259.62
330.887	1259.62
331.115	1315.62
331.344	1320.62
331.572	1325.62
331.801	1324.62
332.03	1367.62
332.258	1357.62
332.486	1433.62
332.715	1435.62
332.943	1473.62
333.172	1519.62
333.4	1564.62
333.629	1595.62
333.857	1634.62
334.085	1632.62
334.314	1550.62
334.542	1603.62
334.771	1589.62
334.999	1540.62
335.227	1549.62
335.455	1573.62
335.684	1533.62
335.912	1530.62
336.14	1497.62
336.369	1509.62
336.597	1494.62
336.825	1471.62
337.053	1449.62
337.281	1461.62
337.51	1441.62
337.738	1421.62
337.966	1432.62
338.194	1376.62
338.422	1404.62
338.65	1368.62
338.878	1363.62
339.106	1365.62
339.334	1380.62
339.562	1368.62
339.79	1340.62
340.018	1320.62
340.246	1306.62
340.474	1308.62
340.702	1305.62
340.93	1326.62
341.158	1327.62
341.386	1323.62
341.614	1299.62
341.842	1307.62
342.07	1308.62
342.298	1299.62
342.526	1285.62
342.754	1287.62
342.981	1301.62
343.209	1342.62
343.437	1383.62
343.665	1450.62
343.893	1491.62
344.12	1544.62
344.348	1515.62
344.576	1442.62
344.804	1417.62
345.031	1366.62
345.259	1353.62
345.487	1312.62
345.714	1297.62
345.942	1273.62
346.17	1312.62
346.397	1269.62
346.625	1279.62
346.853	1242.62
347.08	1259.62
347.308	1279.62
347.535	1272.62
347.763	1211.62
347.99	1260.62
348.218	1242.62
348.445	1224.62
348.673	1230.62
348.9	1256.62
349.128	1265.62
349.355	1243.62
349.583	1215.62
349.81	1232.62
350.037	1210.62
350.265	1223.62
350.492	1237.62
350.72	1197.62
350.947	1223.62
351.174	1205.62
351.402	1223.62
351.629	1191.62
351.856	1219.62
352.083	1212.62
352.311	1245.62
352.538	1241.62
352.765	1223.62
352.992	1201.62
353.22	1199.62
353.447	1214.62
353.674	1187.62
353.901	1192.62
354.128	1236.62
354.355	1195.62
354.583	1188.62
354.81	1199.62
355.037	1205.62
355.264	1204.62
355.491	1219.62
355.718	1239.62
355.945	1224.62
356.172	1217.62
356.399	1189.62
356.626	1236.62
356.853	1217.62
357.08	1235.62
357.307	1219.62
357.534	1202.62
357.761	1226.62
357.988	1220.62
358.215	1188.62
358.441	1195.62
358.668	1201.62
358.895	1189.62
359.122	1209.62
359.349	1224.62
359.576	1224.62
359.802	1222.62
360.029	1220.62
360.256	1211.62
360.483	1242.62
360.709	1193.62
360.936	1214.62
361.163	1209.62
361.39	1211.62
361.616	1211.62
361.843	1205.62
362.07	1211.62
362.296	1207.62
362.523	1192.62
362.749	1266.62
362.976	1226.62
363.203	1220.62
363.429	1211.62
363.656	1217.62
363.882	1208.62
364.109	1225.62
364.335	1225.62
364.562	1219.62
364.788	1213.62
365.015	1202.62
365.241	1207.62
365.468	1179.62
365.694	1204.62
365.92	1212.62
366.147	1230.62
366.373	1199.62
366.599	1188.62
366.826	1222.62
367.052	1185.62
367.278	1163.62
367.505	1213.62
367.731	1241.62
367.957	1236.62
368.184	1228.62
368.41	1274.62
368.636	1272.62
368.862	1254.62
369.089	1242.62
369.315	1242.62
369.541	1257.62
369.767	1267.62
369.993	1261.62
370.219	1269.62
370.445	1266.62
370.672	1253.62
370.898	1304.62
371.124	1289.62
371.35	1287.62
371.576	1338.62
371.802	1337.62
372.028	1345.62
372.254	1355.62
372.48	1318.62
372.706	1344.62
372.932	1367.62
373.158	1340.62
373.384	1342.62
373.61	1308.62
373.835	1319.62
374.061	1310.62
374.287	1338.62
374.513	1372.62
374.739	1384.62
374.965	1433.62
375.191	1466.62
375.416	1433.62
375.642	1438.62
375.868	1371.62
376.094	1351.62
376.319	1358.62
376.545	1365.62
376.771	1349.62
376.997	1324.62
377.222	1315.62
377.448	1321.62
377.674	1339.62
377.899	1307.62
378.125	1311.62
378.35	1291.62
378.576	1308.62
378.802	1288.62
379.027	1322.62
379.253	1303.62
379.478	1304.62
379.704	1324.62
379.929	1324.62
380.155	1297.62
380.38	1323.62
380.606	1304.62
380.831	1320.62
381.057	1290.62
381.282	1283.62
381.507	1327.62
381.733	1337.62
381.958	1347.62
382.184	1360.62
382.409	1351.62
382.634	1385.62
382.86	1347.62
383.085	1366.62
383.31	1378.62
383.535	1425.62
383.761	1436.62
383.986	1470.62
384.211	1467.62
384.436	1489.62
384.662	1519.62
384.887	1523.62
385.112	1564.62
385.337	1551.62
385.562	1536.62
385.787	1566.62
386.013	1587.62
386.238	1588.62
386.463	1561.62
386.688	1583.62
386.913	1575.62
387.138	1564.62
387.363	1593.62
387.588	1511.62
387.813	1577.62
388.038	1553.62
388.263	1565.62
388.488	1591.62
388.713	1589.62
388.938	1552.62
389.163	1522.62
389.387	1543.62
389.612	1547.62
389.837	1556.62
390.062	1535.62
390.287	1568.62
390.512	1558.62
390.736	1588.62
390.961	1623.62
391.186	1628.62
391.411	1652.62
391.636	1650.62
391.86	1716.62
392.085	1756.62
392.31	1770.62
392.534	1716.62
392.759	1708.62
392.984	1672.62
393.208	1659.62
393.433	1680.62
393.658	1686.62
393.882	1668.62
394.107	1639.62
394.331	1669.62
394.556	1627.62
394.78	1690.62
395.005	1720.62
395.229	1702.62
395.454	1731.62
395.678	1727.62
395.903	1770.62
396.127	1744.62
396.352	1707.62
396.576	1692.62
396.801	1671.62
397.025	1691.62
397.249	1727.62
397.474	1775.62
397.698	1795.62
397.922	1753.62
398.147	1754.62
398.371	1838.62
398.595	1815.62
398.82	1922.62
399.044	2026.62
399.268	2185.62
399.492	2409.62
399.717	2702.62
399.941	2700.62
400.165	2543.62
400.389	2313.62
400.613	2179.62
400.837	2056.62
401.062	2015.62
401.286	1961.62
401.51	1990.62
401.734	1947.62
401.958	1976.62
402.182	1979.62
402.406	1949.62
402.63	2002.62
402.854	2019.62
403.078	2056.62
403.302	2066.62
403.526	2060.62
403.75	2082.62
403.974	2101.62
404.198	2135.62
404.422	2151.62
404.645	2133.62
404.869	2126.62
405.093	2111.62
405.317	2074.62
405.541	2133.62
405.765	2098.62
405.988	2078.62
406.212	2183.62
406.436	2139.62
406.66	2203.62
406.883	2174.62
407.107	2309.62
407.331	2420.62
407.555	2402.62
407.778	2439.62
408.002	2378.62
408.226	2325.62
408.449	2333.62
408.673	2225.62
408.896	2252.62
409.12	2166.62
409.344	2220.62
409.567	2122.62
409.791	2181.62
410.014	2133.62
410.238	2079.62
410.461	2119.62
410.685	2142.62
410.908	2072.62
411.132	2108.62
411.355	2019.62
411.578	2047.62
411.802	2057.62
412.025	2006.62
412.249	2055.62
412.472	2059.62
412.695	2021.62
412.919	1946.62
413.142	1947.62
413.365	1983.62
413.589	1959.62
413.812	1955.62
414.035	1923.62
414.258	1921.62
414.482	1979.62
414.705	1939.62
414.928	1953.62
415.151	1928.62
415.374	1946.62
415.597	1935.62
415.821	1900.62
416.044	1857.62
416.267	1884.62
416.49	1824.62
416.713	1833.62
416.936	1869.62
417.159	1861.62
417.382	1821.62
417.605	1842.62
417.828	1860.62
418.051	1863.62
418.274	1898.62
418.497	1856.62
418.72	1931.62
418.943	1877.62
419.166	2038.62
419.389	2126.62
419.611	2125.62
419.834	2012.62
420.057	1961.62
420.28	1911.62
420.503	1857.62
420.726	1834.62
420.948	1853.62
421.171	1851.62
421.394	1898.62
421.617	1879.62
421.839	1894.62
422.062	1893.62
422.285	1823.62
422.507	1904.62
422.73	1907.62
422.953	1932.62
423.175	1904.62
423.398	1903.62
423.621	1899.62
423.843	1921.62
424.066	1931.62
424.288	1924.62
424.511	1911.62
424.733	1900.62
424.956	1903.62
425.178	1887.62
425.401	1873.62
425.623	1899.62
425.846	1832.62
426.068	1839.62
426.291	1805.62
426.513	1849.62
426.735	1768.62
426.958	1775.62
427.18	1769.62
427.402	1747.62
427.625	1740.62
427.847	1742.62
428.069	1697.62
428.292	1771.62
428.514	1700.62
428.736	1672.62
428.958	1732.62
429.181	1683.62
429.403	1633.62
429.625	1655.62
429.847	1635.62
430.069	1649.62
430.292	1661.62
430.514	1657.62
430.736	1659.62
430.958	1703.62
431.18	1641.62
431.402	1700.62
431.624	1715.62
431.846	1722.62
432.068	1685.62
432.29	1747.62
432.512	1693.62
432.734	1725.62
432.956	1713.62
433.178	1740.62
433.4	1687.62
433.622	1737.62
433.844	1766.62
434.066	1751.62
434.287	1763.62
434.509	1829.62
434.731	1884.62
434.953	1882.62
435.175	1883.62
435.397	1849.62
435.618	1813.62
435.84	1831.62
436.062	1743.62
436.284	1693.62
436.505	1695.62
436.727	1711.62
436.949	1698.62
437.17	1658.62
437.392	1673.62
437.614	1683.62
437.835	1629.62
438.057	1644.62
438.278	1636.62
438.5	1604.62
438.721	1638.62
438.943	1652.62
439.165	1648.62
439.386	1626.62
439.608	1647.62
439.829	1677.62
440.05	1674.62
440.272	1671.62
440.493	1689.62
440.715	1671.62
440.936	1734.62
441.158	1731.62
441.379	1768.62
441.6	1842.62
441.822	1850.62
442.043	1824.62
442.264	1864.62
442.486	1745.62
442.707	1816.62
442.928	1812.62
443.149	1857.62
443.371	1802.62
443.592	1832.62
443.813	1829.62
444.034	1865.62
444.255	1881.62
444.476	1955.62
444.698	2047.62
444.919	2097.62
445.14	2213.62
445.361	2041.62
445.582	1898.62
445.803	1841.62
446.024	1763.62
446.245	1741.62
446.466	1744.62
446.687	1697.62
446.908	1676.62
447.129	1627.62
447.35	1641.62
447.571	1639.62
447.792	1616.62
448.013	1575.62
448.234	1565.62
448.455	1563.62
448.675	1527.62
448.896	1556.62
449.117	1520.62
449.338	1492.62
449.559	1536.62
449.779	1470.62
450	1474.62
450.221	1497.62
450.442	1547.62
450.662	1542.62
450.883	1542.62
451.104	1497.62
451.324	1536.62
451.545	1521.62
451.766	1514.62
451.986	1497.62
452.207	1481.62
452.428	1492.62
452.648	1491.62
452.869	1444.62
453.089	1456.62
453.31	1489.62
453.53	1449.62
453.751	1431.62
453.971	1449.62
454.192	1438.62
454.412	1456.62
454.633	1449.62
454.853	1453.62
455.073	1408.62
455.294	1442.62
455.514	1449.62
455.734	1404.62
455.955	1409.62
456.175	1440.62
456.395	1436.62
456.616	1430.62
456.836	1423.62
457.056	1421.62
457.276	1427.62
457.497	1429.62
457.717	1418.62
457.937	1471.62
458.157	1482.62
458.377	1463.62
458.598	1507.62
458.818	1563.62
459.038	1622.62
459.258	1648.62
459.478	1710.62
459.698	1751.62
459.918	1760.62
460.138	1802.62
460.358	1852.62
460.578	1874.62
460.798	1917.62
461.018	1929.62
461.238	1888.62
461.458	1925.62
461.678	1929.62
461.898	1963.62
462.118	1934.62
462.338	2018.62
462.558	2069.62
462.777	2168.62
462.997	2283.62
463.217	2405.62
463.437	2399.62
463.657	2288.62
463.876	2207.62
464.096	2237.62
464.316	2181.62
464.536	2204.62
464.755	2154.62
464.975	2069.62
465.195	1967.62
465.414	1898.62
465.634	1812.62
465.854	1755.62
466.073	1725.62
466.293	1706.62
466.512	1650.62
466.732	1627.62
466.951	1628.62
467.171	1595.62
467.391	1623.62
467.61	1579.62
467.829	1547.62
468.049	1603.62
468.268	1555.62
468.488	1552.62
468.707	1517.62
468.927	1563.62
469.146	1539.62
469.365	1575.62
469.585	1572.62
469.804	1604.62
470.023	1642.62
470.243	1653.62
470.462	1653.62
470.681	1639.62
470.901	1634.62
471.12	1647.62
471.339	1606.62
471.558	1609.62
471.777	1540.62
471.997	1550.62
472.216	1572.62
472.435	1557.62
472.654	1528.62
472.873	1521.62
473.092	1552.62
473.311	1569.62
473.53	1555.62
473.749	1519.62
473.968	1522.62
474.187	1499.62
474.406	1512.62
474.625	1562.62
474.844	1527.62
475.063	1531.62
475.282	1543.62
475.501	1563.62
475.72	1557.62
475.939	1564.62
476.158	1556.62
476.377	1589.62
476.596	1608.62
476.814	1639.62
477.033	1606.62
477.252	1630.62
477.471	1709.62
477.69	1733.62
477.908	1764.62
478.127	1792.62
478.346	1793.62
478.564	1875.62
478.783	1875.62
479.002	1900.62
479.22	1905.62
479.439	1923.62
479.658	1911.62
479.876	1915.62
480.095	1907.62
480.313	1992.62
480.532	2086.62
480.751	2054.62
480.969	1972.62
481.188	1926.62
481.406	1928.62
481.624	1927.62
481.843	1870.62
482.061	1841.62
482.28	1845.62
482.498	1867.62
482.717	1873.62
482.935	1861.62
483.153	1833.62
483.372	1889.62
483.59	1872.62
483.808	1888.62
484.027	1954.62
484.245	1960.62
484.463	1967.62
484.681	1990.62
484.9	2020.62
485.118	1996.62
485.336	2037.62
485.554	1999.62
485.772	2008.62
485.99	2044.62
486.209	2044.62
486.427	2022.62
486.645	1996.62
486.863	2011.62
487.081	2027.62
487.299	2005.62
487.517	2011.62
487.735	1978.62
487.953	2015.62
488.171	1929.62
488.389	1970.62
488.607	2006.62
488.825	1981.62
489.043	1946.62
489.261	1892.62
489.479	1932.62
489.696	1956.62
489.914	1963.62
