Data from NiCl2@0.0625M.TitratingCurve.Agarose3%dH2O.NegLispCup.LampEnergy10.LIBS07252019_HRD10591_18-34-28-577.txt Node
Date: Thu Jul 25 18:34:28 EDT 2019
User: cochatt
Spectrometer: HR+D1059
Trigger mode: 1
Integration Time (sec): 1.000000E-1
Scans to average: 1
Electric dark correction enabled: true
Nonlinearity correction enabled: false
Boxcar width: 0
XAxis mode: Wavelengths
Number of Pixels in Spectrum: 2048
>>>>>Begin Spectral Data<<<<<
223.165	-15.88
223.4	-15.88
223.635	-15.88
223.869	-6.88
224.104	-11.88
224.338	-19.88
224.573	-2.88
224.808	-17.88
225.042	-15.88
225.277	-7.88
225.511	5.12
225.746	0.12
225.98	-2.88
226.215	14.12
226.449	4.12
226.683	20.12
226.918	33.12
227.152	25.12
227.387	27.12
227.621	48.12
227.856	43.12
228.09	41.12
228.324	56.12
228.559	40.12
228.793	82.12
229.027	139.12
229.262	154.12
229.496	172.12
229.73	149.12
229.964	177.12
230.199	165.12
230.433	164.12
230.667	158.12
230.901	169.12
231.136	177.12
231.37	166.12
231.604	179.12
231.838	213.12
232.072	188.12
232.306	176.12
232.541	193.12
232.775	187.12
233.009	205.12
233.243	193.12
233.477	202.12
233.711	209.12
233.945	203.12
234.179	194.12
234.413	193.12
234.647	187.12
234.881	209.12
235.115	212.12
235.349	216.12
235.583	210.12
235.817	211.12
236.051	206.12
236.285	210.12
236.519	196.12
236.753	189.12
236.987	207.12
237.221	217.12
237.455	232.12
237.689	236.12
237.922	219.12
238.156	222.12
238.39	245.12
238.624	237.12
238.858	253.12
239.091	252.12
239.325	242.12
239.559	274.12
239.793	251.12
240.027	236.12
240.26	247.12
240.494	270.12
240.728	274.12
240.961	259.12
241.195	265.12
241.429	272.12
241.662	284.12
241.896	275.12
242.13	291.12
242.363	284.12
242.597	300.12
242.83	281.12
243.064	281.12
243.298	321.12
243.531	284.12
243.765	306.12
243.998	316.12
244.232	305.12
244.465	306.12
244.699	322.12
244.932	324.12
245.166	321.12
245.399	333.12
245.633	334.12
245.866	332.12
246.099	330.12
246.333	328.12
246.566	320.12
246.8	328.12
247.033	325.12
247.266	331.12
247.5	334.12
247.733	335.12
247.966	336.12
248.2	360.12
248.433	371.12
248.666	350.12
248.899	382.12
249.133	373.12
249.366	359.12
249.599	380.12
249.832	380.12
250.066	392.12
250.299	373.12
250.532	386.12
250.765	384.12
250.998	387.12
251.231	387.12
251.465	398.12
251.698	408.12
251.931	396.12
252.164	404.12
252.397	396.12
252.63	426.12
252.863	416.12
253.096	411.12
253.329	426.12
253.562	411.12
253.795	413.12
254.028	440.12
254.261	435.12
254.494	441.12
254.727	434.12
254.96	417.12
255.193	437.12
255.426	443.12
255.659	448.12
255.892	462.12
256.124	454.12
256.357	464.12
256.59	452.12
256.823	464.12
257.056	478.12
257.289	457.12
257.521	482.12
257.754	445.12
257.987	466.12
258.22	479.12
258.452	483.12
258.685	484.12
258.918	471.12
259.151	471.12
259.383	481.12
259.616	476.12
259.849	474.12
260.081	492.12
260.314	532.12
260.547	504.12
260.779	499.12
261.012	508.12
261.244	499.12
261.477	509.12
261.71	498.12
261.942	517.12
262.175	508.12
262.407	516.12
262.64	517.12
262.872	519.12
263.105	527.12
263.337	538.12
263.57	522.12
263.802	536.12
264.035	542.12
264.267	536.12
264.499	533.12
264.732	545.12
264.964	546.12
265.197	545.12
265.429	536.12
265.661	587.12
265.894	577.12
266.126	577.12
266.358	571.12
266.591	577.12
266.823	568.12
267.055	557.12
267.287	578.12
267.52	578.12
267.752	582.12
267.984	574.12
268.216	595.12
268.448	583.12
268.681	613.12
268.913	592.12
269.145	615.12
269.377	592.12
269.609	593.12
269.841	592.12
270.073	620.12
270.306	603.12
270.538	612.12
270.77	585.12
271.002	618.12
271.234	604.12
271.466	620.12
271.698	617.12
271.93	638.12
272.162	612.12
272.394	628.12
272.626	628.12
272.858	620.12
273.09	662.12
273.322	636.12
273.553	638.12
273.785	665.12
274.017	658.12
274.249	667.12
274.481	652.12
274.713	657.12
274.945	644.12
275.176	666.12
275.408	658.12
275.64	674.12
275.872	664.12
276.104	672.12
276.335	678.12
276.567	714.12
276.799	657.12
277.031	693.12
277.262	699.12
277.494	689.12
277.726	700.12
277.957	676.12
278.189	690.12
278.421	673.12
278.652	699.12
278.884	719.12
279.115	715.12
279.347	708.12
279.579	717.12
279.81	711.12
280.042	716.12
280.273	744.12
280.505	720.12
280.736	724.12
280.968	757.12
281.199	731.12
281.431	732.12
281.662	734.12
281.894	735.12
282.125	748.12
282.356	778.12
282.588	781.12
282.819	782.12
283.051	774.12
283.282	761.12
283.513	771.12
283.745	776.12
283.976	781.12
284.207	780.12
284.439	781.12
284.67	789.12
284.901	807.12
285.132	804.12
285.364	797.12
285.595	775.12
285.826	817.12
286.057	813.12
286.288	778.12
286.52	828.12
286.751	792.12
286.982	839.12
287.213	800.12
287.444	834.12
287.675	827.12
287.906	833.12
288.138	835.12
288.369	823.12
288.6	798.12
288.831	844.12
289.062	821.12
289.293	829.12
289.524	835.12
289.755	839.12
289.986	833.12
290.217	839.12
290.448	832.12
290.679	849.12
290.91	863.12
291.141	849.12
291.371	832.12
291.602	860.12
291.833	859.12
292.064	850.12
292.295	860.12
292.526	864.12
292.757	835.12
292.987	842.12
293.218	849.12
293.449	874.12
293.68	875.12
293.91	857.12
294.141	832.12
294.372	882.12
294.603	845.12
294.833	885.12
295.064	867.12
295.295	865.12
295.525	877.12
295.756	884.12
295.987	888.12
296.217	868.12
296.448	848.12
296.679	911.12
296.909	889.12
297.14	900.12
297.37	881.12
297.601	880.12
297.831	909.12
298.062	908.12
298.292	938.12
298.523	926.12
298.753	927.12
298.984	918.12
299.214	931.12
299.445	924.12
299.675	911.12
299.905	948.12
300.136	920.12
300.366	914.12
300.597	938.12
300.827	952.12
301.057	932.12
301.288	982.12
301.518	972.12
301.748	998.12
301.979	978.12
302.209	938.12
302.439	982.12
302.669	988.12
302.9	978.12
303.13	963.12
303.36	960.12
303.59	979.12
303.82	967.12
304.051	956.12
304.281	992.12
304.511	977.12
304.741	968.12
304.971	973.12
305.201	977.12
305.431	977.12
305.661	988.12
305.891	951.12
306.121	976.12
306.352	945.12
306.582	949.12
306.812	955.12
307.042	971.12
307.272	979.12
307.502	968.12
307.731	957.12
307.961	974.12
308.191	953.12
308.421	932.12
308.651	945.12
308.881	955.12
309.111	979.12
309.341	976.12
309.571	960.12
309.8	985.12
310.03	974.12
310.26	962.12
310.49	979.12
310.72	953.12
310.949	992.12
311.179	974.12
311.409	982.12
311.639	1004.12
311.868	988.12
312.098	1004.12
312.328	992.12
312.557	1019.12
312.787	1021.12
313.017	1009.12
313.246	1035.12
313.476	1013.12
313.706	1033.12
313.935	1036.12
314.165	1046.12
314.394	1045.12
314.624	1062.12
314.853	1043.12
315.083	1039.12
315.312	1042.12
315.542	1049.12
315.771	1050.12
316.001	1038.12
316.23	1030.12
316.46	1051.12
316.689	1039.12
316.919	1048.12
317.148	1007.12
317.377	1036.12
317.607	984.12
317.836	1050.12
318.065	1015.12
318.295	1028.12
318.524	1026.12
318.753	1037.12
318.983	1047.12
319.212	1006.12
319.441	1053.12
319.67	997.12
319.9	1031.12
320.129	1028.12
320.358	1048.12
320.587	1016.12
320.816	1048.12
321.046	1020.12
321.275	1038.12
321.504	1023.12
321.733	1038.12
321.962	1006.12
322.191	1049.12
322.42	1044.12
322.649	1076.12
322.878	1032.12
323.108	1062.12
323.337	1031.12
323.566	1071.12
323.795	1056.12
324.024	1098.12
324.253	1068.12
324.482	1072.12
324.71	1065.12
324.939	1070.12
325.168	1078.12
325.397	1080.12
325.626	1120.12
325.855	1099.12
326.084	1120.12
326.313	1106.12
326.542	1116.12
326.77	1129.12
326.999	1122.12
327.228	1124.12
327.457	1104.12
327.686	1124.12
327.914	1150.12
328.143	1104.12
328.372	1118.12
328.6	1132.12
328.829	1142.12
329.058	1096.12
329.287	1145.12
329.515	1131.12
329.744	1138.12
329.972	1138.12
330.201	1158.12
330.43	1159.12
330.658	1156.12
330.887	1155.12
331.115	1212.12
331.344	1177.12
331.572	1182.12
331.801	1233.12
332.03	1245.12
332.258	1244.12
332.486	1250.12
332.715	1276.12
332.943	1307.12
333.172	1373.12
333.4	1373.12
333.629	1414.12
333.857	1426.12
334.085	1440.12
334.314	1448.12
334.542	1452.12
334.771	1419.12
334.999	1384.12
335.227	1414.12
335.455	1424.12
335.684	1355.12
335.912	1384.12
336.14	1359.12
336.369	1350.12
336.597	1370.12
336.825	1376.12
337.053	1320.12
337.281	1309.12
337.51	1317.12
337.738	1325.12
337.966	1262.12
338.194	1237.12
338.422	1269.12
338.65	1238.12
338.878	1245.12
339.106	1214.12
339.334	1240.12
339.562	1202.12
339.79	1206.12
340.018	1191.12
340.246	1169.12
340.474	1150.12
340.702	1189.12
340.93	1217.12
341.158	1191.12
341.386	1189.12
341.614	1217.12
341.842	1146.12
342.07	1186.12
342.298	1168.12
342.526	1154.12
342.754	1171.12
342.981	1160.12
343.209	1210.12
343.437	1237.12
343.665	1332.12
343.893	1365.12
344.12	1396.12
344.348	1358.12
344.576	1296.12
344.804	1297.12
345.031	1236.12
345.259	1244.12
345.487	1187.12
345.714	1212.12
345.942	1172.12
346.17	1178.12
346.397	1150.12
346.625	1141.12
346.853	1106.12
347.08	1146.12
347.308	1136.12
347.535	1147.12
347.763	1126.12
347.99	1150.12
348.218	1156.12
348.445	1107.12
348.673	1122.12
348.9	1110.12
349.128	1127.12
349.355	1106.12
349.583	1120.12
349.81	1125.12
350.037	1110.12
350.265	1090.12
350.492	1091.12
350.72	1070.12
350.947	1103.12
351.174	1056.12
351.402	1099.12
351.629	1108.12
351.856	1093.12
352.083	1124.12
352.311	1064.12
352.538	1060.12
352.765	1092.12
352.992	1088.12
353.22	1102.12
353.447	1052.12
353.674	1043.12
353.901	1098.12
354.128	1106.12
354.355	1066.12
354.583	1076.12
354.81	1082.12
355.037	1079.12
355.264	1062.12
355.491	1124.12
355.718	1095.12
355.945	1090.12
356.172	1130.12
356.399	1111.12
356.626	1100.12
356.853	1090.12
357.08	1117.12
357.307	1080.12
357.534	1091.12
357.761	1083.12
357.988	1089.12
358.215	1082.12
358.441	1094.12
358.668	1117.12
358.895	1104.12
359.122	1118.12
359.349	1107.12
359.576	1054.12
359.802	1077.12
360.029	1107.12
360.256	1081.12
360.483	1102.12
360.709	1099.12
360.936	1113.12
361.163	1101.12
361.39	1098.12
361.616	1109.12
361.843	1112.12
362.07	1105.12
362.296	1091.12
362.523	1092.12
362.749	1101.12
362.976	1083.12
363.203	1078.12
363.429	1074.12
363.656	1117.12
363.882	1062.12
364.109	1092.12
364.335	1101.12
364.562	1128.12
364.788	1096.12
365.015	1096.12
365.241	1107.12
365.468	1086.12
365.694	1083.12
365.92	1073.12
366.147	1067.12
366.373	1074.12
366.599	1079.12
366.826	1112.12
367.052	1099.12
367.278	1098.12
367.505	1085.12
367.731	1094.12
367.957	1075.12
368.184	1088.12
368.41	1098.12
368.636	1106.12
368.862	1113.12
369.089	1128.12
369.315	1132.12
369.541	1130.12
369.767	1109.12
369.993	1144.12
370.219	1117.12
370.445	1154.12
370.672	1160.12
370.898	1157.12
371.124	1174.12
371.35	1163.12
371.576	1187.12
371.802	1190.12
372.028	1207.12
372.254	1193.12
372.48	1228.12
372.706	1216.12
372.932	1235.12
373.158	1236.12
373.384	1206.12
373.61	1192.12
373.835	1200.12
374.061	1142.12
374.287	1169.12
374.513	1188.12
374.739	1253.12
374.965	1280.12
375.191	1273.12
375.416	1282.12
375.642	1265.12
375.868	1260.12
376.094	1212.12
376.319	1197.12
376.545	1227.12
376.771	1167.12
376.997	1210.12
377.222	1189.12
377.448	1166.12
377.674	1154.12
377.899	1199.12
378.125	1177.12
378.35	1186.12
378.576	1175.12
378.802	1163.12
379.027	1205.12
379.253	1168.12
379.478	1161.12
379.704	1198.12
379.929	1173.12
380.155	1172.12
380.38	1156.12
380.606	1162.12
380.831	1148.12
381.057	1177.12
381.282	1138.12
381.507	1176.12
381.733	1164.12
381.958	1170.12
382.184	1234.12
382.409	1206.12
382.634	1188.12
382.86	1243.12
383.085	1273.12
383.31	1237.12
383.535	1274.12
383.761	1297.12
383.986	1266.12
384.211	1287.12
384.436	1335.12
384.662	1346.12
384.887	1409.12
385.112	1392.12
385.337	1403.12
385.562	1374.12
385.787	1384.12
386.013	1427.12
386.238	1405.12
386.463	1417.12
386.688	1424.12
386.913	1407.12
387.138	1370.12
387.363	1400.12
387.588	1352.12
387.813	1379.12
388.038	1397.12
388.263	1428.12
388.488	1447.12
388.713	1440.12
388.938	1436.12
389.163	1401.12
389.387	1377.12
389.612	1408.12
389.837	1376.12
390.062	1357.12
390.287	1381.12
390.512	1404.12
390.736	1438.12
390.961	1455.12
391.186	1478.12
391.411	1487.12
391.636	1489.12
391.86	1500.12
392.085	1577.12
392.31	1547.12
392.534	1546.12
392.759	1517.12
392.984	1455.12
393.208	1468.12
393.433	1515.12
393.658	1490.12
393.882	1483.12
394.107	1483.12
394.331	1521.12
394.556	1484.12
394.78	1493.12
395.005	1507.12
395.229	1501.12
395.454	1553.12
395.678	1598.12
395.903	1561.12
396.127	1510.12
396.352	1525.12
396.576	1496.12
396.801	1499.12
397.025	1528.12
397.249	1573.12
397.474	1597.12
397.698	1598.12
397.922	1591.12
398.147	1559.12
398.371	1622.12
398.595	1712.12
398.82	1748.12
399.044	1841.12
399.268	1980.12
399.492	2196.12
399.717	2375.12
399.941	2432.12
400.165	2229.12
400.389	2112.12
400.613	1974.12
400.837	1866.12
401.062	1870.12
401.286	1801.12
401.51	1794.12
401.734	1774.12
401.958	1745.12
402.182	1754.12
402.406	1769.12
402.63	1808.12
402.854	1807.12
403.078	1830.12
403.302	1883.12
403.526	1846.12
403.75	1885.12
403.974	1907.12
404.198	1880.12
404.422	1867.12
404.645	1884.12
404.869	1861.12
405.093	1934.12
405.317	1879.12
405.541	1926.12
405.765	1885.12
405.988	1889.12
406.212	1924.12
406.436	1880.12
406.66	1909.12
406.883	1936.12
407.107	2060.12
407.331	2140.12
407.555	2220.12
407.778	2202.12
408.002	2189.12
408.226	2122.12
408.449	2020.12
408.673	1996.12
408.896	2010.12
409.12	1928.12
409.344	1954.12
409.567	1926.12
409.791	1938.12
410.014	1924.12
410.238	1882.12
410.461	1897.12
410.685	1876.12
410.908	1890.12
411.132	1900.12
411.355	1805.12
411.578	1825.12
411.802	1856.12
412.025	1852.12
412.249	1863.12
412.472	1859.12
412.695	1818.12
412.919	1812.12
413.142	1768.12
413.365	1746.12
413.589	1797.12
413.812	1773.12
414.035	1738.12
414.258	1721.12
414.482	1765.12
414.705	1782.12
414.928	1734.12
415.151	1744.12
415.374	1704.12
415.597	1723.12
415.821	1717.12
416.044	1657.12
416.267	1668.12
416.49	1673.12
416.713	1635.12
416.936	1687.12
417.159	1689.12
417.382	1635.12
417.605	1659.12
417.828	1672.12
418.051	1734.12
418.274	1697.12
418.497	1701.12
418.72	1727.12
418.943	1724.12
419.166	1836.12
419.389	1946.12
419.611	1900.12
419.834	1846.12
420.057	1750.12
420.28	1687.12
420.503	1698.12
420.726	1642.12
420.948	1662.12
421.171	1667.12
421.394	1660.12
421.617	1665.12
421.839	1686.12
422.062	1687.12
422.285	1671.12
422.507	1716.12
422.73	1686.12
422.953	1689.12
423.175	1712.12
423.398	1734.12
423.621	1715.12
423.843	1739.12
424.066	1731.12
424.288	1726.12
424.511	1697.12
424.733	1688.12
424.956	1698.12
425.178	1677.12
425.401	1726.12
425.623	1677.12
425.846	1629.12
426.068	1640.12
426.291	1611.12
426.513	1637.12
426.735	1599.12
426.958	1595.12
427.18	1575.12
427.402	1569.12
427.625	1573.12
427.847	1559.12
428.069	1542.12
428.292	1538.12
428.514	1545.12
428.736	1555.12
428.958	1565.12
429.181	1552.12
429.403	1528.12
429.625	1527.12
429.847	1486.12
430.069	1523.12
430.292	1507.12
430.514	1509.12
430.736	1525.12
430.958	1550.12
431.18	1528.12
431.402	1570.12
431.624	1523.12
431.846	1537.12
432.068	1549.12
432.29	1574.12
432.512	1550.12
432.734	1561.12
432.956	1558.12
433.178	1527.12
433.4	1569.12
433.622	1552.12
433.844	1565.12
434.066	1584.12
434.287	1562.12
434.509	1660.12
434.731	1670.12
434.953	1698.12
435.175	1717.12
435.397	1685.12
435.618	1658.12
435.84	1594.12
436.062	1578.12
436.284	1514.12
436.505	1528.12
436.727	1564.12
436.949	1548.12
437.17	1554.12
437.392	1500.12
437.614	1538.12
437.835	1442.12
438.057	1514.12
438.278	1465.12
438.5	1472.12
438.721	1458.12
438.943	1440.12
439.165	1430.12
439.386	1493.12
439.608	1516.12
439.829	1495.12
440.05	1513.12
440.272	1509.12
440.493	1526.12
440.715	1522.12
440.936	1563.12
441.158	1584.12
441.379	1597.12
441.6	1627.12
441.822	1689.12
442.043	1687.12
442.264	1664.12
442.486	1601.12
442.707	1628.12
442.928	1608.12
443.149	1615.12
443.371	1596.12
443.592	1649.12
443.813	1634.12
444.034	1656.12
444.255	1670.12
444.476	1776.12
444.698	1826.12
444.919	1854.12
445.14	1975.12
445.361	1828.12
445.582	1718.12
445.803	1598.12
446.024	1556.12
446.245	1570.12
446.466	1560.12
446.687	1523.12
446.908	1478.12
447.129	1478.12
447.35	1477.12
447.571	1446.12
447.792	1406.12
448.013	1449.12
448.234	1368.12
448.455	1383.12
448.675	1402.12
448.896	1378.12
449.117	1383.12
449.338	1357.12
449.559	1364.12
449.779	1363.12
450	1352.12
450.221	1356.12
450.442	1332.12
450.662	1348.12
450.883	1364.12
451.104	1380.12
451.324	1401.12
451.545	1379.12
451.766	1337.12
451.986	1350.12
452.207	1370.12
452.428	1315.12
452.648	1321.12
452.869	1296.12
453.089	1301.12
453.31	1338.12
453.53	1321.12
453.751	1312.12
453.971	1290.12
454.192	1264.12
454.412	1310.12
454.633	1284.12
454.853	1301.12
455.073	1277.12
455.294	1273.12
455.514	1284.12
455.734	1276.12
455.955	1269.12
456.175	1276.12
456.395	1242.12
456.616	1269.12
456.836	1302.12
457.056	1274.12
457.276	1248.12
457.497	1286.12
457.717	1266.12
457.937	1315.12
458.157	1294.12
458.377	1336.12
458.598	1352.12
458.818	1408.12
459.038	1436.12
459.258	1449.12
459.478	1524.12
459.698	1556.12
459.918	1579.12
460.138	1616.12
460.358	1685.12
460.578	1676.12
460.798	1722.12
461.018	1748.12
461.238	1732.12
461.458	1713.12
461.678	1684.12
461.898	1767.12
462.118	1703.12
462.338	1811.12
462.558	1861.12
462.777	1926.12
462.997	2035.12
463.217	2151.12
463.437	2166.12
463.657	2040.12
463.876	1998.12
464.096	1992.12
464.316	1932.12
464.536	1943.12
464.755	1920.12
464.975	1851.12
465.195	1794.12
465.414	1662.12
465.634	1592.12
465.854	1579.12
466.073	1538.12
466.293	1514.12
466.512	1495.12
466.732	1472.12
466.951	1446.12
467.171	1450.12
467.391	1463.12
467.61	1410.12
467.829	1417.12
468.049	1405.12
468.268	1418.12
468.488	1387.12
468.707	1373.12
468.927	1404.12
469.146	1393.12
469.365	1363.12
469.585	1404.12
469.804	1437.12
470.023	1448.12
470.243	1469.12
470.462	1501.12
470.681	1451.12
470.901	1460.12
471.12	1478.12
471.339	1428.12
471.558	1404.12
471.777	1387.12
471.997	1424.12
472.216	1382.12
472.435	1356.12
472.654	1385.12
472.873	1347.12
473.092	1393.12
473.311	1365.12
473.53	1379.12
473.749	1358.12
473.968	1376.12
474.187	1380.12
474.406	1356.12
474.625	1384.12
474.844	1383.12
475.063	1400.12
475.282	1384.12
475.501	1430.12
475.72	1407.12
475.939	1384.12
476.158	1429.12
476.377	1448.12
476.596	1442.12
476.814	1451.12
477.033	1457.12
477.252	1450.12
477.471	1510.12
477.69	1505.12
477.908	1576.12
478.127	1601.12
478.346	1582.12
478.564	1654.12
478.783	1645.12
479.002	1701.12
479.22	1710.12
479.439	1702.12
479.658	1699.12
479.876	1714.12
480.095	1745.12
480.313	1785.12
480.532	1804.12
480.751	1840.12
480.969	1758.12
481.188	1734.12
481.406	1739.12
481.624	1710.12
481.843	1656.12
482.061	1649.12
482.28	1611.12
482.498	1673.12
482.717	1623.12
482.935	1653.12
483.153	1674.12
483.372	1696.12
483.59	1664.12
483.808	1683.12
484.027	1693.12
484.245	1722.12
484.463	1734.12
484.681	1768.12
484.9	1797.12
485.118	1807.12
485.336	1806.12
485.554	1801.12
485.772	1846.12
485.99	1814.12
486.209	1837.12
486.427	1835.12
486.645	1809.12
486.863	1822.12
487.081	1769.12
487.299	1810.12
487.517	1806.12
487.735	1771.12
487.953	1825.12
488.171	1783.12
488.389	1782.12
488.607	1757.12
488.825	1739.12
489.043	1717.12
489.261	1748.12
489.479	1733.12
489.696	1742.12
489.914	1725.12
490.132	1734.12
490.35	1694.12
490.568	1724.12
490.786	1694.12
