Data from NiCl2@0.5M.TitratingCurve.Agarose3%dH2O.NegLispCup.LampEnergy10.LIBS07252019_HRD10591_18-18-31-571.txt Node
Date: Thu Jul 25 18:18:31 EDT 2019
User: cochatt
Spectrometer: HR+D1059
Trigger mode: 1
Integration Time (sec): 1.000000E-1
Scans to average: 1
Electric dark correction enabled: true
Nonlinearity correction enabled: false
Boxcar width: 0
XAxis mode: Wavelengths
Number of Pixels in Spectrum: 2048
>>>>>Begin Spectral Data<<<<<
223.165	-15.5
223.4	-15.5
223.635	-15.5
223.869	-8.5
224.104	-21.5
224.338	-10.5
224.573	-30.5
224.808	-3.5
225.042	-5.5
225.277	-12.5
225.511	-4.5
225.746	22.5
225.98	7.5
226.215	11.5
226.449	17.5
226.683	15.5
226.918	11.5
227.152	26.5
227.387	28.5
227.621	41.5
227.856	45.5
228.09	39.5
228.324	45.5
228.559	51.5
228.793	81.5
229.027	170.5
229.262	196.5
229.496	198.5
229.73	203.5
229.964	225.5
230.199	278.5
230.433	262.5
230.667	251.5
230.901	258.5
231.136	221.5
231.37	232.5
231.604	248.5
231.838	294.5
232.072	275.5
232.306	273.5
232.541	267.5
232.775	226.5
233.009	232.5
233.243	231.5
233.477	234.5
233.711	260.5
233.945	270.5
234.179	249.5
234.413	257.5
234.647	234.5
234.881	255.5
235.115	268.5
235.349	246.5
235.583	253.5
235.817	258.5
236.051	243.5
236.285	240.5
236.519	241.5
236.753	260.5
236.987	252.5
237.221	256.5
237.455	260.5
237.689	269.5
237.922	284.5
238.156	275.5
238.39	261.5
238.624	280.5
238.858	280.5
239.091	281.5
239.325	291.5
239.559	324.5
239.793	348.5
240.027	329.5
240.26	298.5
240.494	291.5
240.728	306.5
240.961	309.5
241.195	301.5
241.429	324.5
241.662	345.5
241.896	374.5
242.13	374.5
242.363	333.5
242.597	331.5
242.83	328.5
243.064	345.5
243.298	341.5
243.531	334.5
243.765	374.5
243.998	376.5
244.232	377.5
244.465	364.5
244.699	344.5
244.932	351.5
245.166	382.5
245.399	370.5
245.633	379.5
245.866	398.5
246.099	372.5
246.333	373.5
246.566	382.5
246.8	369.5
247.033	376.5
247.266	388.5
247.5	380.5
247.733	395.5
247.966	390.5
248.2	403.5
248.433	403.5
248.666	418.5
248.899	416.5
249.133	414.5
249.366	434.5
249.599	422.5
249.832	461.5
250.066	434.5
250.299	438.5
250.532	451.5
250.765	443.5
250.998	461.5
251.231	483.5
251.465	516.5
251.698	485.5
251.931	468.5
252.164	469.5
252.397	480.5
252.63	476.5
252.863	463.5
253.096	482.5
253.329	493.5
253.562	482.5
253.795	504.5
254.028	519.5
254.261	511.5
254.494	486.5
254.727	516.5
254.96	528.5
255.193	514.5
255.426	531.5
255.659	520.5
255.892	520.5
256.124	542.5
256.357	518.5
256.59	532.5
256.823	545.5
257.056	543.5
257.289	566.5
257.521	537.5
257.754	524.5
257.987	558.5
258.22	555.5
258.452	574.5
258.685	543.5
258.918	548.5
259.151	570.5
259.383	562.5
259.616	558.5
259.849	569.5
260.081	576.5
260.314	570.5
260.547	588.5
260.779	570.5
261.012	597.5
261.244	581.5
261.477	593.5
261.71	611.5
261.942	615.5
262.175	605.5
262.407	602.5
262.64	620.5
262.872	602.5
263.105	612.5
263.337	637.5
263.57	626.5
263.802	624.5
264.035	642.5
264.267	636.5
264.499	633.5
264.732	621.5
264.964	647.5
265.197	637.5
265.429	637.5
265.661	656.5
265.894	689.5
266.126	684.5
266.358	647.5
266.591	655.5
266.823	665.5
267.055	680.5
267.287	667.5
267.52	653.5
267.752	675.5
267.984	666.5
268.216	700.5
268.448	673.5
268.681	709.5
268.913	704.5
269.145	699.5
269.377	707.5
269.609	698.5
269.841	702.5
270.073	703.5
270.306	724.5
270.538	699.5
270.77	732.5
271.002	703.5
271.234	731.5
271.466	711.5
271.698	719.5
271.93	733.5
272.162	723.5
272.394	732.5
272.626	760.5
272.858	730.5
273.09	759.5
273.322	757.5
273.553	762.5
273.785	757.5
274.017	761.5
274.249	797.5
274.481	769.5
274.713	772.5
274.945	785.5
275.176	794.5
275.408	793.5
275.64	818.5
275.872	811.5
276.104	821.5
276.335	786.5
276.567	782.5
276.799	789.5
277.031	824.5
277.262	802.5
277.494	842.5
277.726	834.5
277.957	848.5
278.189	824.5
278.421	825.5
278.652	845.5
278.884	844.5
279.115	846.5
279.347	853.5
279.579	864.5
279.81	861.5
280.042	876.5
280.273	884.5
280.505	851.5
280.736	876.5
280.968	870.5
281.199	870.5
281.431	872.5
281.662	893.5
281.894	916.5
282.125	873.5
282.356	914.5
282.588	929.5
282.819	916.5
283.051	908.5
283.282	917.5
283.513	918.5
283.745	937.5
283.976	931.5
284.207	928.5
284.439	926.5
284.67	918.5
284.901	936.5
285.132	938.5
285.364	954.5
285.595	930.5
285.826	957.5
286.057	944.5
286.288	931.5
286.52	972.5
286.751	952.5
286.982	995.5
287.213	966.5
287.444	964.5
287.675	993.5
287.906	952.5
288.138	969.5
288.369	977.5
288.6	1013.5
288.831	1002.5
289.062	973.5
289.293	987.5
289.524	1031.5
289.755	987.5
289.986	994.5
290.217	989.5
290.448	1002.5
290.679	1012.5
290.91	1014.5
291.141	1024.5
291.371	1029.5
291.602	1029.5
291.833	1018.5
292.064	1050.5
292.295	998.5
292.526	1026.5
292.757	1001.5
292.987	976.5
293.218	974.5
293.449	1035.5
293.68	1038.5
293.91	1043.5
294.141	1032.5
294.372	985.5
294.603	1026.5
294.833	1037.5
295.064	1038.5
295.295	1045.5
295.525	1066.5
295.756	1054.5
295.987	1036.5
296.217	1046.5
296.448	1060.5
296.679	1029.5
296.909	1069.5
297.14	1064.5
297.37	1098.5
297.601	1077.5
297.831	1092.5
298.062	1101.5
298.292	1086.5
298.523	1113.5
298.753	1131.5
298.984	1099.5
299.214	1123.5
299.445	1121.5
299.675	1150.5
299.905	1145.5
300.136	1155.5
300.366	1235.5
300.597	1280.5
300.827	1211.5
301.057	1178.5
301.288	1234.5
301.518	1230.5
301.748	1219.5
301.979	1178.5
302.209	1190.5
302.439	1165.5
302.669	1158.5
302.9	1146.5
303.13	1156.5
303.36	1212.5
303.59	1180.5
303.82	1200.5
304.051	1241.5
304.281	1244.5
304.511	1165.5
304.741	1202.5
304.971	1214.5
305.201	1272.5
305.431	1293.5
305.661	1304.5
305.891	1266.5
306.121	1196.5
306.352	1177.5
306.582	1182.5
306.812	1178.5
307.042	1149.5
307.272	1148.5
307.502	1131.5
307.731	1174.5
307.961	1121.5
308.191	1160.5
308.421	1200.5
308.651	1158.5
308.881	1182.5
309.111	1180.5
309.341	1186.5
309.571	1179.5
309.8	1253.5
310.03	1264.5
310.26	1326.5
310.49	1350.5
310.72	1210.5
310.949	1213.5
311.179	1203.5
311.409	1212.5
311.639	1237.5
311.868	1198.5
312.098	1219.5
312.328	1228.5
312.557	1222.5
312.787	1213.5
313.017	1245.5
313.246	1253.5
313.476	1309.5
313.706	1321.5
313.935	1288.5
314.165	1258.5
314.394	1259.5
314.624	1303.5
314.853	1280.5
315.083	1281.5
315.312	1283.5
315.542	1257.5
315.771	1257.5
316.001	1258.5
316.23	1285.5
316.46	1244.5
316.689	1233.5
316.919	1254.5
317.148	1219.5
317.377	1254.5
317.607	1221.5
317.836	1254.5
318.065	1246.5
318.295	1260.5
318.524	1282.5
318.753	1288.5
318.983	1285.5
319.212	1261.5
319.441	1294.5
319.67	1282.5
319.9	1290.5
320.129	1331.5
320.358	1273.5
320.587	1274.5
320.816	1267.5
321.046	1272.5
321.275	1338.5
321.504	1291.5
321.733	1300.5
321.962	1332.5
322.191	1310.5
322.42	1332.5
322.649	1323.5
322.878	1338.5
323.108	1335.5
323.337	1367.5
323.566	1368.5
323.795	1332.5
324.024	1338.5
324.253	1340.5
324.482	1363.5
324.71	1358.5
324.939	1339.5
325.168	1343.5
325.397	1320.5
325.626	1366.5
325.855	1372.5
326.084	1388.5
326.313	1364.5
326.542	1352.5
326.77	1383.5
326.999	1378.5
327.228	1374.5
327.457	1385.5
327.686	1401.5
327.914	1370.5
328.143	1404.5
328.372	1412.5
328.6	1397.5
328.829	1409.5
329.058	1385.5
329.287	1362.5
329.515	1419.5
329.744	1388.5
329.972	1398.5
330.201	1388.5
330.43	1442.5
330.658	1456.5
330.887	1486.5
331.115	1441.5
331.344	1506.5
331.572	1515.5
331.801	1513.5
332.03	1546.5
332.258	1567.5
332.486	1572.5
332.715	1543.5
332.943	1576.5
333.172	1627.5
333.4	1654.5
333.629	1732.5
333.857	1698.5
334.085	1714.5
334.314	1715.5
334.542	1696.5
334.771	1728.5
334.999	1654.5
335.227	1677.5
335.455	1730.5
335.684	1712.5
335.912	1708.5
336.14	1710.5
336.369	1675.5
336.597	1728.5
336.825	1699.5
337.053	1763.5
337.281	1776.5
337.51	1682.5
337.738	1657.5
337.966	1651.5
338.194	1736.5
338.422	1664.5
338.65	1570.5
338.878	1574.5
339.106	1584.5
339.334	1646.5
339.562	1658.5
339.79	1538.5
340.018	1470.5
340.246	1489.5
340.474	1502.5
340.702	1478.5
340.93	1486.5
341.158	1490.5
341.386	1604.5
341.614	1746.5
341.842	1705.5
342.07	1520.5
342.298	1505.5
342.526	1547.5
342.754	1517.5
342.981	1480.5
343.209	1540.5
343.437	1626.5
343.665	1701.5
343.893	1721.5
344.12	1713.5
344.348	1674.5
344.576	1691.5
344.804	1738.5
345.031	1625.5
345.259	1554.5
345.487	1598.5
345.714	1592.5
345.942	1657.5
346.17	1742.5
346.397	1652.5
346.625	1495.5
346.853	1443.5
347.08	1425.5
347.308	1489.5
347.535	1488.5
347.763	1418.5
347.99	1404.5
348.218	1405.5
348.445	1404.5
348.673	1416.5
348.9	1407.5
349.128	1456.5
349.355	1540.5
349.583	1612.5
349.81	1433.5
350.037	1384.5
350.265	1390.5
350.492	1439.5
350.72	1376.5
350.947	1421.5
351.174	1484.5
351.402	1544.5
351.629	1608.5
351.856	1577.5
352.083	1423.5
352.311	1485.5
352.538	1615.5
352.765	1639.5
352.992	1397.5
353.22	1309.5
353.447	1315.5
353.674	1324.5
353.901	1298.5
354.128	1334.5
354.355	1318.5
354.583	1339.5
354.81	1347.5
355.037	1343.5
355.264	1323.5
355.491	1337.5
355.718	1324.5
355.945	1387.5
356.172	1338.5
356.399	1385.5
356.626	1466.5
356.853	1528.5
357.08	1393.5
357.307	1445.5
357.534	1372.5
357.761	1328.5
357.988	1316.5
358.215	1321.5
358.441	1333.5
358.668	1302.5
358.895	1306.5
359.122	1340.5
359.349	1330.5
359.576	1332.5
359.802	1358.5
360.029	1375.5
360.256	1369.5
360.483	1349.5
360.709	1340.5
360.936	1376.5
361.163	1410.5
361.39	1408.5
361.616	1398.5
361.843	1470.5
362.07	1580.5
362.296	1578.5
362.523	1356.5
362.749	1342.5
362.976	1348.5
363.203	1333.5
363.429	1338.5
363.656	1317.5
363.882	1330.5
364.109	1328.5
364.335	1289.5
364.562	1325.5
364.788	1331.5
365.015	1336.5
365.241	1322.5
365.468	1345.5
365.694	1347.5
365.92	1316.5
366.147	1321.5
366.373	1357.5
366.599	1302.5
366.826	1325.5
367.052	1331.5
367.278	1347.5
367.505	1348.5
367.731	1323.5
367.957	1319.5
368.184	1317.5
368.41	1335.5
368.636	1369.5
368.862	1346.5
369.089	1333.5
369.315	1381.5
369.541	1340.5
369.767	1361.5
369.993	1372.5
370.219	1370.5
370.445	1367.5
370.672	1386.5
370.898	1411.5
371.124	1418.5
371.35	1402.5
371.576	1416.5
371.802	1411.5
372.028	1417.5
372.254	1442.5
372.48	1424.5
372.706	1430.5
372.932	1439.5
373.158	1452.5
373.384	1473.5
373.61	1427.5
373.835	1470.5
374.061	1448.5
374.287	1476.5
374.513	1460.5
374.739	1466.5
374.965	1536.5
375.191	1539.5
375.416	1533.5
375.642	1471.5
375.868	1460.5
376.094	1434.5
376.319	1438.5
376.545	1436.5
376.771	1397.5
376.997	1421.5
377.222	1415.5
377.448	1385.5
377.674	1447.5
377.899	1413.5
378.125	1392.5
378.35	1420.5
378.576	1412.5
378.802	1370.5
379.027	1349.5
379.253	1372.5
379.478	1389.5
379.704	1388.5
379.929	1361.5
380.155	1400.5
380.38	1380.5
380.606	1420.5
380.831	1405.5
381.057	1459.5
381.282	1379.5
381.507	1398.5
381.733	1401.5
381.958	1409.5
382.184	1412.5
382.409	1433.5
382.634	1436.5
382.86	1463.5
383.085	1461.5
383.31	1508.5
383.535	1515.5
383.761	1496.5
383.986	1501.5
384.211	1502.5
384.436	1526.5
384.662	1568.5
384.887	1592.5
385.112	1594.5
385.337	1605.5
385.562	1664.5
385.787	1646.5
386.013	1731.5
386.238	1716.5
386.463	1625.5
386.688	1610.5
386.913	1629.5
387.138	1649.5
387.363	1659.5
387.588	1678.5
387.813	1653.5
388.038	1654.5
388.263	1649.5
388.488	1679.5
388.713	1651.5
388.938	1674.5
389.163	1660.5
389.387	1626.5
389.612	1658.5
389.837	1634.5
390.062	1611.5
390.287	1661.5
390.512	1649.5
390.736	1655.5
390.961	1675.5
391.186	1653.5
391.411	1736.5
391.636	1762.5
391.86	1776.5
392.085	1844.5
392.31	1759.5
392.534	1762.5
392.759	1748.5
392.984	1753.5
393.208	1746.5
393.433	1738.5
393.658	1728.5
393.882	1720.5
394.107	1734.5
394.331	1752.5
394.556	1742.5
394.78	1734.5
395.005	1791.5
395.229	1793.5
395.454	1779.5
395.678	1802.5
395.903	1841.5
396.127	1815.5
396.352	1808.5
396.576	1754.5
396.801	1818.5
397.025	1826.5
397.249	1847.5
397.474	1869.5
397.698	1829.5
397.922	1901.5
398.147	1910.5
398.371	1890.5
398.595	1968.5
398.82	2049.5
399.044	2113.5
399.268	2291.5
399.492	2493.5
399.717	2612.5
399.941	2683.5
400.165	2548.5
400.389	2370.5
400.613	2244.5
400.837	2180.5
401.062	2131.5
401.286	2117.5
401.51	2070.5
401.734	2020.5
401.958	2074.5
402.182	2070.5
402.406	2029.5
402.63	2014.5
402.854	2077.5
403.078	2108.5
403.302	2133.5
403.526	2095.5
403.75	2113.5
403.974	2152.5
404.198	2174.5
404.422	2145.5
404.645	2162.5
404.869	2192.5
405.093	2171.5
405.317	2168.5
405.541	2158.5
405.765	2166.5
405.988	2146.5
406.212	2174.5
406.436	2176.5
406.66	2241.5
406.883	2230.5
407.107	2359.5
407.331	2414.5
407.555	2472.5
407.778	2468.5
408.002	2414.5
408.226	2418.5
408.449	2385.5
408.673	2317.5
408.896	2253.5
409.12	2260.5
409.344	2243.5
409.567	2241.5
409.791	2223.5
410.014	2250.5
410.238	2146.5
410.461	2195.5
410.685	2178.5
410.908	2173.5
411.132	2146.5
411.355	2109.5
411.578	2124.5
411.802	2076.5
412.025	2089.5
412.249	2176.5
412.472	2163.5
412.695	2074.5
412.919	2044.5
413.142	2058.5
413.365	2054.5
413.589	2074.5
413.812	2043.5
414.035	2036.5
414.258	2052.5
414.482	2051.5
414.705	2078.5
414.928	2026.5
415.151	2019.5
415.374	2040.5
415.597	1988.5
415.821	1963.5
416.044	1944.5
416.267	1982.5
416.49	1985.5
416.713	1982.5
416.936	1975.5
417.159	1942.5
417.382	1992.5
417.605	1949.5
417.828	1897.5
418.051	1960.5
418.274	1972.5
418.497	1942.5
418.72	1993.5
418.943	1971.5
419.166	2156.5
419.389	2254.5
419.611	2189.5
419.834	2102.5
420.057	2083.5
420.28	2048.5
420.503	1953.5
420.726	1947.5
420.948	1947.5
421.171	1972.5
421.394	1980.5
421.617	1959.5
421.839	1978.5
422.062	1976.5
422.285	1928.5
422.507	2020.5
422.73	1990.5
422.953	2012.5
423.175	2004.5
423.398	2003.5
423.621	1950.5
423.843	2016.5
424.066	2031.5
424.288	2000.5
424.511	2012.5
424.733	1945.5
424.956	1976.5
425.178	1962.5
425.401	2013.5
425.623	1974.5
425.846	1922.5
426.068	1977.5
426.291	1941.5
426.513	1915.5
426.735	1897.5
426.958	1893.5
427.18	1858.5
427.402	1861.5
427.625	1913.5
427.847	1866.5
428.069	1854.5
428.292	1901.5
428.514	1820.5
428.736	1829.5
428.958	1896.5
429.181	1830.5
429.403	1834.5
429.625	1813.5
429.847	1831.5
430.069	1820.5
430.292	1801.5
430.514	1804.5
430.736	1821.5
430.958	1843.5
431.18	1857.5
431.402	1805.5
431.624	1851.5
431.846	1838.5
432.068	1830.5
432.29	1850.5
432.512	1878.5
432.734	1912.5
432.956	1870.5
433.178	1932.5
433.4	1928.5
433.622	1922.5
433.844	1921.5
434.066	1915.5
434.287	1925.5
434.509	1964.5
434.731	1981.5
434.953	2050.5
435.175	2034.5
435.397	2041.5
435.618	1997.5
435.84	1938.5
436.062	1909.5
436.284	1926.5
436.505	1893.5
436.727	1882.5
436.949	1894.5
437.17	1883.5
437.392	1824.5
437.614	1802.5
437.835	1773.5
438.057	1776.5
438.278	1752.5
438.5	1766.5
438.721	1761.5
438.943	1773.5
439.165	1770.5
439.386	1814.5
439.608	1812.5
439.829	1792.5
440.05	1820.5
440.272	1877.5
440.493	1857.5
440.715	1893.5
440.936	1868.5
441.158	1920.5
441.379	1956.5
441.6	2060.5
441.822	2034.5
442.043	2028.5
442.264	2015.5
442.486	1990.5
442.707	1965.5
442.928	1937.5
443.149	1998.5
443.371	2012.5
443.592	2118.5
443.813	2073.5
444.034	2045.5
444.255	2077.5
444.476	2179.5
444.698	2276.5
444.919	2284.5
445.14	2314.5
445.361	2224.5
445.582	2164.5
445.803	2018.5
446.024	1965.5
446.245	1939.5
446.466	1894.5
446.687	1850.5
446.908	1906.5
447.129	1778.5
447.35	1809.5
447.571	1786.5
447.792	1730.5
448.013	1769.5
448.234	1722.5
448.455	1680.5
448.675	1734.5
448.896	1715.5
449.117	1685.5
449.338	1681.5
449.559	1663.5
449.779	1665.5
450	1669.5
450.221	1665.5
450.442	1684.5
450.662	1696.5
450.883	1708.5
451.104	1719.5
451.324	1698.5
451.545	1709.5
451.766	1686.5
451.986	1676.5
452.207	1659.5
452.428	1661.5
452.648	1688.5
452.869	1656.5
453.089	1653.5
453.31	1723.5
453.53	1634.5
453.751	1659.5
453.971	1640.5
454.192	1696.5
454.412	1685.5
454.633	1660.5
454.853	1619.5
455.073	1604.5
455.294	1621.5
455.514	1615.5
455.734	1638.5
455.955	1650.5
456.175	1669.5
456.395	1595.5
456.616	1618.5
456.836	1605.5
457.056	1614.5
457.276	1609.5
457.497	1648.5
457.717	1672.5
457.937	1652.5
458.157	1651.5
458.377	1664.5
458.598	1683.5
458.818	1745.5
459.038	1821.5
459.258	1827.5
459.478	1943.5
459.698	2076.5
459.918	2079.5
460.138	2065.5
460.358	2070.5
460.578	2165.5
460.798	2196.5
461.018	2191.5
461.238	2129.5
461.458	2082.5
461.678	2079.5
461.898	2178.5
462.118	2185.5
462.338	2265.5
462.558	2321.5
462.777	2455.5
462.997	2598.5
463.217	2604.5
463.437	2706.5
463.657	2568.5
463.876	2446.5
464.096	2455.5
464.316	2419.5
464.536	2425.5
464.755	2299.5
464.975	2267.5
465.195	2194.5
465.414	2109.5
465.634	1994.5
465.854	1928.5
466.073	1886.5
466.293	1880.5
466.512	1825.5
466.732	1833.5
466.951	1835.5
467.171	1818.5
467.391	1802.5
467.61	1801.5
467.829	1794.5
468.049	1806.5
468.268	1764.5
468.488	1753.5
468.707	1753.5
468.927	1758.5
469.146	1749.5
469.365	1827.5
469.585	1799.5
469.804	1806.5
470.023	1821.5
470.243	1795.5
470.462	1836.5
470.681	1855.5
470.901	1835.5
471.12	1794.5
471.339	1817.5
471.558	1792.5
471.777	1843.5
471.997	1777.5
472.216	1793.5
472.435	1714.5
472.654	1706.5
472.873	1726.5
473.092	1726.5
473.311	1745.5
473.53	1769.5
473.749	1736.5
473.968	1734.5
474.187	1743.5
474.406	1741.5
474.625	1767.5
474.844	1757.5
475.063	1771.5
475.282	1801.5
475.501	1803.5
475.72	1801.5
475.939	1825.5
476.158	1811.5
476.377	1830.5
476.596	1848.5
476.814	1876.5
477.033	1857.5
477.252	1887.5
477.471	1957.5
477.69	1933.5
477.908	1969.5
478.127	2060.5
478.346	2028.5
478.564	2076.5
478.783	2147.5
479.002	2192.5
479.22	2271.5
479.439	2209.5
479.658	2186.5
479.876	2124.5
480.095	2167.5
480.313	2201.5
480.532	2273.5
480.751	2241.5
480.969	2226.5
481.188	2197.5
481.406	2164.5
481.624	2136.5
481.843	2091.5
482.061	2089.5
482.28	2067.5
482.498	2094.5
482.717	2074.5
482.935	2105.5
483.153	2141.5
483.372	2184.5
483.59	2208.5
483.808	2114.5
484.027	2125.5
484.245	2162.5
484.463	2149.5
484.681	2214.5
484.9	2150.5
485.118	2150.5
485.336	2159.5
485.554	2191.5
485.772	2255.5
485.99	2208.5
486.209	2214.5
486.427	2163.5
486.645	2195.5
486.863	2246.5
487.081	2194.5
487.299	2212.5
487.517	2205.5
487.735	2258.5
487.953	2237.5
488.171	2226.5
488.389	2236.5
488.607	2186.5
488.825	2161.5
489.043	2180.5
489.261	2175.5
489.479	2140.5
489.696	2214.5
489.914	2166.5
490.132	2186.5
490.35	2197.5
490.568	2173.5
490.786	2221.5
491.003	2209.5
491.221	2213.5
491.439	2203.5
491.657	2179.5
491.874	2221.5
492.092	2224.5
492.31	2236.5
492.527	2275.5
492.745	2225.5
492.963	2228.5
493.18	2249.5
493.398	2301.5
493.615	2293.5
493.833	2251.5
494.05	2281.5
494.268	2298.5
494.485	2253.5
494.703	2308.5
494.92	2324.5
495.138	2290.5
495.355	2307.5
495.573	2249.5
495.79	2292.5
496.008	2314.5
496.225	2356.5
496.442	2408.5
496.66	2447.5
496.877	2444.5
497.094	2470.5
497.312	2581.5
497.529	2565.5
497.746	2634.5
497.963	2694.5
498.181	2791.5
498.398	2848.5
498.615	3063.5
498.832	3153.5
499.049	3280.5
499.267	3515.5
499.484	3791.5
499.701	3940.5
499.918	4272.5
500.135	4533.5
500.352	4948.5
500.569	4978.5
500.786	4934.5
501.003	4824.5
501.22	4573.5
501.437	4261.5
501.654	3926.5
501.871	3673.5
502.088	3463.5
502.305	3280.5
502.522	3181.5
502.739	3038.5
502.956	2852.5
503.172	2749.5
503.389	2716.5
503.606	2650.5
503.823	2630.5
504.04	2582.5
504.256	2615.5
504.473	2552.5
504.69	2563.5
504.907	2519.5
505.123	2428.5
505.34	2327.5
505.557	2266.5
