Data from NiCl2@0.125M.TitratingCurve.Agarose3%dH2O.NegLispCup.LampEnergy10.LIBS07252019_HRD10591_18-29-43-574.txt Node
Date: Thu Jul 25 18:29:43 EDT 2019
User: cochatt
Spectrometer: HR+D1059
Trigger mode: 1
Integration Time (sec): 1.000000E-1
Scans to average: 1
Electric dark correction enabled: true
Nonlinearity correction enabled: false
Boxcar width: 0
XAxis mode: Wavelengths
Number of Pixels in Spectrum: 2048
>>>>>Begin Spectral Data<<<<<
223.165	-12.56
223.4	-12.56
223.635	-12.56
223.869	-7.56
224.104	-9.56
224.338	-16.56
224.573	-19.56
224.808	-14.56
225.042	-23.56
225.277	-5.56
225.511	-3.56
225.746	7.44
225.98	-0.56
226.215	5.44
226.449	13.44
226.683	25.44
226.918	27.44
227.152	34.44
227.387	48.44
227.621	38.44
227.856	42.44
228.09	39.44
228.324	52.44
228.559	52.44
228.793	67.44
229.027	122.44
229.262	110.44
229.496	112.44
229.73	142.44
229.964	134.44
230.199	118.44
230.433	138.44
230.667	136.44
230.901	123.44
231.136	139.44
231.37	134.44
231.604	152.44
231.838	138.44
232.072	151.44
232.306	177.44
232.541	159.44
232.775	158.44
233.009	174.44
233.243	166.44
233.477	165.44
233.711	161.44
233.945	157.44
234.179	156.44
234.413	157.44
234.647	167.44
234.881	170.44
235.115	149.44
235.349	149.44
235.583	164.44
235.817	150.44
236.051	162.44
236.285	163.44
236.519	165.44
236.753	169.44
236.987	180.44
237.221	151.44
237.455	169.44
237.689	165.44
237.922	179.44
238.156	169.44
238.39	162.44
238.624	171.44
238.858	170.44
239.091	175.44
239.325	173.44
239.559	200.44
239.793	184.44
240.027	179.44
240.26	187.44
240.494	183.44
240.728	182.44
240.961	199.44
241.195	210.44
241.429	216.44
241.662	215.44
241.896	196.44
242.13	202.44
242.363	203.44
242.597	215.44
242.83	213.44
243.064	226.44
243.298	226.44
243.531	213.44
243.765	217.44
243.998	221.44
244.232	235.44
244.465	227.44
244.699	223.44
244.932	251.44
245.166	231.44
245.399	242.44
245.633	241.44
245.866	219.44
246.099	239.44
246.333	241.44
246.566	239.44
246.8	243.44
247.033	250.44
247.266	246.44
247.5	254.44
247.733	258.44
247.966	258.44
248.2	270.44
248.433	270.44
248.666	271.44
248.899	262.44
249.133	260.44
249.366	271.44
249.599	267.44
249.832	262.44
250.066	287.44
250.299	284.44
250.532	267.44
250.765	275.44
250.998	277.44
251.231	283.44
251.465	287.44
251.698	278.44
251.931	266.44
252.164	292.44
252.397	298.44
252.63	288.44
252.863	303.44
253.096	297.44
253.329	288.44
253.562	304.44
253.795	290.44
254.028	298.44
254.261	287.44
254.494	302.44
254.727	287.44
254.96	293.44
255.193	286.44
255.426	312.44
255.659	314.44
255.892	301.44
256.124	303.44
256.357	302.44
256.59	330.44
256.823	307.44
257.056	315.44
257.289	329.44
257.521	328.44
257.754	320.44
257.987	335.44
258.22	313.44
258.452	330.44
258.685	324.44
258.918	324.44
259.151	334.44
259.383	341.44
259.616	336.44
259.849	325.44
260.081	329.44
260.314	341.44
260.547	356.44
260.779	344.44
261.012	344.44
261.244	351.44
261.477	339.44
261.71	354.44
261.942	352.44
262.175	361.44
262.407	351.44
262.64	346.44
262.872	374.44
263.105	356.44
263.337	367.44
263.57	352.44
263.802	385.44
264.035	377.44
264.267	375.44
264.499	360.44
264.732	375.44
264.964	354.44
265.197	379.44
265.429	387.44
265.661	382.44
265.894	375.44
266.126	385.44
266.358	400.44
266.591	386.44
266.823	381.44
267.055	378.44
267.287	377.44
267.52	380.44
267.752	390.44
267.984	401.44
268.216	403.44
268.448	401.44
268.681	367.44
268.913	412.44
269.145	414.44
269.377	395.44
269.609	401.44
269.841	393.44
270.073	401.44
270.306	400.44
270.538	394.44
270.77	412.44
271.002	437.44
271.234	395.44
271.466	405.44
271.698	396.44
271.93	409.44
272.162	414.44
272.394	401.44
272.626	424.44
272.858	422.44
273.09	429.44
273.322	422.44
273.553	413.44
273.785	446.44
274.017	429.44
274.249	443.44
274.481	453.44
274.713	438.44
274.945	450.44
275.176	454.44
275.408	474.44
275.64	440.44
275.872	439.44
276.104	458.44
276.335	441.44
276.567	446.44
276.799	461.44
277.031	457.44
277.262	459.44
277.494	442.44
277.726	463.44
277.957	466.44
278.189	457.44
278.421	464.44
278.652	455.44
278.884	477.44
279.115	465.44
279.347	484.44
279.579	462.44
279.81	449.44
280.042	470.44
280.273	475.44
280.505	487.44
280.736	489.44
280.968	481.44
281.199	497.44
281.431	498.44
281.662	508.44
281.894	500.44
282.125	502.44
282.356	520.44
282.588	516.44
282.819	496.44
283.051	527.44
283.282	510.44
283.513	538.44
283.745	520.44
283.976	500.44
284.207	531.44
284.439	511.44
284.67	519.44
284.901	516.44
285.132	516.44
285.364	513.44
285.595	548.44
285.826	518.44
286.057	541.44
286.288	529.44
286.52	540.44
286.751	539.44
286.982	552.44
287.213	533.44
287.444	525.44
287.675	540.44
287.906	539.44
288.138	545.44
288.369	555.44
288.6	550.44
288.831	549.44
289.062	559.44
289.293	553.44
289.524	546.44
289.755	558.44
289.986	543.44
290.217	565.44
290.448	550.44
290.679	576.44
290.91	572.44
291.141	560.44
291.371	575.44
291.602	557.44
291.833	553.44
292.064	578.44
292.295	567.44
292.526	579.44
292.757	563.44
292.987	584.44
293.218	564.44
293.449	577.44
293.68	579.44
293.91	551.44
294.141	587.44
294.372	581.44
294.603	576.44
294.833	586.44
295.064	576.44
295.295	577.44
295.525	585.44
295.756	597.44
295.987	586.44
296.217	603.44
296.448	610.44
296.679	571.44
296.909	622.44
297.14	621.44
297.37	626.44
297.601	615.44
297.831	613.44
298.062	605.44
298.292	648.44
298.523	660.44
298.753	647.44
298.984	619.44
299.214	625.44
299.445	612.44
299.675	637.44
299.905	633.44
300.136	629.44
300.366	629.44
300.597	643.44
300.827	655.44
301.057	654.44
301.288	674.44
301.518	651.44
301.748	651.44
301.979	666.44
302.209	647.44
302.439	644.44
302.669	658.44
302.9	650.44
303.13	661.44
303.36	631.44
303.59	633.44
303.82	632.44
304.051	641.44
304.281	645.44
304.511	641.44
304.741	664.44
304.971	630.44
305.201	633.44
305.431	626.44
305.661	622.44
305.891	591.44
306.121	632.44
306.352	644.44
306.582	622.44
306.812	627.44
307.042	665.44
307.272	631.44
307.502	602.44
307.731	619.44
307.961	611.44
308.191	610.44
308.421	623.44
308.651	600.44
308.881	617.44
309.111	631.44
309.341	625.44
309.571	633.44
309.8	614.44
310.03	628.44
310.26	615.44
310.49	623.44
310.72	625.44
310.949	648.44
311.179	646.44
311.409	639.44
311.639	633.44
311.868	640.44
312.098	624.44
312.328	642.44
312.557	640.44
312.787	649.44
313.017	665.44
313.246	655.44
313.476	681.44
313.706	678.44
313.935	667.44
314.165	671.44
314.394	694.44
314.624	681.44
314.853	673.44
315.083	663.44
315.312	658.44
315.542	685.44
315.771	647.44
316.001	681.44
316.23	687.44
316.46	645.44
316.689	642.44
316.919	679.44
317.148	640.44
317.377	660.44
317.607	641.44
317.836	654.44
318.065	649.44
318.295	672.44
318.524	662.44
318.753	634.44
318.983	624.44
319.212	633.44
319.441	658.44
319.67	664.44
319.9	645.44
320.129	634.44
320.358	658.44
320.587	643.44
320.816	664.44
321.046	639.44
321.275	645.44
321.504	659.44
321.733	666.44
321.962	667.44
322.191	699.44
322.42	665.44
322.649	661.44
322.878	673.44
323.108	661.44
323.337	661.44
323.566	659.44
323.795	657.44
324.024	662.44
324.253	674.44
324.482	693.44
324.71	692.44
324.939	699.44
325.168	667.44
325.397	690.44
325.626	686.44
325.855	667.44
326.084	698.44
326.313	713.44
326.542	722.44
326.77	736.44
326.999	718.44
327.228	692.44
327.457	696.44
327.686	721.44
327.914	720.44
328.143	745.44
328.372	740.44
328.6	702.44
328.829	712.44
329.058	725.44
329.287	717.44
329.515	732.44
329.744	741.44
329.972	727.44
330.201	750.44
330.43	742.44
330.658	741.44
330.887	733.44
331.115	744.44
331.344	741.44
331.572	740.44
331.801	790.44
332.03	794.44
332.258	809.44
332.486	823.44
332.715	872.44
332.943	887.44
333.172	901.44
333.4	989.44
333.629	1010.44
333.857	1007.44
334.085	971.44
334.314	970.44
334.542	925.44
334.771	906.44
334.999	910.44
335.227	883.44
335.455	899.44
335.684	872.44
335.912	867.44
336.14	888.44
336.369	872.44
336.597	891.44
336.825	843.44
337.053	862.44
337.281	865.44
337.51	842.44
337.738	825.44
337.966	777.44
338.194	780.44
338.422	798.44
338.65	784.44
338.878	809.44
339.106	787.44
339.334	787.44
339.562	787.44
339.79	756.44
340.018	758.44
340.246	727.44
340.474	744.44
340.702	761.44
340.93	767.44
341.158	758.44
341.386	741.44
341.614	749.44
341.842	739.44
342.07	743.44
342.298	747.44
342.526	744.44
342.754	722.44
342.981	760.44
343.209	759.44
343.437	795.44
343.665	835.44
343.893	920.44
344.12	935.44
344.348	885.44
344.576	854.44
344.804	805.44
345.031	781.44
345.259	761.44
345.487	769.44
345.714	747.44
345.942	735.44
346.17	734.44
346.397	743.44
346.625	737.44
346.853	725.44
347.08	724.44
347.308	725.44
347.535	763.44
347.763	750.44
347.99	749.44
348.218	768.44
348.445	723.44
348.673	734.44
348.9	731.44
349.128	725.44
349.355	715.44
349.583	719.44
349.81	700.44
350.037	696.44
350.265	709.44
350.492	704.44
350.72	679.44
350.947	691.44
351.174	722.44
351.402	706.44
351.629	685.44
351.856	681.44
352.083	677.44
352.311	680.44
352.538	687.44
352.765	685.44
352.992	689.44
353.22	674.44
353.447	690.44
353.674	693.44
353.901	681.44
354.128	682.44
354.355	684.44
354.583	696.44
354.81	711.44
355.037	694.44
355.264	713.44
355.491	706.44
355.718	681.44
355.945	705.44
356.172	689.44
356.399	717.44
356.626	694.44
356.853	685.44
357.08	686.44
357.307	713.44
357.534	676.44
357.761	707.44
357.988	721.44
358.215	692.44
358.441	697.44
358.668	687.44
358.895	692.44
359.122	699.44
359.349	695.44
359.576	707.44
359.802	720.44
360.029	699.44
360.256	688.44
360.483	708.44
360.709	689.44
360.936	704.44
361.163	700.44
361.39	703.44
361.616	711.44
361.843	685.44
362.07	683.44
362.296	688.44
362.523	691.44
362.749	695.44
362.976	706.44
363.203	681.44
363.429	678.44
363.656	699.44
363.882	685.44
364.109	729.44
364.335	691.44
364.562	706.44
364.788	702.44
365.015	677.44
365.241	683.44
365.468	705.44
365.694	699.44
365.92	696.44
366.147	697.44
366.373	692.44
366.599	681.44
366.826	697.44
367.052	705.44
367.278	699.44
367.505	709.44
367.731	710.44
367.957	710.44
368.184	707.44
368.41	676.44
368.636	681.44
368.862	697.44
369.089	711.44
369.315	710.44
369.541	721.44
369.767	698.44
369.993	714.44
370.219	721.44
370.445	746.44
370.672	747.44
370.898	740.44
371.124	747.44
371.35	774.44
371.576	769.44
371.802	768.44
372.028	715.44
372.254	788.44
372.48	785.44
372.706	756.44
372.932	782.44
373.158	806.44
373.384	797.44
373.61	771.44
373.835	747.44
374.061	741.44
374.287	773.44
374.513	764.44
374.739	777.44
374.965	843.44
375.191	856.44
375.416	874.44
375.642	820.44
375.868	836.44
376.094	779.44
376.319	786.44
376.545	795.44
376.771	759.44
376.997	779.44
377.222	771.44
377.448	755.44
377.674	789.44
377.899	761.44
378.125	750.44
378.35	771.44
378.576	733.44
378.802	738.44
379.027	734.44
379.253	777.44
379.478	765.44
379.704	753.44
379.929	758.44
380.155	749.44
380.38	768.44
380.606	746.44
380.831	738.44
381.057	750.44
381.282	746.44
381.507	750.44
381.733	758.44
381.958	767.44
382.184	780.44
382.409	771.44
382.634	797.44
382.86	807.44
383.085	791.44
383.31	806.44
383.535	833.44
383.761	847.44
383.986	852.44
384.211	872.44
384.436	900.44
384.662	899.44
384.887	914.44
385.112	923.44
385.337	929.44
385.562	912.44
385.787	925.44
386.013	917.44
386.238	938.44
386.463	928.44
386.688	921.44
386.913	930.44
387.138	918.44
387.363	913.44
387.588	905.44
387.813	906.44
388.038	902.44
388.263	907.44
388.488	894.44
388.713	889.44
388.938	901.44
389.163	888.44
389.387	869.44
389.612	874.44
389.837	875.44
390.062	902.44
390.287	903.44
390.512	881.44
390.736	901.44
390.961	942.44
391.186	918.44
391.411	970.44
391.636	1020.44
391.86	1035.44
392.085	1049.44
392.31	1042.44
392.534	1031.44
392.759	1012.44
392.984	960.44
393.208	966.44
393.433	963.44
393.658	975.44
393.882	981.44
394.107	983.44
394.331	973.44
394.556	981.44
394.78	978.44
395.005	994.44
395.229	985.44
395.454	1032.44
395.678	1047.44
395.903	1055.44
396.127	1047.44
396.352	979.44
396.576	974.44
396.801	966.44
397.025	991.44
397.249	1007.44
397.474	1031.44
397.698	1031.44
397.922	1059.44
398.147	1001.44
398.371	1039.44
398.595	1077.44
398.82	1158.44
399.044	1225.44
399.268	1361.44
399.492	1537.44
399.717	1841.44
399.941	1839.44
400.165	1626.44
400.389	1446.44
400.613	1282.44
400.837	1223.44
401.062	1157.44
401.286	1135.44
401.51	1154.44
401.734	1129.44
401.958	1137.44
402.182	1160.44
402.406	1181.44
402.63	1198.44
402.854	1252.44
403.078	1262.44
403.302	1294.44
403.526	1313.44
403.75	1346.44
403.974	1355.44
404.198	1368.44
404.422	1338.44
404.645	1336.44
404.869	1328.44
405.093	1336.44
405.317	1321.44
405.541	1302.44
405.765	1308.44
405.988	1286.44
406.212	1308.44
406.436	1285.44
406.66	1299.44
406.883	1305.44
407.107	1395.44
407.331	1461.44
407.555	1563.44
407.778	1498.44
408.002	1480.44
408.226	1422.44
408.449	1391.44
408.673	1329.44
408.896	1376.44
409.12	1307.44
409.344	1335.44
409.567	1347.44
409.791	1340.44
410.014	1336.44
410.238	1318.44
410.461	1315.44
410.685	1310.44
410.908	1302.44
411.132	1242.44
411.355	1201.44
411.578	1209.44
411.802	1170.44
412.025	1208.44
412.249	1230.44
412.472	1250.44
412.695	1227.44
412.919	1172.44
413.142	1149.44
413.365	1149.44
413.589	1199.44
413.812	1139.44
414.035	1124.44
414.258	1130.44
414.482	1169.44
414.705	1209.44
414.928	1186.44
415.151	1167.44
415.374	1194.44
415.597	1161.44
415.821	1145.44
416.044	1118.44
416.267	1121.44
416.49	1118.44
416.713	1129.44
416.936	1133.44
417.159	1175.44
417.382	1121.44
417.605	1147.44
417.828	1138.44
418.051	1161.44
418.274	1180.44
418.497	1155.44
418.72	1224.44
418.943	1195.44
419.166	1257.44
419.389	1368.44
419.611	1348.44
419.834	1235.44
420.057	1211.44
420.28	1194.44
420.503	1172.44
420.726	1139.44
420.948	1135.44
421.171	1143.44
421.394	1143.44
421.617	1167.44
421.839	1143.44
422.062	1165.44
422.285	1163.44
422.507	1179.44
422.73	1166.44
422.953	1181.44
423.175	1218.44
423.398	1271.44
423.621	1255.44
423.843	1257.44
424.066	1282.44
424.288	1205.44
424.511	1229.44
424.733	1212.44
424.956	1224.44
425.178	1169.44
425.401	1189.44
425.623	1181.44
425.846	1113.44
426.068	1114.44
426.291	1125.44
426.513	1100.44
426.735	1078.44
426.958	1084.44
427.18	1074.44
427.402	1088.44
427.625	1072.44
427.847	1017.44
428.069	1016.44
428.292	1065.44
428.514	1014.44
428.736	1019.44
428.958	1034.44
429.181	1013.44
429.403	1002.44
429.625	986.44
429.847	995.44
430.069	1026.44
430.292	1020.44
430.514	1024.44
430.736	1011.44
430.958	1029.44
431.18	989.44
431.402	1002.44
431.624	1035.44
431.846	1044.44
432.068	1012.44
432.29	1057.44
432.512	1014.44
432.734	1035.44
432.956	1025.44
433.178	1010.44
433.4	1028.44
433.622	1056.44
433.844	1055.44
434.066	1051.44
434.287	1081.44
434.509	1118.44
434.731	1141.44
434.953	1158.44
435.175	1164.44
435.397	1194.44
435.618	1114.44
435.84	1108.44
436.062	1067.44
436.284	1041.44
436.505	1020.44
436.727	1038.44
436.949	1053.44
437.17	1014.44
437.392	1023.44
437.614	1035.44
437.835	995.44
438.057	992.44
438.278	1007.44
438.5	1014.44
438.721	991.44
438.943	1017.44
439.165	1003.44
439.386	1013.44
439.608	1061.44
439.829	1048.44
440.05	1039.44
440.272	1013.44
440.493	1042.44
440.715	1033.44
440.936	1082.44
441.158	1096.44
441.379	1091.44
441.6	1167.44
441.822	1201.44
442.043	1210.44
442.264	1129.44
442.486	1155.44
442.707	1157.44
442.928	1155.44
443.149	1156.44
443.371	1130.44
443.592	1149.44
443.813	1183.44
444.034	1177.44
444.255	1232.44
444.476	1275.44
444.698	1352.44
444.919	1455.44
445.14	1509.44
445.361	1346.44
445.582	1226.44
445.803	1155.44
446.024	1102.44
446.245	1085.44
446.466	1096.44
446.687	1034.44
446.908	1040.44
447.129	1036.44
447.35	1016.44
447.571	1002.44
447.792	994.44
448.013	986.44
448.234	966.44
448.455	968.44
448.675	955.44
448.896	952.44
449.117	933.44
449.338	947.44
449.559	939.44
449.779	947.44
450	943.44
450.221	962.44
450.442	970.44
450.662	958.44
450.883	991.44
451.104	1007.44
451.324	976.44
451.545	990.44
451.766	979.44
451.986	952.44
452.207	951.44
452.428	946.44
452.648	942.44
452.869	927.44
453.089	966.44
453.31	938.44
453.53	931.44
453.751	916.44
453.971	914.44
454.192	931.44
454.412	902.44
454.633	913.44
454.853	936.44
455.073	879.44
455.294	877.44
455.514	884.44
455.734	890.44
455.955	864.44
456.175	877.44
456.395	897.44
456.616	888.44
456.836	897.44
457.056	862.44
457.276	847.44
457.497	874.44
457.717	911.44
457.937	907.44
458.157	900.44
458.377	897.44
458.598	924.44
458.818	958.44
459.038	942.44
459.258	1026.44
459.478	1082.44
459.698	1069.44
459.918	1102.44
460.138	1151.44
460.358	1232.44
460.578	1256.44
460.798	1238.44
461.018	1274.44
461.238	1220.44
461.458	1227.44
461.678	1239.44
461.898	1224.44
462.118	1256.44
462.338	1295.44
462.558	1375.44
462.777	1410.44
462.997	1567.44
463.217	1726.44
463.437	1716.44
463.657	1588.44
463.876	1501.44
464.096	1497.44
464.316	1482.44
464.536	1472.44
464.755	1425.44
464.975	1361.44
465.195	1287.44
465.414	1233.44
465.634	1113.44
465.854	1102.44
466.073	1078.44
466.293	1052.44
466.512	1037.44
466.732	1033.44
466.951	985.44
467.171	1017.44
467.391	1021.44
467.61	998.44
467.829	1010.44
468.049	986.44
468.268	982.44
468.488	953.44
468.707	958.44
468.927	921.44
469.146	975.44
469.365	969.44
469.585	965.44
469.804	1001.44
470.023	1014.44
470.243	1018.44
470.462	1035.44
470.681	1065.44
470.901	1053.44
471.12	1051.44
471.339	1028.44
471.558	1009.44
471.777	1006.44
471.997	957.44
472.216	943.44
472.435	968.44
472.654	950.44
472.873	944.44
473.092	951.44
473.311	903.44
473.53	928.44
473.749	912.44
473.968	927.44
474.187	917.44
474.406	919.44
474.625	913.44
474.844	935.44
475.063	962.44
475.282	920.44
475.501	959.44
475.72	942.44
475.939	972.44
476.158	985.44
476.377	994.44
476.596	975.44
476.814	996.44
477.033	1006.44
477.252	1009.44
477.471	1037.44
477.69	1075.44
477.908	1099.44
478.127	1094.44
478.346	1125.44
478.564	1118.44
478.783	1137.44
479.002	1213.44
479.22	1167.44
479.439	1232.44
479.658	1188.44
479.876	1173.44
480.095	1178.44
480.313	1241.44
480.532	1309.44
480.751	1286.44
480.969	1238.44
481.188	1163.44
481.406	1137.44
481.624	1124.44
481.843	1061.44
482.061	1096.44
482.28	1078.44
482.498	1066.44
482.717	1063.44
482.935	1102.44
483.153	1076.44
483.372	1099.44
483.59	1081.44
483.808	1078.44
484.027	1067.44
484.245	1086.44
484.463	1080.44
484.681	1108.44
484.9	1090.44
485.118	1113.44
485.336	1141.44
485.554	1102.44
485.772	1118.44
485.99	1144.44
486.209	1176.44
486.427	1148.44
486.645	1131.44
486.863	1151.44
487.081	1136.44
487.299	1127.44
487.517	1104.44
487.735	1149.44
487.953	1100.44
488.171	1149.44
488.389	1116.44
488.607	1120.44
488.825	1078.44
489.043	1100.44
489.261	1124.44
489.479	1113.44
489.696	1077.44
489.914	1158.44
490.132	1149.44
490.35	1111.44
490.568	1123.44
490.786	1141.44
491.003	1119.44
491.221	1130.44
491.439	1131.44
491.657	1123.44
491.874	1128.44
492.092	1137.44
492.31	1150.44
492.527	1167.44
492.745	1122.44
492.963	1167.44
493.18	1157.44
493.398	1140.44
493.615	1188.44
493.833	1155.44
494.05	1190.44
494.268	1182.44
494.485	1178.44
494.703	1151.44
494.92	1214.44
495.138	1193.44
495.355	1176.44
495.573	1207.44
495.79	1180.44
496.008	1185.44
496.225	1198.44
496.442	1239.44
