Data from NiCl2@0.125M.TitratingCurve.Agarose3%dH2O.NegLispCup.LampEnergy10.LIBS07252019_HRD10591_18-27-49-574.txt Node
Date: Thu Jul 25 18:27:49 EDT 2019
User: cochatt
Spectrometer: HR+D1059
Trigger mode: 1
Integration Time (sec): 1.000000E-1
Scans to average: 1
Electric dark correction enabled: true
Nonlinearity correction enabled: false
Boxcar width: 0
XAxis mode: Wavelengths
Number of Pixels in Spectrum: 2048
>>>>>Begin Spectral Data<<<<<
223.165	-23.69
223.4	-23.69
223.635	-23.69
223.869	-21.69
224.104	-13.69
224.338	-7.69
224.573	-30.69
224.808	-9.69
225.042	-24.69
225.277	-9.69
225.511	1.31
225.746	-8.69
225.98	14.31
226.215	23.31
226.449	14.31
226.683	17.31
226.918	39.31
227.152	40.31
227.387	47.31
227.621	23.31
227.856	56.31
228.09	54.31
228.324	67.31
228.559	56.31
228.793	84.31
229.027	135.31
229.262	142.31
229.496	152.31
229.73	144.31
229.964	155.31
230.199	158.31
230.433	176.31
230.667	176.31
230.901	181.31
231.136	167.31
231.37	180.31
231.604	167.31
231.838	179.31
232.072	188.31
232.306	197.31
232.541	203.31
232.775	199.31
233.009	187.31
233.243	199.31
233.477	204.31
233.711	199.31
233.945	198.31
234.179	210.31
234.413	202.31
234.647	208.31
234.881	190.31
235.115	194.31
235.349	193.31
235.583	227.31
235.817	218.31
236.051	209.31
236.285	209.31
236.519	217.31
236.753	217.31
236.987	219.31
237.221	213.31
237.455	208.31
237.689	215.31
237.922	223.31
238.156	229.31
238.39	234.31
238.624	214.31
238.858	233.31
239.091	238.31
239.325	237.31
239.559	240.31
239.793	249.31
240.027	267.31
240.26	270.31
240.494	268.31
240.728	247.31
240.961	246.31
241.195	273.31
241.429	265.31
241.662	250.31
241.896	271.31
242.13	270.31
242.363	269.31
242.597	265.31
242.83	276.31
243.064	289.31
243.298	288.31
243.531	296.31
243.765	288.31
243.998	284.31
244.232	295.31
244.465	298.31
244.699	286.31
244.932	298.31
245.166	315.31
245.399	307.31
245.633	304.31
245.866	310.31
246.099	303.31
246.333	328.31
246.566	298.31
246.8	321.31
247.033	331.31
247.266	323.31
247.5	330.31
247.733	323.31
247.966	333.31
248.2	338.31
248.433	338.31
248.666	331.31
248.899	340.31
249.133	348.31
249.366	358.31
249.599	360.31
249.832	357.31
250.066	342.31
250.299	371.31
250.532	356.31
250.765	367.31
250.998	373.31
251.231	377.31
251.465	385.31
251.698	385.31
251.931	386.31
252.164	377.31
252.397	381.31
252.63	412.31
252.863	397.31
253.096	426.31
253.329	400.31
253.562	404.31
253.795	396.31
254.028	402.31
254.261	398.31
254.494	417.31
254.727	405.31
254.96	400.31
255.193	391.31
255.426	415.31
255.659	397.31
255.892	407.31
256.124	431.31
256.357	421.31
256.59	431.31
256.823	400.31
257.056	428.31
257.289	412.31
257.521	451.31
257.754	436.31
257.987	414.31
258.22	417.31
258.452	452.31
258.685	445.31
258.918	458.31
259.151	443.31
259.383	439.31
259.616	428.31
259.849	450.31
260.081	460.31
260.314	468.31
260.547	445.31
260.779	473.31
261.012	465.31
261.244	469.31
261.477	499.31
261.71	473.31
261.942	470.31
262.175	484.31
262.407	475.31
262.64	487.31
262.872	491.31
263.105	505.31
263.337	487.31
263.57	515.31
263.802	506.31
264.035	492.31
264.267	508.31
264.499	500.31
264.732	508.31
264.964	507.31
265.197	512.31
265.429	514.31
265.661	515.31
265.894	521.31
266.126	547.31
266.358	544.31
266.591	528.31
266.823	535.31
267.055	530.31
267.287	541.31
267.52	519.31
267.752	542.31
267.984	553.31
268.216	552.31
268.448	556.31
268.681	557.31
268.913	562.31
269.145	552.31
269.377	537.31
269.609	577.31
269.841	544.31
270.073	555.31
270.306	560.31
270.538	579.31
270.77	555.31
271.002	566.31
271.234	567.31
271.466	590.31
271.698	579.31
271.93	558.31
272.162	582.31
272.394	587.31
272.626	577.31
272.858	595.31
273.09	620.31
273.322	615.31
273.553	620.31
273.785	600.31
274.017	622.31
274.249	590.31
274.481	610.31
274.713	616.31
274.945	608.31
275.176	599.31
275.408	629.31
275.64	617.31
275.872	616.31
276.104	651.31
276.335	649.31
276.567	636.31
276.799	642.31
277.031	649.31
277.262	643.31
277.494	659.31
277.726	631.31
277.957	628.31
278.189	649.31
278.421	670.31
278.652	677.31
278.884	669.31
279.115	678.31
279.347	677.31
279.579	677.31
279.81	680.31
280.042	655.31
280.273	693.31
280.505	692.31
280.736	685.31
280.968	695.31
281.199	677.31
281.431	687.31
281.662	715.31
281.894	680.31
282.125	679.31
282.356	713.31
282.588	704.31
282.819	687.31
283.051	717.31
283.282	728.31
283.513	696.31
283.745	718.31
283.976	724.31
284.207	705.31
284.439	740.31
284.67	717.31
284.901	735.31
285.132	769.31
285.364	728.31
285.595	726.31
285.826	732.31
286.057	747.31
286.288	749.31
286.52	748.31
286.751	796.31
286.982	775.31
287.213	767.31
287.444	757.31
287.675	799.31
287.906	805.31
288.138	779.31
288.369	778.31
288.6	761.31
288.831	767.31
289.062	769.31
289.293	782.31
289.524	770.31
289.755	783.31
289.986	788.31
290.217	797.31
290.448	798.31
290.679	794.31
290.91	801.31
291.141	809.31
291.371	815.31
291.602	805.31
291.833	790.31
292.064	804.31
292.295	801.31
292.526	799.31
292.757	809.31
292.987	784.31
293.218	808.31
293.449	798.31
293.68	813.31
293.91	801.31
294.141	810.31
294.372	795.31
294.603	812.31
294.833	816.31
295.064	812.31
295.295	839.31
295.525	807.31
295.756	837.31
295.987	783.31
296.217	835.31
296.448	829.31
296.679	824.31
296.909	843.31
297.14	854.31
297.37	846.31
297.601	864.31
297.831	848.31
298.062	869.31
298.292	887.31
298.523	908.31
298.753	905.31
298.984	899.31
299.214	871.31
299.445	855.31
299.675	893.31
299.905	893.31
300.136	887.31
300.366	869.31
300.597	878.31
300.827	885.31
301.057	931.31
301.288	913.31
301.518	908.31
301.748	917.31
301.979	908.31
302.209	930.31
302.439	928.31
302.669	918.31
302.9	916.31
303.13	885.31
303.36	895.31
303.59	919.31
303.82	902.31
304.051	902.31
304.281	903.31
304.511	880.31
304.741	890.31
304.971	897.31
305.201	910.31
305.431	911.31
305.661	896.31
305.891	900.31
306.121	883.31
306.352	894.31
306.582	870.31
306.812	896.31
307.042	883.31
307.272	898.31
307.502	899.31
307.731	875.31
307.961	872.31
308.191	877.31
308.421	894.31
308.651	880.31
308.881	870.31
309.111	879.31
309.341	858.31
309.571	890.31
309.8	881.31
310.03	893.31
310.26	888.31
310.49	885.31
310.72	926.31
310.949	910.31
311.179	899.31
311.409	937.31
311.639	913.31
311.868	908.31
312.098	911.31
312.328	931.31
312.557	953.31
312.787	902.31
313.017	928.31
313.246	957.31
313.476	923.31
313.706	950.31
313.935	987.31
314.165	980.31
314.394	978.31
314.624	949.31
314.853	948.31
315.083	966.31
315.312	955.31
315.542	968.31
315.771	942.31
316.001	942.31
316.23	936.31
316.46	957.31
316.689	949.31
316.919	945.31
317.148	947.31
317.377	915.31
317.607	934.31
317.836	931.31
318.065	928.31
318.295	954.31
318.524	965.31
318.753	913.31
318.983	929.31
319.212	924.31
319.441	934.31
319.67	950.31
319.9	923.31
320.129	941.31
320.358	954.31
320.587	918.31
320.816	958.31
321.046	952.31
321.275	935.31
321.504	944.31
321.733	952.31
321.962	981.31
322.191	957.31
322.42	953.31
322.649	952.31
322.878	954.31
323.108	963.31
323.337	967.31
323.566	1003.31
323.795	989.31
324.024	991.31
324.253	931.31
324.482	971.31
324.71	1007.31
324.939	1004.31
325.168	980.31
325.397	989.31
325.626	988.31
325.855	1013.31
326.084	1032.31
326.313	1048.31
326.542	1020.31
326.77	1052.31
326.999	1019.31
327.228	1018.31
327.457	1038.31
327.686	1027.31
327.914	1003.31
328.143	1032.31
328.372	1009.31
328.6	1025.31
328.829	1052.31
329.058	1056.31
329.287	1024.31
329.515	1043.31
329.744	1041.31
329.972	1046.31
330.201	1071.31
330.43	1084.31
330.658	1070.31
330.887	1027.31
331.115	1071.31
331.344	1104.31
331.572	1099.31
331.801	1114.31
332.03	1124.31
332.258	1176.31
332.486	1225.31
332.715	1254.31
332.943	1302.31
333.172	1347.31
333.4	1423.31
333.629	1463.31
333.857	1476.31
334.085	1441.31
334.314	1351.31
334.542	1357.31
334.771	1358.31
334.999	1302.31
335.227	1304.31
335.455	1315.31
335.684	1298.31
335.912	1292.31
336.14	1257.31
336.369	1232.31
336.597	1252.31
336.825	1284.31
337.053	1231.31
337.281	1199.31
337.51	1183.31
337.738	1187.31
337.966	1151.31
338.194	1134.31
338.422	1122.31
338.65	1112.31
338.878	1126.31
339.106	1154.31
339.334	1142.31
339.562	1128.31
339.79	1089.31
340.018	1112.31
340.246	1080.31
340.474	1077.31
340.702	1048.31
340.93	1089.31
341.158	1116.31
341.386	1091.31
341.614	1069.31
341.842	1070.31
342.07	1077.31
342.298	1077.31
342.526	1064.31
342.754	1070.31
342.981	1075.31
343.209	1105.31
343.437	1142.31
343.665	1226.31
343.893	1327.31
344.12	1388.31
344.348	1301.31
344.576	1244.31
344.804	1197.31
345.031	1149.31
345.259	1112.31
345.487	1089.31
345.714	1062.31
345.942	1088.31
346.17	1047.31
346.397	1032.31
346.625	1032.31
346.853	1043.31
347.08	1019.31
347.308	1035.31
347.535	1053.31
347.763	1065.31
347.99	1069.31
348.218	1046.31
348.445	1035.31
348.673	1040.31
348.9	1033.31
349.128	1048.31
349.355	1015.31
349.583	1050.31
349.81	1013.31
350.037	1012.31
350.265	991.31
350.492	1005.31
350.72	985.31
350.947	991.31
351.174	1008.31
351.402	1019.31
351.629	999.31
351.856	983.31
352.083	976.31
352.311	993.31
352.538	996.31
352.765	985.31
352.992	981.31
353.22	967.31
353.447	979.31
353.674	1004.31
353.901	988.31
354.128	969.31
354.355	1006.31
354.583	998.31
354.81	964.31
355.037	994.31
355.264	1000.31
355.491	984.31
355.718	1021.31
355.945	1013.31
356.172	1031.31
356.399	1000.31
356.626	1010.31
356.853	1007.31
357.08	1015.31
357.307	1014.31
357.534	982.31
357.761	1033.31
357.988	1008.31
358.215	1012.31
358.441	991.31
358.668	992.31
358.895	979.31
359.122	1023.31
359.349	1003.31
359.576	1011.31
359.802	991.31
360.029	1004.31
360.256	990.31
360.483	993.31
360.709	993.31
360.936	995.31
361.163	1013.31
361.39	999.31
361.616	979.31
361.843	987.31
362.07	1001.31
362.296	1013.31
362.523	1000.31
362.749	996.31
362.976	988.31
363.203	1001.31
363.429	1021.31
363.656	976.31
363.882	1007.31
364.109	1027.31
364.335	980.31
364.562	973.31
364.788	980.31
365.015	1020.31
365.241	986.31
365.468	987.31
365.694	974.31
365.92	963.31
366.147	994.31
366.373	968.31
366.599	991.31
366.826	967.31
367.052	967.31
367.278	986.31
367.505	1001.31
367.731	1020.31
367.957	1011.31
368.184	1005.31
368.41	1013.31
368.636	1008.31
368.862	1020.31
369.089	1048.31
369.315	1020.31
369.541	1045.31
369.767	1039.31
369.993	1023.31
370.219	1054.31
370.445	1054.31
370.672	1047.31
370.898	1085.31
371.124	1090.31
371.35	1078.31
371.576	1093.31
371.802	1076.31
372.028	1087.31
372.254	1070.31
372.48	1081.31
372.706	1103.31
372.932	1159.31
373.158	1131.31
373.384	1124.31
373.61	1091.31
373.835	1075.31
374.061	1085.31
374.287	1094.31
374.513	1117.31
374.739	1155.31
374.965	1198.31
375.191	1253.31
375.416	1185.31
375.642	1175.31
375.868	1151.31
376.094	1126.31
376.319	1117.31
376.545	1111.31
376.771	1081.31
376.997	1075.31
377.222	1087.31
377.448	1066.31
377.674	1052.31
377.899	1089.31
378.125	1094.31
378.35	1067.31
378.576	1067.31
378.802	1076.31
379.027	1083.31
379.253	1082.31
379.478	1070.31
379.704	1091.31
379.929	1084.31
380.155	1085.31
380.38	1072.31
380.606	1072.31
380.831	1087.31
381.057	1104.31
381.282	1095.31
381.507	1114.31
381.733	1087.31
381.958	1095.31
382.184	1117.31
382.409	1099.31
382.634	1166.31
382.86	1120.31
383.085	1171.31
383.31	1171.31
383.535	1207.31
383.761	1220.31
383.986	1239.31
384.211	1241.31
384.436	1283.31
384.662	1309.31
384.887	1333.31
385.112	1320.31
385.337	1337.31
385.562	1337.31
385.787	1356.31
386.013	1364.31
386.238	1354.31
386.463	1363.31
386.688	1367.31
386.913	1320.31
387.138	1336.31
387.363	1270.31
387.588	1305.31
387.813	1310.31
388.038	1263.31
388.263	1307.31
388.488	1342.31
388.713	1310.31
388.938	1294.31
389.163	1297.31
389.387	1293.31
389.612	1269.31
389.837	1272.31
390.062	1267.31
390.287	1296.31
390.512	1307.31
390.736	1297.31
390.961	1361.31
391.186	1326.31
391.411	1408.31
391.636	1469.31
391.86	1518.31
392.085	1546.31
392.31	1516.31
392.534	1467.31
392.759	1435.31
392.984	1424.31
393.208	1383.31
393.433	1417.31
393.658	1440.31
393.882	1421.31
394.107	1391.31
394.331	1417.31
394.556	1403.31
394.78	1418.31
395.005	1427.31
395.229	1414.31
395.454	1492.31
395.678	1525.31
395.903	1493.31
396.127	1448.31
396.352	1435.31
396.576	1369.31
396.801	1391.31
397.025	1411.31
397.249	1453.31
397.474	1461.31
397.698	1495.31
397.922	1488.31
398.147	1452.31
398.371	1511.31
398.595	1599.31
398.82	1639.31
399.044	1785.31
399.268	1952.31
399.492	2311.31
399.717	2699.31
399.941	2699.31
400.165	2309.31
400.389	2022.31
400.613	1905.31
400.837	1755.31
401.062	1681.31
401.286	1692.31
401.51	1682.31
401.734	1657.31
401.958	1734.31
402.182	1703.31
402.406	1702.31
402.63	1751.31
402.854	1836.31
403.078	1854.31
403.302	1872.31
403.526	1952.31
403.75	1969.31
403.974	2024.31
404.198	2023.31
404.422	2043.31
404.645	1974.31
404.869	1933.31
405.093	1920.31
405.317	1903.31
405.541	1894.31
405.765	1892.31
405.988	1828.31
406.212	1857.31
406.436	1829.31
406.66	1890.31
406.883	1917.31
407.107	2065.31
407.331	2128.31
407.555	2252.31
407.778	2227.31
408.002	2149.31
408.226	2059.31
408.449	2061.31
408.673	1957.31
408.896	1891.31
409.12	1873.31
409.344	1899.31
409.567	1899.31
409.791	1913.31
410.014	1900.31
410.238	1851.31
410.461	1875.31
410.685	1859.31
410.908	1810.31
411.132	1782.31
411.355	1765.31
411.578	1753.31
411.802	1741.31
412.025	1752.31
412.249	1824.31
412.472	1756.31
412.695	1698.31
412.919	1684.31
413.142	1640.31
413.365	1646.31
413.589	1675.31
413.812	1679.31
414.035	1637.31
414.258	1651.31
414.482	1646.31
414.705	1733.31
414.928	1695.31
415.151	1681.31
415.374	1671.31
415.597	1669.31
415.821	1630.31
416.044	1651.31
416.267	1610.31
416.49	1637.31
416.713	1625.31
416.936	1624.31
417.159	1651.31
417.382	1599.31
417.605	1628.31
417.828	1658.31
418.051	1736.31
418.274	1711.31
418.497	1669.31
418.72	1684.31
418.943	1706.31
419.166	1843.31
419.389	1952.31
419.611	1869.31
419.834	1802.31
420.057	1731.31
420.28	1653.31
420.503	1663.31
420.726	1637.31
420.948	1667.31
421.171	1634.31
421.394	1680.31
421.617	1643.31
421.839	1629.31
422.062	1681.31
422.285	1634.31
422.507	1654.31
422.73	1686.31
422.953	1712.31
423.175	1761.31
423.398	1779.31
423.621	1757.31
423.843	1775.31
424.066	1823.31
424.288	1776.31
424.511	1761.31
424.733	1728.31
424.956	1730.31
425.178	1720.31
425.401	1657.31
425.623	1681.31
425.846	1620.31
426.068	1627.31
426.291	1575.31
426.513	1534.31
426.735	1504.31
426.958	1552.31
427.18	1483.31
427.402	1482.31
427.625	1502.31
427.847	1465.31
428.069	1480.31
428.292	1489.31
428.514	1425.31
428.736	1442.31
428.958	1479.31
429.181	1407.31
429.403	1405.31
429.625	1424.31
429.847	1401.31
430.069	1420.31
430.292	1424.31
430.514	1368.31
430.736	1383.31
430.958	1421.31
431.18	1390.31
431.402	1427.31
431.624	1441.31
431.846	1457.31
432.068	1472.31
432.29	1471.31
432.512	1388.31
432.734	1466.31
432.956	1454.31
433.178	1446.31
433.4	1455.31
433.622	1489.31
433.844	1452.31
434.066	1490.31
434.287	1480.31
434.509	1514.31
434.731	1570.31
434.953	1637.31
435.175	1645.31
435.397	1669.31
435.618	1556.31
435.84	1489.31
436.062	1489.31
436.284	1456.31
436.505	1468.31
436.727	1444.31
436.949	1466.31
437.17	1441.31
437.392	1439.31
437.614	1400.31
437.835	1386.31
438.057	1382.31
438.278	1383.31
438.5	1386.31
438.721	1375.31
438.943	1390.31
439.165	1426.31
439.386	1379.31
439.608	1417.31
439.829	1431.31
440.05	1416.31
440.272	1461.31
440.493	1482.31
440.715	1476.31
440.936	1499.31
441.158	1521.31
441.379	1562.31
441.6	1641.31
441.822	1700.31
442.043	1711.31
442.264	1638.31
442.486	1626.31
442.707	1629.31
442.928	1591.31
443.149	1617.31
443.371	1660.31
443.592	1661.31
443.813	1643.31
444.034	1669.31
444.255	1718.31
444.476	1794.31
444.698	1941.31
444.919	2055.31
445.14	2067.31
445.361	1818.31
445.582	1740.31
445.803	1591.31
446.024	1552.31
446.245	1524.31
446.466	1477.31
446.687	1464.31
446.908	1478.31
447.129	1435.31
447.35	1425.31
447.571	1378.31
447.792	1333.31
448.013	1365.31
448.234	1360.31
448.455	1351.31
448.675	1309.31
448.896	1341.31
449.117	1320.31
449.338	1334.31
449.559	1293.31
449.779	1300.31
450	1293.31
450.221	1280.31
450.442	1348.31
450.662	1325.31
450.883	1347.31
451.104	1403.31
451.324	1369.31
451.545	1365.31
451.766	1364.31
451.986	1324.31
452.207	1300.31
452.428	1305.31
452.648	1308.31
452.869	1315.31
453.089	1295.31
453.31	1299.31
453.53	1270.31
453.751	1293.31
453.971	1253.31
454.192	1256.31
454.412	1267.31
454.633	1252.31
454.853	1241.31
455.073	1259.31
455.294	1259.31
455.514	1237.31
455.734	1197.31
455.955	1185.31
456.175	1217.31
456.395	1200.31
456.616	1239.31
456.836	1281.31
457.056	1241.31
457.276	1195.31
457.497	1245.31
457.717	1246.31
457.937	1239.31
458.157	1226.31
458.377	1241.31
458.598	1311.31
458.818	1343.31
459.038	1377.31
459.258	1431.31
459.478	1465.31
459.698	1500.31
459.918	1535.31
460.138	1617.31
460.358	1735.31
460.578	1739.31
460.798	1725.31
461.018	1750.31
461.238	1734.31
461.458	1718.31
461.678	1685.31
461.898	1728.31
462.118	1748.31
462.338	1849.31
462.558	1921.31
462.777	1949.31
462.997	2194.31
463.217	2362.31
463.437	2405.31
463.657	2140.31
463.876	2022.31
464.096	1995.31
464.316	2032.31
464.536	2064.31
464.755	1980.31
464.975	1925.31
465.195	1775.31
465.414	1675.31
465.634	1555.31
465.854	1528.31
466.073	1500.31
466.293	1430.31
466.512	1433.31
466.732	1386.31
466.951	1402.31
467.171	1395.31
467.391	1391.31
467.61	1380.31
467.829	1386.31
468.049	1376.31
468.268	1335.31
468.488	1306.31
468.707	1331.31
468.927	1313.31
469.146	1327.31
469.365	1327.31
469.585	1389.31
469.804	1417.31
470.023	1427.31
470.243	1426.31
470.462	1429.31
470.681	1438.31
470.901	1451.31
471.12	1423.31
471.339	1415.31
471.558	1369.31
471.777	1336.31
471.997	1314.31
472.216	1344.31
472.435	1340.31
472.654	1313.31
472.873	1277.31
473.092	1310.31
473.311	1268.31
473.53	1285.31
473.749	1272.31
473.968	1298.31
474.187	1272.31
474.406	1263.31
474.625	1283.31
474.844	1261.31
475.063	1273.31
475.282	1281.31
475.501	1296.31
475.72	1293.31
475.939	1289.31
476.158	1327.31
476.377	1333.31
476.596	1350.31
476.814	1347.31
477.033	1353.31
477.252	1382.31
477.471	1429.31
477.69	1417.31
477.908	1508.31
478.127	1533.31
478.346	1554.31
478.564	1577.31
478.783	1613.31
479.002	1631.31
479.22	1636.31
479.439	1606.31
479.658	1595.31
479.876	1568.31
480.095	1615.31
480.313	1723.31
480.532	1753.31
480.751	1797.31
480.969	1624.31
481.188	1609.31
481.406	1576.31
481.624	1505.31
481.843	1494.31
482.061	1492.31
482.28	1468.31
482.498	1485.31
482.717	1453.31
482.935	1433.31
483.153	1430.31
483.372	1476.31
483.59	1461.31
483.808	1442.31
484.027	1438.31
484.245	1483.31
484.463	1466.31
484.681	1546.31
484.9	1501.31
485.118	1507.31
485.336	1504.31
485.554	1529.31
485.772	1473.31
485.99	1537.31
486.209	1504.31
486.427	1535.31
486.645	1537.31
486.863	1526.31
487.081	1509.31
487.299	1509.31
487.517	1514.31
487.735	1511.31
487.953	1507.31
488.171	1521.31
488.389	1521.31
488.607	1500.31
488.825	1498.31
489.043	1525.31
489.261	1502.31
489.479	1472.31
489.696	1548.31
489.914	1521.31
490.132	1545.31
490.35	1539.31
490.568	1504.31
490.786	1534.31
491.003	1498.31
491.221	1547.31
491.439	1551.31
491.657	1541.31
491.874	1521.31
